Data from Uncirc_1998_H10_HRD10591_00001.txt Node
Date: Wed Jan 03 11:25:25 EST 2024
User: Yrep
Spectrometer: HR+D1059
Trigger mode: 1
Integration Time (sec): 1.000000E-1
Scans to average: 1
Electric dark correction enabled: true
Nonlinearity correction enabled: false
Boxcar width: 0
XAxis mode: Wavelengths
Number of Pixels in Spectrum: 2048
>>>>>Begin Spectral Data<<<<<
223.165	-39
223.4	-39
223.635	-39
223.869	-12
224.104	-21
224.338	-18
224.573	-16
224.808	-4
225.042	6
225.277	-9
225.511	2
225.746	-6
225.98	5
226.215	16
226.449	10
226.683	29
226.918	29
227.152	28
227.387	37
227.621	38
227.856	35
228.09	48
228.324	47
228.559	56
228.793	47
229.027	55
229.262	64
229.496	77
229.73	62
229.964	74
230.199	73
230.433	68
230.667	81
230.901	80
231.136	62
231.37	76
231.604	78
231.838	70
232.072	76
232.306	74
232.541	90
232.775	68
233.009	78
233.243	76
233.477	84
233.711	81
233.945	86
234.179	67
234.413	75
234.647	86
234.881	76
235.115	87
235.349	76
235.583	81
235.817	76
236.051	65
236.285	76
236.519	74
236.753	73
236.987	65
237.221	69
237.455	85
237.689	73
237.922	83
238.156	67
238.39	76
238.624	89
238.858	62
239.091	91
239.325	86
239.559	89
239.793	83
240.027	88
240.26	76
240.494	72
240.728	88
240.961	71
241.195	78
241.429	72
241.662	77
241.896	77
242.13	78
242.363	82
242.597	83
242.83	77
243.064	89
243.298	83
243.531	79
243.765	77
243.998	84
244.232	59
244.465	79
244.699	81
244.932	73
245.166	71
245.399	79
245.633	76
245.866	79
246.099	73
246.333	70
246.566	82
246.8	81
247.033	84
247.266	87
247.5	68
247.733	75
247.966	75
248.2	77
248.433	88
248.666	81
248.899	95
249.133	89
249.366	94
249.599	89
249.832	81
250.066	84
250.299	83
250.532	70
250.765	80
250.998	89
251.231	82
251.465	79
251.698	79
251.931	77
252.164	73
252.397	84
252.63	74
252.863	76
253.096	68
253.329	78
253.562	75
253.795	87
254.028	88
254.261	70
254.494	71
254.727	73
254.96	73
255.193	80
255.426	78
255.659	82
255.892	84
256.124	81
256.357	91
256.59	82
256.823	80
257.056	89
257.289	71
257.521	78
257.754	73
257.987	72
258.22	79
258.452	94
258.685	89
258.918	78
259.151	82
259.383	83
259.616	76
259.849	73
260.081	87
260.314	83
260.547	87
260.779	76
261.012	73
261.244	84
261.477	83
261.71	80
261.942	98
262.175	103
262.407	92
262.64	72
262.872	98
263.105	82
263.337	85
263.57	79
263.802	78
264.035	91
264.267	80
264.499	77
264.732	88
264.964	81
265.197	75
265.429	83
265.661	80
265.894	72
266.126	77
266.358	82
266.591	84
266.823	85
267.055	86
267.287	79
267.52	89
267.752	75
267.984	76
268.216	84
268.448	89
268.681	88
268.913	86
269.145	85
269.377	88
269.609	80
269.841	75
270.073	87
270.306	83
270.538	93
270.77	78
271.002	80
271.234	86
271.466	96
271.698	85
271.93	82
272.162	98
272.394	91
272.626	91
272.858	71
273.09	93
273.322	73
273.553	101
273.785	87
274.017	84
274.249	77
274.481	76
274.713	81
274.945	85
275.176	84
275.408	65
275.64	80
275.872	91
276.104	74
276.335	80
276.567	110
276.799	103
277.031	108
277.262	92
277.494	85
277.726	87
277.957	86
278.189	92
278.421	74
278.652	72
278.884	76
279.115	93
279.347	85
279.579	99
279.81	83
280.042	81
280.273	83
280.505	79
280.736	91
280.968	88
281.199	80
281.431	89
281.662	92
281.894	95
282.125	88
282.356	109
282.588	108
282.819	93
283.051	88
283.282	79
283.513	84
283.745	91
283.976	87
284.207	91
284.439	89
284.67	84
284.901	95
285.132	88
285.364	92
285.595	89
285.826	76
286.057	101
286.288	87
286.52	90
286.751	86
286.982	87
287.213	84
287.444	88
287.675	93
287.906	96
288.138	88
288.369	93
288.6	87
288.831	81
289.062	90
289.293	84
289.524	101
289.755	82
289.986	106
290.217	106
290.448	87
290.679	84
290.91	77
291.141	86
291.371	76
291.602	91
291.833	80
292.064	74
292.295	84
292.526	87
292.757	93
292.987	74
293.218	78
293.449	89
293.68	92
293.91	96
294.141	79
294.372	89
294.603	79
294.833	85
295.064	97
295.295	90
295.525	84
295.756	97
295.987	113
296.217	119
296.448	118
296.679	102
296.909	89
297.14	75
297.37	80
297.601	82
297.831	94
298.062	90
298.292	87
298.523	91
298.753	86
298.984	95
299.214	85
299.445	84
299.675	102
299.905	94
300.136	92
300.366	94
300.597	93
300.827	88
301.057	98
301.288	100
301.518	85
301.748	85
301.979	85
302.209	82
302.439	90
302.669	92
302.9	85
303.13	87
303.36	77
303.59	100
303.82	105
304.051	95
304.281	89
304.511	94
304.741	85
304.971	76
305.201	92
305.431	77
305.661	85
305.891	92
306.121	97
306.352	94
306.582	91
306.812	74
307.042	81
307.272	86
307.502	96
307.731	86
307.961	85
308.191	87
308.421	89
308.651	88
308.881	86
309.111	89
309.341	95
309.571	97
309.8	95
310.03	85
310.26	84
310.49	111
310.72	90
310.949	102
311.179	100
311.409	89
311.639	110
311.868	97
312.098	102
312.328	115
312.557	90
312.787	98
313.017	96
313.246	85
313.476	94
313.706	68
313.935	88
314.165	98
314.394	78
314.624	89
314.853	98
315.083	98
315.312	86
315.542	91
315.771	83
316.001	82
316.23	87
316.46	106
316.689	89
316.919	81
317.148	86
317.377	84
317.607	89
317.836	93
318.065	104
318.295	78
318.524	87
318.753	95
318.983	106
319.212	93
319.441	106
319.67	96
319.9	89
320.129	89
320.358	90
320.587	100
320.816	93
321.046	86
321.275	94
321.504	87
321.733	97
321.962	106
322.191	103
322.42	115
322.649	105
322.878	111
323.108	113
323.337	118
323.566	123
323.795	137
324.024	210
324.253	357
324.482	760
324.71	1585
324.939	2086
325.168	757
325.397	217
325.626	128
325.855	111
326.084	115
326.313	133
326.542	137
326.77	218
326.999	427
327.228	902
327.457	1619
327.686	1288
327.914	360
328.143	217
328.372	180
328.6	114
328.829	109
329.058	117
329.287	96
329.515	103
329.744	88
329.972	104
330.201	105
330.43	122
330.658	124
330.887	133
331.115	103
331.344	111
331.572	102
331.801	96
332.03	102
332.258	104
332.486	97
332.715	90
332.943	88
333.172	86
333.4	89
333.629	97
333.857	88
334.085	99
334.314	99
334.542	97
334.771	113
334.999	102
335.227	106
335.455	105
335.684	93
335.912	83
336.14	104
336.369	91
336.597	93
336.825	91
337.053	94
337.281	94
337.51	85
337.738	96
337.966	100
338.194	115
338.422	118
338.65	112
338.878	96
339.106	81
339.334	97
339.562	90
339.79	97
340.018	85
340.246	100
340.474	89
340.702	105
340.93	93
341.158	95
341.386	98
341.614	92
341.842	89
342.07	97
342.298	87
342.526	78
342.754	89
342.981	104
343.209	72
343.437	103
343.665	85
343.893	89
344.12	95
344.348	89
344.576	91
344.804	94
345.031	84
345.259	92
345.487	81
345.714	87
345.942	105
346.17	97
346.397	84
346.625	86
346.853	103
347.08	99
347.308	96
347.535	94
347.763	94
347.99	102
348.218	97
348.445	101
348.673	95
348.9	100
349.128	90
349.355	100
349.583	96
349.81	89
350.037	93
350.265	98
350.492	97
350.72	88
350.947	104
351.174	102
351.402	95
351.629	92
351.856	90
352.083	93
352.311	88
352.538	96
352.765	109
352.992	104
353.22	92
353.447	103
353.674	104
353.901	98
354.128	99
354.355	101
354.583	106
354.81	87
355.037	81
355.264	89
355.491	97
355.718	101
355.945	103
356.172	101
356.399	106
356.626	91
356.853	84
357.08	69
357.307	89
357.534	93
357.761	100
357.988	96
358.215	88
358.441	100
358.668	98
358.895	102
359.122	90
359.349	92
359.576	91
359.802	108
360.029	94
360.256	110
360.483	71
360.709	89
360.936	92
361.163	84
361.39	92
361.616	83
361.843	88
362.07	96
362.296	105
362.523	83
362.749	92
362.976	95
363.203	87
363.429	79
363.656	97
363.882	94
364.109	100
364.335	102
364.562	79
364.788	88
365.015	90
365.241	85
365.468	110
365.694	112
365.92	86
366.147	81
366.373	88
366.599	98
366.826	87
367.052	91
367.278	108
367.505	90
367.731	100
367.957	88
368.184	95
368.41	97
368.636	113
368.862	112
369.089	89
369.315	80
369.541	89
369.767	76
369.993	98
370.219	100
370.445	94
370.672	96
370.898	66
371.124	79
371.35	86
371.576	96
371.802	80
372.028	86
372.254	96
372.48	81
372.706	84
372.932	89
373.158	78
373.384	75
373.61	89
373.835	92
374.061	83
374.287	89
374.513	92
374.739	87
374.965	78
375.191	84
375.416	85
375.642	80
375.868	94
376.094	91
376.319	78
376.545	95
376.771	97
376.997	81
377.222	86
377.448	87
377.674	88
377.899	81
378.125	87
378.35	76
378.576	82
378.802	90
379.027	87
379.253	73
379.478	91
379.704	96
379.929	91
380.155	88
380.38	95
380.606	89
380.831	83
381.057	103
381.282	92
381.507	103
381.733	97
381.958	92
382.184	87
382.409	110
382.634	113
382.86	100
383.085	98
383.31	106
383.535	97
383.761	98
383.986	89
384.211	98
384.436	99
384.662	102
384.887	93
385.112	105
385.337	109
385.562	105
385.787	110
386.013	96
386.238	119
386.463	112
386.688	107
386.913	101
387.138	105
387.363	102
387.588	104
387.813	105
388.038	109
388.263	111
388.488	119
388.713	89
388.938	92
389.163	91
389.387	85
389.612	95
389.837	105
390.062	102
390.287	85
390.512	93
390.736	101
390.961	96
391.186	91
391.411	86
391.636	94
391.86	89
392.085	80
392.31	88
392.534	89
392.759	84
392.984	80
393.208	98
393.433	95
393.658	84
393.882	78
394.107	78
394.331	85
394.556	92
394.78	90
395.005	78
395.229	93
395.454	85
395.678	81
395.903	90
396.127	80
396.352	74
396.576	85
396.801	93
397.025	96
397.249	83
397.474	74
397.698	89
397.922	83
398.147	81
398.371	72
398.595	83
398.82	73
399.044	76
399.268	88
399.492	88
399.717	86
399.941	88
400.165	101
400.389	74
400.613	90
400.837	100
401.062	97
401.286	74
401.51	93
401.734	92
401.958	101
402.182	117
402.406	121
402.63	109
402.854	92
403.078	88
403.302	97
403.526	90
403.75	97
403.974	85
404.198	87
404.422	98
404.645	86
404.869	99
405.093	104
405.317	84
405.541	109
405.765	111
405.988	122
406.212	150
406.436	180
406.66	134
406.883	106
407.107	85
407.331	89
407.555	106
407.778	92
408.002	94
408.226	75
408.449	83
408.673	95
408.896	106
409.12	90
409.344	84
409.567	75
409.791	100
410.014	94
410.238	85
410.461	87
410.685	92
410.908	100
411.132	102
411.355	93
411.578	88
411.802	98
412.025	77
412.249	89
412.472	87
412.695	88
412.919	92
413.142	89
413.365	86
413.589	90
413.812	78
414.035	97
414.258	93
414.482	97
414.705	87
414.928	93
415.151	88
415.374	93
415.597	82
415.821	84
416.044	78
416.267	86
416.49	90
416.713	88
416.936	88
417.159	98
417.382	93
417.605	102
417.828	105
418.051	75
418.274	93
418.497	86
418.72	100
418.943	89
419.166	77
419.389	79
419.611	78
419.834	97
420.057	96
420.28	78
420.503	65
420.726	88
420.948	80
421.171	94
421.394	94
421.617	85
421.839	87
422.062	74
422.285	81
422.507	101
422.73	104
422.953	109
423.175	106
423.398	81
423.621	82
423.843	84
424.066	96
424.288	80
424.511	78
424.733	95
424.956	108
425.178	100
425.401	98
425.623	105
425.846	97
426.068	99
426.291	85
426.513	87
426.735	94
426.958	84
427.18	102
427.402	137
427.625	152
427.847	117
428.069	95
428.292	77
428.514	74
428.736	78
428.958	86
429.181	93
429.403	75
429.625	90
429.847	78
430.069	96
430.292	89
430.514	97
430.736	106
430.958	88
431.18	77
431.402	89
431.624	80
431.846	86
432.068	86
432.29	91
432.512	85
432.734	86
432.956	92
433.178	92
433.4	90
433.622	76
433.844	85
434.066	87
434.287	89
434.509	97
434.731	103
434.953	88
435.175	84
435.397	85
435.618	81
435.84	93
436.062	117
436.284	104
436.505	97
436.727	95
436.949	105
437.17	85
437.392	104
437.614	93
437.835	98
438.057	110
438.278	102
438.5	113
438.721	117
438.943	85
439.165	77
439.386	96
439.608	89
439.829	108
440.05	104
440.272	130
440.493	91
440.715	86
440.936	86
441.158	90
441.379	81
441.6	89
441.822	98
442.043	100
442.264	102
442.486	94
442.707	85
442.928	107
443.149	98
443.371	127
443.592	106
443.813	105
444.034	103
444.255	105
444.476	81
444.698	86
444.919	85
445.14	120
445.361	125
445.582	119
445.803	134
446.024	140
446.245	132
446.466	125
446.687	88
446.908	92
447.129	94
447.35	84
447.571	103
447.792	102
448.013	98
448.234	100
448.455	103
448.675	109
448.896	112
449.117	105
449.338	105
449.559	157
449.779	132
450	102
450.221	95
450.442	95
450.662	89
450.883	99
451.104	104
451.324	98
451.545	95
451.766	91
451.986	88
452.207	96
452.428	86
452.648	90
452.869	106
453.089	102
453.31	113
453.53	93
453.751	86
453.971	79
454.192	89
454.412	94
454.633	85
454.853	101
455.073	104
455.294	97
455.514	108
455.734	89
455.955	86
456.175	90
456.395	62
456.616	76
456.836	81
457.056	90
457.276	97
457.497	78
457.717	90
457.937	93
458.157	87
458.377	89
458.598	104
458.818	131
459.038	150
459.258	116
459.478	86
459.698	91
459.918	85
460.138	89
460.358	79
460.578	76
460.798	93
461.018	80
461.238	90
461.458	89
461.678	92
461.898	85
462.118	77
462.338	98
462.558	81
462.777	84
462.997	86
463.217	81
463.437	80
463.657	76
463.876	81
464.096	68
464.316	94
464.536	97
464.755	97
464.975	105
465.195	149
465.414	148
465.634	98
465.854	96
466.073	82
466.293	89
466.512	86
466.732	83
466.951	90
467.171	95
467.391	83
467.61	100
467.829	91
468.049	79
468.268	85
468.488	97
468.707	91
468.927	91
469.146	90
469.365	83
469.585	88
469.804	87
470.023	88
470.243	93
470.462	96
470.681	83
470.901	89
471.12	92
471.339	80
471.558	93
471.777	97
471.997	87
472.216	99
472.435	105
472.654	81
472.873	85
473.092	100
473.311	96
473.53	87
473.749	82
473.968	87
474.187	105
474.406	97
474.625	95
474.844	91
475.063	83
475.282	93
475.501	79
475.72	94
475.939	86
476.158	91
476.377	93
476.596	86
476.814	88
477.033	98
477.252	86
477.471	85
477.69	107
477.908	80
478.127	76
478.346	84
478.564	88
478.783	91
479.002	97
479.22	88
479.439	85
479.658	101
479.876	88
480.095	84
480.313	82
480.532	90
480.751	84
480.969	96
481.188	118
481.406	109
481.624	92
481.843	93
482.061	83
482.28	96
482.498	84
482.717	104
482.935	83
483.153	88
483.372	88
483.59	84
483.808	82
484.027	80
484.245	96
484.463	100
484.681	101
484.9	90
485.118	94
485.336	94
485.554	110
485.772	102
485.99	98
486.209	90
486.427	109
486.645	98
486.863	99
487.081	98
487.299	80
487.517	101
487.735	92
487.953	68
488.171	82
488.389	81
488.607	104
488.825	101
489.043	87
489.261	103
489.479	84
489.696	80
489.914	103
490.132	82
490.35	102
490.568	100
490.786	79
491.003	94
491.221	85
491.439	92
491.657	98
491.874	83
492.092	88
492.31	91
492.527	80
492.745	96
492.963	80
493.18	81
493.398	74
493.615	88
493.833	103
494.05	98
494.268	94
494.485	96
494.703	96
494.92	88
495.138	76
495.355	94
495.573	87
495.79	99
496.008	92
496.225	95
496.442	83
496.66	98
496.877	83
497.094	95
497.312	90
497.529	73
497.746	83
497.963	93
498.181	88
498.398	101
498.615	88
498.832	109
499.049	91
499.267	104
499.484	86
499.701	93
499.918	94
500.135	92
500.352	96
500.569	74
500.786	87
501.003	98
501.22	86
501.437	97
501.654	94
501.871	103
502.088	99
502.305	93
502.522	96
502.739	90
502.956	92
503.172	97
503.389	85
503.606	98
503.823	106
504.04	103
504.256	106
504.473	83
504.69	98
504.907	93
505.123	90
505.34	96
505.557	92
505.773	90
505.99	97
506.207	89
506.423	90
506.64	89
506.856	88
507.073	84
507.289	82
507.506	97
507.722	100
507.939	90
508.155	90
508.372	85
508.588	89
508.805	97
509.021	94
509.238	92
509.454	89
509.67	96
509.887	97
510.103	116
510.319	204
510.536	664
510.752	1998
510.968	552
511.184	142
511.401	117
511.617	82
511.833	92
512.049	95
512.265	87
512.481	87
512.698	91
512.914	84
513.13	95
513.346	82
513.562	92
513.778	106
513.994	90
514.21	92
514.426	103
514.642	126
514.858	104
515.074	149
515.29	380
515.506	1256
515.721	457
515.937	147
516.153	98
516.369	99
516.585	94
516.801	101
517.016	100
517.232	103
517.448	91
517.664	72
517.879	94
518.095	95
518.311	98
518.527	93
518.742	85
518.958	95
519.173	85
519.389	101
519.605	97
519.82	96
520.036	98
520.251	111
520.467	104
520.682	103
520.898	127
521.113	112
521.329	123
521.544	192
521.76	477
521.975	2012
522.19	1196
522.406	279
522.621	117
522.836	99
523.052	96
523.267	92
523.482	97
523.698	104
523.913	120
524.128	95
524.343	74
524.559	74
524.774	87
524.989	84
525.204	102
525.419	104
525.634	97
525.849	93
526.064	88
526.28	85
526.495	98
526.71	86
526.925	80
527.14	87
527.355	75
527.57	82
527.785	105
527.999	94
528.214	95
528.429	89
528.644	79
528.859	103
529.074	101
529.289	127
529.503	169
529.718	107
529.933	88
530.148	91
530.363	102
530.577	92
530.792	85
531.007	81
531.221	81
531.436	82
531.651	94
531.865	89
532.08	96
532.295	91
532.509	84
532.724	88
532.938	75
533.153	101
533.367	87
533.582	81
533.796	85
534.011	88
534.225	95
534.44	78
534.654	84
534.868	73
535.083	86
535.297	86
535.511	102
535.726	100
535.94	105
536.154	87
536.369	93
536.583	93
536.797	86
537.011	77
537.225	81
537.44	92
537.654	100
537.868	83
538.082	89
538.296	93
538.51	87
538.724	90
538.938	97
539.153	88
539.367	105
539.581	90
539.795	93
540.009	83
540.222	90
540.436	78
540.65	77
540.864	81
541.078	96
541.292	90
541.506	78
541.72	92
541.934	78
542.147	102
542.361	81
542.575	76
542.789	89
543.002	91
543.216	112
543.43	96
543.644	96
543.857	71
544.071	82
544.285	85
544.498	98
544.712	93
544.925	95
545.139	81
545.352	80
545.566	88
545.779	88
545.993	77
546.206	84
546.42	83
546.633	87
546.847	93
547.06	77
547.274	84
547.487	87
547.7	92
547.914	97
548.127	94
548.34	90
548.554	79
548.767	92
548.98	90
549.193	90
549.407	89
549.62	81
549.833	89
550.046	96
550.259	94
550.473	91
550.686	85
550.899	90
551.112	88
551.325	76
551.538	88
551.751	80
551.964	95
552.177	98
552.39	84
552.603	94
552.816	94
553.029	98
553.242	89
553.455	99
553.667	87
553.88	91
554.093	96
554.306	95
554.519	92
554.732	94
554.944	91
555.157	97
555.37	77
555.583	98
555.795	82
556.008	101
556.221	84
556.433	93
556.646	101
556.859	90
557.071	85
557.284	104
557.496	81
557.709	93
557.921	81
558.134	98
558.346	98
558.559	90
558.771	86
558.984	61
559.196	80
559.409	91
559.621	95
559.833	69
560.046	85
560.258	82
560.47	79
560.683	93
560.895	94
561.107	102
561.32	95
561.532	84
561.744	84
561.956	93
562.168	110
562.381	94
562.593	94
562.805	104
563.017	97
563.229	84
563.441	78
563.653	81
563.865	87
564.077	70
564.289	82
564.501	87
564.713	89
564.925	95
565.137	105
565.349	97
565.561	88
565.773	82
565.985	70
566.197	75
566.408	95
566.62	98
566.832	93
567.044	96
567.255	96
567.467	84
567.679	79
567.891	89
568.102	80
568.314	84
568.526	96
568.737	95
568.949	90
569.161	80
569.372	88
569.584	78
569.795	73
570.007	111
570.218	214
570.43	128
570.641	96
570.853	76
571.064	78
571.276	85
571.487	85
571.698	78
571.91	89
572.121	88
572.333	91
572.544	80
572.755	108
572.966	105
573.178	91
573.389	82
573.6	81
573.811	94
574.023	94
574.234	81
574.445	90
574.656	80
574.867	88
575.078	99
575.289	89
575.501	88
575.712	92
575.923	97
576.134	95
576.345	88
576.556	107
576.767	90
576.978	82
577.188	90
577.399	79
577.61	85
577.821	96
578.032	109
578.243	268
578.454	694
578.665	198
578.875	97
579.086	83
579.297	86
579.508	70
579.718	87
579.929	94
580.14	74
580.35	83
580.561	99
580.772	84
580.982	77
581.193	87
581.403	76
581.614	93
581.825	88
582.035	90
582.246	101
582.456	80
582.667	70
582.877	89
583.087	88
583.298	97
583.508	93
583.719	87
583.929	82
584.139	77
584.35	84
584.56	84
584.77	85
584.981	90
