Data from Uncirc_1998_H10_HRD10591_00019.txt Node
Date: Wed Jan 03 11:25:28 EST 2024
User: Yrep
Spectrometer: HR+D1059
Trigger mode: 1
Integration Time (sec): 1.000000E-1
Scans to average: 1
Electric dark correction enabled: true
Nonlinearity correction enabled: false
Boxcar width: 0
XAxis mode: Wavelengths
Number of Pixels in Spectrum: 2048
>>>>>Begin Spectral Data<<<<<
223.165	-11.12
223.4	-11.12
223.635	-11.12
223.869	-14.12
224.104	-31.12
224.338	-22.12
224.573	-17.12
224.808	-20.12
225.042	-8.12
225.277	-0.12
225.511	-7.12
225.746	20.88
225.98	11.88
226.215	16.88
226.449	9.88
226.683	20.88
226.918	23.88
227.152	26.88
227.387	49.88
227.621	29.88
227.856	20.88
228.09	38.88
228.324	48.88
228.559	41.88
228.793	41.88
229.027	72.88
229.262	63.88
229.496	65.88
229.73	70.88
229.964	74.88
230.199	54.88
230.433	70.88
230.667	70.88
230.901	63.88
231.136	72.88
231.37	78.88
231.604	70.88
231.838	74.88
232.072	69.88
232.306	70.88
232.541	74.88
232.775	89.88
233.009	97.88
233.243	70.88
233.477	76.88
233.711	66.88
233.945	71.88
234.179	68.88
234.413	76.88
234.647	92.88
234.881	74.88
235.115	79.88
235.349	87.88
235.583	81.88
235.817	82.88
236.051	74.88
236.285	73.88
236.519	77.88
236.753	83.88
236.987	77.88
237.221	76.88
237.455	96.88
237.689	90.88
237.922	78.88
238.156	80.88
238.39	77.88
238.624	86.88
238.858	82.88
239.091	68.88
239.325	76.88
239.559	80.88
239.793	94.88
240.027	78.88
240.26	88.88
240.494	91.88
240.728	89.88
240.961	80.88
241.195	86.88
241.429	71.88
241.662	71.88
241.896	69.88
242.13	79.88
242.363	69.88
242.597	79.88
242.83	70.88
243.064	84.88
243.298	83.88
243.531	59.88
243.765	78.88
243.998	63.88
244.232	81.88
244.465	84.88
244.699	74.88
244.932	75.88
245.166	73.88
245.399	82.88
245.633	74.88
245.866	60.88
246.099	84.88
246.333	86.88
246.566	72.88
246.8	79.88
247.033	69.88
247.266	71.88
247.5	87.88
247.733	79.88
247.966	72.88
248.2	83.88
248.433	95.88
248.666	86.88
248.899	63.88
249.133	76.88
249.366	86.88
249.599	80.88
249.832	81.88
250.066	78.88
250.299	69.88
250.532	76.88
250.765	70.88
250.998	89.88
251.231	68.88
251.465	82.88
251.698	78.88
251.931	80.88
252.164	77.88
252.397	91.88
252.63	67.88
252.863	66.88
253.096	84.88
253.329	68.88
253.562	74.88
253.795	86.88
254.028	77.88
254.261	85.88
254.494	75.88
254.727	79.88
254.96	72.88
255.193	74.88
255.426	74.88
255.659	87.88
255.892	88.88
256.124	78.88
256.357	79.88
256.59	79.88
256.823	79.88
257.056	78.88
257.289	86.88
257.521	73.88
257.754	62.88
257.987	71.88
258.22	77.88
258.452	90.88
258.685	81.88
258.918	89.88
259.151	69.88
259.383	84.88
259.616	70.88
259.849	73.88
260.081	85.88
260.314	84.88
260.547	73.88
260.779	76.88
261.012	62.88
261.244	79.88
261.477	92.88
261.71	96.88
261.942	102.88
262.175	109.88
262.407	93.88
262.64	76.88
262.872	88.88
263.105	58.88
263.337	85.88
263.57	80.88
263.802	89.88
264.035	91.88
264.267	98.88
264.499	90.88
264.732	72.88
264.964	76.88
265.197	61.88
265.429	79.88
265.661	76.88
265.894	86.88
266.126	92.88
266.358	80.88
266.591	74.88
266.823	75.88
267.055	80.88
267.287	88.88
267.52	66.88
267.752	84.88
267.984	100.88
268.216	83.88
268.448	84.88
268.681	87.88
268.913	81.88
269.145	70.88
269.377	86.88
269.609	92.88
269.841	64.88
270.073	79.88
270.306	79.88
270.538	70.88
270.77	89.88
271.002	80.88
271.234	78.88
271.466	86.88
271.698	89.88
271.93	77.88
272.162	82.88
272.394	91.88
272.626	82.88
272.858	98.88
273.09	75.88
273.322	85.88
273.553	78.88
273.785	78.88
274.017	70.88
274.249	81.88
274.481	84.88
274.713	81.88
274.945	92.88
275.176	92.88
275.408	91.88
275.64	74.88
275.872	79.88
276.104	93.88
276.335	78.88
276.567	101.88
276.799	102.88
277.031	89.88
277.262	88.88
277.494	92.88
277.726	57.88
277.957	79.88
278.189	85.88
278.421	88.88
278.652	85.88
278.884	84.88
279.115	92.88
279.347	93.88
279.579	78.88
279.81	77.88
280.042	85.88
280.273	91.88
280.505	83.88
280.736	89.88
280.968	82.88
281.199	82.88
281.431	87.88
281.662	86.88
281.894	95.88
282.125	108.88
282.356	105.88
282.588	119.88
282.819	106.88
283.051	82.88
283.282	94.88
283.513	91.88
283.745	80.88
283.976	96.88
284.207	88.88
284.439	96.88
284.67	80.88
284.901	92.88
285.132	93.88
285.364	83.88
285.595	89.88
285.826	84.88
286.057	92.88
286.288	93.88
286.52	68.88
286.751	85.88
286.982	97.88
287.213	78.88
287.444	78.88
287.675	77.88
287.906	86.88
288.138	89.88
288.369	86.88
288.6	89.88
288.831	86.88
289.062	75.88
289.293	84.88
289.524	88.88
289.755	77.88
289.986	87.88
290.217	86.88
290.448	88.88
290.679	97.88
290.91	77.88
291.141	89.88
291.371	100.88
291.602	93.88
291.833	90.88
292.064	79.88
292.295	94.88
292.526	96.88
292.757	100.88
292.987	83.88
293.218	83.88
293.449	87.88
293.68	74.88
293.91	104.88
294.141	91.88
294.372	90.88
294.603	85.88
294.833	85.88
295.064	86.88
295.295	80.88
295.525	80.88
295.756	98.88
295.987	109.88
296.217	122.88
296.448	120.88
296.679	92.88
296.909	81.88
297.14	81.88
297.37	71.88
297.601	86.88
297.831	88.88
298.062	89.88
298.292	97.88
298.523	91.88
298.753	91.88
298.984	72.88
299.214	90.88
299.445	88.88
299.675	83.88
299.905	99.88
300.136	72.88
300.366	94.88
300.597	89.88
300.827	98.88
301.057	90.88
301.288	100.88
301.518	63.88
301.748	95.88
301.979	96.88
302.209	101.88
302.439	83.88
302.669	97.88
302.9	90.88
303.13	88.88
303.36	98.88
303.59	87.88
303.82	101.88
304.051	104.88
304.281	92.88
304.511	89.88
304.741	84.88
304.971	76.88
305.201	84.88
305.431	93.88
305.661	85.88
305.891	90.88
306.121	98.88
306.352	99.88
306.582	99.88
306.812	92.88
307.042	89.88
307.272	91.88
307.502	97.88
307.731	105.88
307.961	89.88
308.191	93.88
308.421	97.88
308.651	92.88
308.881	93.88
309.111	99.88
309.341	83.88
309.571	91.88
309.8	73.88
310.03	92.88
310.26	88.88
310.49	95.88
310.72	97.88
310.949	89.88
311.179	100.88
311.409	88.88
311.639	79.88
311.868	82.88
312.098	84.88
312.328	105.88
312.557	87.88
312.787	77.88
313.017	80.88
313.246	84.88
313.476	86.88
313.706	89.88
313.935	88.88
314.165	80.88
314.394	81.88
314.624	97.88
314.853	113.88
315.083	93.88
315.312	90.88
315.542	77.88
315.771	93.88
316.001	77.88
316.23	87.88
316.46	87.88
316.689	80.88
316.919	82.88
317.148	94.88
317.377	84.88
317.607	80.88
317.836	81.88
318.065	88.88
318.295	86.88
318.524	89.88
318.753	92.88
318.983	87.88
319.212	98.88
319.441	114.88
319.67	99.88
319.9	92.88
320.129	88.88
320.358	87.88
320.587	104.88
320.816	94.88
321.046	86.88
321.275	87.88
321.504	99.88
321.733	101.88
321.962	98.88
322.191	101.88
322.42	93.88
322.649	96.88
322.878	111.88
323.108	116.88
323.337	110.88
323.566	108.88
323.795	150.88
324.024	182.88
324.253	341.88
324.482	711.88
324.71	1439.88
324.939	1841.88
325.168	689.88
325.397	225.88
325.626	124.88
325.855	125.88
326.084	118.88
326.313	137.88
326.542	142.88
326.77	211.88
326.999	412.88
327.228	819.88
327.457	1465.88
327.686	1172.88
327.914	332.88
328.143	204.88
328.372	149.88
328.6	125.88
328.829	109.88
329.058	121.88
329.287	128.88
329.515	104.88
329.744	95.88
329.972	96.88
330.201	112.88
330.43	106.88
330.658	102.88
330.887	133.88
331.115	105.88
331.344	86.88
331.572	86.88
331.801	84.88
332.03	92.88
332.258	107.88
332.486	102.88
332.715	94.88
332.943	97.88
333.172	81.88
333.4	88.88
333.629	101.88
333.857	111.88
334.085	89.88
334.314	89.88
334.542	101.88
334.771	103.88
334.999	99.88
335.227	98.88
335.455	102.88
335.684	95.88
335.912	98.88
336.14	106.88
336.369	89.88
336.597	100.88
336.825	98.88
337.053	104.88
337.281	97.88
337.51	89.88
337.738	95.88
337.966	101.88
338.194	101.88
338.422	111.88
338.65	99.88
338.878	80.88
339.106	90.88
339.334	93.88
339.562	98.88
339.79	86.88
340.018	96.88
340.246	71.88
340.474	89.88
340.702	74.88
340.93	86.88
341.158	101.88
341.386	98.88
341.614	92.88
341.842	97.88
342.07	92.88
342.298	94.88
342.526	87.88
342.754	91.88
342.981	75.88
343.209	77.88
343.437	86.88
343.665	96.88
343.893	89.88
344.12	88.88
344.348	87.88
344.576	88.88
344.804	115.88
345.031	96.88
345.259	82.88
345.487	91.88
345.714	103.88
345.942	87.88
346.17	104.88
346.397	81.88
346.625	101.88
346.853	90.88
347.08	90.88
347.308	104.88
347.535	109.88
347.763	99.88
347.99	92.88
348.218	112.88
348.445	103.88
348.673	106.88
348.9	88.88
349.128	89.88
349.355	94.88
349.583	78.88
349.81	88.88
350.037	100.88
350.265	97.88
350.492	88.88
350.72	101.88
350.947	106.88
351.174	114.88
351.402	96.88
351.629	101.88
351.856	100.88
352.083	87.88
352.311	107.88
352.538	107.88
352.765	109.88
352.992	101.88
353.22	113.88
353.447	88.88
353.674	89.88
353.901	98.88
354.128	97.88
354.355	102.88
354.583	104.88
354.81	107.88
355.037	91.88
355.264	86.88
355.491	88.88
355.718	94.88
355.945	101.88
356.172	87.88
356.399	102.88
356.626	102.88
356.853	97.88
357.08	86.88
357.307	86.88
357.534	93.88
357.761	100.88
357.988	95.88
358.215	91.88
358.441	96.88
358.668	88.88
358.895	102.88
359.122	90.88
359.349	94.88
359.576	94.88
359.802	104.88
360.029	93.88
360.256	92.88
360.483	93.88
360.709	90.88
360.936	92.88
361.163	103.88
361.39	91.88
361.616	97.88
361.843	104.88
362.07	88.88
362.296	82.88
362.523	85.88
362.749	89.88
362.976	101.88
363.203	91.88
363.429	88.88
363.656	96.88
363.882	81.88
364.109	92.88
364.335	93.88
364.562	83.88
364.788	77.88
365.015	102.88
365.241	96.88
365.468	113.88
365.694	110.88
365.92	90.88
366.147	89.88
366.373	92.88
366.599	96.88
366.826	89.88
367.052	81.88
367.278	84.88
367.505	101.88
367.731	89.88
367.957	83.88
368.184	89.88
368.41	92.88
368.636	105.88
368.862	109.88
369.089	105.88
369.315	96.88
369.541	105.88
369.767	90.88
369.993	90.88
370.219	77.88
370.445	83.88
370.672	78.88
370.898	89.88
371.124	95.88
371.35	84.88
371.576	94.88
371.802	94.88
372.028	91.88
372.254	77.88
372.48	70.88
372.706	87.88
372.932	85.88
373.158	68.88
373.384	97.88
373.61	98.88
373.835	96.88
374.061	80.88
374.287	90.88
374.513	82.88
374.739	90.88
374.965	89.88
375.191	86.88
375.416	77.88
375.642	96.88
375.868	106.88
376.094	91.88
376.319	90.88
376.545	86.88
376.771	78.88
376.997	89.88
377.222	80.88
377.448	107.88
377.674	89.88
377.899	85.88
378.125	77.88
378.35	105.88
378.576	94.88
378.802	96.88
379.027	88.88
379.253	80.88
379.478	86.88
379.704	76.88
379.929	98.88
380.155	94.88
380.38	104.88
380.606	86.88
380.831	81.88
381.057	96.88
381.282	85.88
381.507	91.88
381.733	90.88
381.958	109.88
382.184	108.88
382.409	83.88
382.634	110.88
382.86	89.88
383.085	93.88
383.31	105.88
383.535	85.88
383.761	92.88
383.986	112.88
384.211	101.88
384.436	87.88
384.662	109.88
384.887	90.88
385.112	102.88
385.337	97.88
385.562	94.88
385.787	91.88
386.013	104.88
386.238	86.88
386.463	104.88
386.688	115.88
386.913	107.88
387.138	112.88
387.363	96.88
387.588	104.88
387.813	103.88
388.038	107.88
388.263	105.88
388.488	93.88
388.713	78.88
388.938	87.88
389.163	91.88
389.387	92.88
389.612	82.88
389.837	88.88
390.062	97.88
390.287	90.88
390.512	85.88
390.736	109.88
390.961	82.88
391.186	92.88
391.411	108.88
391.636	88.88
391.86	93.88
392.085	84.88
392.31	73.88
392.534	76.88
392.759	92.88
392.984	89.88
393.208	94.88
393.433	85.88
393.658	98.88
393.882	91.88
394.107	95.88
394.331	101.88
394.556	86.88
394.78	80.88
395.005	93.88
395.229	94.88
395.454	83.88
395.678	82.88
395.903	82.88
396.127	96.88
396.352	82.88
396.576	92.88
396.801	98.88
397.025	83.88
397.249	89.88
397.474	78.88
397.698	100.88
397.922	70.88
398.147	92.88
398.371	84.88
398.595	78.88
398.82	88.88
399.044	86.88
399.268	85.88
399.492	93.88
399.717	89.88
399.941	89.88
400.165	80.88
400.389	86.88
400.613	89.88
400.837	108.88
401.062	72.88
401.286	81.88
401.51	78.88
401.734	84.88
401.958	88.88
402.182	109.88
402.406	130.88
402.63	101.88
402.854	81.88
403.078	85.88
403.302	87.88
403.526	79.88
403.75	94.88
403.974	79.88
404.198	90.88
404.422	86.88
404.645	87.88
404.869	81.88
405.093	85.88
405.317	97.88
405.541	92.88
405.765	95.88
405.988	115.88
406.212	160.88
406.436	192.88
406.66	125.88
406.883	92.88
407.107	92.88
407.331	95.88
407.555	104.88
407.778	100.88
408.002	82.88
408.226	86.88
408.449	90.88
408.673	88.88
408.896	98.88
409.12	96.88
409.344	89.88
409.567	86.88
409.791	90.88
410.014	101.88
410.238	88.88
410.461	93.88
410.685	98.88
410.908	106.88
411.132	104.88
411.355	89.88
411.578	92.88
411.802	84.88
412.025	87.88
412.249	82.88
412.472	91.88
412.695	85.88
412.919	81.88
413.142	90.88
413.365	89.88
413.589	70.88
413.812	104.88
414.035	101.88
414.258	93.88
414.482	85.88
414.705	82.88
414.928	94.88
415.151	96.88
415.374	89.88
415.597	96.88
415.821	88.88
416.044	88.88
416.267	82.88
416.49	104.88
416.713	96.88
416.936	104.88
417.159	85.88
417.382	88.88
417.605	78.88
417.828	121.88
418.051	93.88
418.274	89.88
418.497	89.88
418.72	84.88
418.943	86.88
419.166	73.88
419.389	91.88
419.611	86.88
419.834	84.88
420.057	89.88
420.28	82.88
420.503	92.88
420.726	84.88
420.948	96.88
421.171	90.88
421.394	99.88
421.617	93.88
421.839	87.88
422.062	88.88
422.285	104.88
422.507	98.88
422.73	89.88
422.953	90.88
423.175	91.88
423.398	92.88
423.621	90.88
423.843	72.88
424.066	87.88
424.288	84.88
424.511	103.88
424.733	104.88
424.956	69.88
425.178	102.88
425.401	84.88
425.623	98.88
425.846	69.88
426.068	92.88
426.291	91.88
426.513	91.88
426.735	87.88
426.958	102.88
427.18	109.88
427.402	135.88
427.625	137.88
427.847	105.88
428.069	101.88
428.292	79.88
428.514	92.88
428.736	87.88
428.958	87.88
429.181	72.88
429.403	77.88
429.625	86.88
429.847	88.88
430.069	92.88
430.292	92.88
430.514	89.88
430.736	85.88
430.958	92.88
431.18	84.88
431.402	81.88
431.624	88.88
431.846	79.88
432.068	70.88
432.29	110.88
432.512	89.88
432.734	75.88
432.956	94.88
433.178	116.88
433.4	94.88
433.622	91.88
433.844	103.88
434.066	77.88
434.287	87.88
434.509	68.88
434.731	94.88
434.953	78.88
435.175	80.88
435.397	81.88
435.618	82.88
435.84	93.88
436.062	113.88
436.284	122.88
436.505	90.88
436.727	89.88
436.949	93.88
437.17	104.88
437.392	88.88
437.614	95.88
437.835	93.88
438.057	107.88
438.278	93.88
438.5	108.88
438.721	127.88
438.943	90.88
439.165	81.88
439.386	79.88
439.608	95.88
439.829	103.88
440.05	116.88
440.272	116.88
440.493	94.88
440.715	82.88
440.936	93.88
441.158	85.88
441.379	95.88
441.6	84.88
441.822	94.88
442.043	103.88
442.264	100.88
442.486	94.88
442.707	95.88
442.928	102.88
443.149	114.88
443.371	106.88
443.592	107.88
443.813	92.88
444.034	109.88
444.255	92.88
444.476	102.88
444.698	92.88
444.919	95.88
445.14	112.88
445.361	110.88
445.582	105.88
445.803	133.88
446.024	129.88
446.245	123.88
446.466	86.88
446.687	86.88
446.908	92.88
447.129	84.88
447.35	89.88
447.571	84.88
447.792	94.88
448.013	90.88
448.234	107.88
448.455	112.88
448.675	116.88
448.896	105.88
449.117	93.88
449.338	92.88
449.559	122.88
449.779	116.88
450	93.88
450.221	80.88
450.442	78.88
450.662	94.88
450.883	94.88
451.104	108.88
451.324	85.88
451.545	90.88
451.766	78.88
451.986	103.88
452.207	93.88
452.428	97.88
452.648	104.88
452.869	83.88
453.089	97.88
453.31	97.88
453.53	92.88
453.751	86.88
453.971	94.88
454.192	98.88
454.412	88.88
454.633	88.88
454.853	74.88
455.073	81.88
455.294	90.88
455.514	95.88
455.734	103.88
455.955	88.88
456.175	85.88
456.395	79.88
456.616	74.88
456.836	71.88
457.056	90.88
457.276	90.88
457.497	71.88
457.717	79.88
457.937	91.88
458.157	81.88
458.377	73.88
458.598	87.88
458.818	139.88
459.038	146.88
459.258	100.88
459.478	72.88
459.698	83.88
459.918	84.88
460.138	91.88
460.358	80.88
460.578	90.88
460.798	95.88
461.018	97.88
461.238	91.88
461.458	80.88
461.678	91.88
461.898	87.88
462.118	88.88
462.338	84.88
462.558	80.88
462.777	78.88
462.997	88.88
463.217	88.88
463.437	85.88
463.657	90.88
463.876	89.88
464.096	90.88
464.316	92.88
464.536	85.88
464.755	97.88
464.975	109.88
465.195	148.88
465.414	149.88
465.634	84.88
465.854	72.88
466.073	87.88
466.293	81.88
466.512	90.88
466.732	91.88
466.951	97.88
467.171	94.88
467.391	74.88
467.61	91.88
467.829	96.88
468.049	88.88
468.268	82.88
468.488	82.88
468.707	80.88
468.927	87.88
469.146	89.88
469.365	75.88
469.585	90.88
469.804	92.88
470.023	87.88
470.243	80.88
470.462	95.88
470.681	101.88
470.901	82.88
471.12	87.88
471.339	87.88
471.558	94.88
471.777	84.88
471.997	87.88
472.216	86.88
472.435	101.88
472.654	70.88
472.873	85.88
473.092	79.88
473.311	86.88
473.53	75.88
473.749	81.88
473.968	108.88
474.187	96.88
474.406	87.88
474.625	92.88
474.844	80.88
475.063	86.88
475.282	78.88
475.501	81.88
475.72	76.88
475.939	91.88
476.158	81.88
476.377	86.88
476.596	97.88
476.814	97.88
477.033	97.88
477.252	85.88
477.471	87.88
477.69	73.88
477.908	85.88
478.127	84.88
478.346	92.88
478.564	92.88
478.783	89.88
479.002	91.88
479.22	89.88
479.439	95.88
479.658	96.88
479.876	86.88
480.095	81.88
480.313	78.88
480.532	96.88
480.751	72.88
480.969	80.88
481.188	99.88
481.406	98.88
481.624	92.88
481.843	92.88
482.061	80.88
482.28	78.88
482.498	84.88
482.717	86.88
482.935	79.88
483.153	93.88
483.372	90.88
483.59	95.88
483.808	90.88
484.027	79.88
484.245	79.88
484.463	77.88
484.681	98.88
484.9	93.88
485.118	100.88
485.336	98.88
485.554	88.88
485.772	84.88
485.99	112.88
486.209	109.88
486.427	90.88
486.645	100.88
486.863	106.88
487.081	104.88
487.299	80.88
487.517	74.88
487.735	81.88
487.953	79.88
488.171	81.88
488.389	90.88
488.607	106.88
488.825	88.88
489.043	93.88
489.261	93.88
489.479	85.88
489.696	91.88
489.914	102.88
490.132	93.88
490.35	87.88
490.568	90.88
490.786	88.88
491.003	86.88
491.221	81.88
491.439	94.88
491.657	84.88
491.874	86.88
492.092	96.88
492.31	86.88
492.527	82.88
492.745	83.88
492.963	91.88
493.18	83.88
493.398	95.88
493.615	93.88
493.833	91.88
494.05	88.88
494.268	88.88
494.485	92.88
494.703	94.88
494.92	86.88
495.138	84.88
495.355	86.88
495.573	88.88
495.79	97.88
496.008	98.88
496.225	98.88
496.442	84.88
496.66	102.88
496.877	81.88
497.094	93.88
497.312	87.88
497.529	98.88
497.746	87.88
497.963	81.88
498.181	97.88
498.398	93.88
498.615	87.88
498.832	98.88
499.049	94.88
499.267	89.88
499.484	78.88
499.701	92.88
499.918	88.88
500.135	80.88
500.352	76.88
500.569	76.88
500.786	69.88
501.003	89.88
501.22	104.88
501.437	86.88
501.654	92.88
501.871	97.88
502.088	93.88
502.305	78.88
502.522	97.88
502.739	75.88
502.956	78.88
503.172	88.88
503.389	97.88
503.606	86.88
503.823	102.88
504.04	103.88
504.256	93.88
504.473	89.88
504.69	92.88
504.907	92.88
505.123	91.88
505.34	87.88
505.557	73.88
505.773	101.88
505.99	73.88
506.207	94.88
506.423	95.88
506.64	93.88
506.856	90.88
507.073	80.88
507.289	62.88
507.506	85.88
507.722	106.88
507.939	102.88
508.155	85.88
508.372	90.88
508.588	92.88
508.805	88.88
509.021	86.88
509.238	92.88
509.454	105.88
509.67	91.88
509.887	93.88
510.103	113.88
510.319	194.88
510.536	670.88
510.752	2051.88
510.968	572.88
511.184	133.88
511.401	104.88
511.617	98.88
511.833	84.88
512.049	88.88
512.265	85.88
512.481	95.88
512.698	98.88
512.914	95.88
513.13	93.88
513.346	94.88
513.562	81.88
513.778	102.88
513.994	84.88
514.21	90.88
514.426	104.88
514.642	113.88
514.858	115.88
515.074	145.88
515.29	374.88
515.506	1230.88
515.721	470.88
515.937	146.88
516.153	102.88
516.369	92.88
516.585	101.88
