Data from Uncirc_1998_H10_HRD10591_00083.txt Node
Date: Wed Jan 03 11:25:41 EST 2024
User: Yrep
Spectrometer: HR+D1059
Trigger mode: 1
Integration Time (sec): 1.000000E-1
Scans to average: 1
Electric dark correction enabled: true
Nonlinearity correction enabled: false
Boxcar width: 0
XAxis mode: Wavelengths
Number of Pixels in Spectrum: 2048
>>>>>Begin Spectral Data<<<<<
223.165	-14.56
223.4	-14.56
223.635	-14.56
223.869	-12.56
224.104	-36.56
224.338	-13.56
224.573	-9.56
224.808	-8.56
225.042	-10.56
225.277	-11.56
225.511	7.44
225.746	4.44
225.98	2.44
226.215	14.44
226.449	11.44
226.683	19.44
226.918	18.44
227.152	39.44
227.387	37.44
227.621	32.44
227.856	50.44
228.09	42.44
228.324	55.44
228.559	51.44
228.793	146.44
229.027	449.44
229.262	511.44
229.496	586.44
229.73	777.44
229.964	787.44
230.199	521.44
230.433	467.44
230.667	461.44
230.901	453.44
231.136	437.44
231.37	429.44
231.604	446.44
231.838	455.44
232.072	443.44
232.306	458.44
232.541	460.44
232.775	465.44
233.009	463.44
233.243	465.44
233.477	473.44
233.711	498.44
233.945	496.44
234.179	515.44
234.413	495.44
234.647	504.44
234.881	487.44
235.115	523.44
235.349	531.44
235.583	530.44
235.817	585.44
236.051	624.44
236.285	609.44
236.519	612.44
236.753	722.44
236.987	897.44
237.221	1373.44
237.455	1490.44
237.689	874.44
237.922	727.44
238.156	699.44
238.39	664.44
238.624	629.44
238.858	639.44
239.091	629.44
239.325	638.44
239.559	691.44
239.793	691.44
240.027	722.44
240.26	877.44
240.494	959.44
240.728	947.44
240.961	866.44
241.195	789.44
241.429	795.44
241.662	772.44
241.896	746.44
242.13	756.44
242.363	731.44
242.597	786.44
242.83	792.44
243.064	794.44
243.298	832.44
243.531	818.44
243.765	818.44
243.998	814.44
244.232	845.44
244.465	880.44
244.699	874.44
244.932	855.44
245.166	885.44
245.399	880.44
245.633	882.44
245.866	891.44
246.099	889.44
246.333	908.44
246.566	902.44
246.8	969.44
247.033	1016.44
247.266	1029.44
247.5	1096.44
247.733	1113.44
247.966	1105.44
248.2	1103.44
248.433	1107.44
248.666	1166.44
248.899	1304.44
249.133	1394.44
249.366	1378.44
249.599	1262.44
249.832	1163.44
250.066	1172.44
250.299	1225.44
250.532	1307.44
250.765	1503.44
250.998	1651.44
251.231	1624.44
251.465	1431.44
251.698	1388.44
251.931	1363.44
252.164	1360.44
252.397	1400.44
252.63	1407.44
252.863	1501.44
253.096	1654.44
253.329	1733.44
253.562	1643.44
253.795	1568.44
254.028	1523.44
254.261	1579.44
254.494	1781.44
254.727	2098.44
254.96	2233.44
255.193	1947.44
255.426	1728.44
255.659	1608.44
255.892	1589.44
256.124	1487.44
256.357	1515.44
256.59	1465.44
256.823	1472.44
257.056	1478.44
257.289	1501.44
257.521	1528.44
257.754	1528.44
257.987	1504.44
258.22	1522.44
258.452	1515.44
258.685	1562.44
258.918	1539.44
259.151	1591.44
259.383	1675.44
259.616	1684.44
259.849	1723.44
260.081	1886.44
260.314	2070.44
260.547	2013.44
260.779	1807.44
261.012	1716.44
261.244	1704.44
261.477	1651.44
261.71	1649.44
261.942	1716.44
262.175	1707.44
262.407	1647.44
262.64	1620.44
262.872	1605.44
263.105	1574.44
263.337	1616.44
263.57	1611.44
263.802	1585.44
264.035	1635.44
264.267	1619.44
264.499	1650.44
264.732	1664.44
264.964	1654.44
265.197	1687.44
265.429	1672.44
265.661	1698.44
265.894	1702.44
266.126	1707.44
266.358	1737.44
266.591	1795.44
266.823	1863.44
267.055	1861.44
267.287	1857.44
267.52	1818.44
267.752	1808.44
267.984	1839.44
268.216	1854.44
268.448	1882.44
268.681	2002.44
268.913	2147.44
269.145	2294.44
269.377	2331.44
269.609	2280.44
269.841	2238.44
270.073	2351.44
270.306	2585.44
270.538	2786.44
270.77	2666.44
271.002	2503.44
271.234	2431.44
271.466	2613.44
271.698	2689.44
271.93	2687.44
272.162	2744.44
272.394	2657.44
272.626	2445.44
272.858	2347.44
273.09	2280.44
273.322	2267.44
273.553	2203.44
273.785	2191.44
274.017	2211.44
274.249	2229.44
274.481	2232.44
274.713	2252.44
274.945	2249.44
275.176	2258.44
275.408	2209.44
275.64	2236.44
275.872	2232.44
276.104	2237.44
276.335	2335.44
276.567	2375.44
276.799	2492.44
277.031	2785.44
277.262	2839.44
277.494	2807.44
277.726	2527.44
277.957	2471.44
278.189	2415.44
278.421	2373.44
278.652	2358.44
278.884	2339.44
279.115	2329.44
279.347	2362.44
279.579	2350.44
279.81	2318.44
280.042	2353.44
280.273	2389.44
280.505	2370.44
280.736	2369.44
280.968	2375.44
281.199	2369.44
281.431	2415.44
281.662	2417.44
281.894	2479.44
282.125	2478.44
282.356	2655.44
282.588	2835.44
282.819	2653.44
283.051	2514.44
283.282	2470.44
283.513	2598.44
283.745	2565.44
283.976	2630.44
284.207	2653.44
284.439	2554.44
284.67	2631.44
284.901	2593.44
285.132	2599.44
285.364	2606.44
285.595	2597.44
285.826	2584.44
286.057	2674.44
286.288	2662.44
286.52	2633.44
286.751	2646.44
286.982	2715.44
287.213	2697.44
287.444	2677.44
287.675	2753.44
287.906	2863.44
288.138	2893.44
288.369	2940.44
288.6	2907.44
288.831	2868.44
289.062	2793.44
289.293	2821.44
289.524	2780.44
289.755	2814.44
289.986	2831.44
290.217	2799.44
290.448	2764.44
290.679	2834.44
290.91	2794.44
291.141	2768.44
291.371	2809.44
291.602	2792.44
291.833	2785.44
292.064	2797.44
292.295	2846.44
292.526	2847.44
292.757	2808.44
292.987	2807.44
293.218	2811.44
293.449	2815.44
293.68	2815.44
293.91	2809.44
294.141	2844.44
294.372	2865.44
294.603	2874.44
294.833	2867.44
295.064	2899.44
295.295	2874.44
295.525	2876.44
295.756	2942.44
295.987	2993.44
296.217	3133.44
296.448	3130.44
296.679	3008.44
296.909	2959.44
297.14	2950.44
297.37	3046.44
297.601	3023.44
297.831	3061.44
298.062	3047.44
298.292	3055.44
298.523	3083.44
298.753	3088.44
298.984	3106.44
299.214	3114.44
299.445	3073.44
299.675	3043.44
299.905	3132.44
300.136	3103.44
300.366	3140.44
300.597	3177.44
300.827	3276.44
301.057	3288.44
301.288	3388.44
301.518	3306.44
301.748	3354.44
301.979	3401.44
302.209	3344.44
302.439	3329.44
302.669	3385.44
302.9	3333.44
303.13	3305.44
303.36	3357.44
303.59	3333.44
303.82	3454.44
304.051	3353.44
304.281	3345.44
304.511	3203.44
304.741	3292.44
304.971	3229.44
305.201	3229.44
305.431	3278.44
305.661	3341.44
305.891	3255.44
306.121	3282.44
306.352	3379.44
306.582	3380.44
306.812	3253.44
307.042	3297.44
307.272	3309.44
307.502	3229.44
307.731	3257.44
307.961	3290.44
308.191	3270.44
308.421	3294.44
308.651	3366.44
308.881	3316.44
309.111	3355.44
309.341	3335.44
309.571	3492.44
309.8	3530.44
310.03	3599.44
310.26	3605.44
310.49	3553.44
310.72	3705.44
310.949	3774.44
311.179	3728.44
311.409	3646.44
311.639	3660.44
311.868	3635.44
312.098	3704.44
312.328	3793.44
312.557	3861.44
312.787	3901.44
313.017	3854.44
313.246	3789.44
313.476	3719.44
313.706	3775.44
313.935	3810.44
314.165	3953.44
314.394	3937.44
314.624	3903.44
314.853	3800.44
315.083	3802.44
315.312	3685.44
315.542	3789.44
315.771	3614.44
316.001	3658.44
316.23	3678.44
316.46	3667.44
316.689	3757.44
316.919	3770.44
317.148	3775.44
317.377	3733.44
317.607	3755.44
317.836	3686.44
318.065	3704.44
318.295	3648.44
318.524	3686.44
318.753	3695.44
318.983	3650.44
319.212	3687.44
319.441	3727.44
319.67	3768.44
319.9	3713.44
320.129	3735.44
320.358	3701.44
320.587	3748.44
320.816	3812.44
321.046	3841.44
321.275	3861.44
321.504	3910.44
321.733	3874.44
321.962	3885.44
322.191	4017.44
322.42	4112.44
322.649	4149.44
322.878	4283.44
323.108	4347.44
323.337	4580.44
323.566	4714.44
323.795	5012.44
324.024	5583.44
324.253	7297.44
324.482	10946.44
324.71	15156.44
324.939	15619.44
325.168	12757.44
325.397	6542.44
325.626	5225.44
325.855	4920.44
326.084	4794.44
326.313	4734.44
326.542	4918.44
326.77	5588.44
326.999	6925.44
327.228	10246.44
327.457	14219.44
327.686	13352.44
327.914	7191.44
328.143	5794.44
328.372	5426.44
328.6	5193.44
328.829	5193.44
329.058	5371.44
329.287	5239.44
329.515	4966.44
329.744	4764.44
329.972	4806.44
330.201	4834.44
330.43	5159.44
330.658	5377.44
330.887	5660.44
331.115	5381.44
331.344	4982.44
331.572	4933.44
331.801	4996.44
332.03	5027.44
332.258	4978.44
332.486	5001.44
332.715	5084.44
332.943	5229.44
333.172	5396.44
333.4	5468.44
333.629	5569.44
333.857	5600.44
334.085	5527.44
334.314	5477.44
334.542	5398.44
334.771	5394.44
334.999	5336.44
335.227	5206.44
335.455	5164.44
335.684	5069.44
335.912	5011.44
336.14	4929.44
336.369	4983.44
336.597	4999.44
336.825	4990.44
337.053	4898.44
337.281	4769.44
337.51	4815.44
337.738	4728.44
337.966	4760.44
338.194	4733.44
338.422	4662.44
338.65	4566.44
338.878	4570.44
339.106	4561.44
339.334	4527.44
339.562	4390.44
339.79	4435.44
340.018	4455.44
340.246	4448.44
340.474	4440.44
340.702	4467.44
340.93	4439.44
341.158	4417.44
341.386	4481.44
341.614	4432.44
341.842	4327.44
342.07	4339.44
342.298	4356.44
342.526	4286.44
342.754	4309.44
342.981	4370.44
343.209	4406.44
343.437	4756.44
343.665	4982.44
343.893	5130.44
344.12	5137.44
344.348	4984.44
344.576	4857.44
344.804	4688.44
345.031	4631.44
345.259	4583.44
345.487	4458.44
345.714	4419.44
345.942	4266.44
346.17	4280.44
346.397	4285.44
346.625	4304.44
346.853	4201.44
347.08	4165.44
347.308	4266.44
347.535	4339.44
347.763	4336.44
347.99	4225.44
348.218	4286.44
348.445	4312.44
348.673	4270.44
348.9	4223.44
349.128	4115.44
349.355	4050.44
349.583	4118.44
349.81	4107.44
350.037	4106.44
350.265	4050.44
350.492	4178.44
350.72	4116.44
350.947	4109.44
351.174	4300.44
351.402	4222.44
351.629	4208.44
351.856	4176.44
352.083	4231.44
352.311	4339.44
352.538	4270.44
352.765	4268.44
352.992	4117.44
353.22	4125.44
353.447	4051.44
353.674	4114.44
353.901	4058.44
354.128	4067.44
354.355	4010.44
354.583	3975.44
354.81	3956.44
355.037	3975.44
355.264	3960.44
355.491	3909.44
355.718	3949.44
355.945	3963.44
356.172	3980.44
356.399	4009.44
356.626	3994.44
356.853	4002.44
357.08	3961.44
357.307	4002.44
357.534	3966.44
357.761	3941.44
357.988	3959.44
358.215	4068.44
358.441	3985.44
358.668	4014.44
358.895	4062.44
359.122	4087.44
359.349	4180.44
359.576	4241.44
359.802	4505.44
360.029	4640.44
360.256	4564.44
360.483	4402.44
360.709	4234.44
360.936	4198.44
361.163	4216.44
361.39	4255.44
361.616	4211.44
361.843	4207.44
362.07	4217.44
362.296	4269.44
362.523	4188.44
362.749	4223.44
362.976	4102.44
363.203	4110.44
363.429	4042.44
363.656	4152.44
363.882	4100.44
364.109	4038.44
364.335	4019.44
364.562	4015.44
364.788	4046.44
365.015	4132.44
365.241	4047.44
365.468	4057.44
365.694	4117.44
365.92	4150.44
366.147	4106.44
366.373	4086.44
366.599	4129.44
366.826	4012.44
367.052	4013.44
367.278	4084.44
367.505	4094.44
367.731	4114.44
367.957	4050.44
368.184	4182.44
368.41	4230.44
368.636	4243.44
368.862	4328.44
369.089	4166.44
369.315	4156.44
369.541	4178.44
369.767	4211.44
369.993	4192.44
370.219	4220.44
370.445	4194.44
370.672	4219.44
370.898	4237.44
371.124	4287.44
371.35	4381.44
371.576	4290.44
371.802	4301.44
372.028	4380.44
372.254	4324.44
372.48	4428.44
372.706	4500.44
372.932	4525.44
373.158	4467.44
373.384	4361.44
373.61	4370.44
373.835	4396.44
374.061	4376.44
374.287	4504.44
374.513	4505.44
374.739	4724.44
374.965	4773.44
375.191	4747.44
375.416	4659.44
375.642	4560.44
375.868	4526.44
376.094	4459.44
376.319	4372.44
376.545	4351.44
376.771	4431.44
376.997	4377.44
377.222	4346.44
377.448	4336.44
377.674	4334.44
377.899	4306.44
378.125	4311.44
378.35	4290.44
378.576	4329.44
378.802	4288.44
379.027	4295.44
379.253	4344.44
379.478	4309.44
379.704	4364.44
379.929	4397.44
380.155	4336.44
380.38	4317.44
380.606	4415.44
380.831	4325.44
381.057	4476.44
381.282	4397.44
381.507	4448.44
381.733	4421.44
381.958	4529.44
382.184	4553.44
382.409	4561.44
382.634	4602.44
382.86	4637.44
383.085	4629.44
383.31	4759.44
383.535	4807.44
383.761	4812.44
383.986	4934.44
384.211	5030.44
384.436	5057.44
384.662	5139.44
384.887	5264.44
385.112	5165.44
385.337	5219.44
385.562	5237.44
385.787	5259.44
386.013	5396.44
386.238	5371.44
386.463	5356.44
386.688	5357.44
386.913	5218.44
387.138	5296.44
387.363	5223.44
387.588	5154.44
387.813	5218.44
388.038	5153.44
388.263	5175.44
388.488	5224.44
388.713	5254.44
388.938	5210.44
389.163	5160.44
389.387	5163.44
389.612	5116.44
389.837	5171.44
390.062	5080.44
390.287	5090.44
390.512	5206.44
390.736	5191.44
390.961	5230.44
391.186	5351.44
391.411	5593.44
391.636	5711.44
391.86	5813.44
392.085	5878.44
392.31	5715.44
392.534	5601.44
392.759	5560.44
392.984	5440.44
393.208	5394.44
393.433	5405.44
393.658	5381.44
393.882	5386.44
394.107	5395.44
394.331	5506.44
394.556	5546.44
394.78	5613.44
395.005	5606.44
395.229	5663.44
395.454	5752.44
395.678	5960.44
395.903	5946.44
396.127	5903.44
396.352	5796.44
396.576	5583.44
396.801	5461.44
397.025	5621.44
397.249	5745.44
397.474	5915.44
397.698	5933.44
397.922	6057.44
398.147	6150.44
398.371	6297.44
398.595	6338.44
398.82	6631.44
399.044	7187.44
399.268	8010.44
399.492	9045.44
399.717	9728.44
399.941	9472.44
400.165	8788.44
400.389	8153.44
400.613	7371.44
400.837	6802.44
401.062	6736.44
401.286	6701.44
401.51	6556.44
401.734	6475.44
401.958	6733.44
402.182	6763.44
402.406	6969.44
402.63	6968.44
402.854	7086.44
403.078	7126.44
403.302	7322.44
403.526	7401.44
403.75	7424.44
403.974	7551.44
404.198	7503.44
404.422	7575.44
404.645	7505.44
404.869	7424.44
405.093	7575.44
405.317	7601.44
405.541	7707.44
405.765	7296.44
405.988	7329.44
406.212	7561.44
406.436	7693.44
406.66	7847.44
406.883	7798.44
407.107	8437.44
407.331	8932.44
407.555	9429.44
407.778	9123.44
408.002	8340.44
408.226	7998.44
408.449	7844.44
408.673	7722.44
408.896	7916.44
409.12	8054.44
409.344	7567.44
409.567	7279.44
409.791	7212.44
410.014	7135.44
410.238	7124.44
410.461	7073.44
410.685	7124.44
410.908	7194.44
411.132	7400.44
411.355	7401.44
411.578	7062.44
411.802	6833.44
412.025	6783.44
412.249	6902.44
412.472	6869.44
412.695	6845.44
412.919	6645.44
413.142	6449.44
413.365	6440.44
413.589	6502.44
413.812	6507.44
414.035	6312.44
414.258	6475.44
414.482	6525.44
414.705	6550.44
414.928	6492.44
415.151	6490.44
415.374	6491.44
415.597	6363.44
415.821	6338.44
416.044	6353.44
416.267	6299.44
416.49	6256.44
416.713	6274.44
416.936	6353.44
417.159	6345.44
417.382	6367.44
417.605	6450.44
417.828	6634.44
418.051	6606.44
418.274	6561.44
418.497	6472.44
418.72	6556.44
418.943	6565.44
419.166	6895.44
419.389	7274.44
419.611	7167.44
419.834	7006.44
420.057	6797.44
420.28	6645.44
420.503	6393.44
420.726	6528.44
420.948	6721.44
421.171	7055.44
421.394	7122.44
421.617	6604.44
421.839	6502.44
422.062	6735.44
422.285	6904.44
422.507	7529.44
422.73	8029.44
422.953	7405.44
423.175	7025.44
423.398	7053.44
423.621	7046.44
423.843	7360.44
424.066	7303.44
424.288	7100.44
424.511	7466.44
424.733	7954.44
424.956	8241.44
425.178	7815.44
425.401	8053.44
425.623	7851.44
425.846	6920.44
426.068	6722.44
426.291	6592.44
426.513	6654.44
426.735	6782.44
426.958	7267.44
427.18	7983.44
427.402	9120.44
427.625	9198.44
427.847	7546.44
428.069	6843.44
428.292	6433.44
428.514	6162.44
428.736	6081.44
428.958	5992.44
429.181	5876.44
429.403	5900.44
429.625	6063.44
429.847	6430.44
430.069	6834.44
430.292	6394.44
430.514	5911.44
430.736	5824.44
430.958	5793.44
431.18	5705.44
431.402	5758.44
431.624	5671.44
431.846	5789.44
432.068	5805.44
432.29	5884.44
432.512	5750.44
432.734	5884.44
432.956	5781.44
433.178	5853.44
433.4	5841.44
433.622	5792.44
433.844	5838.44
434.066	5881.44
434.287	5909.44
434.509	6215.44
434.731	6392.44
434.953	6560.44
435.175	6762.44
435.397	6752.44
435.618	6686.44
435.84	7049.44
436.062	7870.44
436.284	7749.44
436.505	6624.44
436.727	6353.44
436.949	6089.44
437.17	5897.44
437.392	5927.44
437.614	6025.44
437.835	6394.44
438.057	7440.44
438.278	8039.44
438.5	7995.44
438.721	8846.44
438.943	7776.44
439.165	6428.44
439.386	6286.44
439.608	6368.44
439.829	6363.44
440.05	6656.44
440.272	7037.44
440.493	6520.44
440.715	6245.44
440.936	6225.44
441.158	6255.44
441.379	6387.44
441.6	6689.44
441.822	6899.44
442.043	7375.44
442.264	8187.44
442.486	7905.44
442.707	7041.44
442.928	6887.44
443.149	6934.44
443.371	7260.44
443.592	7850.44
443.813	8779.44
444.034	8654.44
444.255	7618.44
444.476	7408.44
444.698	7613.44
444.919	7680.44
445.14	7520.44
445.361	7273.44
445.582	7496.44
445.803	8029.44
446.024	8677.44
446.245	8335.44
446.466	7486.44
446.687	6573.44
446.908	6183.44
447.129	5933.44
447.35	5764.44
447.571	5735.44
447.792	5549.44
448.013	5619.44
448.234	5876.44
448.455	6583.44
448.675	7803.44
448.896	8248.44
449.117	6790.44
449.338	7147.44
449.559	8267.44
449.779	8474.44
450	6529.44
450.221	5850.44
450.442	5589.44
450.662	5549.44
450.883	5661.44
451.104	5756.44
451.324	5556.44
451.545	5373.44
451.766	5285.44
451.986	5181.44
452.207	5087.44
452.428	5129.44
452.648	5091.44
452.869	5135.44
453.089	5231.44
453.31	5230.44
453.53	5127.44
453.751	5104.44
453.971	5101.44
454.192	5216.44
454.412	5053.44
454.633	4995.44
454.853	4954.44
455.073	5022.44
455.294	5440.44
455.514	5933.44
455.734	5410.44
455.955	4905.44
456.175	4809.44
456.395	4715.44
456.616	4738.44
456.836	4659.44
457.056	4713.44
457.276	4618.44
457.497	4762.44
457.717	4717.44
457.937	4848.44
458.157	4940.44
458.377	5099.44
458.598	5461.44
458.818	6101.44
459.038	6797.44
459.258	6691.44
459.478	5987.44
459.698	5884.44
459.918	5975.44
460.138	6157.44
460.358	6426.44
460.578	6402.44
460.798	6526.44
461.018	6430.44
461.238	6334.44
461.458	6230.44
461.678	6307.44
461.898	6444.44
462.118	6462.44
462.338	6753.44
462.558	6906.44
462.777	7176.44
462.997	7757.44
463.217	8151.44
463.437	7947.44
463.657	7474.44
463.876	7242.44
464.096	7260.44
464.316	7218.44
464.536	7276.44
464.755	7077.44
464.975	6998.44
465.195	7099.44
465.414	7058.44
465.634	6219.44
465.854	5947.44
466.073	5685.44
466.293	5558.44
466.512	5331.44
466.732	5289.44
466.951	5288.44
467.171	5276.44
467.391	5336.44
467.61	5492.44
467.829	5412.44
468.049	5253.44
468.268	5120.44
468.488	5030.44
468.707	5011.44
468.927	5064.44
469.146	5086.44
469.365	5108.44
469.585	5142.44
469.804	5333.44
470.023	5433.44
470.243	5483.44
470.462	5632.44
470.681	5636.44
470.901	5554.44
471.12	5449.44
471.339	5314.44
471.558	5364.44
471.777	5199.44
471.997	5105.44
472.216	5129.44
472.435	5111.44
472.654	5080.44
472.873	4985.44
473.092	5024.44
473.311	5014.44
473.53	5049.44
473.749	5155.44
473.968	5616.44
474.187	6741.44
474.406	6284.44
474.625	5364.44
474.844	5086.44
475.063	5058.44
475.282	5060.44
475.501	5125.44
475.72	5131.44
475.939	5206.44
476.158	5281.44
476.377	5234.44
476.596	5216.44
476.814	5385.44
477.033	5404.44
477.252	5490.44
477.471	5610.44
477.69	5716.44
477.908	5835.44
478.127	5926.44
478.346	6063.44
478.564	6137.44
478.783	6221.44
479.002	6374.44
479.22	6384.44
479.439	6409.44
479.658	6603.44
479.876	6658.44
480.095	6767.44
480.313	7248.44
480.532	7088.44
480.751	7025.44
480.969	6793.44
481.188	6767.44
481.406	6449.44
481.624	6309.44
481.843	6149.44
482.061	5978.44
482.28	5974.44
482.498	5948.44
482.717	5900.44
482.935	5902.44
483.153	5902.44
483.372	5967.44
483.59	5928.44
483.808	5941.44
484.027	5839.44
484.245	5982.44
484.463	5959.44
484.681	6165.44
484.9	6104.44
485.118	6151.44
485.336	6184.44
485.554	6277.44
485.772	6240.44
485.99	6301.44
486.209	6334.44
486.427	6352.44
486.645	6353.44
486.863	6572.44
487.081	6427.44
487.299	6420.44
487.517	6384.44
487.735	6347.44
487.953	6356.44
