Data from Uncirc_1998_H10_HRD10591_00008.txt Node
Date: Wed Jan 03 11:25:26 EST 2024
User: Yrep
Spectrometer: HR+D1059
Trigger mode: 1
Integration Time (sec): 1.000000E-1
Scans to average: 1
Electric dark correction enabled: true
Nonlinearity correction enabled: false
Boxcar width: 0
XAxis mode: Wavelengths
Number of Pixels in Spectrum: 2048
>>>>>Begin Spectral Data<<<<<
223.165	-24.94
223.4	-24.94
223.635	-24.94
223.869	-24.94
224.104	-18.94
224.338	-16.94
224.573	-9.94
224.808	-19.94
225.042	-1.94
225.277	1.06
225.511	9.06
225.746	2.06
225.98	4.06
226.215	8.06
226.449	15.06
226.683	22.06
226.918	21.06
227.152	35.06
227.387	38.06
227.621	34.06
227.856	61.06
228.09	47.06
228.324	47.06
228.559	71.06
228.793	64.06
229.027	72.06
229.262	77.06
229.496	63.06
229.73	81.06
229.964	79.06
230.199	71.06
230.433	76.06
230.667	95.06
230.901	85.06
231.136	74.06
231.37	82.06
231.604	75.06
231.838	85.06
232.072	81.06
232.306	63.06
232.541	88.06
232.775	81.06
233.009	80.06
233.243	79.06
233.477	77.06
233.711	88.06
233.945	66.06
234.179	67.06
234.413	81.06
234.647	86.06
234.881	85.06
235.115	82.06
235.349	88.06
235.583	85.06
235.817	82.06
236.051	84.06
236.285	90.06
236.519	80.06
236.753	80.06
236.987	88.06
237.221	86.06
237.455	74.06
237.689	90.06
237.922	65.06
238.156	75.06
238.39	91.06
238.624	89.06
238.858	78.06
239.091	91.06
239.325	95.06
239.559	82.06
239.793	80.06
240.027	79.06
240.26	85.06
240.494	69.06
240.728	85.06
240.961	73.06
241.195	76.06
241.429	79.06
241.662	73.06
241.896	85.06
242.13	74.06
242.363	76.06
242.597	76.06
242.83	72.06
243.064	80.06
243.298	78.06
243.531	72.06
243.765	86.06
243.998	81.06
244.232	80.06
244.465	98.06
244.699	79.06
244.932	91.06
245.166	69.06
245.399	96.06
245.633	87.06
245.866	86.06
246.099	76.06
246.333	69.06
246.566	79.06
246.8	73.06
247.033	88.06
247.266	84.06
247.5	88.06
247.733	72.06
247.966	67.06
248.2	71.06
248.433	90.06
248.666	89.06
248.899	86.06
249.133	89.06
249.366	88.06
249.599	85.06
249.832	86.06
250.066	71.06
250.299	90.06
250.532	84.06
250.765	82.06
250.998	82.06
251.231	84.06
251.465	73.06
251.698	100.06
251.931	83.06
252.164	92.06
252.397	87.06
252.63	93.06
252.863	82.06
253.096	101.06
253.329	90.06
253.562	79.06
253.795	82.06
254.028	88.06
254.261	86.06
254.494	85.06
254.727	105.06
254.96	93.06
255.193	78.06
255.426	87.06
255.659	86.06
255.892	90.06
256.124	79.06
256.357	79.06
256.59	86.06
256.823	82.06
257.056	87.06
257.289	72.06
257.521	68.06
257.754	77.06
257.987	99.06
258.22	80.06
258.452	78.06
258.685	88.06
258.918	84.06
259.151	97.06
259.383	85.06
259.616	75.06
259.849	84.06
260.081	74.06
260.314	75.06
260.547	89.06
260.779	81.06
261.012	74.06
261.244	83.06
261.477	99.06
261.71	88.06
261.942	93.06
262.175	105.06
262.407	68.06
262.64	81.06
262.872	95.06
263.105	68.06
263.337	77.06
263.57	91.06
263.802	83.06
264.035	89.06
264.267	83.06
264.499	92.06
264.732	83.06
264.964	97.06
265.197	74.06
265.429	85.06
265.661	81.06
265.894	82.06
266.126	84.06
266.358	83.06
266.591	85.06
266.823	99.06
267.055	80.06
267.287	87.06
267.52	85.06
267.752	85.06
267.984	75.06
268.216	79.06
268.448	91.06
268.681	89.06
268.913	81.06
269.145	105.06
269.377	79.06
269.609	75.06
269.841	87.06
270.073	82.06
270.306	75.06
270.538	83.06
270.77	82.06
271.002	75.06
271.234	78.06
271.466	89.06
271.698	95.06
271.93	83.06
272.162	89.06
272.394	89.06
272.626	88.06
272.858	77.06
273.09	68.06
273.322	100.06
273.553	91.06
273.785	86.06
274.017	92.06
274.249	90.06
274.481	73.06
274.713	87.06
274.945	91.06
275.176	88.06
275.408	108.06
275.64	92.06
275.872	84.06
276.104	90.06
276.335	81.06
276.567	99.06
276.799	98.06
277.031	95.06
277.262	89.06
277.494	99.06
277.726	92.06
277.957	80.06
278.189	81.06
278.421	90.06
278.652	77.06
278.884	77.06
279.115	90.06
279.347	101.06
279.579	85.06
279.81	75.06
280.042	81.06
280.273	85.06
280.505	92.06
280.736	87.06
280.968	87.06
281.199	84.06
281.431	88.06
281.662	90.06
281.894	88.06
282.125	92.06
282.356	100.06
282.588	114.06
282.819	112.06
283.051	88.06
283.282	83.06
283.513	92.06
283.745	81.06
283.976	98.06
284.207	98.06
284.439	87.06
284.67	87.06
284.901	83.06
285.132	84.06
285.364	83.06
285.595	82.06
285.826	96.06
286.057	105.06
286.288	87.06
286.52	83.06
286.751	81.06
286.982	87.06
287.213	90.06
287.444	81.06
287.675	90.06
287.906	77.06
288.138	96.06
288.369	86.06
288.6	98.06
288.831	89.06
289.062	92.06
289.293	102.06
289.524	107.06
289.755	83.06
289.986	85.06
290.217	92.06
290.448	88.06
290.679	79.06
290.91	98.06
291.141	85.06
291.371	85.06
291.602	86.06
291.833	97.06
292.064	76.06
292.295	99.06
292.526	91.06
292.757	82.06
292.987	87.06
293.218	79.06
293.449	87.06
293.68	81.06
293.91	87.06
294.141	97.06
294.372	84.06
294.603	100.06
294.833	74.06
295.064	97.06
295.295	100.06
295.525	91.06
295.756	111.06
295.987	115.06
296.217	128.06
296.448	111.06
296.679	96.06
296.909	92.06
297.14	90.06
297.37	96.06
297.601	85.06
297.831	89.06
298.062	105.06
298.292	98.06
298.523	97.06
298.753	102.06
298.984	90.06
299.214	74.06
299.445	95.06
299.675	91.06
299.905	104.06
300.136	88.06
300.366	77.06
300.597	85.06
300.827	90.06
301.057	77.06
301.288	86.06
301.518	97.06
301.748	85.06
301.979	104.06
302.209	85.06
302.439	94.06
302.669	90.06
302.9	89.06
303.13	98.06
303.36	95.06
303.59	93.06
303.82	95.06
304.051	91.06
304.281	85.06
304.511	88.06
304.741	88.06
304.971	81.06
305.201	91.06
305.431	92.06
305.661	95.06
305.891	106.06
306.121	91.06
306.352	96.06
306.582	89.06
306.812	96.06
307.042	96.06
307.272	101.06
307.502	80.06
307.731	89.06
307.961	97.06
308.191	96.06
308.421	101.06
308.651	105.06
308.881	87.06
309.111	90.06
309.341	96.06
309.571	106.06
309.8	83.06
310.03	101.06
310.26	87.06
310.49	91.06
310.72	97.06
310.949	99.06
311.179	94.06
311.409	107.06
311.639	98.06
311.868	100.06
312.098	106.06
312.328	98.06
312.557	95.06
312.787	96.06
313.017	95.06
313.246	100.06
313.476	95.06
313.706	85.06
313.935	82.06
314.165	96.06
314.394	90.06
314.624	84.06
314.853	105.06
315.083	99.06
315.312	95.06
315.542	98.06
315.771	91.06
316.001	89.06
316.23	92.06
316.46	113.06
316.689	91.06
316.919	96.06
317.148	102.06
317.377	95.06
317.607	100.06
317.836	96.06
318.065	92.06
318.295	79.06
318.524	106.06
318.753	92.06
318.983	79.06
319.212	89.06
319.441	112.06
319.67	105.06
319.9	107.06
320.129	95.06
320.358	95.06
320.587	90.06
320.816	98.06
321.046	98.06
321.275	105.06
321.504	84.06
321.733	100.06
321.962	98.06
322.191	103.06
322.42	101.06
322.649	107.06
322.878	99.06
323.108	101.06
323.337	103.06
323.566	125.06
323.795	140.06
324.024	180.06
324.253	343.06
324.482	681.06
324.71	1345.06
324.939	1761.06
325.168	661.06
325.397	211.06
325.626	118.06
325.855	135.06
326.084	117.06
326.313	132.06
326.542	140.06
326.77	199.06
326.999	396.06
327.228	794.06
327.457	1369.06
327.686	1111.06
327.914	326.06
328.143	200.06
328.372	164.06
328.6	112.06
328.829	112.06
329.058	111.06
329.287	114.06
329.515	96.06
329.744	100.06
329.972	88.06
330.201	107.06
330.43	106.06
330.658	99.06
330.887	121.06
331.115	103.06
331.344	107.06
331.572	102.06
331.801	106.06
332.03	111.06
332.258	99.06
332.486	99.06
332.715	90.06
332.943	97.06
333.172	92.06
333.4	106.06
333.629	97.06
333.857	109.06
334.085	104.06
334.314	99.06
334.542	102.06
334.771	108.06
334.999	89.06
335.227	100.06
335.455	95.06
335.684	89.06
335.912	109.06
336.14	100.06
336.369	100.06
336.597	103.06
336.825	81.06
337.053	92.06
337.281	89.06
337.51	111.06
337.738	100.06
337.966	112.06
338.194	118.06
338.422	110.06
338.65	117.06
338.878	100.06
339.106	96.06
339.334	79.06
339.562	78.06
339.79	86.06
340.018	85.06
340.246	89.06
340.474	95.06
340.702	87.06
340.93	84.06
341.158	83.06
341.386	98.06
341.614	100.06
341.842	97.06
342.07	97.06
342.298	88.06
342.526	98.06
342.754	105.06
342.981	87.06
343.209	93.06
343.437	111.06
343.665	77.06
343.893	93.06
344.12	102.06
344.348	100.06
344.576	90.06
344.804	103.06
345.031	80.06
345.259	87.06
345.487	85.06
345.714	103.06
345.942	105.06
346.17	97.06
346.397	108.06
346.625	83.06
346.853	83.06
347.08	98.06
347.308	88.06
347.535	96.06
347.763	94.06
347.99	105.06
348.218	111.06
348.445	89.06
348.673	92.06
348.9	100.06
349.128	96.06
349.355	92.06
349.583	103.06
349.81	81.06
350.037	92.06
350.265	88.06
350.492	87.06
350.72	105.06
350.947	90.06
351.174	104.06
351.402	116.06
351.629	115.06
351.856	101.06
352.083	101.06
352.311	110.06
352.538	106.06
352.765	105.06
352.992	107.06
353.22	106.06
353.447	108.06
353.674	111.06
353.901	95.06
354.128	99.06
354.355	89.06
354.583	106.06
354.81	89.06
355.037	99.06
355.264	97.06
355.491	100.06
355.718	104.06
355.945	95.06
356.172	93.06
356.399	94.06
356.626	100.06
356.853	97.06
357.08	103.06
357.307	100.06
357.534	105.06
357.761	107.06
357.988	91.06
358.215	90.06
358.441	88.06
358.668	104.06
358.895	85.06
359.122	87.06
359.349	101.06
359.576	108.06
359.802	97.06
360.029	109.06
360.256	93.06
360.483	91.06
360.709	87.06
360.936	92.06
361.163	94.06
361.39	91.06
361.616	89.06
361.843	103.06
362.07	93.06
362.296	94.06
362.523	83.06
362.749	89.06
362.976	84.06
363.203	85.06
363.429	88.06
363.656	98.06
363.882	96.06
364.109	94.06
364.335	113.06
364.562	108.06
364.788	99.06
365.015	87.06
365.241	93.06
365.468	110.06
365.694	103.06
365.92	99.06
366.147	96.06
366.373	86.06
366.599	84.06
366.826	77.06
367.052	79.06
367.278	84.06
367.505	92.06
367.731	90.06
367.957	83.06
368.184	99.06
368.41	103.06
368.636	99.06
368.862	110.06
369.089	106.06
369.315	90.06
369.541	100.06
369.767	84.06
369.993	90.06
370.219	93.06
370.445	87.06
370.672	100.06
370.898	99.06
371.124	79.06
371.35	78.06
371.576	97.06
371.802	76.06
372.028	96.06
372.254	105.06
372.48	94.06
372.706	92.06
372.932	88.06
373.158	99.06
373.384	108.06
373.61	93.06
373.835	96.06
374.061	100.06
374.287	97.06
374.513	101.06
374.739	96.06
374.965	106.06
375.191	112.06
375.416	100.06
375.642	80.06
375.868	105.06
376.094	98.06
376.319	83.06
376.545	88.06
376.771	89.06
376.997	93.06
377.222	97.06
377.448	103.06
377.674	101.06
377.899	98.06
378.125	98.06
378.35	87.06
378.576	109.06
378.802	103.06
379.027	98.06
379.253	83.06
379.478	104.06
379.704	83.06
379.929	107.06
380.155	89.06
380.38	97.06
380.606	109.06
380.831	98.06
381.057	104.06
381.282	97.06
381.507	92.06
381.733	107.06
381.958	99.06
382.184	100.06
382.409	99.06
382.634	106.06
382.86	109.06
383.085	97.06
383.31	104.06
383.535	104.06
383.761	110.06
383.986	106.06
384.211	106.06
384.436	100.06
384.662	116.06
384.887	101.06
385.112	100.06
385.337	103.06
385.562	114.06
385.787	115.06
386.013	102.06
386.238	123.06
386.463	119.06
386.688	114.06
386.913	116.06
387.138	122.06
387.363	104.06
387.588	117.06
387.813	110.06
388.038	126.06
388.263	108.06
388.488	117.06
388.713	101.06
388.938	100.06
389.163	100.06
389.387	106.06
389.612	99.06
389.837	91.06
390.062	89.06
390.287	107.06
390.512	98.06
390.736	108.06
390.961	105.06
391.186	84.06
391.411	107.06
391.636	102.06
391.86	92.06
392.085	79.06
392.31	90.06
392.534	72.06
392.759	92.06
392.984	95.06
393.208	90.06
393.433	88.06
393.658	100.06
393.882	86.06
394.107	98.06
394.331	98.06
394.556	97.06
394.78	88.06
395.005	100.06
395.229	80.06
395.454	87.06
395.678	83.06
395.903	88.06
396.127	79.06
396.352	103.06
396.576	87.06
396.801	80.06
397.025	91.06
397.249	87.06
397.474	78.06
397.698	84.06
397.922	92.06
398.147	89.06
398.371	90.06
398.595	92.06
398.82	87.06
399.044	93.06
399.268	78.06
399.492	88.06
399.717	97.06
399.941	97.06
400.165	88.06
400.389	96.06
400.613	94.06
400.837	83.06
401.062	85.06
401.286	90.06
401.51	90.06
401.734	100.06
401.958	99.06
402.182	115.06
402.406	127.06
402.63	94.06
402.854	85.06
403.078	81.06
403.302	93.06
403.526	88.06
403.75	79.06
403.974	83.06
404.198	75.06
404.422	99.06
404.645	89.06
404.869	100.06
405.093	101.06
405.317	104.06
405.541	93.06
405.765	87.06
405.988	109.06
406.212	126.06
406.436	190.06
406.66	116.06
406.883	112.06
407.107	100.06
407.331	95.06
407.555	96.06
407.778	91.06
408.002	103.06
408.226	105.06
408.449	95.06
408.673	103.06
408.896	90.06
409.12	99.06
409.344	103.06
409.567	96.06
409.791	94.06
410.014	111.06
410.238	94.06
410.461	86.06
410.685	100.06
410.908	113.06
411.132	105.06
411.355	100.06
411.578	103.06
411.802	71.06
412.025	97.06
412.249	98.06
412.472	94.06
412.695	73.06
412.919	97.06
413.142	98.06
413.365	92.06
413.589	101.06
413.812	72.06
414.035	99.06
414.258	94.06
414.482	91.06
414.705	98.06
414.928	103.06
415.151	99.06
415.374	99.06
415.597	88.06
415.821	102.06
416.044	89.06
416.267	85.06
416.49	82.06
416.713	84.06
416.936	97.06
417.159	111.06
417.382	91.06
417.605	92.06
417.828	93.06
418.051	98.06
418.274	98.06
418.497	100.06
418.72	97.06
418.943	106.06
419.166	90.06
419.389	94.06
419.611	92.06
419.834	96.06
420.057	95.06
420.28	101.06
420.503	87.06
420.726	83.06
420.948	82.06
421.171	89.06
421.394	86.06
421.617	101.06
421.839	78.06
422.062	91.06
422.285	86.06
422.507	102.06
422.73	92.06
422.953	91.06
423.175	91.06
423.398	90.06
423.621	106.06
423.843	83.06
424.066	84.06
424.288	81.06
424.511	99.06
424.733	94.06
424.956	94.06
425.178	100.06
425.401	90.06
425.623	93.06
425.846	88.06
426.068	88.06
426.291	101.06
426.513	90.06
426.735	92.06
426.958	92.06
427.18	105.06
427.402	130.06
427.625	153.06
427.847	121.06
428.069	100.06
428.292	98.06
428.514	79.06
428.736	89.06
428.958	74.06
429.181	89.06
429.403	87.06
429.625	110.06
429.847	88.06
430.069	94.06
430.292	91.06
430.514	98.06
430.736	89.06
430.958	109.06
431.18	84.06
431.402	92.06
431.624	77.06
431.846	79.06
432.068	113.06
432.29	99.06
432.512	92.06
432.734	77.06
432.956	82.06
433.178	89.06
433.4	97.06
433.622	92.06
433.844	87.06
434.066	95.06
434.287	82.06
434.509	93.06
434.731	98.06
434.953	88.06
435.175	85.06
435.397	86.06
435.618	88.06
435.84	96.06
436.062	124.06
436.284	108.06
436.505	101.06
436.727	97.06
436.949	83.06
437.17	84.06
437.392	90.06
437.614	98.06
437.835	101.06
438.057	112.06
438.278	107.06
438.5	95.06
438.721	112.06
438.943	105.06
439.165	91.06
439.386	93.06
439.608	99.06
439.829	107.06
440.05	127.06
440.272	128.06
440.493	96.06
440.715	93.06
440.936	67.06
441.158	87.06
441.379	90.06
441.6	96.06
441.822	93.06
442.043	87.06
442.264	91.06
442.486	91.06
442.707	84.06
442.928	86.06
443.149	91.06
443.371	109.06
443.592	103.06
443.813	95.06
444.034	106.06
444.255	94.06
444.476	95.06
444.698	73.06
444.919	87.06
445.14	143.06
445.361	140.06
445.582	113.06
445.803	132.06
446.024	123.06
446.245	137.06
446.466	105.06
446.687	88.06
446.908	82.06
447.129	89.06
447.35	89.06
447.571	89.06
447.792	105.06
448.013	107.06
448.234	97.06
448.455	91.06
448.675	108.06
448.896	102.06
449.117	92.06
449.338	97.06
449.559	120.06
449.779	140.06
450	95.06
450.221	88.06
450.442	93.06
450.662	96.06
450.883	89.06
451.104	95.06
451.324	99.06
451.545	90.06
451.766	96.06
451.986	93.06
452.207	81.06
452.428	95.06
452.648	87.06
452.869	101.06
453.089	86.06
453.31	104.06
453.53	81.06
453.751	83.06
453.971	101.06
454.192	94.06
454.412	86.06
454.633	78.06
454.853	95.06
455.073	90.06
455.294	101.06
455.514	103.06
455.734	86.06
455.955	80.06
456.175	91.06
456.395	77.06
456.616	108.06
456.836	76.06
457.056	93.06
457.276	79.06
457.497	84.06
457.717	85.06
457.937	89.06
458.157	89.06
458.377	90.06
458.598	88.06
458.818	130.06
459.038	140.06
459.258	115.06
459.478	94.06
459.698	93.06
459.918	101.06
460.138	109.06
460.358	87.06
460.578	93.06
460.798	75.06
461.018	86.06
461.238	75.06
461.458	89.06
461.678	87.06
461.898	83.06
462.118	87.06
462.338	91.06
462.558	94.06
462.777	82.06
462.997	82.06
463.217	87.06
463.437	99.06
463.657	79.06
463.876	88.06
464.096	80.06
464.316	88.06
464.536	88.06
464.755	99.06
464.975	113.06
465.195	138.06
465.414	132.06
465.634	98.06
465.854	84.06
466.073	85.06
466.293	95.06
466.512	91.06
466.732	99.06
466.951	71.06
467.171	106.06
467.391	96.06
467.61	100.06
467.829	93.06
468.049	86.06
468.268	86.06
468.488	91.06
468.707	94.06
468.927	96.06
469.146	82.06
469.365	96.06
469.585	93.06
469.804	92.06
470.023	94.06
470.243	99.06
470.462	92.06
470.681	107.06
470.901	93.06
471.12	85.06
471.339	96.06
471.558	90.06
471.777	62.06
471.997	92.06
472.216	75.06
472.435	104.06
472.654	85.06
472.873	80.06
473.092	84.06
473.311	92.06
473.53	96.06
473.749	79.06
473.968	86.06
474.187	102.06
474.406	101.06
474.625	84.06
474.844	76.06
475.063	91.06
475.282	81.06
475.501	84.06
475.72	90.06
475.939	83.06
476.158	86.06
476.377	99.06
476.596	83.06
476.814	90.06
477.033	88.06
477.252	85.06
477.471	72.06
477.69	99.06
477.908	99.06
478.127	94.06
478.346	96.06
478.564	91.06
478.783	96.06
479.002	96.06
479.22	91.06
479.439	91.06
479.658	102.06
479.876	89.06
480.095	97.06
480.313	83.06
480.532	101.06
480.751	89.06
480.969	90.06
481.188	109.06
481.406	102.06
481.624	91.06
481.843	81.06
482.061	92.06
482.28	86.06
482.498	88.06
482.717	79.06
482.935	88.06
483.153	79.06
483.372	96.06
483.59	77.06
483.808	86.06
484.027	106.06
484.245	91.06
484.463	97.06
484.681	105.06
484.9	111.06
485.118	92.06
485.336	97.06
485.554	99.06
485.772	97.06
485.99	102.06
486.209	107.06
486.427	107.06
486.645	120.06
486.863	108.06
487.081	98.06
487.299	104.06
487.517	105.06
487.735	100.06
487.953	89.06
488.171	89.06
488.389	100.06
488.607	91.06
488.825	96.06
489.043	93.06
489.261	106.06
489.479	84.06
489.696	87.06
489.914	97.06
490.132	82.06
490.35	81.06
490.568	89.06
490.786	86.06
491.003	86.06
491.221	95.06
491.439	88.06
491.657	84.06
491.874	88.06
492.092	96.06
492.31	81.06
492.527	87.06
492.745	93.06
492.963	102.06
493.18	85.06
493.398	95.06
493.615	113.06
493.833	104.06
494.05	83.06
494.268	98.06
494.485	82.06
494.703	96.06
494.92	93.06
495.138	104.06
495.355	110.06
495.573	90.06
495.79	92.06
496.008	96.06
496.225	96.06
496.442	93.06
496.66	92.06
496.877	100.06
497.094	106.06
497.312	96.06
497.529	83.06
497.746	92.06
497.963	87.06
498.181	87.06
498.398	84.06
498.615	98.06
498.832	106.06
499.049	90.06
499.267	83.06
499.484	91.06
499.701	81.06
499.918	80.06
500.135	80.06
500.352	82.06
500.569	79.06
500.786	89.06
501.003	92.06
501.22	90.06
501.437	83.06
501.654	79.06
501.871	101.06
502.088	95.06
502.305	97.06
502.522	94.06
502.739	83.06
502.956	98.06
503.172	92.06
503.389	96.06
503.606	107.06
503.823	104.06
504.04	98.06
504.256	94.06
504.473	82.06
504.69	83.06
504.907	84.06
505.123	103.06
505.34	100.06
505.557	93.06
505.773	104.06
505.99	83.06
506.207	87.06
506.423	96.06
506.64	105.06
506.856	88.06
507.073	82.06
507.289	93.06
507.506	81.06
507.722	90.06
507.939	99.06
508.155	106.06
508.372	85.06
508.588	86.06
508.805	111.06
509.021	82.06
509.238	105.06
509.454	101.06
509.67	100.06
509.887	116.06
510.103	129.06
510.319	197.06
510.536	589.06
510.752	1761.06
510.968	495.06
511.184	140.06
511.401	101.06
511.617	93.06
511.833	104.06
512.049	107.06
512.265	98.06
512.481	95.06
512.698	92.06
512.914	97.06
513.13	79.06
513.346	94.06
513.562	90.06
513.778	97.06
513.994	101.06
514.21	108.06
514.426	107.06
514.642	114.06
514.858	124.06
515.074	159.06
