Data from Uncirc_1998_H10_HRD10591_00057.txt Node
Date: Wed Jan 03 11:25:36 EST 2024
User: Yrep
Spectrometer: HR+D1059
Trigger mode: 1
Integration Time (sec): 1.000000E-1
Scans to average: 1
Electric dark correction enabled: true
Nonlinearity correction enabled: false
Boxcar width: 0
XAxis mode: Wavelengths
Number of Pixels in Spectrum: 2048
>>>>>Begin Spectral Data<<<<<
223.165	-25.69
223.4	-25.69
223.635	-25.69
223.869	-18.69
224.104	-19.69
224.338	-17.69
224.573	-5.69
224.808	-18.69
225.042	-10.69
225.277	0.31
225.511	1.31
225.746	-0.69
225.98	9.31
226.215	12.31
226.449	13.31
226.683	25.31
226.918	20.31
227.152	35.31
227.387	36.31
227.621	39.31
227.856	45.31
228.09	61.31
228.324	41.31
228.559	60.31
228.793	71.31
229.027	63.31
229.262	63.31
229.496	79.31
229.73	76.31
229.964	96.31
230.199	74.31
230.433	74.31
230.667	77.31
230.901	60.31
231.136	75.31
231.37	83.31
231.604	88.31
231.838	91.31
232.072	70.31
232.306	73.31
232.541	63.31
232.775	96.31
233.009	89.31
233.243	73.31
233.477	67.31
233.711	75.31
233.945	80.31
234.179	78.31
234.413	73.31
234.647	77.31
234.881	78.31
235.115	84.31
235.349	87.31
235.583	74.31
235.817	78.31
236.051	76.31
236.285	78.31
236.519	67.31
236.753	75.31
236.987	72.31
237.221	83.31
237.455	90.31
237.689	93.31
237.922	81.31
238.156	73.31
238.39	86.31
238.624	83.31
238.858	79.31
239.091	83.31
239.325	83.31
239.559	82.31
239.793	86.31
240.027	73.31
240.26	76.31
240.494	74.31
240.728	83.31
240.961	73.31
241.195	80.31
241.429	75.31
241.662	76.31
241.896	87.31
242.13	75.31
242.363	73.31
242.597	82.31
242.83	88.31
243.064	83.31
243.298	73.31
243.531	81.31
243.765	72.31
243.998	85.31
244.232	85.31
244.465	83.31
244.699	83.31
244.932	79.31
245.166	74.31
245.399	77.31
245.633	71.31
245.866	86.31
246.099	78.31
246.333	80.31
246.566	68.31
246.8	82.31
247.033	78.31
247.266	88.31
247.5	68.31
247.733	76.31
247.966	87.31
248.2	83.31
248.433	69.31
248.666	77.31
248.899	86.31
249.133	81.31
249.366	82.31
249.599	103.31
249.832	79.31
250.066	65.31
250.299	96.31
250.532	88.31
250.765	63.31
250.998	77.31
251.231	73.31
251.465	77.31
251.698	85.31
251.931	84.31
252.164	89.31
252.397	75.31
252.63	81.31
252.863	81.31
253.096	72.31
253.329	84.31
253.562	94.31
253.795	79.31
254.028	79.31
254.261	85.31
254.494	85.31
254.727	78.31
254.96	82.31
255.193	82.31
255.426	77.31
255.659	82.31
255.892	94.31
256.124	77.31
256.357	79.31
256.59	81.31
256.823	79.31
257.056	95.31
257.289	67.31
257.521	82.31
257.754	80.31
257.987	79.31
258.22	74.31
258.452	83.31
258.685	83.31
258.918	57.31
259.151	93.31
259.383	63.31
259.616	69.31
259.849	87.31
260.081	78.31
260.314	78.31
260.547	71.31
260.779	83.31
261.012	92.31
261.244	78.31
261.477	82.31
261.71	94.31
261.942	106.31
262.175	107.31
262.407	94.31
262.64	80.31
262.872	90.31
263.105	90.31
263.337	83.31
263.57	88.31
263.802	73.31
264.035	82.31
264.267	74.31
264.499	97.31
264.732	90.31
264.964	79.31
265.197	73.31
265.429	94.31
265.661	84.31
265.894	84.31
266.126	92.31
266.358	77.31
266.591	85.31
266.823	85.31
267.055	76.31
267.287	90.31
267.52	87.31
267.752	76.31
267.984	76.31
268.216	79.31
268.448	78.31
268.681	94.31
268.913	91.31
269.145	99.31
269.377	80.31
269.609	83.31
269.841	74.31
270.073	81.31
270.306	82.31
270.538	105.31
270.77	87.31
271.002	79.31
271.234	80.31
271.466	93.31
271.698	98.31
271.93	90.31
272.162	95.31
272.394	96.31
272.626	85.31
272.858	85.31
273.09	95.31
273.322	101.31
273.553	88.31
273.785	67.31
274.017	92.31
274.249	94.31
274.481	85.31
274.713	79.31
274.945	80.31
275.176	82.31
275.408	88.31
275.64	92.31
275.872	94.31
276.104	79.31
276.335	93.31
276.567	97.31
276.799	103.31
277.031	99.31
277.262	88.31
277.494	88.31
277.726	86.31
277.957	95.31
278.189	85.31
278.421	91.31
278.652	92.31
278.884	78.31
279.115	75.31
279.347	80.31
279.579	91.31
279.81	89.31
280.042	91.31
280.273	98.31
280.505	69.31
280.736	70.31
280.968	94.31
281.199	98.31
281.431	97.31
281.662	80.31
281.894	83.31
282.125	107.31
282.356	103.31
282.588	115.31
282.819	98.31
283.051	98.31
283.282	87.31
283.513	83.31
283.745	78.31
283.976	83.31
284.207	80.31
284.439	93.31
284.67	83.31
284.901	95.31
285.132	84.31
285.364	75.31
285.595	88.31
285.826	92.31
286.057	83.31
286.288	95.31
286.52	93.31
286.751	88.31
286.982	88.31
287.213	90.31
287.444	82.31
287.675	71.31
287.906	89.31
288.138	75.31
288.369	101.31
288.6	89.31
288.831	89.31
289.062	99.31
289.293	98.31
289.524	94.31
289.755	77.31
289.986	96.31
290.217	88.31
290.448	80.31
290.679	85.31
290.91	88.31
291.141	85.31
291.371	88.31
291.602	72.31
291.833	92.31
292.064	88.31
292.295	85.31
292.526	83.31
292.757	95.31
292.987	92.31
293.218	85.31
293.449	74.31
293.68	91.31
293.91	89.31
294.141	89.31
294.372	83.31
294.603	80.31
294.833	91.31
295.064	80.31
295.295	90.31
295.525	98.31
295.756	81.31
295.987	106.31
296.217	118.31
296.448	113.31
296.679	88.31
296.909	79.31
297.14	94.31
297.37	101.31
297.601	93.31
297.831	90.31
298.062	100.31
298.292	109.31
298.523	95.31
298.753	94.31
298.984	93.31
299.214	97.31
299.445	93.31
299.675	83.31
299.905	95.31
300.136	94.31
300.366	85.31
300.597	91.31
300.827	89.31
301.057	92.31
301.288	111.31
301.518	88.31
301.748	83.31
301.979	107.31
302.209	95.31
302.439	87.31
302.669	87.31
302.9	93.31
303.13	87.31
303.36	90.31
303.59	108.31
303.82	100.31
304.051	105.31
304.281	88.31
304.511	97.31
304.741	75.31
304.971	89.31
305.201	89.31
305.431	95.31
305.661	91.31
305.891	101.31
306.121	95.31
306.352	82.31
306.582	103.31
306.812	100.31
307.042	99.31
307.272	96.31
307.502	85.31
307.731	93.31
307.961	89.31
308.191	69.31
308.421	87.31
308.651	87.31
308.881	89.31
309.111	86.31
309.341	83.31
309.571	107.31
309.8	86.31
310.03	103.31
310.26	90.31
310.49	88.31
310.72	103.31
310.949	95.31
311.179	80.31
311.409	81.31
311.639	90.31
311.868	107.31
312.098	88.31
312.328	105.31
312.557	102.31
312.787	85.31
313.017	99.31
313.246	94.31
313.476	103.31
313.706	108.31
313.935	83.31
314.165	97.31
314.394	83.31
314.624	98.31
314.853	106.31
315.083	96.31
315.312	97.31
315.542	74.31
315.771	80.31
316.001	87.31
316.23	87.31
316.46	83.31
316.689	90.31
316.919	88.31
317.148	89.31
317.377	103.31
317.607	96.31
317.836	90.31
318.065	74.31
318.295	81.31
318.524	91.31
318.753	98.31
318.983	95.31
319.212	96.31
319.441	111.31
319.67	110.31
319.9	78.31
320.129	89.31
320.358	80.31
320.587	91.31
320.816	98.31
321.046	89.31
321.275	96.31
321.504	105.31
321.733	94.31
321.962	99.31
322.191	102.31
322.42	102.31
322.649	113.31
322.878	110.31
323.108	116.31
323.337	119.31
323.566	117.31
323.795	152.31
324.024	185.31
324.253	345.31
324.482	704.31
324.71	1389.31
324.939	1806.31
325.168	687.31
325.397	224.31
325.626	138.31
325.855	123.31
326.084	115.31
326.313	132.31
326.542	149.31
326.77	200.31
326.999	389.31
327.228	793.31
327.457	1444.31
327.686	1129.31
327.914	331.31
328.143	189.31
328.372	132.31
328.6	106.31
328.829	101.31
329.058	123.31
329.287	126.31
329.515	102.31
329.744	96.31
329.972	110.31
330.201	79.31
330.43	109.31
330.658	103.31
330.887	122.31
331.115	111.31
331.344	99.31
331.572	109.31
331.801	120.31
332.03	99.31
332.258	91.31
332.486	109.31
332.715	106.31
332.943	92.31
333.172	98.31
333.4	115.31
333.629	108.31
333.857	89.31
334.085	101.31
334.314	97.31
334.542	92.31
334.771	110.31
334.999	91.31
335.227	101.31
335.455	85.31
335.684	91.31
335.912	99.31
336.14	93.31
336.369	100.31
336.597	98.31
336.825	93.31
337.053	91.31
337.281	93.31
337.51	101.31
337.738	90.31
337.966	82.31
338.194	91.31
338.422	100.31
338.65	100.31
338.878	76.31
339.106	96.31
339.334	101.31
339.562	94.31
339.79	91.31
340.018	90.31
340.246	90.31
340.474	92.31
340.702	82.31
340.93	95.31
341.158	101.31
341.386	88.31
341.614	98.31
341.842	112.31
342.07	105.31
342.298	102.31
342.526	91.31
342.754	78.31
342.981	79.31
343.209	96.31
343.437	91.31
343.665	94.31
343.893	98.31
344.12	97.31
344.348	92.31
344.576	89.31
344.804	93.31
345.031	78.31
345.259	103.31
345.487	95.31
345.714	100.31
345.942	88.31
346.17	83.31
346.397	89.31
346.625	90.31
346.853	102.31
347.08	90.31
347.308	103.31
347.535	104.31
347.763	99.31
347.99	102.31
348.218	88.31
348.445	112.31
348.673	96.31
348.9	87.31
349.128	99.31
349.355	90.31
349.583	92.31
349.81	93.31
350.037	100.31
350.265	96.31
350.492	72.31
350.72	85.31
350.947	110.31
351.174	100.31
351.402	108.31
351.629	95.31
351.856	95.31
352.083	89.31
352.311	89.31
352.538	103.31
352.765	108.31
352.992	111.31
353.22	110.31
353.447	110.31
353.674	102.31
353.901	95.31
354.128	96.31
354.355	103.31
354.583	96.31
354.81	105.31
355.037	102.31
355.264	87.31
355.491	104.31
355.718	96.31
355.945	92.31
356.172	94.31
356.399	101.31
356.626	91.31
356.853	92.31
357.08	101.31
357.307	83.31
357.534	85.31
357.761	78.31
357.988	107.31
358.215	98.31
358.441	102.31
358.668	98.31
358.895	85.31
359.122	96.31
359.349	93.31
359.576	95.31
359.802	88.31
360.029	102.31
360.256	103.31
360.483	98.31
360.709	99.31
360.936	89.31
361.163	94.31
361.39	91.31
361.616	91.31
361.843	98.31
362.07	99.31
362.296	91.31
362.523	89.31
362.749	92.31
362.976	81.31
363.203	93.31
363.429	97.31
363.656	91.31
363.882	85.31
364.109	91.31
364.335	97.31
364.562	90.31
364.788	94.31
365.015	94.31
365.241	99.31
365.468	105.31
365.694	87.31
365.92	105.31
366.147	78.31
366.373	89.31
366.599	98.31
366.826	81.31
367.052	82.31
367.278	101.31
367.505	71.31
367.731	99.31
367.957	95.31
368.184	90.31
368.41	102.31
368.636	102.31
368.862	110.31
369.089	114.31
369.315	95.31
369.541	96.31
369.767	66.31
369.993	97.31
370.219	80.31
370.445	91.31
370.672	88.31
370.898	98.31
371.124	93.31
371.35	104.31
371.576	80.31
371.802	95.31
372.028	88.31
372.254	93.31
372.48	86.31
372.706	80.31
372.932	72.31
373.158	94.31
373.384	101.31
373.61	95.31
373.835	85.31
374.061	80.31
374.287	94.31
374.513	89.31
374.739	83.31
374.965	99.31
375.191	93.31
375.416	78.31
375.642	93.31
375.868	96.31
376.094	98.31
376.319	94.31
376.545	88.31
376.771	96.31
376.997	84.31
377.222	89.31
377.448	77.31
377.674	87.31
377.899	85.31
378.125	86.31
378.35	90.31
378.576	79.31
378.802	86.31
379.027	81.31
379.253	91.31
379.478	103.31
379.704	93.31
379.929	86.31
380.155	92.31
380.38	89.31
380.606	93.31
380.831	100.31
381.057	95.31
381.282	97.31
381.507	86.31
381.733	89.31
381.958	103.31
382.184	96.31
382.409	89.31
382.634	99.31
382.86	97.31
383.085	99.31
383.31	100.31
383.535	78.31
383.761	107.31
383.986	85.31
384.211	81.31
384.436	89.31
384.662	101.31
384.887	103.31
385.112	99.31
385.337	87.31
385.562	82.31
385.787	86.31
386.013	105.31
386.238	113.31
386.463	109.31
386.688	115.31
386.913	96.31
387.138	94.31
387.363	93.31
387.588	102.31
387.813	84.31
388.038	100.31
388.263	103.31
388.488	107.31
388.713	101.31
388.938	97.31
389.163	86.31
389.387	85.31
389.612	93.31
389.837	100.31
390.062	100.31
390.287	94.31
390.512	87.31
390.736	95.31
390.961	95.31
391.186	101.31
391.411	95.31
391.636	82.31
391.86	89.31
392.085	89.31
392.31	91.31
392.534	90.31
392.759	87.31
392.984	95.31
393.208	92.31
393.433	78.31
393.658	91.31
393.882	92.31
394.107	80.31
394.331	83.31
394.556	86.31
394.78	88.31
395.005	81.31
395.229	83.31
395.454	81.31
395.678	77.31
395.903	92.31
396.127	83.31
396.352	88.31
396.576	86.31
396.801	81.31
397.025	87.31
397.249	79.31
397.474	97.31
397.698	86.31
397.922	93.31
398.147	95.31
398.371	85.31
398.595	78.31
398.82	88.31
399.044	81.31
399.268	88.31
399.492	108.31
399.717	80.31
399.941	94.31
400.165	102.31
400.389	94.31
400.613	82.31
400.837	80.31
401.062	73.31
401.286	89.31
401.51	97.31
401.734	91.31
401.958	89.31
402.182	116.31
402.406	146.31
402.63	105.31
402.854	101.31
403.078	88.31
403.302	78.31
403.526	96.31
403.75	88.31
403.974	93.31
404.198	84.31
404.422	84.31
404.645	99.31
404.869	95.31
405.093	96.31
405.317	97.31
405.541	99.31
405.765	107.31
405.988	128.31
406.212	149.31
406.436	181.31
406.66	124.31
406.883	97.31
407.107	86.31
407.331	92.31
407.555	98.31
407.778	99.31
408.002	92.31
408.226	105.31
408.449	97.31
408.673	96.31
408.896	105.31
409.12	99.31
409.344	82.31
409.567	88.31
409.791	98.31
410.014	99.31
410.238	87.31
410.461	93.31
410.685	92.31
410.908	98.31
411.132	101.31
411.355	106.31
411.578	97.31
411.802	88.31
412.025	104.31
412.249	98.31
412.472	101.31
412.695	104.31
412.919	95.31
413.142	82.31
413.365	84.31
413.589	94.31
413.812	90.31
414.035	96.31
414.258	84.31
414.482	100.31
414.705	91.31
414.928	94.31
415.151	83.31
415.374	91.31
415.597	79.31
415.821	90.31
416.044	90.31
416.267	89.31
416.49	95.31
416.713	82.31
416.936	86.31
417.159	75.31
417.382	98.31
417.605	92.31
417.828	98.31
418.051	81.31
418.274	78.31
418.497	96.31
418.72	83.31
418.943	83.31
419.166	96.31
419.389	89.31
419.611	98.31
419.834	96.31
420.057	97.31
420.28	94.31
420.503	88.31
420.726	98.31
420.948	91.31
421.171	97.31
421.394	98.31
421.617	89.31
421.839	96.31
422.062	83.31
422.285	86.31
422.507	98.31
422.73	105.31
422.953	96.31
423.175	83.31
423.398	96.31
423.621	94.31
423.843	98.31
424.066	90.31
424.288	92.31
424.511	75.31
424.733	82.31
424.956	99.31
425.178	89.31
425.401	107.31
425.623	104.31
425.846	100.31
426.068	90.31
426.291	96.31
426.513	89.31
426.735	74.31
426.958	103.31
427.18	103.31
427.402	128.31
427.625	155.31
427.847	130.31
428.069	106.31
428.292	86.31
428.514	83.31
428.736	89.31
428.958	71.31
429.181	85.31
429.403	95.31
429.625	94.31
429.847	73.31
430.069	104.31
430.292	100.31
430.514	98.31
430.736	84.31
430.958	90.31
431.18	87.31
431.402	71.31
431.624	87.31
431.846	81.31
432.068	79.31
432.29	95.31
432.512	79.31
432.734	87.31
432.956	87.31
433.178	96.31
433.4	97.31
433.622	93.31
433.844	85.31
434.066	101.31
434.287	89.31
434.509	80.31
434.731	80.31
434.953	89.31
435.175	90.31
435.397	87.31
435.618	80.31
435.84	94.31
436.062	120.31
436.284	116.31
436.505	103.31
436.727	95.31
436.949	90.31
437.17	75.31
437.392	93.31
437.614	91.31
437.835	102.31
438.057	107.31
438.278	100.31
438.5	89.31
438.721	120.31
438.943	95.31
439.165	95.31
439.386	89.31
439.608	85.31
439.829	95.31
440.05	121.31
440.272	138.31
440.493	94.31
440.715	97.31
440.936	90.31
441.158	95.31
441.379	86.31
441.6	90.31
441.822	101.31
442.043	90.31
442.264	103.31
442.486	97.31
442.707	87.31
442.928	99.31
443.149	127.31
443.371	102.31
443.592	114.31
443.813	110.31
444.034	110.31
444.255	92.31
444.476	81.31
444.698	92.31
444.919	88.31
445.14	145.31
445.361	135.31
445.582	103.31
445.803	119.31
446.024	122.31
446.245	115.31
446.466	102.31
446.687	98.31
446.908	85.31
447.129	93.31
447.35	85.31
447.571	96.31
447.792	92.31
448.013	98.31
448.234	106.31
448.455	92.31
448.675	95.31
448.896	104.31
449.117	93.31
449.338	101.31
449.559	121.31
449.779	138.31
450	94.31
450.221	82.31
450.442	86.31
450.662	94.31
450.883	106.31
451.104	106.31
451.324	103.31
451.545	89.31
451.766	83.31
451.986	88.31
452.207	98.31
452.428	80.31
452.648	103.31
452.869	107.31
453.089	97.31
453.31	103.31
453.53	93.31
453.751	77.31
453.971	93.31
454.192	92.31
454.412	90.31
454.633	79.31
454.853	88.31
455.073	65.31
455.294	103.31
455.514	88.31
455.734	92.31
455.955	79.31
456.175	86.31
456.395	81.31
456.616	99.31
456.836	90.31
457.056	89.31
457.276	90.31
457.497	75.31
457.717	92.31
457.937	87.31
458.157	65.31
458.377	97.31
458.598	110.31
458.818	124.31
459.038	140.31
459.258	96.31
459.478	85.31
459.698	65.31
459.918	93.31
460.138	85.31
460.358	91.31
460.578	87.31
460.798	89.31
461.018	104.31
461.238	94.31
461.458	83.31
461.678	85.31
461.898	88.31
462.118	75.31
462.338	89.31
462.558	77.31
462.777	89.31
462.997	90.31
463.217	90.31
463.437	89.31
463.657	90.31
463.876	98.31
464.096	76.31
464.316	80.31
464.536	97.31
464.755	89.31
464.975	102.31
465.195	147.31
465.414	139.31
465.634	97.31
465.854	96.31
466.073	86.31
466.293	96.31
466.512	84.31
466.732	90.31
466.951	88.31
467.171	95.31
467.391	84.31
467.61	95.31
467.829	96.31
468.049	100.31
468.268	93.31
468.488	85.31
468.707	69.31
468.927	86.31
469.146	82.31
469.365	87.31
469.585	88.31
469.804	82.31
470.023	97.31
470.243	81.31
470.462	105.31
470.681	97.31
470.901	88.31
471.12	86.31
471.339	73.31
471.558	85.31
471.777	74.31
471.997	82.31
472.216	102.31
472.435	95.31
472.654	90.31
472.873	81.31
473.092	84.31
473.311	81.31
473.53	95.31
473.749	89.31
473.968	93.31
474.187	99.31
474.406	84.31
474.625	87.31
474.844	105.31
475.063	83.31
475.282	90.31
475.501	78.31
475.72	88.31
475.939	83.31
476.158	83.31
476.377	73.31
476.596	97.31
476.814	98.31
477.033	87.31
477.252	89.31
477.471	97.31
477.69	81.31
477.908	90.31
478.127	88.31
478.346	86.31
478.564	95.31
478.783	80.31
479.002	87.31
479.22	95.31
479.439	92.31
479.658	102.31
479.876	97.31
480.095	109.31
480.313	80.31
480.532	82.31
480.751	79.31
480.969	80.31
481.188	110.31
481.406	94.31
481.624	90.31
481.843	86.31
482.061	89.31
482.28	86.31
482.498	73.31
482.717	86.31
482.935	97.31
483.153	96.31
483.372	93.31
483.59	88.31
483.808	89.31
484.027	91.31
484.245	96.31
484.463	79.31
484.681	103.31
484.9	81.31
485.118	101.31
485.336	98.31
485.554	104.31
485.772	102.31
485.99	106.31
486.209	100.31
486.427	104.31
486.645	99.31
486.863	115.31
487.081	105.31
487.299	103.31
487.517	90.31
487.735	101.31
487.953	98.31
488.171	108.31
488.389	103.31
488.607	94.31
488.825	91.31
489.043	91.31
489.261	98.31
489.479	100.31
489.696	103.31
489.914	92.31
490.132	91.31
490.35	82.31
490.568	90.31
490.786	86.31
491.003	88.31
491.221	106.31
491.439	93.31
491.657	83.31
491.874	92.31
492.092	88.31
492.31	65.31
492.527	92.31
492.745	86.31
492.963	94.31
493.18	89.31
493.398	99.31
493.615	99.31
493.833	93.31
494.05	94.31
494.268	84.31
494.485	103.31
494.703	89.31
494.92	88.31
495.138	105.31
495.355	110.31
495.573	94.31
495.79	90.31
496.008	101.31
496.225	91.31
496.442	89.31
496.66	93.31
496.877	95.31
497.094	91.31
497.312	84.31
497.529	92.31
497.746	103.31
497.963	95.31
498.181	97.31
498.398	92.31
498.615	104.31
498.832	101.31
499.049	84.31
499.267	86.31
499.484	82.31
499.701	94.31
499.918	89.31
500.135	98.31
500.352	89.31
500.569	87.31
500.786	67.31
501.003	78.31
501.22	83.31
501.437	95.31
501.654	89.31
501.871	94.31
502.088	89.31
502.305	93.31
502.522	80.31
502.739	91.31
502.956	95.31
503.172	100.31
503.389	93.31
503.606	97.31
503.823	95.31
504.04	102.31
504.256	79.31
504.473	93.31
504.69	91.31
504.907	93.31
505.123	86.31
505.34	88.31
505.557	86.31
505.773	92.31
505.99	99.31
506.207	91.31
506.423	78.31
506.64	96.31
506.856	89.31
507.073	92.31
507.289	103.31
507.506	90.31
507.722	104.31
507.939	88.31
508.155	83.31
508.372	111.31
508.588	91.31
508.805	96.31
509.021	90.31
509.238	90.31
509.454	88.31
509.67	95.31
509.887	85.31
510.103	117.31
510.319	182.31
510.536	635.31
510.752	1908.31
510.968	577.31
511.184	157.31
511.401	113.31
511.617	97.31
511.833	92.31
512.049	96.31
512.265	93.31
512.481	87.31
512.698	77.31
512.914	85.31
513.13	103.31
513.346	91.31
513.562	103.31
513.778	98.31
513.994	101.31
514.21	93.31
514.426	120.31
514.642	115.31
514.858	112.31
515.074	159.31
515.29	350.31
515.506	1115.31
515.721	429.31
515.937	139.31
516.153	96.31
