Data from Uncirc_1998_H10_HRD10591_00010.txt Node
Date: Wed Jan 03 11:25:26 EST 2024
User: Yrep
Spectrometer: HR+D1059
Trigger mode: 1
Integration Time (sec): 1.000000E-1
Scans to average: 1
Electric dark correction enabled: true
Nonlinearity correction enabled: false
Boxcar width: 0
XAxis mode: Wavelengths
Number of Pixels in Spectrum: 2048
>>>>>Begin Spectral Data<<<<<
223.165	-12.94
223.4	-12.94
223.635	-12.94
223.869	-25.94
224.104	-18.94
224.338	-11.94
224.573	-23.94
224.808	-13.94
225.042	-4.94
225.277	-2.94
225.511	-0.94
225.746	12.06
225.98	10.06
226.215	8.06
226.449	14.06
226.683	22.06
226.918	35.06
227.152	15.06
227.387	38.06
227.621	45.06
227.856	34.06
228.09	53.06
228.324	60.06
228.559	44.06
228.793	56.06
229.027	48.06
229.262	78.06
229.496	81.06
229.73	80.06
229.964	86.06
230.199	85.06
230.433	82.06
230.667	71.06
230.901	95.06
231.136	77.06
231.37	71.06
231.604	86.06
231.838	83.06
232.072	85.06
232.306	94.06
232.541	94.06
232.775	82.06
233.009	86.06
233.243	79.06
233.477	80.06
233.711	74.06
233.945	85.06
234.179	83.06
234.413	89.06
234.647	80.06
234.881	82.06
235.115	79.06
235.349	80.06
235.583	74.06
235.817	90.06
236.051	85.06
236.285	65.06
236.519	76.06
236.753	73.06
236.987	80.06
237.221	62.06
237.455	74.06
237.689	72.06
237.922	75.06
238.156	70.06
238.39	84.06
238.624	85.06
238.858	86.06
239.091	69.06
239.325	73.06
239.559	76.06
239.793	63.06
240.027	74.06
240.26	62.06
240.494	84.06
240.728	84.06
240.961	76.06
241.195	86.06
241.429	77.06
241.662	74.06
241.896	73.06
242.13	75.06
242.363	86.06
242.597	71.06
242.83	71.06
243.064	74.06
243.298	57.06
243.531	84.06
243.765	77.06
243.998	91.06
244.232	74.06
244.465	98.06
244.699	78.06
244.932	81.06
245.166	82.06
245.399	67.06
245.633	85.06
245.866	76.06
246.099	64.06
246.333	82.06
246.566	76.06
246.8	89.06
247.033	71.06
247.266	92.06
247.5	62.06
247.733	78.06
247.966	94.06
248.2	80.06
248.433	85.06
248.666	79.06
248.899	86.06
249.133	79.06
249.366	96.06
249.599	83.06
249.832	86.06
250.066	78.06
250.299	82.06
250.532	74.06
250.765	91.06
250.998	76.06
251.231	95.06
251.465	79.06
251.698	90.06
251.931	92.06
252.164	83.06
252.397	72.06
252.63	81.06
252.863	83.06
253.096	77.06
253.329	86.06
253.562	82.06
253.795	80.06
254.028	79.06
254.261	76.06
254.494	85.06
254.727	72.06
254.96	93.06
255.193	86.06
255.426	70.06
255.659	90.06
255.892	78.06
256.124	74.06
256.357	88.06
256.59	74.06
256.823	70.06
257.056	86.06
257.289	80.06
257.521	76.06
257.754	78.06
257.987	65.06
258.22	81.06
258.452	85.06
258.685	67.06
258.918	82.06
259.151	74.06
259.383	86.06
259.616	83.06
259.849	83.06
260.081	83.06
260.314	75.06
260.547	83.06
260.779	90.06
261.012	85.06
261.244	75.06
261.477	91.06
261.71	89.06
261.942	98.06
262.175	103.06
262.407	94.06
262.64	83.06
262.872	81.06
263.105	81.06
263.337	83.06
263.57	75.06
263.802	89.06
264.035	79.06
264.267	81.06
264.499	81.06
264.732	79.06
264.964	88.06
265.197	78.06
265.429	90.06
265.661	82.06
265.894	94.06
266.126	92.06
266.358	89.06
266.591	92.06
266.823	90.06
267.055	83.06
267.287	89.06
267.52	81.06
267.752	77.06
267.984	85.06
268.216	84.06
268.448	86.06
268.681	98.06
268.913	102.06
269.145	93.06
269.377	102.06
269.609	83.06
269.841	80.06
270.073	77.06
270.306	73.06
270.538	81.06
270.77	85.06
271.002	84.06
271.234	105.06
271.466	91.06
271.698	79.06
271.93	98.06
272.162	83.06
272.394	91.06
272.626	95.06
272.858	85.06
273.09	92.06
273.322	99.06
273.553	80.06
273.785	103.06
274.017	73.06
274.249	85.06
274.481	86.06
274.713	81.06
274.945	79.06
275.176	89.06
275.408	86.06
275.64	75.06
275.872	81.06
276.104	94.06
276.335	92.06
276.567	105.06
276.799	104.06
277.031	96.06
277.262	81.06
277.494	82.06
277.726	79.06
277.957	73.06
278.189	83.06
278.421	81.06
278.652	93.06
278.884	85.06
279.115	88.06
279.347	91.06
279.579	84.06
279.81	89.06
280.042	82.06
280.273	95.06
280.505	85.06
280.736	88.06
280.968	87.06
281.199	98.06
281.431	90.06
281.662	77.06
281.894	82.06
282.125	85.06
282.356	105.06
282.588	112.06
282.819	95.06
283.051	80.06
283.282	64.06
283.513	81.06
283.745	82.06
283.976	82.06
284.207	81.06
284.439	85.06
284.67	98.06
284.901	88.06
285.132	74.06
285.364	88.06
285.595	87.06
285.826	86.06
286.057	89.06
286.288	85.06
286.52	83.06
286.751	86.06
286.982	91.06
287.213	94.06
287.444	80.06
287.675	90.06
287.906	84.06
288.138	70.06
288.369	91.06
288.6	91.06
288.831	95.06
289.062	91.06
289.293	95.06
289.524	79.06
289.755	86.06
289.986	77.06
290.217	90.06
290.448	88.06
290.679	91.06
290.91	88.06
291.141	75.06
291.371	87.06
291.602	93.06
291.833	87.06
292.064	83.06
292.295	80.06
292.526	87.06
292.757	96.06
292.987	95.06
293.218	90.06
293.449	80.06
293.68	75.06
293.91	89.06
294.141	83.06
294.372	93.06
294.603	86.06
294.833	94.06
295.064	100.06
295.295	94.06
295.525	85.06
295.756	97.06
295.987	100.06
296.217	119.06
296.448	103.06
296.679	90.06
296.909	90.06
297.14	94.06
297.37	94.06
297.601	71.06
297.831	79.06
298.062	97.06
298.292	97.06
298.523	105.06
298.753	94.06
298.984	85.06
299.214	92.06
299.445	84.06
299.675	90.06
299.905	94.06
300.136	86.06
300.366	85.06
300.597	101.06
300.827	85.06
301.057	93.06
301.288	89.06
301.518	94.06
301.748	101.06
301.979	97.06
302.209	86.06
302.439	73.06
302.669	99.06
302.9	102.06
303.13	90.06
303.36	83.06
303.59	94.06
303.82	98.06
304.051	94.06
304.281	82.06
304.511	82.06
304.741	93.06
304.971	104.06
305.201	105.06
305.431	78.06
305.661	89.06
305.891	88.06
306.121	98.06
306.352	100.06
306.582	93.06
306.812	95.06
307.042	96.06
307.272	90.06
307.502	98.06
307.731	78.06
307.961	94.06
308.191	79.06
308.421	86.06
308.651	90.06
308.881	95.06
309.111	93.06
309.341	90.06
309.571	91.06
309.8	94.06
310.03	103.06
310.26	79.06
310.49	87.06
310.72	90.06
310.949	91.06
311.179	98.06
311.409	99.06
311.639	97.06
311.868	90.06
312.098	102.06
312.328	85.06
312.557	109.06
312.787	101.06
313.017	109.06
313.246	104.06
313.476	105.06
313.706	95.06
313.935	101.06
314.165	105.06
314.394	102.06
314.624	97.06
314.853	89.06
315.083	94.06
315.312	99.06
315.542	88.06
315.771	96.06
316.001	99.06
316.23	105.06
316.46	78.06
316.689	88.06
316.919	98.06
317.148	92.06
317.377	100.06
317.607	87.06
317.836	96.06
318.065	83.06
318.295	102.06
318.524	91.06
318.753	89.06
318.983	87.06
319.212	95.06
319.441	99.06
319.67	97.06
319.9	96.06
320.129	79.06
320.358	95.06
320.587	91.06
320.816	99.06
321.046	106.06
321.275	79.06
321.504	84.06
321.733	97.06
321.962	90.06
322.191	89.06
322.42	101.06
322.649	107.06
322.878	93.06
323.108	98.06
323.337	123.06
323.566	112.06
323.795	136.06
324.024	197.06
324.253	360.06
324.482	745.06
324.71	1482.06
324.939	1880.06
325.168	675.06
325.397	212.06
325.626	130.06
325.855	128.06
326.084	118.06
326.313	135.06
326.542	144.06
326.77	197.06
326.999	416.06
327.228	860.06
327.457	1518.06
327.686	1188.06
327.914	344.06
328.143	208.06
328.372	149.06
328.6	113.06
328.829	101.06
329.058	117.06
329.287	115.06
329.515	107.06
329.744	102.06
329.972	97.06
330.201	90.06
330.43	102.06
330.658	100.06
330.887	131.06
331.115	110.06
331.344	96.06
331.572	92.06
331.801	94.06
332.03	100.06
332.258	99.06
332.486	93.06
332.715	89.06
332.943	92.06
333.172	103.06
333.4	89.06
333.629	108.06
333.857	112.06
334.085	94.06
334.314	89.06
334.542	108.06
334.771	91.06
334.999	109.06
335.227	96.06
335.455	86.06
335.684	101.06
335.912	98.06
336.14	102.06
336.369	98.06
336.597	95.06
336.825	96.06
337.053	89.06
337.281	88.06
337.51	93.06
337.738	112.06
337.966	95.06
338.194	114.06
338.422	109.06
338.65	99.06
338.878	92.06
339.106	98.06
339.334	79.06
339.562	85.06
339.79	94.06
340.018	90.06
340.246	86.06
340.474	96.06
340.702	93.06
340.93	83.06
341.158	99.06
341.386	91.06
341.614	95.06
341.842	66.06
342.07	85.06
342.298	90.06
342.526	81.06
342.754	87.06
342.981	113.06
343.209	86.06
343.437	104.06
343.665	97.06
343.893	93.06
344.12	93.06
344.348	90.06
344.576	92.06
344.804	92.06
345.031	99.06
345.259	101.06
345.487	92.06
345.714	106.06
345.942	87.06
346.17	83.06
346.397	86.06
346.625	95.06
346.853	96.06
347.08	102.06
347.308	101.06
347.535	109.06
347.763	96.06
347.99	98.06
348.218	103.06
348.445	105.06
348.673	87.06
348.9	102.06
349.128	112.06
349.355	99.06
349.583	91.06
349.81	98.06
350.037	101.06
350.265	101.06
350.492	100.06
350.72	91.06
350.947	101.06
351.174	99.06
351.402	108.06
351.629	120.06
351.856	99.06
352.083	102.06
352.311	95.06
352.538	94.06
352.765	98.06
352.992	100.06
353.22	114.06
353.447	96.06
353.674	99.06
353.901	93.06
354.128	94.06
354.355	97.06
354.583	107.06
354.81	108.06
355.037	90.06
355.264	99.06
355.491	94.06
355.718	90.06
355.945	93.06
356.172	104.06
356.399	110.06
356.626	106.06
356.853	93.06
357.08	83.06
357.307	92.06
357.534	85.06
357.761	91.06
357.988	88.06
358.215	106.06
358.441	102.06
358.668	90.06
358.895	97.06
359.122	81.06
359.349	87.06
359.576	82.06
359.802	85.06
360.029	116.06
360.256	95.06
360.483	92.06
360.709	95.06
360.936	80.06
361.163	70.06
361.39	96.06
361.616	92.06
361.843	88.06
362.07	93.06
362.296	80.06
362.523	96.06
362.749	90.06
362.976	99.06
363.203	95.06
363.429	72.06
363.656	93.06
363.882	84.06
364.109	100.06
364.335	79.06
364.562	88.06
364.788	87.06
365.015	99.06
365.241	95.06
365.468	105.06
365.694	81.06
365.92	95.06
366.147	87.06
366.373	72.06
366.599	86.06
366.826	85.06
367.052	89.06
367.278	85.06
367.505	92.06
367.731	89.06
367.957	80.06
368.184	89.06
368.41	87.06
368.636	96.06
368.862	114.06
369.089	95.06
369.315	82.06
369.541	85.06
369.767	81.06
369.993	78.06
370.219	82.06
370.445	92.06
370.672	80.06
370.898	84.06
371.124	90.06
371.35	91.06
371.576	82.06
371.802	92.06
372.028	78.06
372.254	80.06
372.48	82.06
372.706	79.06
372.932	97.06
373.158	86.06
373.384	102.06
373.61	89.06
373.835	97.06
374.061	99.06
374.287	88.06
374.513	83.06
374.739	87.06
374.965	93.06
375.191	85.06
375.416	88.06
375.642	77.06
375.868	105.06
376.094	87.06
376.319	83.06
376.545	72.06
376.771	88.06
376.997	89.06
377.222	83.06
377.448	85.06
377.674	98.06
377.899	109.06
378.125	71.06
378.35	85.06
378.576	95.06
378.802	91.06
379.027	83.06
379.253	88.06
379.478	96.06
379.704	97.06
379.929	94.06
380.155	90.06
380.38	97.06
380.606	85.06
380.831	96.06
381.057	91.06
381.282	83.06
381.507	94.06
381.733	81.06
381.958	100.06
382.184	101.06
382.409	108.06
382.634	103.06
382.86	94.06
383.085	109.06
383.31	111.06
383.535	107.06
383.761	85.06
383.986	100.06
384.211	103.06
384.436	85.06
384.662	87.06
384.887	91.06
385.112	95.06
385.337	92.06
385.562	115.06
385.787	101.06
386.013	96.06
386.238	97.06
386.463	98.06
386.688	114.06
386.913	101.06
387.138	90.06
387.363	92.06
387.588	79.06
387.813	87.06
388.038	107.06
388.263	95.06
388.488	99.06
388.713	97.06
388.938	95.06
389.163	95.06
389.387	104.06
389.612	102.06
389.837	75.06
390.062	111.06
390.287	81.06
390.512	89.06
390.736	89.06
390.961	92.06
391.186	106.06
391.411	102.06
391.636	91.06
391.86	82.06
392.085	86.06
392.31	83.06
392.534	77.06
392.759	81.06
392.984	83.06
393.208	83.06
393.433	88.06
393.658	94.06
393.882	89.06
394.107	100.06
394.331	107.06
394.556	73.06
394.78	91.06
395.005	88.06
395.229	88.06
395.454	76.06
395.678	88.06
395.903	82.06
396.127	79.06
396.352	78.06
396.576	90.06
396.801	78.06
397.025	93.06
397.249	87.06
397.474	89.06
397.698	76.06
397.922	82.06
398.147	81.06
398.371	79.06
398.595	86.06
398.82	80.06
399.044	92.06
399.268	90.06
399.492	89.06
399.717	85.06
399.941	89.06
400.165	91.06
400.389	91.06
400.613	78.06
400.837	81.06
401.062	81.06
401.286	108.06
401.51	85.06
401.734	90.06
401.958	101.06
402.182	122.06
402.406	145.06
402.63	116.06
402.854	84.06
403.078	87.06
403.302	84.06
403.526	89.06
403.75	88.06
403.974	84.06
404.198	91.06
404.422	96.06
404.645	93.06
404.869	81.06
405.093	84.06
405.317	86.06
405.541	103.06
405.765	94.06
405.988	114.06
406.212	142.06
406.436	186.06
406.66	125.06
406.883	98.06
407.107	104.06
407.331	85.06
407.555	83.06
407.778	95.06
408.002	102.06
408.226	93.06
408.449	95.06
408.673	93.06
408.896	90.06
409.12	96.06
409.344	88.06
409.567	92.06
409.791	87.06
410.014	90.06
410.238	89.06
410.461	94.06
410.685	107.06
410.908	109.06
411.132	99.06
411.355	97.06
411.578	87.06
411.802	82.06
412.025	81.06
412.249	98.06
412.472	105.06
412.695	90.06
412.919	98.06
413.142	86.06
413.365	93.06
413.589	73.06
413.812	94.06
414.035	100.06
414.258	88.06
414.482	94.06
414.705	79.06
414.928	93.06
415.151	74.06
415.374	84.06
415.597	90.06
415.821	91.06
416.044	95.06
416.267	83.06
416.49	86.06
416.713	78.06
416.936	97.06
417.159	89.06
417.382	84.06
417.605	93.06
417.828	97.06
418.051	84.06
418.274	92.06
418.497	78.06
418.72	100.06
418.943	85.06
419.166	86.06
419.389	89.06
419.611	76.06
419.834	85.06
420.057	94.06
420.28	93.06
420.503	92.06
420.726	89.06
420.948	77.06
421.171	94.06
421.394	100.06
421.617	88.06
421.839	79.06
422.062	79.06
422.285	94.06
422.507	102.06
422.73	91.06
422.953	91.06
423.175	75.06
423.398	96.06
423.621	101.06
423.843	81.06
424.066	87.06
424.288	82.06
424.511	92.06
424.733	78.06
424.956	96.06
425.178	107.06
425.401	81.06
425.623	99.06
425.846	92.06
426.068	81.06
426.291	92.06
426.513	90.06
426.735	63.06
426.958	105.06
427.18	103.06
427.402	119.06
427.625	153.06
427.847	121.06
428.069	106.06
428.292	94.06
428.514	89.06
428.736	91.06
428.958	78.06
429.181	86.06
429.403	90.06
429.625	99.06
429.847	88.06
430.069	94.06
430.292	86.06
430.514	94.06
430.736	76.06
430.958	94.06
431.18	85.06
431.402	94.06
431.624	74.06
431.846	89.06
432.068	93.06
432.29	84.06
432.512	103.06
432.734	78.06
432.956	79.06
433.178	98.06
433.4	91.06
433.622	90.06
433.844	82.06
434.066	104.06
434.287	82.06
434.509	77.06
434.731	88.06
434.953	100.06
435.175	83.06
435.397	85.06
435.618	113.06
435.84	109.06
436.062	99.06
436.284	114.06
436.505	96.06
436.727	96.06
436.949	90.06
437.17	99.06
437.392	92.06
437.614	96.06
437.835	111.06
438.057	106.06
438.278	90.06
438.5	89.06
438.721	107.06
438.943	98.06
439.165	93.06
439.386	90.06
439.608	88.06
439.829	102.06
440.05	116.06
440.272	126.06
440.493	99.06
440.715	75.06
440.936	92.06
441.158	74.06
441.379	67.06
441.6	78.06
441.822	88.06
442.043	90.06
442.264	96.06
442.486	92.06
442.707	96.06
442.928	96.06
443.149	97.06
443.371	117.06
443.592	97.06
443.813	100.06
444.034	99.06
444.255	86.06
444.476	94.06
444.698	89.06
444.919	86.06
445.14	137.06
445.361	106.06
445.582	112.06
445.803	125.06
446.024	122.06
446.245	124.06
446.466	104.06
446.687	80.06
446.908	98.06
447.129	95.06
447.35	97.06
447.571	97.06
447.792	99.06
448.013	99.06
448.234	101.06
448.455	104.06
448.675	105.06
448.896	105.06
449.117	96.06
449.338	96.06
449.559	111.06
449.779	114.06
450	84.06
450.221	93.06
450.442	91.06
450.662	89.06
450.883	99.06
451.104	103.06
451.324	94.06
451.545	89.06
451.766	89.06
451.986	100.06
452.207	91.06
452.428	96.06
452.648	112.06
452.869	98.06
453.089	116.06
453.31	122.06
453.53	82.06
453.751	94.06
453.971	109.06
454.192	95.06
454.412	91.06
454.633	88.06
454.853	94.06
455.073	86.06
455.294	77.06
455.514	93.06
455.734	75.06
455.955	98.06
456.175	77.06
456.395	70.06
456.616	82.06
456.836	74.06
457.056	93.06
457.276	86.06
457.497	81.06
457.717	73.06
457.937	75.06
458.157	90.06
458.377	75.06
458.598	103.06
458.818	128.06
459.038	134.06
459.258	104.06
459.478	91.06
459.698	98.06
459.918	85.06
460.138	81.06
460.358	82.06
460.578	79.06
460.798	102.06
461.018	88.06
461.238	102.06
461.458	95.06
461.678	97.06
461.898	75.06
462.118	86.06
462.338	78.06
462.558	89.06
462.777	91.06
462.997	67.06
463.217	78.06
463.437	78.06
463.657	82.06
463.876	91.06
464.096	83.06
464.316	89.06
464.536	92.06
464.755	86.06
464.975	103.06
465.195	134.06
465.414	127.06
465.634	82.06
465.854	83.06
466.073	90.06
466.293	78.06
466.512	88.06
466.732	90.06
466.951	77.06
467.171	98.06
467.391	93.06
467.61	89.06
467.829	101.06
468.049	96.06
468.268	89.06
468.488	72.06
468.707	78.06
468.927	89.06
469.146	80.06
469.365	87.06
469.585	87.06
469.804	89.06
470.023	83.06
470.243	91.06
470.462	96.06
470.681	98.06
470.901	83.06
471.12	63.06
471.339	86.06
471.558	82.06
471.777	90.06
471.997	84.06
472.216	90.06
472.435	105.06
472.654	85.06
472.873	85.06
473.092	83.06
473.311	83.06
473.53	74.06
473.749	82.06
473.968	89.06
474.187	111.06
474.406	97.06
474.625	93.06
474.844	90.06
475.063	76.06
475.282	91.06
475.501	81.06
475.72	83.06
475.939	95.06
476.158	82.06
476.377	91.06
476.596	90.06
476.814	85.06
477.033	88.06
477.252	85.06
477.471	88.06
477.69	89.06
477.908	81.06
478.127	86.06
478.346	71.06
478.564	65.06
478.783	91.06
479.002	78.06
479.22	90.06
479.439	100.06
479.658	90.06
479.876	91.06
480.095	84.06
480.313	87.06
480.532	82.06
480.751	95.06
480.969	105.06
481.188	120.06
481.406	94.06
481.624	94.06
481.843	87.06
482.061	89.06
482.28	88.06
482.498	77.06
482.717	89.06
482.935	83.06
483.153	99.06
483.372	105.06
483.59	97.06
483.808	96.06
484.027	91.06
484.245	99.06
484.463	90.06
484.681	101.06
484.9	87.06
485.118	88.06
485.336	102.06
485.554	97.06
485.772	99.06
485.99	97.06
486.209	100.06
486.427	88.06
486.645	101.06
486.863	97.06
487.081	98.06
487.299	82.06
487.517	98.06
487.735	105.06
487.953	96.06
488.171	91.06
488.389	90.06
488.607	87.06
488.825	76.06
489.043	92.06
489.261	89.06
489.479	84.06
489.696	85.06
489.914	72.06
490.132	97.06
490.35	90.06
490.568	103.06
490.786	96.06
491.003	90.06
491.221	81.06
491.439	103.06
491.657	100.06
491.874	87.06
492.092	73.06
492.31	88.06
492.527	107.06
492.745	98.06
492.963	99.06
493.18	94.06
493.398	90.06
493.615	95.06
493.833	96.06
494.05	88.06
494.268	81.06
494.485	93.06
494.703	87.06
494.92	93.06
495.138	86.06
495.355	85.06
495.573	89.06
495.79	80.06
496.008	85.06
496.225	97.06
496.442	85.06
496.66	101.06
496.877	106.06
497.094	77.06
497.312	96.06
497.529	95.06
497.746	77.06
497.963	102.06
498.181	97.06
498.398	89.06
498.615	106.06
498.832	95.06
499.049	102.06
499.267	92.06
499.484	89.06
499.701	93.06
499.918	105.06
500.135	105.06
500.352	98.06
500.569	82.06
500.786	88.06
501.003	104.06
501.22	92.06
501.437	98.06
501.654	81.06
501.871	99.06
502.088	83.06
502.305	78.06
502.522	92.06
502.739	94.06
502.956	88.06
503.172	96.06
503.389	88.06
503.606	103.06
503.823	99.06
504.04	76.06
504.256	79.06
504.473	94.06
504.69	94.06
504.907	99.06
505.123	91.06
505.34	95.06
505.557	92.06
505.773	93.06
505.99	103.06
506.207	96.06
506.423	93.06
506.64	101.06
506.856	97.06
507.073	87.06
507.289	100.06
507.506	90.06
507.722	101.06
507.939	103.06
508.155	91.06
508.372	78.06
508.588	86.06
508.805	81.06
509.021	101.06
509.238	95.06
509.454	103.06
509.67	94.06
509.887	109.06
510.103	123.06
510.319	181.06
510.536	639.06
510.752	1876.06
510.968	521.06
511.184	136.06
511.401	111.06
511.617	82.06
511.833	91.06
512.049	82.06
512.265	85.06
512.481	77.06
512.698	93.06
512.914	86.06
513.13	86.06
513.346	93.06
513.562	92.06
513.778	93.06
513.994	96.06
514.21	102.06
514.426	115.06
514.642	119.06
514.858	110.06
515.074	140.06
515.29	366.06
515.506	1112.06
515.721	437.06
515.937	131.06
516.153	92.06
516.369	97.06
