Data from Uncirc_1998_H10_HRD10591_00054.txt Node
Date: Wed Jan 03 11:25:35 EST 2024
User: Yrep
Spectrometer: HR+D1059
Trigger mode: 1
Integration Time (sec): 1.000000E-1
Scans to average: 1
Electric dark correction enabled: true
Nonlinearity correction enabled: false
Boxcar width: 0
XAxis mode: Wavelengths
Number of Pixels in Spectrum: 2048
>>>>>Begin Spectral Data<<<<<
223.165	-25.69
223.4	-25.69
223.635	-25.69
223.869	-25.69
224.104	-20.69
224.338	4.31
224.573	-9.69
224.808	-8.69
225.042	-9.69
225.277	-7.69
225.511	11.31
225.746	5.31
225.98	3.31
226.215	7.31
226.449	18.31
226.683	16.31
226.918	12.31
227.152	29.31
227.387	40.31
227.621	32.31
227.856	39.31
228.09	61.31
228.324	50.31
228.559	61.31
228.793	71.31
229.027	73.31
229.262	68.31
229.496	79.31
229.73	75.31
229.964	77.31
230.199	79.31
230.433	67.31
230.667	72.31
230.901	67.31
231.136	75.31
231.37	63.31
231.604	69.31
231.838	70.31
232.072	70.31
232.306	87.31
232.541	63.31
232.775	81.31
233.009	72.31
233.243	80.31
233.477	79.31
233.711	75.31
233.945	77.31
234.179	83.31
234.413	70.31
234.647	82.31
234.881	73.31
235.115	74.31
235.349	78.31
235.583	86.31
235.817	66.31
236.051	68.31
236.285	77.31
236.519	64.31
236.753	70.31
236.987	61.31
237.221	79.31
237.455	83.31
237.689	78.31
237.922	72.31
238.156	64.31
238.39	67.31
238.624	62.31
238.858	65.31
239.091	77.31
239.325	82.31
239.559	70.31
239.793	77.31
240.027	78.31
240.26	58.31
240.494	66.31
240.728	68.31
240.961	84.31
241.195	70.31
241.429	67.31
241.662	76.31
241.896	73.31
242.13	72.31
242.363	60.31
242.597	74.31
242.83	83.31
243.064	78.31
243.298	70.31
243.531	73.31
243.765	76.31
243.998	69.31
244.232	84.31
244.465	90.31
244.699	78.31
244.932	76.31
245.166	67.31
245.399	63.31
245.633	73.31
245.866	82.31
246.099	74.31
246.333	77.31
246.566	80.31
246.8	82.31
247.033	65.31
247.266	75.31
247.5	83.31
247.733	76.31
247.966	81.31
248.2	88.31
248.433	74.31
248.666	74.31
248.899	80.31
249.133	72.31
249.366	90.31
249.599	84.31
249.832	80.31
250.066	82.31
250.299	71.31
250.532	79.31
250.765	79.31
250.998	69.31
251.231	81.31
251.465	79.31
251.698	82.31
251.931	69.31
252.164	80.31
252.397	81.31
252.63	78.31
252.863	78.31
253.096	72.31
253.329	82.31
253.562	84.31
253.795	77.31
254.028	80.31
254.261	71.31
254.494	77.31
254.727	86.31
254.96	71.31
255.193	74.31
255.426	79.31
255.659	70.31
255.892	75.31
256.124	79.31
256.357	71.31
256.59	77.31
256.823	82.31
257.056	87.31
257.289	74.31
257.521	80.31
257.754	74.31
257.987	76.31
258.22	73.31
258.452	80.31
258.685	70.31
258.918	75.31
259.151	81.31
259.383	74.31
259.616	81.31
259.849	86.31
260.081	86.31
260.314	70.31
260.547	75.31
260.779	80.31
261.012	82.31
261.244	71.31
261.477	89.31
261.71	92.31
261.942	91.31
262.175	102.31
262.407	88.31
262.64	75.31
262.872	84.31
263.105	82.31
263.337	84.31
263.57	77.31
263.802	70.31
264.035	80.31
264.267	91.31
264.499	77.31
264.732	72.31
264.964	81.31
265.197	82.31
265.429	79.31
265.661	79.31
265.894	83.31
266.126	72.31
266.358	77.31
266.591	78.31
266.823	72.31
267.055	68.31
267.287	80.31
267.52	74.31
267.752	78.31
267.984	82.31
268.216	67.31
268.448	78.31
268.681	82.31
268.913	70.31
269.145	77.31
269.377	67.31
269.609	82.31
269.841	90.31
270.073	83.31
270.306	87.31
270.538	97.31
270.77	74.31
271.002	94.31
271.234	82.31
271.466	82.31
271.698	72.31
271.93	88.31
272.162	77.31
272.394	66.31
272.626	78.31
272.858	79.31
273.09	89.31
273.322	76.31
273.553	70.31
273.785	80.31
274.017	78.31
274.249	84.31
274.481	91.31
274.713	93.31
274.945	75.31
275.176	71.31
275.408	63.31
275.64	76.31
275.872	95.31
276.104	83.31
276.335	84.31
276.567	95.31
276.799	96.31
277.031	95.31
277.262	96.31
277.494	96.31
277.726	83.31
277.957	82.31
278.189	82.31
278.421	84.31
278.652	91.31
278.884	79.31
279.115	79.31
279.347	82.31
279.579	74.31
279.81	79.31
280.042	81.31
280.273	89.31
280.505	81.31
280.736	76.31
280.968	86.31
281.199	96.31
281.431	92.31
281.662	88.31
281.894	80.31
282.125	96.31
282.356	102.31
282.588	116.31
282.819	102.31
283.051	82.31
283.282	90.31
283.513	80.31
283.745	75.31
283.976	60.31
284.207	78.31
284.439	87.31
284.67	82.31
284.901	85.31
285.132	80.31
285.364	78.31
285.595	71.31
285.826	86.31
286.057	78.31
286.288	79.31
286.52	74.31
286.751	76.31
286.982	88.31
287.213	86.31
287.444	76.31
287.675	82.31
287.906	81.31
288.138	85.31
288.369	70.31
288.6	94.31
288.831	77.31
289.062	77.31
289.293	83.31
289.524	88.31
289.755	85.31
289.986	79.31
290.217	82.31
290.448	90.31
290.679	72.31
290.91	90.31
291.141	102.31
291.371	89.31
291.602	84.31
291.833	110.31
292.064	78.31
292.295	89.31
292.526	87.31
292.757	80.31
292.987	92.31
293.218	92.31
293.449	81.31
293.68	78.31
293.91	84.31
294.141	89.31
294.372	61.31
294.603	86.31
294.833	97.31
295.064	77.31
295.295	100.31
295.525	73.31
295.756	88.31
295.987	111.31
296.217	109.31
296.448	92.31
296.679	76.31
296.909	92.31
297.14	96.31
297.37	95.31
297.601	90.31
297.831	75.31
298.062	79.31
298.292	83.31
298.523	83.31
298.753	81.31
298.984	83.31
299.214	80.31
299.445	84.31
299.675	85.31
299.905	96.31
300.136	85.31
300.366	87.31
300.597	81.31
300.827	82.31
301.057	92.31
301.288	106.31
301.518	79.31
301.748	91.31
301.979	98.31
302.209	75.31
302.439	86.31
302.669	77.31
302.9	85.31
303.13	93.31
303.36	85.31
303.59	101.31
303.82	85.31
304.051	87.31
304.281	92.31
304.511	88.31
304.741	74.31
304.971	72.31
305.201	83.31
305.431	87.31
305.661	96.31
305.891	90.31
306.121	99.31
306.352	102.31
306.582	103.31
306.812	104.31
307.042	91.31
307.272	83.31
307.502	86.31
307.731	84.31
307.961	89.31
308.191	94.31
308.421	80.31
308.651	82.31
308.881	95.31
309.111	91.31
309.341	84.31
309.571	95.31
309.8	83.31
310.03	86.31
310.26	71.31
310.49	85.31
310.72	87.31
310.949	78.31
311.179	91.31
311.409	87.31
311.639	105.31
311.868	89.31
312.098	92.31
312.328	92.31
312.557	95.31
312.787	103.31
313.017	85.31
313.246	85.31
313.476	96.31
313.706	94.31
313.935	92.31
314.165	93.31
314.394	92.31
314.624	74.31
314.853	92.31
315.083	78.31
315.312	86.31
315.542	96.31
315.771	78.31
316.001	75.31
316.23	99.31
316.46	103.31
316.689	92.31
316.919	91.31
317.148	92.31
317.377	97.31
317.607	90.31
317.836	78.31
318.065	84.31
318.295	87.31
318.524	95.31
318.753	78.31
318.983	87.31
319.212	98.31
319.441	106.31
319.67	88.31
319.9	98.31
320.129	87.31
320.358	92.31
320.587	94.31
320.816	90.31
321.046	87.31
321.275	95.31
321.504	82.31
321.733	89.31
321.962	101.31
322.191	81.31
322.42	88.31
322.649	98.31
322.878	108.31
323.108	115.31
323.337	124.31
323.566	122.31
323.795	142.31
324.024	190.31
324.253	350.31
324.482	693.31
324.71	1406.31
324.939	1846.31
325.168	675.31
325.397	231.31
325.626	135.31
325.855	121.31
326.084	115.31
326.313	121.31
326.542	151.31
326.77	210.31
326.999	406.31
327.228	815.31
327.457	1474.31
327.686	1182.31
327.914	332.31
328.143	158.31
328.372	125.31
328.6	103.31
328.829	106.31
329.058	104.31
329.287	109.31
329.515	102.31
329.744	105.31
329.972	79.31
330.201	100.31
330.43	100.31
330.658	103.31
330.887	116.31
331.115	110.31
331.344	102.31
331.572	95.31
331.801	101.31
332.03	96.31
332.258	87.31
332.486	91.31
332.715	95.31
332.943	98.31
333.172	101.31
333.4	92.31
333.629	95.31
333.857	105.31
334.085	97.31
334.314	95.31
334.542	103.31
334.771	90.31
334.999	96.31
335.227	92.31
335.455	76.31
335.684	90.31
335.912	95.31
336.14	98.31
336.369	74.31
336.597	82.31
336.825	103.31
337.053	82.31
337.281	94.31
337.51	82.31
337.738	94.31
337.966	91.31
338.194	84.31
338.422	87.31
338.65	88.31
338.878	93.31
339.106	78.31
339.334	94.31
339.562	87.31
339.79	83.31
340.018	77.31
340.246	101.31
340.474	92.31
340.702	99.31
340.93	93.31
341.158	95.31
341.386	85.31
341.614	93.31
341.842	90.31
342.07	93.31
342.298	90.31
342.526	88.31
342.754	91.31
342.981	71.31
343.209	93.31
343.437	94.31
343.665	79.31
343.893	83.31
344.12	78.31
344.348	99.31
344.576	88.31
344.804	89.31
345.031	95.31
345.259	94.31
345.487	93.31
345.714	92.31
345.942	93.31
346.17	90.31
346.397	82.31
346.625	83.31
346.853	93.31
347.08	93.31
347.308	93.31
347.535	94.31
347.763	94.31
347.99	95.31
348.218	93.31
348.445	81.31
348.673	97.31
348.9	96.31
349.128	96.31
349.355	83.31
349.583	93.31
349.81	93.31
350.037	92.31
350.265	91.31
350.492	82.31
350.72	91.31
350.947	92.31
351.174	104.31
351.402	111.31
351.629	87.31
351.856	80.31
352.083	96.31
352.311	99.31
352.538	107.31
352.765	112.31
352.992	108.31
353.22	102.31
353.447	98.31
353.674	94.31
353.901	99.31
354.128	93.31
354.355	88.31
354.583	99.31
354.81	87.31
355.037	88.31
355.264	88.31
355.491	91.31
355.718	91.31
355.945	85.31
356.172	95.31
356.399	97.31
356.626	90.31
356.853	88.31
357.08	93.31
357.307	89.31
357.534	90.31
357.761	79.31
357.988	91.31
358.215	91.31
358.441	85.31
358.668	75.31
358.895	102.31
359.122	86.31
359.349	102.31
359.576	82.31
359.802	93.31
360.029	107.31
360.256	91.31
360.483	93.31
360.709	95.31
360.936	91.31
361.163	99.31
361.39	80.31
361.616	92.31
361.843	85.31
362.07	102.31
362.296	100.31
362.523	86.31
362.749	77.31
362.976	75.31
363.203	92.31
363.429	73.31
363.656	87.31
363.882	80.31
364.109	102.31
364.335	87.31
364.562	72.31
364.788	79.31
365.015	87.31
365.241	92.31
365.468	104.31
365.694	98.31
365.92	69.31
366.147	97.31
366.373	84.31
366.599	94.31
366.826	81.31
367.052	82.31
367.278	84.31
367.505	78.31
367.731	73.31
367.957	92.31
368.184	87.31
368.41	102.31
368.636	99.31
368.862	99.31
369.089	86.31
369.315	79.31
369.541	75.31
369.767	90.31
369.993	83.31
370.219	72.31
370.445	90.31
370.672	88.31
370.898	93.31
371.124	86.31
371.35	77.31
371.576	87.31
371.802	93.31
372.028	74.31
372.254	76.31
372.48	96.31
372.706	95.31
372.932	80.31
373.158	81.31
373.384	84.31
373.61	101.31
373.835	80.31
374.061	87.31
374.287	89.31
374.513	78.31
374.739	86.31
374.965	96.31
375.191	95.31
375.416	80.31
375.642	89.31
375.868	86.31
376.094	101.31
376.319	96.31
376.545	79.31
376.771	84.31
376.997	74.31
377.222	86.31
377.448	82.31
377.674	76.31
377.899	83.31
378.125	87.31
378.35	78.31
378.576	78.31
378.802	80.31
379.027	94.31
379.253	89.31
379.478	73.31
379.704	84.31
379.929	89.31
380.155	88.31
380.38	88.31
380.606	86.31
380.831	84.31
381.057	96.31
381.282	100.31
381.507	88.31
381.733	96.31
381.958	88.31
382.184	95.31
382.409	95.31
382.634	85.31
382.86	85.31
383.085	97.31
383.31	96.31
383.535	92.31
383.761	100.31
383.986	83.31
384.211	90.31
384.436	76.31
384.662	94.31
384.887	84.31
385.112	92.31
385.337	98.31
385.562	102.31
385.787	89.31
386.013	95.31
386.238	94.31
386.463	79.31
386.688	111.31
386.913	101.31
387.138	95.31
387.363	100.31
387.588	104.31
387.813	83.31
388.038	86.31
388.263	120.31
388.488	103.31
388.713	83.31
388.938	91.31
389.163	89.31
389.387	83.31
389.612	104.31
389.837	86.31
390.062	83.31
390.287	92.31
390.512	89.31
390.736	90.31
390.961	90.31
391.186	91.31
391.411	88.31
391.636	92.31
391.86	91.31
392.085	87.31
392.31	67.31
392.534	77.31
392.759	92.31
392.984	86.31
393.208	85.31
393.433	91.31
393.658	86.31
393.882	88.31
394.107	88.31
394.331	77.31
394.556	82.31
394.78	86.31
395.005	80.31
395.229	88.31
395.454	78.31
395.678	90.31
395.903	99.31
396.127	73.31
396.352	82.31
396.576	76.31
396.801	76.31
397.025	83.31
397.249	83.31
397.474	72.31
397.698	88.31
397.922	78.31
398.147	74.31
398.371	84.31
398.595	86.31
398.82	72.31
399.044	75.31
399.268	84.31
399.492	100.31
399.717	78.31
399.941	90.31
400.165	83.31
400.389	85.31
400.613	91.31
400.837	76.31
401.062	77.31
401.286	98.31
401.51	72.31
401.734	84.31
401.958	90.31
402.182	101.31
402.406	120.31
402.63	96.31
402.854	90.31
403.078	90.31
403.302	91.31
403.526	67.31
403.75	85.31
403.974	75.31
404.198	79.31
404.422	86.31
404.645	87.31
404.869	90.31
405.093	88.31
405.317	80.31
405.541	95.31
405.765	95.31
405.988	105.31
406.212	150.31
406.436	199.31
406.66	139.31
406.883	82.31
407.107	76.31
407.331	93.31
407.555	90.31
407.778	81.31
408.002	90.31
408.226	94.31
408.449	78.31
408.673	83.31
408.896	91.31
409.12	77.31
409.344	88.31
409.567	74.31
409.791	74.31
410.014	85.31
410.238	79.31
410.461	79.31
410.685	91.31
410.908	95.31
411.132	88.31
411.355	107.31
411.578	88.31
411.802	82.31
412.025	74.31
412.249	77.31
412.472	78.31
412.695	91.31
412.919	92.31
413.142	83.31
413.365	79.31
413.589	78.31
413.812	80.31
414.035	92.31
414.258	84.31
414.482	96.31
414.705	77.31
414.928	99.31
415.151	89.31
415.374	79.31
415.597	75.31
415.821	79.31
416.044	82.31
416.267	79.31
416.49	74.31
416.713	79.31
416.936	86.31
417.159	72.31
417.382	82.31
417.605	83.31
417.828	88.31
418.051	84.31
418.274	79.31
418.497	82.31
418.72	85.31
418.943	90.31
419.166	90.31
419.389	76.31
419.611	78.31
419.834	86.31
420.057	94.31
420.28	84.31
420.503	86.31
420.726	94.31
420.948	89.31
421.171	84.31
421.394	74.31
421.617	81.31
421.839	90.31
422.062	92.31
422.285	89.31
422.507	98.31
422.73	100.31
422.953	96.31
423.175	81.31
423.398	88.31
423.621	90.31
423.843	85.31
424.066	87.31
424.288	75.31
424.511	93.31
424.733	95.31
424.956	96.31
425.178	91.31
425.401	87.31
425.623	103.31
425.846	95.31
426.068	77.31
426.291	84.31
426.513	90.31
426.735	82.31
426.958	95.31
427.18	102.31
427.402	110.31
427.625	124.31
427.847	112.31
428.069	96.31
428.292	98.31
428.514	80.31
428.736	80.31
428.958	83.31
429.181	81.31
429.403	75.31
429.625	80.31
429.847	91.31
430.069	106.31
430.292	89.31
430.514	91.31
430.736	74.31
430.958	88.31
431.18	72.31
431.402	85.31
431.624	95.31
431.846	76.31
432.068	84.31
432.29	99.31
432.512	94.31
432.734	79.31
432.956	88.31
433.178	96.31
433.4	93.31
433.622	92.31
433.844	76.31
434.066	82.31
434.287	88.31
434.509	74.31
434.731	97.31
434.953	84.31
435.175	86.31
435.397	95.31
435.618	87.31
435.84	102.31
436.062	105.31
436.284	111.31
436.505	96.31
436.727	95.31
436.949	81.31
437.17	79.31
437.392	90.31
437.614	95.31
437.835	96.31
438.057	102.31
438.278	88.31
438.5	92.31
438.721	108.31
438.943	102.31
439.165	86.31
439.386	87.31
439.608	87.31
439.829	96.31
440.05	111.31
440.272	120.31
440.493	103.31
440.715	75.31
440.936	81.31
441.158	76.31
441.379	80.31
441.6	90.31
441.822	76.31
442.043	93.31
442.264	78.31
442.486	87.31
442.707	94.31
442.928	86.31
443.149	108.31
443.371	107.31
443.592	104.31
443.813	96.31
444.034	82.31
444.255	80.31
444.476	82.31
444.698	80.31
444.919	82.31
445.14	132.31
445.361	121.31
445.582	96.31
445.803	115.31
446.024	112.31
446.245	122.31
446.466	85.31
446.687	79.31
446.908	68.31
447.129	88.31
447.35	83.31
447.571	84.31
447.792	82.31
448.013	86.31
448.234	95.31
448.455	73.31
448.675	116.31
448.896	115.31
449.117	85.31
449.338	102.31
449.559	107.31
449.779	106.31
450	89.31
450.221	88.31
450.442	82.31
450.662	98.31
450.883	90.31
451.104	95.31
451.324	86.31
451.545	84.31
451.766	88.31
451.986	86.31
452.207	81.31
452.428	77.31
452.648	93.31
452.869	88.31
453.089	96.31
453.31	95.31
453.53	83.31
453.751	85.31
453.971	79.31
454.192	97.31
454.412	87.31
454.633	72.31
454.853	81.31
455.073	80.31
455.294	78.31
455.514	100.31
455.734	75.31
455.955	77.31
456.175	91.31
456.395	79.31
456.616	72.31
456.836	80.31
457.056	66.31
457.276	71.31
457.497	87.31
457.717	83.31
457.937	87.31
458.157	95.31
458.377	83.31
458.598	106.31
458.818	116.31
459.038	132.31
459.258	100.31
459.478	86.31
459.698	73.31
459.918	82.31
460.138	83.31
460.358	92.31
460.578	106.31
460.798	87.31
461.018	86.31
461.238	86.31
461.458	68.31
461.678	67.31
461.898	83.31
462.118	91.31
462.338	72.31
462.558	74.31
462.777	95.31
462.997	80.31
463.217	101.31
463.437	91.31
463.657	83.31
463.876	81.31
464.096	84.31
464.316	86.31
464.536	86.31
464.755	78.31
464.975	99.31
465.195	154.31
465.414	134.31
465.634	87.31
465.854	83.31
466.073	86.31
466.293	71.31
466.512	84.31
466.732	66.31
466.951	88.31
467.171	85.31
467.391	75.31
467.61	93.31
467.829	78.31
468.049	82.31
468.268	95.31
468.488	80.31
468.707	78.31
468.927	80.31
469.146	85.31
469.365	96.31
469.585	71.31
469.804	94.31
470.023	78.31
470.243	92.31
470.462	96.31
470.681	92.31
470.901	91.31
471.12	87.31
471.339	85.31
471.558	85.31
471.777	83.31
471.997	76.31
472.216	89.31
472.435	86.31
472.654	78.31
472.873	66.31
473.092	78.31
473.311	75.31
473.53	83.31
473.749	88.31
473.968	89.31
474.187	95.31
474.406	91.31
474.625	82.31
474.844	92.31
475.063	83.31
475.282	88.31
475.501	82.31
475.72	91.31
475.939	83.31
476.158	67.31
476.377	87.31
476.596	90.31
476.814	75.31
477.033	82.31
477.252	89.31
477.471	84.31
477.69	65.31
477.908	85.31
478.127	96.31
478.346	80.31
478.564	85.31
478.783	106.31
479.002	85.31
479.22	102.31
479.439	96.31
479.658	95.31
479.876	91.31
480.095	71.31
480.313	80.31
480.532	93.31
480.751	85.31
480.969	86.31
481.188	93.31
481.406	95.31
481.624	90.31
481.843	86.31
482.061	87.31
482.28	91.31
482.498	78.31
482.717	95.31
482.935	85.31
483.153	79.31
483.372	77.31
483.59	76.31
483.808	82.31
484.027	73.31
484.245	78.31
484.463	74.31
484.681	94.31
484.9	86.31
485.118	88.31
485.336	87.31
485.554	84.31
485.772	100.31
485.99	99.31
486.209	102.31
486.427	96.31
486.645	89.31
486.863	107.31
487.081	99.31
487.299	94.31
487.517	90.31
487.735	97.31
487.953	95.31
488.171	83.31
488.389	95.31
488.607	90.31
488.825	96.31
489.043	83.31
489.261	92.31
489.479	75.31
489.696	86.31
489.914	80.31
490.132	80.31
490.35	91.31
490.568	98.31
490.786	86.31
491.003	90.31
491.221	86.31
491.439	105.31
491.657	62.31
491.874	85.31
492.092	87.31
492.31	101.31
492.527	98.31
492.745	88.31
492.963	85.31
493.18	72.31
493.398	98.31
493.615	96.31
493.833	94.31
494.05	98.31
494.268	84.31
494.485	91.31
494.703	84.31
494.92	82.31
495.138	88.31
495.355	80.31
495.573	70.31
495.79	71.31
496.008	86.31
496.225	80.31
496.442	85.31
496.66	110.31
496.877	93.31
497.094	99.31
497.312	66.31
497.529	94.31
497.746	69.31
497.963	84.31
498.181	86.31
498.398	86.31
498.615	90.31
498.832	94.31
499.049	102.31
499.267	98.31
499.484	78.31
499.701	82.31
499.918	90.31
500.135	98.31
500.352	86.31
500.569	73.31
500.786	96.31
501.003	91.31
501.22	87.31
501.437	88.31
501.654	86.31
501.871	85.31
502.088	100.31
502.305	76.31
502.522	87.31
502.739	74.31
502.956	84.31
503.172	91.31
503.389	80.31
503.606	99.31
503.823	99.31
504.04	84.31
504.256	91.31
504.473	87.31
504.69	80.31
504.907	80.31
505.123	88.31
505.34	88.31
505.557	101.31
505.773	90.31
505.99	63.31
506.207	89.31
506.423	76.31
506.64	90.31
506.856	77.31
507.073	101.31
507.289	94.31
507.506	96.31
507.722	83.31
507.939	92.31
508.155	90.31
508.372	101.31
508.588	93.31
508.805	97.31
509.021	90.31
509.238	91.31
509.454	95.31
509.67	104.31
509.887	102.31
510.103	108.31
510.319	189.31
510.536	629.31
510.752	1950.31
510.968	540.31
511.184	136.31
511.401	95.31
511.617	90.31
511.833	102.31
512.049	82.31
512.265	105.31
512.481	84.31
512.698	76.31
512.914	85.31
513.13	91.31
513.346	78.31
513.562	77.31
513.778	102.31
513.994	104.31
514.21	87.31
514.426	109.31
514.642	109.31
514.858	100.31
515.074	147.31
515.29	370.31
515.506	1128.31
515.721	417.31
515.937	124.31
516.153	98.31
516.369	98.31
516.585	88.31
516.801	89.31
517.016	87.31
517.232	89.31
517.448	78.31
517.664	83.31
