Data from Uncirc_1998_H10_HRD10591_00086.txt Node
Date: Wed Jan 03 11:25:42 EST 2024
User: Yrep
Spectrometer: HR+D1059
Trigger mode: 1
Integration Time (sec): 1.000000E-1
Scans to average: 1
Electric dark correction enabled: true
Nonlinearity correction enabled: false
Boxcar width: 0
XAxis mode: Wavelengths
Number of Pixels in Spectrum: 2048
>>>>>Begin Spectral Data<<<<<
223.165	-20.25
223.4	-20.25
223.635	-20.25
223.869	-20.25
224.104	-7.25
224.338	-14.25
224.573	-21.25
224.808	-28.25
225.042	-4.25
225.277	-8.25
225.511	-5.25
225.746	4.75
225.98	19.75
226.215	18.75
226.449	16.75
226.683	24.75
226.918	15.75
227.152	28.75
227.387	38.75
227.621	52.75
227.856	38.75
228.09	47.75
228.324	58.75
228.559	61.75
228.793	52.75
229.027	64.75
229.262	78.75
229.496	66.75
229.73	92.75
229.964	91.75
230.199	77.75
230.433	89.75
230.667	88.75
230.901	76.75
231.136	70.75
231.37	90.75
231.604	78.75
231.838	76.75
232.072	84.75
232.306	84.75
232.541	99.75
232.775	83.75
233.009	73.75
233.243	86.75
233.477	92.75
233.711	86.75
233.945	78.75
234.179	82.75
234.413	76.75
234.647	82.75
234.881	88.75
235.115	67.75
235.349	85.75
235.583	81.75
235.817	83.75
236.051	86.75
236.285	83.75
236.519	81.75
236.753	84.75
236.987	72.75
237.221	90.75
237.455	81.75
237.689	77.75
237.922	81.75
238.156	89.75
238.39	67.75
238.624	81.75
238.858	78.75
239.091	61.75
239.325	85.75
239.559	84.75
239.793	85.75
240.027	73.75
240.26	68.75
240.494	72.75
240.728	67.75
240.961	90.75
241.195	70.75
241.429	65.75
241.662	69.75
241.896	81.75
242.13	79.75
242.363	73.75
242.597	70.75
242.83	80.75
243.064	92.75
243.298	86.75
243.531	73.75
243.765	75.75
243.998	78.75
244.232	83.75
244.465	80.75
244.699	78.75
244.932	73.75
245.166	67.75
245.399	73.75
245.633	94.75
245.866	90.75
246.099	72.75
246.333	62.75
246.566	86.75
246.8	80.75
247.033	73.75
247.266	82.75
247.5	85.75
247.733	81.75
247.966	75.75
248.2	87.75
248.433	88.75
248.666	76.75
248.899	80.75
249.133	86.75
249.366	90.75
249.599	106.75
249.832	71.75
250.066	81.75
250.299	70.75
250.532	77.75
250.765	79.75
250.998	72.75
251.231	75.75
251.465	76.75
251.698	94.75
251.931	90.75
252.164	93.75
252.397	68.75
252.63	83.75
252.863	72.75
253.096	84.75
253.329	76.75
253.562	76.75
253.795	79.75
254.028	78.75
254.261	73.75
254.494	92.75
254.727	84.75
254.96	82.75
255.193	76.75
255.426	79.75
255.659	89.75
255.892	76.75
256.124	81.75
256.357	85.75
256.59	96.75
256.823	97.75
257.056	72.75
257.289	86.75
257.521	58.75
257.754	95.75
257.987	94.75
258.22	85.75
258.452	86.75
258.685	96.75
258.918	79.75
259.151	76.75
259.383	84.75
259.616	75.75
259.849	82.75
260.081	72.75
260.314	69.75
260.547	81.75
260.779	88.75
261.012	87.75
261.244	87.75
261.477	81.75
261.71	92.75
261.942	105.75
262.175	98.75
262.407	101.75
262.64	91.75
262.872	89.75
263.105	86.75
263.337	84.75
263.57	77.75
263.802	70.75
264.035	90.75
264.267	92.75
264.499	92.75
264.732	82.75
264.964	97.75
265.197	80.75
265.429	77.75
265.661	90.75
265.894	76.75
266.126	68.75
266.358	93.75
266.591	92.75
266.823	89.75
267.055	80.75
267.287	90.75
267.52	90.75
267.752	88.75
267.984	89.75
268.216	91.75
268.448	89.75
268.681	85.75
268.913	78.75
269.145	98.75
269.377	96.75
269.609	80.75
269.841	83.75
270.073	91.75
270.306	91.75
270.538	81.75
270.77	85.75
271.002	94.75
271.234	79.75
271.466	85.75
271.698	73.75
271.93	84.75
272.162	92.75
272.394	85.75
272.626	84.75
272.858	92.75
273.09	92.75
273.322	86.75
273.553	77.75
273.785	96.75
274.017	98.75
274.249	86.75
274.481	78.75
274.713	88.75
274.945	84.75
275.176	76.75
275.408	82.75
275.64	77.75
275.872	91.75
276.104	92.75
276.335	82.75
276.567	99.75
276.799	107.75
277.031	102.75
277.262	82.75
277.494	90.75
277.726	101.75
277.957	70.75
278.189	90.75
278.421	87.75
278.652	90.75
278.884	87.75
279.115	87.75
279.347	98.75
279.579	109.75
279.81	68.75
280.042	98.75
280.273	90.75
280.505	101.75
280.736	90.75
280.968	82.75
281.199	99.75
281.431	90.75
281.662	98.75
281.894	105.75
282.125	95.75
282.356	131.75
282.588	132.75
282.819	103.75
283.051	83.75
283.282	79.75
283.513	94.75
283.745	83.75
283.976	70.75
284.207	90.75
284.439	88.75
284.67	89.75
284.901	96.75
285.132	90.75
285.364	85.75
285.595	88.75
285.826	75.75
286.057	92.75
286.288	83.75
286.52	80.75
286.751	83.75
286.982	100.75
287.213	84.75
287.444	77.75
287.675	87.75
287.906	91.75
288.138	85.75
288.369	89.75
288.6	96.75
288.831	82.75
289.062	92.75
289.293	84.75
289.524	96.75
289.755	85.75
289.986	77.75
290.217	95.75
290.448	84.75
290.679	104.75
290.91	96.75
291.141	91.75
291.371	92.75
291.602	86.75
291.833	89.75
292.064	90.75
292.295	99.75
292.526	101.75
292.757	86.75
292.987	97.75
293.218	88.75
293.449	89.75
293.68	108.75
293.91	100.75
294.141	88.75
294.372	84.75
294.603	91.75
294.833	87.75
295.064	102.75
295.295	84.75
295.525	93.75
295.756	100.75
295.987	106.75
296.217	129.75
296.448	118.75
296.679	102.75
296.909	87.75
297.14	85.75
297.37	95.75
297.601	81.75
297.831	98.75
298.062	101.75
298.292	89.75
298.523	80.75
298.753	92.75
298.984	89.75
299.214	96.75
299.445	101.75
299.675	98.75
299.905	74.75
300.136	103.75
300.366	77.75
300.597	100.75
300.827	84.75
301.057	96.75
301.288	93.75
301.518	101.75
301.748	84.75
301.979	96.75
302.209	89.75
302.439	90.75
302.669	85.75
302.9	104.75
303.13	101.75
303.36	103.75
303.59	97.75
303.82	111.75
304.051	101.75
304.281	94.75
304.511	89.75
304.741	97.75
304.971	100.75
305.201	100.75
305.431	93.75
305.661	80.75
305.891	85.75
306.121	89.75
306.352	116.75
306.582	107.75
306.812	96.75
307.042	90.75
307.272	85.75
307.502	94.75
307.731	105.75
307.961	93.75
308.191	98.75
308.421	69.75
308.651	96.75
308.881	109.75
309.111	90.75
309.341	113.75
309.571	94.75
309.8	105.75
310.03	101.75
310.26	97.75
310.49	89.75
310.72	98.75
310.949	103.75
311.179	85.75
311.409	91.75
311.639	98.75
311.868	97.75
312.098	93.75
312.328	93.75
312.557	100.75
312.787	108.75
313.017	85.75
313.246	106.75
313.476	107.75
313.706	90.75
313.935	92.75
314.165	93.75
314.394	102.75
314.624	96.75
314.853	102.75
315.083	89.75
315.312	96.75
315.542	85.75
315.771	95.75
316.001	97.75
316.23	93.75
316.46	102.75
316.689	89.75
316.919	109.75
317.148	91.75
317.377	84.75
317.607	101.75
317.836	89.75
318.065	102.75
318.295	99.75
318.524	96.75
318.753	103.75
318.983	98.75
319.212	82.75
319.441	112.75
319.67	102.75
319.9	93.75
320.129	101.75
320.358	93.75
320.587	98.75
320.816	101.75
321.046	101.75
321.275	109.75
321.504	107.75
321.733	103.75
321.962	113.75
322.191	103.75
322.42	102.75
322.649	116.75
322.878	116.75
323.108	107.75
323.337	127.75
323.566	127.75
323.795	154.75
324.024	194.75
324.253	370.75
324.482	796.75
324.71	1573.75
324.939	2042.75
325.168	777.75
325.397	231.75
325.626	158.75
325.855	126.75
326.084	144.75
326.313	136.75
326.542	154.75
326.77	240.75
326.999	450.75
327.228	918.75
327.457	1640.75
327.686	1288.75
327.914	343.75
328.143	191.75
328.372	139.75
328.6	109.75
328.829	130.75
329.058	133.75
329.287	126.75
329.515	116.75
329.744	101.75
329.972	105.75
330.201	106.75
330.43	116.75
330.658	116.75
330.887	131.75
331.115	125.75
331.344	96.75
331.572	107.75
331.801	106.75
332.03	93.75
332.258	109.75
332.486	87.75
332.715	108.75
332.943	107.75
333.172	107.75
333.4	96.75
333.629	114.75
333.857	115.75
334.085	97.75
334.314	100.75
334.542	122.75
334.771	109.75
334.999	94.75
335.227	95.75
335.455	94.75
335.684	81.75
335.912	98.75
336.14	86.75
336.369	113.75
336.597	92.75
336.825	105.75
337.053	115.75
337.281	108.75
337.51	93.75
337.738	91.75
337.966	94.75
338.194	92.75
338.422	105.75
338.65	87.75
338.878	98.75
339.106	84.75
339.334	90.75
339.562	93.75
339.79	95.75
340.018	99.75
340.246	89.75
340.474	95.75
340.702	102.75
340.93	91.75
341.158	97.75
341.386	97.75
341.614	72.75
341.842	92.75
342.07	97.75
342.298	88.75
342.526	92.75
342.754	93.75
342.981	85.75
343.209	88.75
343.437	84.75
343.665	90.75
343.893	114.75
344.12	87.75
344.348	93.75
344.576	93.75
344.804	84.75
345.031	86.75
345.259	83.75
345.487	97.75
345.714	103.75
345.942	84.75
346.17	85.75
346.397	86.75
346.625	97.75
346.853	111.75
347.08	100.75
347.308	98.75
347.535	96.75
347.763	100.75
347.99	98.75
348.218	101.75
348.445	91.75
348.673	93.75
348.9	102.75
349.128	105.75
349.355	92.75
349.583	93.75
349.81	100.75
350.037	86.75
350.265	82.75
350.492	97.75
350.72	88.75
350.947	110.75
351.174	110.75
351.402	111.75
351.629	116.75
351.856	115.75
352.083	112.75
352.311	103.75
352.538	112.75
352.765	101.75
352.992	109.75
353.22	116.75
353.447	108.75
353.674	94.75
353.901	106.75
354.128	88.75
354.355	90.75
354.583	101.75
354.81	94.75
355.037	101.75
355.264	99.75
355.491	98.75
355.718	101.75
355.945	111.75
356.172	103.75
356.399	107.75
356.626	105.75
356.853	96.75
357.08	96.75
357.307	107.75
357.534	95.75
357.761	106.75
357.988	105.75
358.215	93.75
358.441	90.75
358.668	108.75
358.895	101.75
359.122	81.75
359.349	94.75
359.576	91.75
359.802	99.75
360.029	117.75
360.256	114.75
360.483	95.75
360.709	87.75
360.936	97.75
361.163	94.75
361.39	99.75
361.616	103.75
361.843	102.75
362.07	91.75
362.296	108.75
362.523	94.75
362.749	84.75
362.976	91.75
363.203	97.75
363.429	81.75
363.656	90.75
363.882	100.75
364.109	106.75
364.335	92.75
364.562	83.75
364.788	106.75
365.015	106.75
365.241	85.75
365.468	106.75
365.694	98.75
365.92	85.75
366.147	79.75
366.373	92.75
366.599	89.75
366.826	97.75
367.052	100.75
367.278	111.75
367.505	82.75
367.731	109.75
367.957	96.75
368.184	97.75
368.41	96.75
368.636	105.75
368.862	109.75
369.089	120.75
369.315	101.75
369.541	104.75
369.767	95.75
369.993	88.75
370.219	104.75
370.445	97.75
370.672	87.75
370.898	93.75
371.124	86.75
371.35	90.75
371.576	90.75
371.802	93.75
372.028	73.75
372.254	105.75
372.48	101.75
372.706	90.75
372.932	81.75
373.158	91.75
373.384	83.75
373.61	83.75
373.835	99.75
374.061	84.75
374.287	94.75
374.513	80.75
374.739	92.75
374.965	90.75
375.191	97.75
375.416	80.75
375.642	96.75
375.868	98.75
376.094	86.75
376.319	83.75
376.545	92.75
376.771	91.75
376.997	93.75
377.222	99.75
377.448	97.75
377.674	101.75
377.899	101.75
378.125	91.75
378.35	89.75
378.576	108.75
378.802	98.75
379.027	94.75
379.253	97.75
379.478	98.75
379.704	88.75
379.929	97.75
380.155	93.75
380.38	89.75
380.606	96.75
380.831	106.75
381.057	101.75
381.282	105.75
381.507	99.75
381.733	100.75
381.958	94.75
382.184	96.75
382.409	96.75
382.634	92.75
382.86	109.75
383.085	97.75
383.31	101.75
383.535	88.75
383.761	89.75
383.986	99.75
384.211	105.75
384.436	115.75
384.662	100.75
384.887	106.75
385.112	110.75
385.337	107.75
385.562	94.75
385.787	105.75
386.013	119.75
386.238	125.75
386.463	97.75
386.688	108.75
386.913	104.75
387.138	112.75
387.363	88.75
387.588	93.75
387.813	98.75
388.038	107.75
388.263	122.75
388.488	118.75
388.713	102.75
388.938	100.75
389.163	101.75
389.387	97.75
389.612	105.75
389.837	88.75
390.062	86.75
390.287	88.75
390.512	90.75
390.736	102.75
390.961	108.75
391.186	100.75
391.411	79.75
391.636	104.75
391.86	86.75
392.085	80.75
392.31	88.75
392.534	91.75
392.759	83.75
392.984	90.75
393.208	85.75
393.433	98.75
393.658	106.75
393.882	105.75
394.107	94.75
394.331	97.75
394.556	90.75
394.78	91.75
395.005	95.75
395.229	92.75
395.454	110.75
395.678	82.75
395.903	88.75
396.127	96.75
396.352	91.75
396.576	93.75
396.801	91.75
397.025	96.75
397.249	84.75
397.474	82.75
397.698	100.75
397.922	85.75
398.147	92.75
398.371	86.75
398.595	89.75
398.82	95.75
399.044	74.75
399.268	106.75
399.492	95.75
399.717	83.75
399.941	101.75
400.165	100.75
400.389	111.75
400.613	97.75
400.837	92.75
401.062	103.75
401.286	89.75
401.51	90.75
401.734	83.75
401.958	117.75
402.182	133.75
402.406	151.75
402.63	119.75
402.854	110.75
403.078	103.75
403.302	96.75
403.526	102.75
403.75	96.75
403.974	95.75
404.198	99.75
404.422	91.75
404.645	84.75
404.869	98.75
405.093	67.75
405.317	104.75
405.541	97.75
405.765	93.75
405.988	123.75
406.212	174.75
406.436	218.75
406.66	142.75
406.883	94.75
407.107	94.75
407.331	99.75
407.555	105.75
407.778	94.75
408.002	107.75
408.226	99.75
408.449	89.75
408.673	84.75
408.896	94.75
409.12	95.75
409.344	107.75
409.567	92.75
409.791	94.75
410.014	101.75
410.238	92.75
410.461	96.75
410.685	104.75
410.908	100.75
411.132	106.75
411.355	101.75
411.578	88.75
411.802	95.75
412.025	75.75
412.249	93.75
412.472	101.75
412.695	98.75
412.919	82.75
413.142	89.75
413.365	93.75
413.589	91.75
413.812	90.75
414.035	93.75
414.258	88.75
414.482	96.75
414.705	95.75
414.928	100.75
415.151	101.75
415.374	85.75
415.597	108.75
415.821	90.75
416.044	99.75
416.267	101.75
416.49	89.75
416.713	80.75
416.936	93.75
417.159	93.75
417.382	93.75
417.605	112.75
417.828	102.75
418.051	92.75
418.274	106.75
418.497	85.75
418.72	79.75
418.943	93.75
419.166	94.75
419.389	106.75
419.611	96.75
419.834	84.75
420.057	100.75
420.28	91.75
420.503	92.75
420.726	91.75
420.948	92.75
421.171	85.75
421.394	93.75
421.617	77.75
421.839	101.75
422.062	88.75
422.285	93.75
422.507	104.75
422.73	87.75
422.953	102.75
423.175	84.75
423.398	76.75
423.621	97.75
423.843	98.75
424.066	89.75
424.288	91.75
424.511	86.75
424.733	98.75
424.956	107.75
425.178	103.75
425.401	96.75
425.623	101.75
425.846	98.75
426.068	101.75
426.291	84.75
426.513	95.75
426.735	86.75
426.958	93.75
427.18	102.75
427.402	123.75
427.625	153.75
427.847	136.75
428.069	101.75
428.292	93.75
428.514	82.75
428.736	84.75
428.958	85.75
429.181	84.75
429.403	84.75
429.625	97.75
429.847	104.75
430.069	98.75
430.292	94.75
430.514	93.75
430.736	97.75
430.958	82.75
431.18	93.75
431.402	96.75
431.624	92.75
431.846	89.75
432.068	78.75
432.29	93.75
432.512	91.75
432.734	80.75
432.956	104.75
433.178	107.75
433.4	104.75
433.622	97.75
433.844	82.75
434.066	96.75
434.287	84.75
434.509	96.75
434.731	93.75
434.953	87.75
435.175	95.75
435.397	91.75
435.618	94.75
435.84	107.75
436.062	122.75
436.284	104.75
436.505	94.75
436.727	94.75
436.949	100.75
437.17	92.75
437.392	97.75
437.614	86.75
437.835	116.75
438.057	117.75
438.278	109.75
438.5	101.75
438.721	100.75
438.943	97.75
439.165	90.75
439.386	90.75
439.608	97.75
439.829	105.75
440.05	114.75
440.272	144.75
440.493	98.75
440.715	87.75
440.936	94.75
441.158	97.75
441.379	88.75
441.6	85.75
441.822	91.75
442.043	99.75
442.264	89.75
442.486	118.75
442.707	95.75
442.928	110.75
443.149	112.75
443.371	119.75
443.592	103.75
443.813	108.75
444.034	111.75
444.255	90.75
444.476	89.75
444.698	101.75
444.919	94.75
445.14	116.75
445.361	133.75
445.582	114.75
445.803	130.75
446.024	132.75
446.245	133.75
446.466	130.75
446.687	93.75
446.908	92.75
447.129	87.75
447.35	111.75
447.571	80.75
447.792	111.75
448.013	105.75
448.234	102.75
448.455	88.75
448.675	104.75
448.896	113.75
449.117	103.75
449.338	104.75
449.559	141.75
449.779	124.75
450	107.75
450.221	87.75
450.442	97.75
450.662	102.75
450.883	102.75
451.104	111.75
451.324	90.75
451.545	85.75
451.766	99.75
451.986	96.75
452.207	88.75
452.428	108.75
452.648	97.75
452.869	112.75
453.089	98.75
453.31	102.75
453.53	101.75
453.751	102.75
453.971	98.75
454.192	97.75
454.412	105.75
454.633	98.75
454.853	93.75
455.073	89.75
455.294	87.75
455.514	108.75
455.734	88.75
455.955	83.75
456.175	85.75
456.395	100.75
456.616	90.75
456.836	84.75
457.056	94.75
457.276	80.75
457.497	84.75
457.717	84.75
457.937	86.75
458.157	91.75
458.377	95.75
458.598	116.75
458.818	144.75
459.038	143.75
459.258	125.75
459.478	85.75
459.698	91.75
459.918	75.75
460.138	90.75
460.358	85.75
460.578	89.75
460.798	106.75
461.018	91.75
461.238	78.75
461.458	95.75
461.678	94.75
461.898	96.75
462.118	97.75
462.338	91.75
462.558	102.75
462.777	70.75
462.997	90.75
463.217	93.75
463.437	82.75
463.657	94.75
463.876	83.75
464.096	98.75
464.316	81.75
464.536	91.75
464.755	95.75
464.975	108.75
465.195	154.75
465.414	157.75
465.634	95.75
465.854	98.75
466.073	82.75
466.293	101.75
466.512	96.75
466.732	90.75
466.951	86.75
467.171	82.75
467.391	103.75
467.61	106.75
467.829	94.75
468.049	97.75
468.268	84.75
468.488	81.75
468.707	98.75
468.927	92.75
469.146	96.75
469.365	76.75
469.585	112.75
469.804	104.75
470.023	93.75
470.243	90.75
470.462	96.75
470.681	112.75
470.901	102.75
471.12	94.75
471.339	94.75
471.558	76.75
471.777	106.75
471.997	95.75
472.216	80.75
472.435	89.75
472.654	97.75
472.873	102.75
473.092	83.75
473.311	101.75
473.53	81.75
473.749	86.75
473.968	93.75
474.187	98.75
474.406	94.75
474.625	75.75
474.844	103.75
475.063	89.75
475.282	91.75
475.501	100.75
475.72	103.75
475.939	80.75
476.158	76.75
476.377	90.75
476.596	89.75
476.814	78.75
477.033	86.75
477.252	90.75
477.471	83.75
477.69	90.75
477.908	88.75
478.127	82.75
478.346	80.75
478.564	105.75
478.783	90.75
479.002	85.75
479.22	93.75
479.439	104.75
479.658	96.75
479.876	88.75
480.095	99.75
480.313	96.75
480.532	72.75
480.751	83.75
480.969	93.75
481.188	105.75
481.406	97.75
481.624	77.75
481.843	92.75
482.061	89.75
482.28	101.75
482.498	100.75
482.717	83.75
482.935	95.75
483.153	94.75
483.372	99.75
483.59	95.75
483.808	106.75
484.027	92.75
484.245	97.75
484.463	78.75
484.681	101.75
484.9	96.75
485.118	98.75
485.336	108.75
485.554	105.75
485.772	106.75
485.99	90.75
486.209	101.75
486.427	103.75
486.645	106.75
486.863	117.75
487.081	93.75
487.299	95.75
487.517	99.75
487.735	114.75
487.953	88.75
488.171	106.75
488.389	96.75
488.607	104.75
488.825	90.75
489.043	90.75
489.261	89.75
489.479	89.75
489.696	83.75
489.914	96.75
490.132	88.75
490.35	101.75
490.568	98.75
490.786	88.75
491.003	94.75
491.221	90.75
491.439	89.75
491.657	101.75
491.874	92.75
492.092	82.75
492.31	84.75
492.527	79.75
492.745	90.75
492.963	112.75
493.18	80.75
493.398	96.75
493.615	83.75
493.833	89.75
494.05	81.75
494.268	79.75
494.485	100.75
494.703	96.75
494.92	86.75
495.138	93.75
495.355	94.75
495.573	101.75
495.79	70.75
496.008	97.75
496.225	91.75
496.442	99.75
496.66	74.75
496.877	89.75
497.094	81.75
497.312	90.75
497.529	94.75
497.746	101.75
497.963	96.75
498.181	103.75
498.398	96.75
498.615	106.75
498.832	97.75
499.049	84.75
499.267	88.75
499.484	78.75
499.701	101.75
499.918	97.75
500.135	93.75
500.352	95.75
500.569	90.75
500.786	97.75
501.003	96.75
501.22	91.75
501.437	97.75
501.654	89.75
501.871	117.75
502.088	85.75
502.305	92.75
502.522	90.75
502.739	93.75
502.956	84.75
503.172	86.75
503.389	97.75
503.606	112.75
503.823	94.75
504.04	88.75
504.256	100.75
504.473	98.75
504.69	90.75
504.907	96.75
505.123	93.75
505.34	103.75
505.557	89.75
505.773	103.75
505.99	94.75
506.207	93.75
506.423	92.75
506.64	73.75
506.856	92.75
507.073	88.75
507.289	95.75
507.506	106.75
507.722	130.75
507.939	100.75
508.155	108.75
508.372	85.75
508.588	91.75
508.805	102.75
509.021	98.75
509.238	99.75
509.454	107.75
509.67	92.75
509.887	108.75
510.103	119.75
510.319	211.75
510.536	710.75
510.752	2195.75
510.968	597.75
511.184	169.75
511.401	91.75
511.617	101.75
511.833	101.75
512.049	99.75
512.265	91.75
512.481	77.75
512.698	97.75
512.914	88.75
513.13	101.75
513.346	97.75
513.562	89.75
513.778	106.75
513.994	103.75
514.21	113.75
514.426	110.75
514.642	128.75
