Data from Uncirc_1998_H10_HRD10591_00042.txt Node
Date: Wed Jan 03 11:25:33 EST 2024
User: Yrep
Spectrometer: HR+D1059
Trigger mode: 1
Integration Time (sec): 1.000000E-1
Scans to average: 1
Electric dark correction enabled: true
Nonlinearity correction enabled: false
Boxcar width: 0
XAxis mode: Wavelengths
Number of Pixels in Spectrum: 2048
>>>>>Begin Spectral Data<<<<<
223.165	-22.31
223.4	-22.31
223.635	-22.31
223.869	-15.31
224.104	-25.31
224.338	-23.31
224.573	-17.31
224.808	-8.31
225.042	-10.31
225.277	-4.31
225.511	-1.31
225.746	15.69
225.98	-0.31
226.215	2.69
226.449	30.69
226.683	14.69
226.918	26.69
227.152	37.69
227.387	45.69
227.621	46.69
227.856	38.69
228.09	52.69
228.324	53.69
228.559	43.69
228.793	62.69
229.027	67.69
229.262	68.69
229.496	39.69
229.73	68.69
229.964	85.69
230.199	68.69
230.433	62.69
230.667	89.69
230.901	84.69
231.136	78.69
231.37	80.69
231.604	77.69
231.838	80.69
232.072	83.69
232.306	80.69
232.541	82.69
232.775	64.69
233.009	59.69
233.243	71.69
233.477	86.69
233.711	76.69
233.945	75.69
234.179	76.69
234.413	88.69
234.647	81.69
234.881	75.69
235.115	84.69
235.349	71.69
235.583	76.69
235.817	74.69
236.051	77.69
236.285	67.69
236.519	83.69
236.753	62.69
236.987	77.69
237.221	87.69
237.455	81.69
237.689	85.69
237.922	72.69
238.156	58.69
238.39	62.69
238.624	57.69
238.858	72.69
239.091	74.69
239.325	89.69
239.559	76.69
239.793	80.69
240.027	66.69
240.26	58.69
240.494	70.69
240.728	74.69
240.961	67.69
241.195	69.69
241.429	80.69
241.662	81.69
241.896	67.69
242.13	78.69
242.363	72.69
242.597	93.69
242.83	67.69
243.064	80.69
243.298	74.69
243.531	74.69
243.765	59.69
243.998	86.69
244.232	78.69
244.465	74.69
244.699	75.69
244.932	72.69
245.166	77.69
245.399	77.69
245.633	85.69
245.866	70.69
246.099	79.69
246.333	89.69
246.566	76.69
246.8	71.69
247.033	79.69
247.266	92.69
247.5	80.69
247.733	81.69
247.966	74.69
248.2	69.69
248.433	81.69
248.666	78.69
248.899	78.69
249.133	75.69
249.366	99.69
249.599	89.69
249.832	90.69
250.066	74.69
250.299	85.69
250.532	80.69
250.765	68.69
250.998	69.69
251.231	79.69
251.465	70.69
251.698	79.69
251.931	76.69
252.164	69.69
252.397	73.69
252.63	74.69
252.863	81.69
253.096	92.69
253.329	82.69
253.562	90.69
253.795	75.69
254.028	91.69
254.261	85.69
254.494	61.69
254.727	88.69
254.96	84.69
255.193	86.69
255.426	70.69
255.659	81.69
255.892	79.69
256.124	81.69
256.357	86.69
256.59	81.69
256.823	87.69
257.056	78.69
257.289	91.69
257.521	80.69
257.754	79.69
257.987	75.69
258.22	75.69
258.452	84.69
258.685	67.69
258.918	77.69
259.151	83.69
259.383	80.69
259.616	74.69
259.849	79.69
260.081	74.69
260.314	60.69
260.547	64.69
260.779	70.69
261.012	74.69
261.244	102.69
261.477	93.69
261.71	91.69
261.942	110.69
262.175	102.69
262.407	79.69
262.64	73.69
262.872	73.69
263.105	83.69
263.337	83.69
263.57	78.69
263.802	64.69
264.035	74.69
264.267	74.69
264.499	68.69
264.732	87.69
264.964	61.69
265.197	83.69
265.429	81.69
265.661	98.69
265.894	91.69
266.126	90.69
266.358	76.69
266.591	86.69
266.823	89.69
267.055	84.69
267.287	70.69
267.52	89.69
267.752	82.69
267.984	89.69
268.216	72.69
268.448	88.69
268.681	69.69
268.913	76.69
269.145	89.69
269.377	90.69
269.609	94.69
269.841	82.69
270.073	88.69
270.306	71.69
270.538	71.69
270.77	72.69
271.002	68.69
271.234	87.69
271.466	77.69
271.698	92.69
271.93	78.69
272.162	82.69
272.394	93.69
272.626	64.69
272.858	91.69
273.09	76.69
273.322	70.69
273.553	85.69
273.785	85.69
274.017	85.69
274.249	84.69
274.481	74.69
274.713	81.69
274.945	76.69
275.176	83.69
275.408	86.69
275.64	94.69
275.872	87.69
276.104	84.69
276.335	78.69
276.567	85.69
276.799	104.69
277.031	91.69
277.262	97.69
277.494	72.69
277.726	91.69
277.957	86.69
278.189	84.69
278.421	76.69
278.652	73.69
278.884	88.69
279.115	86.69
279.347	77.69
279.579	95.69
279.81	73.69
280.042	82.69
280.273	86.69
280.505	76.69
280.736	91.69
280.968	72.69
281.199	79.69
281.431	74.69
281.662	95.69
281.894	90.69
282.125	80.69
282.356	92.69
282.588	130.69
282.819	104.69
283.051	74.69
283.282	83.69
283.513	89.69
283.745	84.69
283.976	96.69
284.207	76.69
284.439	77.69
284.67	76.69
284.901	78.69
285.132	79.69
285.364	92.69
285.595	86.69
285.826	99.69
286.057	94.69
286.288	86.69
286.52	87.69
286.751	88.69
286.982	87.69
287.213	96.69
287.444	90.69
287.675	87.69
287.906	86.69
288.138	85.69
288.369	100.69
288.6	95.69
288.831	85.69
289.062	89.69
289.293	90.69
289.524	79.69
289.755	90.69
289.986	72.69
290.217	90.69
290.448	103.69
290.679	78.69
290.91	79.69
291.141	82.69
291.371	76.69
291.602	79.69
291.833	80.69
292.064	80.69
292.295	102.69
292.526	90.69
292.757	76.69
292.987	84.69
293.218	72.69
293.449	73.69
293.68	96.69
293.91	75.69
294.141	71.69
294.372	90.69
294.603	84.69
294.833	71.69
295.064	85.69
295.295	104.69
295.525	94.69
295.756	107.69
295.987	105.69
296.217	125.69
296.448	109.69
296.679	97.69
296.909	100.69
297.14	84.69
297.37	80.69
297.601	77.69
297.831	87.69
298.062	92.69
298.292	107.69
298.523	93.69
298.753	76.69
298.984	97.69
299.214	85.69
299.445	67.69
299.675	95.69
299.905	75.69
300.136	101.69
300.366	87.69
300.597	107.69
300.827	79.69
301.057	91.69
301.288	98.69
301.518	92.69
301.748	94.69
301.979	100.69
302.209	95.69
302.439	84.69
302.669	84.69
302.9	79.69
303.13	73.69
303.36	93.69
303.59	83.69
303.82	95.69
304.051	86.69
304.281	87.69
304.511	85.69
304.741	88.69
304.971	82.69
305.201	66.69
305.431	102.69
305.661	95.69
305.891	94.69
306.121	88.69
306.352	95.69
306.582	96.69
306.812	87.69
307.042	83.69
307.272	93.69
307.502	82.69
307.731	86.69
307.961	90.69
308.191	97.69
308.421	90.69
308.651	84.69
308.881	92.69
309.111	69.69
309.341	100.69
309.571	105.69
309.8	80.69
310.03	100.69
310.26	100.69
310.49	92.69
310.72	79.69
310.949	70.69
311.179	88.69
311.409	74.69
311.639	84.69
311.868	82.69
312.098	96.69
312.328	102.69
312.557	103.69
312.787	84.69
313.017	104.69
313.246	94.69
313.476	71.69
313.706	93.69
313.935	89.69
314.165	91.69
314.394	106.69
314.624	87.69
314.853	104.69
315.083	82.69
315.312	87.69
315.542	70.69
315.771	75.69
316.001	87.69
316.23	80.69
316.46	72.69
316.689	94.69
316.919	89.69
317.148	78.69
317.377	92.69
317.607	95.69
317.836	81.69
318.065	87.69
318.295	88.69
318.524	89.69
318.753	77.69
318.983	94.69
319.212	102.69
319.441	114.69
319.67	110.69
319.9	104.69
320.129	91.69
320.358	93.69
320.587	96.69
320.816	97.69
321.046	89.69
321.275	95.69
321.504	92.69
321.733	107.69
321.962	96.69
322.191	91.69
322.42	99.69
322.649	92.69
322.878	100.69
323.108	110.69
323.337	115.69
323.566	109.69
323.795	154.69
324.024	198.69
324.253	356.69
324.482	748.69
324.71	1501.69
324.939	1933.69
325.168	726.69
325.397	228.69
325.626	138.69
325.855	127.69
326.084	114.69
326.313	137.69
326.542	143.69
326.77	207.69
326.999	406.69
327.228	841.69
327.457	1515.69
327.686	1164.69
327.914	334.69
328.143	196.69
328.372	131.69
328.6	134.69
328.829	112.69
329.058	123.69
329.287	115.69
329.515	120.69
329.744	97.69
329.972	95.69
330.201	96.69
330.43	105.69
330.658	109.69
330.887	119.69
331.115	113.69
331.344	102.69
331.572	105.69
331.801	95.69
332.03	107.69
332.258	96.69
332.486	77.69
332.715	91.69
332.943	87.69
333.172	94.69
333.4	94.69
333.629	94.69
333.857	109.69
334.085	100.69
334.314	80.69
334.542	93.69
334.771	100.69
334.999	101.69
335.227	84.69
335.455	94.69
335.684	104.69
335.912	97.69
336.14	103.69
336.369	101.69
336.597	92.69
336.825	86.69
337.053	76.69
337.281	93.69
337.51	87.69
337.738	82.69
337.966	84.69
338.194	95.69
338.422	105.69
338.65	118.69
338.878	84.69
339.106	97.69
339.334	94.69
339.562	100.69
339.79	85.69
340.018	86.69
340.246	87.69
340.474	109.69
340.702	96.69
340.93	99.69
341.158	78.69
341.386	81.69
341.614	88.69
341.842	99.69
342.07	87.69
342.298	86.69
342.526	90.69
342.754	89.69
342.981	80.69
343.209	103.69
343.437	92.69
343.665	92.69
343.893	98.69
344.12	83.69
344.348	87.69
344.576	87.69
344.804	82.69
345.031	94.69
345.259	89.69
345.487	92.69
345.714	89.69
345.942	83.69
346.17	67.69
346.397	76.69
346.625	90.69
346.853	92.69
347.08	73.69
347.308	80.69
347.535	86.69
347.763	92.69
347.99	73.69
348.218	108.69
348.445	93.69
348.673	102.69
348.9	79.69
349.128	90.69
349.355	86.69
349.583	100.69
349.81	91.69
350.037	89.69
350.265	100.69
350.492	90.69
350.72	92.69
350.947	79.69
351.174	104.69
351.402	103.69
351.629	93.69
351.856	88.69
352.083	76.69
352.311	109.69
352.538	101.69
352.765	93.69
352.992	109.69
353.22	112.69
353.447	98.69
353.674	103.69
353.901	98.69
354.128	105.69
354.355	97.69
354.583	92.69
354.81	89.69
355.037	101.69
355.264	87.69
355.491	87.69
355.718	89.69
355.945	94.69
356.172	95.69
356.399	92.69
356.626	95.69
356.853	63.69
357.08	100.69
357.307	82.69
357.534	93.69
357.761	91.69
357.988	91.69
358.215	101.69
358.441	96.69
358.668	87.69
358.895	82.69
359.122	72.69
359.349	86.69
359.576	79.69
359.802	89.69
360.029	101.69
360.256	98.69
360.483	95.69
360.709	83.69
360.936	94.69
361.163	76.69
361.39	92.69
361.616	89.69
361.843	79.69
362.07	91.69
362.296	88.69
362.523	83.69
362.749	85.69
362.976	75.69
363.203	85.69
363.429	87.69
363.656	90.69
363.882	94.69
364.109	97.69
364.335	84.69
364.562	86.69
364.788	91.69
365.015	100.69
365.241	88.69
365.468	106.69
365.694	100.69
365.92	95.69
366.147	85.69
366.373	84.69
366.599	89.69
366.826	80.69
367.052	76.69
367.278	75.69
367.505	78.69
367.731	84.69
367.957	84.69
368.184	96.69
368.41	93.69
368.636	90.69
368.862	115.69
369.089	90.69
369.315	96.69
369.541	85.69
369.767	94.69
369.993	84.69
370.219	100.69
370.445	91.69
370.672	84.69
370.898	82.69
371.124	81.69
371.35	72.69
371.576	88.69
371.802	95.69
372.028	83.69
372.254	76.69
372.48	86.69
372.706	79.69
372.932	81.69
373.158	82.69
373.384	82.69
373.61	85.69
373.835	79.69
374.061	93.69
374.287	96.69
374.513	77.69
374.739	77.69
374.965	96.69
375.191	98.69
375.416	88.69
375.642	91.69
375.868	94.69
376.094	100.69
376.319	86.69
376.545	77.69
376.771	94.69
376.997	86.69
377.222	82.69
377.448	91.69
377.674	101.69
377.899	82.69
378.125	87.69
378.35	92.69
378.576	103.69
378.802	73.69
379.027	80.69
379.253	99.69
379.478	96.69
379.704	83.69
379.929	102.69
380.155	90.69
380.38	93.69
380.606	100.69
380.831	92.69
381.057	90.69
381.282	97.69
381.507	93.69
381.733	93.69
381.958	94.69
382.184	96.69
382.409	102.69
382.634	114.69
382.86	93.69
383.085	82.69
383.31	106.69
383.535	85.69
383.761	96.69
383.986	98.69
384.211	94.69
384.436	100.69
384.662	103.69
384.887	94.69
385.112	99.69
385.337	88.69
385.562	89.69
385.787	105.69
386.013	116.69
386.238	116.69
386.463	80.69
386.688	104.69
386.913	102.69
387.138	103.69
387.363	101.69
387.588	95.69
387.813	96.69
388.038	95.69
388.263	103.69
388.488	96.69
388.713	114.69
388.938	99.69
389.163	96.69
389.387	94.69
389.612	92.69
389.837	86.69
390.062	88.69
390.287	101.69
390.512	59.69
390.736	72.69
390.961	90.69
391.186	70.69
391.411	100.69
391.636	95.69
391.86	73.69
392.085	88.69
392.31	75.69
392.534	77.69
392.759	95.69
392.984	90.69
393.208	84.69
393.433	90.69
393.658	76.69
393.882	84.69
394.107	76.69
394.331	94.69
394.556	86.69
394.78	91.69
395.005	94.69
395.229	95.69
395.454	88.69
395.678	95.69
395.903	88.69
396.127	86.69
396.352	84.69
396.576	73.69
396.801	87.69
397.025	78.69
397.249	82.69
397.474	83.69
397.698	94.69
397.922	87.69
398.147	102.69
398.371	85.69
398.595	86.69
398.82	95.69
399.044	86.69
399.268	88.69
399.492	87.69
399.717	90.69
399.941	89.69
400.165	101.69
400.389	77.69
400.613	76.69
400.837	85.69
401.062	94.69
401.286	76.69
401.51	80.69
401.734	97.69
401.958	110.69
402.182	114.69
402.406	150.69
402.63	125.69
402.854	94.69
403.078	86.69
403.302	92.69
403.526	79.69
403.75	72.69
403.974	88.69
404.198	77.69
404.422	86.69
404.645	76.69
404.869	83.69
405.093	71.69
405.317	100.69
405.541	84.69
405.765	85.69
405.988	118.69
406.212	152.69
406.436	208.69
406.66	132.69
406.883	84.69
407.107	86.69
407.331	99.69
407.555	89.69
407.778	96.69
408.002	81.69
408.226	87.69
408.449	84.69
408.673	87.69
408.896	92.69
409.12	82.69
409.344	94.69
409.567	82.69
409.791	101.69
410.014	82.69
410.238	88.69
410.461	83.69
410.685	91.69
410.908	101.69
411.132	103.69
411.355	97.69
411.578	96.69
411.802	87.69
412.025	93.69
412.249	98.69
412.472	88.69
412.695	91.69
412.919	87.69
413.142	83.69
413.365	91.69
413.589	92.69
413.812	66.69
414.035	98.69
414.258	82.69
414.482	86.69
414.705	88.69
414.928	80.69
415.151	81.69
415.374	93.69
415.597	87.69
415.821	78.69
416.044	82.69
416.267	76.69
416.49	88.69
416.713	103.69
416.936	81.69
417.159	91.69
417.382	93.69
417.605	90.69
417.828	89.69
418.051	86.69
418.274	72.69
418.497	90.69
418.72	87.69
418.943	88.69
419.166	87.69
419.389	87.69
419.611	92.69
419.834	80.69
420.057	84.69
420.28	85.69
420.503	86.69
420.726	82.69
420.948	91.69
421.171	90.69
421.394	99.69
421.617	86.69
421.839	75.69
422.062	89.69
422.285	77.69
422.507	94.69
422.73	106.69
422.953	82.69
423.175	88.69
423.398	70.69
423.621	93.69
423.843	83.69
424.066	82.69
424.288	90.69
424.511	87.69
424.733	93.69
424.956	101.69
425.178	98.69
425.401	96.69
425.623	108.69
425.846	88.69
426.068	78.69
426.291	86.69
426.513	87.69
426.735	87.69
426.958	90.69
427.18	100.69
427.402	123.69
427.625	156.69
427.847	115.69
428.069	95.69
428.292	77.69
428.514	79.69
428.736	82.69
428.958	74.69
429.181	84.69
429.403	76.69
429.625	88.69
429.847	86.69
430.069	94.69
430.292	105.69
430.514	90.69
430.736	83.69
430.958	83.69
431.18	78.69
431.402	103.69
431.624	75.69
431.846	90.69
432.068	82.69
432.29	104.69
432.512	93.69
432.734	82.69
432.956	90.69
433.178	87.69
433.4	90.69
433.622	84.69
433.844	80.69
434.066	93.69
434.287	90.69
434.509	85.69
434.731	91.69
434.953	77.69
435.175	92.69
435.397	94.69
435.618	72.69
435.84	93.69
436.062	114.69
436.284	93.69
436.505	87.69
436.727	111.69
436.949	76.69
437.17	77.69
437.392	86.69
437.614	94.69
437.835	95.69
438.057	114.69
438.278	83.69
438.5	110.69
438.721	107.69
438.943	99.69
439.165	96.69
439.386	90.69
439.608	94.69
439.829	98.69
440.05	115.69
440.272	112.69
440.493	92.69
440.715	102.69
440.936	74.69
441.158	76.69
441.379	94.69
441.6	104.69
441.822	107.69
442.043	82.69
442.264	78.69
442.486	91.69
442.707	91.69
442.928	100.69
443.149	102.69
443.371	117.69
443.592	100.69
443.813	117.69
444.034	100.69
444.255	85.69
444.476	96.69
444.698	95.69
444.919	77.69
445.14	128.69
445.361	131.69
445.582	110.69
445.803	139.69
446.024	97.69
446.245	124.69
446.466	107.69
446.687	74.69
446.908	79.69
447.129	93.69
447.35	79.69
447.571	80.69
447.792	82.69
448.013	93.69
448.234	102.69
448.455	97.69
448.675	96.69
448.896	106.69
449.117	98.69
449.338	101.69
449.559	115.69
449.779	127.69
450	88.69
450.221	68.69
450.442	89.69
450.662	90.69
450.883	84.69
451.104	101.69
451.324	94.69
451.545	84.69
451.766	91.69
451.986	90.69
452.207	93.69
452.428	76.69
452.648	86.69
452.869	108.69
453.089	82.69
453.31	95.69
453.53	87.69
453.751	80.69
453.971	101.69
454.192	99.69
454.412	88.69
454.633	79.69
454.853	99.69
455.073	86.69
455.294	90.69
455.514	94.69
455.734	74.69
455.955	80.69
456.175	82.69
456.395	82.69
456.616	77.69
456.836	76.69
457.056	88.69
457.276	94.69
457.497	88.69
457.717	91.69
457.937	101.69
458.157	83.69
458.377	78.69
458.598	95.69
458.818	146.69
459.038	132.69
459.258	119.69
459.478	84.69
459.698	78.69
459.918	93.69
460.138	84.69
460.358	79.69
460.578	77.69
460.798	84.69
461.018	73.69
461.238	81.69
461.458	87.69
461.678	86.69
461.898	91.69
462.118	94.69
462.338	82.69
462.558	86.69
462.777	93.69
462.997	91.69
463.217	90.69
463.437	79.69
463.657	97.69
463.876	99.69
464.096	85.69
464.316	92.69
464.536	92.69
464.755	89.69
464.975	105.69
465.195	159.69
465.414	160.69
465.634	91.69
465.854	86.69
466.073	75.69
466.293	82.69
466.512	72.69
466.732	79.69
466.951	78.69
467.171	98.69
467.391	93.69
467.61	90.69
467.829	89.69
468.049	90.69
468.268	80.69
468.488	82.69
468.707	75.69
468.927	91.69
469.146	69.69
469.365	93.69
469.585	95.69
469.804	86.69
470.023	83.69
470.243	97.69
470.462	98.69
470.681	97.69
470.901	87.69
471.12	71.69
471.339	98.69
471.558	97.69
471.777	90.69
471.997	85.69
472.216	83.69
472.435	88.69
472.654	67.69
472.873	79.69
473.092	78.69
473.311	77.69
473.53	75.69
473.749	89.69
473.968	82.69
474.187	95.69
474.406	89.69
474.625	96.69
474.844	91.69
475.063	83.69
475.282	79.69
475.501	88.69
475.72	63.69
475.939	86.69
476.158	84.69
476.377	90.69
476.596	97.69
476.814	89.69
477.033	90.69
477.252	103.69
477.471	82.69
477.69	74.69
477.908	88.69
478.127	82.69
478.346	64.69
478.564	84.69
478.783	97.69
479.002	83.69
479.22	82.69
479.439	94.69
479.658	93.69
479.876	89.69
480.095	91.69
480.313	81.69
480.532	89.69
480.751	90.69
480.969	86.69
481.188	101.69
481.406	104.69
481.624	83.69
481.843	90.69
482.061	89.69
482.28	85.69
482.498	93.69
482.717	86.69
482.935	79.69
483.153	89.69
483.372	74.69
483.59	93.69
483.808	90.69
484.027	87.69
484.245	100.69
484.463	82.69
484.681	94.69
484.9	80.69
485.118	80.69
485.336	89.69
485.554	84.69
485.772	90.69
485.99	95.69
486.209	98.69
486.427	84.69
486.645	110.69
486.863	94.69
487.081	78.69
487.299	87.69
487.517	92.69
487.735	80.69
487.953	98.69
488.171	92.69
488.389	86.69
488.607	102.69
488.825	82.69
489.043	79.69
489.261	95.69
489.479	79.69
489.696	81.69
489.914	78.69
490.132	96.69
490.35	83.69
490.568	73.69
490.786	96.69
491.003	84.69
491.221	95.69
491.439	87.69
491.657	95.69
491.874	91.69
492.092	92.69
492.31	86.69
492.527	85.69
492.745	77.69
492.963	77.69
493.18	92.69
493.398	91.69
493.615	88.69
493.833	94.69
494.05	90.69
494.268	87.69
494.485	92.69
494.703	77.69
494.92	89.69
495.138	94.69
495.355	88.69
495.573	102.69
495.79	86.69
496.008	108.69
496.225	100.69
496.442	86.69
496.66	82.69
496.877	79.69
497.094	86.69
497.312	99.69
497.529	86.69
497.746	92.69
497.963	83.69
498.181	76.69
498.398	81.69
498.615	99.69
498.832	89.69
499.049	82.69
499.267	107.69
499.484	106.69
499.701	91.69
499.918	92.69
500.135	78.69
500.352	87.69
500.569	82.69
500.786	93.69
501.003	99.69
501.22	80.69
501.437	98.69
501.654	101.69
501.871	117.69
502.088	101.69
502.305	95.69
502.522	83.69
502.739	103.69
502.956	93.69
503.172	88.69
503.389	89.69
503.606	90.69
503.823	90.69
504.04	97.69
504.256	91.69
504.473	85.69
504.69	89.69
504.907	92.69
505.123	79.69
505.34	75.69
505.557	89.69
505.773	80.69
505.99	88.69
506.207	73.69
506.423	87.69
506.64	95.69
506.856	85.69
507.073	93.69
507.289	100.69
507.506	91.69
507.722	95.69
507.939	103.69
508.155	98.69
508.372	82.69
508.588	101.69
508.805	70.69
509.021	94.69
509.238	94.69
509.454	95.69
509.67	100.69
509.887	97.69
510.103	116.69
510.319	220.69
510.536	703.69
510.752	2165.69
510.968	605.69
511.184	140.69
511.401	104.69
511.617	94.69
511.833	95.69
512.049	95.69
512.265	80.69
512.481	92.69
512.698	96.69
512.914	94.69
513.13	103.69
513.346	90.69
513.562	84.69
513.778	93.69
513.994	114.69
514.21	96.69
514.426	119.69
514.642	129.69
514.858	118.69
515.074	156.69
515.29	416.69
515.506	1295.69
515.721	466.69
515.937	135.69
516.153	114.69
516.369	100.69
516.585	91.69
516.801	83.69
