Data from Uncirc_1998_H10_HRD10591_00043.txt Node
Date: Wed Jan 03 11:25:33 EST 2024
User: Yrep
Spectrometer: HR+D1059
Trigger mode: 1
Integration Time (sec): 1.000000E-1
Scans to average: 1
Electric dark correction enabled: true
Nonlinearity correction enabled: false
Boxcar width: 0
XAxis mode: Wavelengths
Number of Pixels in Spectrum: 2048
>>>>>Begin Spectral Data<<<<<
223.165	-9.5
223.4	-9.5
223.635	-9.5
223.869	-27.5
224.104	-22.5
224.338	-30.5
224.573	-23.5
224.808	-12.5
225.042	5.5
225.277	-9.5
225.511	-4.5
225.746	10.5
225.98	8.5
226.215	11.5
226.449	21.5
226.683	26.5
226.918	28.5
227.152	27.5
227.387	36.5
227.621	44.5
227.856	46.5
228.09	45.5
228.324	43.5
228.559	57.5
228.793	71.5
229.027	47.5
229.262	77.5
229.496	77.5
229.73	97.5
229.964	78.5
230.199	75.5
230.433	80.5
230.667	70.5
230.901	83.5
231.136	67.5
231.37	73.5
231.604	80.5
231.838	79.5
232.072	77.5
232.306	80.5
232.541	72.5
232.775	78.5
233.009	71.5
233.243	102.5
233.477	77.5
233.711	76.5
233.945	83.5
234.179	83.5
234.413	87.5
234.647	87.5
234.881	74.5
235.115	71.5
235.349	76.5
235.583	74.5
235.817	69.5
236.051	75.5
236.285	78.5
236.519	81.5
236.753	78.5
236.987	71.5
237.221	85.5
237.455	78.5
237.689	77.5
237.922	77.5
238.156	93.5
238.39	73.5
238.624	72.5
238.858	75.5
239.091	72.5
239.325	60.5
239.559	72.5
239.793	61.5
240.027	67.5
240.26	72.5
240.494	75.5
240.728	78.5
240.961	75.5
241.195	89.5
241.429	85.5
241.662	70.5
241.896	69.5
242.13	70.5
242.363	75.5
242.597	61.5
242.83	77.5
243.064	72.5
243.298	72.5
243.531	80.5
243.765	79.5
243.998	81.5
244.232	75.5
244.465	83.5
244.699	73.5
244.932	74.5
245.166	72.5
245.399	67.5
245.633	81.5
245.866	70.5
246.099	91.5
246.333	70.5
246.566	76.5
246.8	74.5
247.033	73.5
247.266	69.5
247.5	82.5
247.733	75.5
247.966	85.5
248.2	80.5
248.433	83.5
248.666	85.5
248.899	84.5
249.133	73.5
249.366	81.5
249.599	101.5
249.832	76.5
250.066	102.5
250.299	95.5
250.532	85.5
250.765	69.5
250.998	87.5
251.231	79.5
251.465	74.5
251.698	87.5
251.931	76.5
252.164	75.5
252.397	75.5
252.63	83.5
252.863	84.5
253.096	69.5
253.329	75.5
253.562	84.5
253.795	78.5
254.028	83.5
254.261	85.5
254.494	73.5
254.727	93.5
254.96	76.5
255.193	79.5
255.426	80.5
255.659	79.5
255.892	86.5
256.124	86.5
256.357	81.5
256.59	81.5
256.823	74.5
257.056	65.5
257.289	67.5
257.521	72.5
257.754	73.5
257.987	77.5
258.22	82.5
258.452	66.5
258.685	85.5
258.918	90.5
259.151	71.5
259.383	81.5
259.616	83.5
259.849	86.5
260.081	82.5
260.314	83.5
260.547	73.5
260.779	87.5
261.012	84.5
261.244	79.5
261.477	72.5
261.71	83.5
261.942	110.5
262.175	104.5
262.407	96.5
262.64	87.5
262.872	85.5
263.105	81.5
263.337	77.5
263.57	79.5
263.802	86.5
264.035	94.5
264.267	92.5
264.499	78.5
264.732	83.5
264.964	86.5
265.197	72.5
265.429	70.5
265.661	87.5
265.894	74.5
266.126	93.5
266.358	82.5
266.591	70.5
266.823	85.5
267.055	69.5
267.287	77.5
267.52	72.5
267.752	71.5
267.984	80.5
268.216	81.5
268.448	93.5
268.681	80.5
268.913	75.5
269.145	79.5
269.377	83.5
269.609	71.5
269.841	76.5
270.073	98.5
270.306	85.5
270.538	72.5
270.77	91.5
271.002	74.5
271.234	84.5
271.466	81.5
271.698	90.5
271.93	81.5
272.162	69.5
272.394	81.5
272.626	85.5
272.858	94.5
273.09	79.5
273.322	82.5
273.553	90.5
273.785	91.5
274.017	91.5
274.249	96.5
274.481	72.5
274.713	90.5
274.945	90.5
275.176	88.5
275.408	83.5
275.64	97.5
275.872	82.5
276.104	75.5
276.335	73.5
276.567	91.5
276.799	102.5
277.031	94.5
277.262	73.5
277.494	89.5
277.726	89.5
277.957	80.5
278.189	77.5
278.421	85.5
278.652	93.5
278.884	90.5
279.115	92.5
279.347	88.5
279.579	91.5
279.81	76.5
280.042	97.5
280.273	89.5
280.505	89.5
280.736	93.5
280.968	78.5
281.199	85.5
281.431	87.5
281.662	78.5
281.894	85.5
282.125	97.5
282.356	113.5
282.588	133.5
282.819	107.5
283.051	86.5
283.282	89.5
283.513	93.5
283.745	86.5
283.976	85.5
284.207	103.5
284.439	94.5
284.67	94.5
284.901	91.5
285.132	80.5
285.364	66.5
285.595	90.5
285.826	85.5
286.057	76.5
286.288	89.5
286.52	99.5
286.751	93.5
286.982	82.5
287.213	73.5
287.444	89.5
287.675	90.5
287.906	96.5
288.138	80.5
288.369	79.5
288.6	79.5
288.831	89.5
289.062	78.5
289.293	78.5
289.524	84.5
289.755	105.5
289.986	86.5
290.217	87.5
290.448	87.5
290.679	98.5
290.91	100.5
291.141	87.5
291.371	85.5
291.602	89.5
291.833	89.5
292.064	86.5
292.295	96.5
292.526	79.5
292.757	84.5
292.987	86.5
293.218	96.5
293.449	94.5
293.68	86.5
293.91	88.5
294.141	86.5
294.372	74.5
294.603	90.5
294.833	86.5
295.064	86.5
295.295	85.5
295.525	91.5
295.756	91.5
295.987	97.5
296.217	129.5
296.448	108.5
296.679	91.5
296.909	102.5
297.14	105.5
297.37	88.5
297.601	75.5
297.831	98.5
298.062	91.5
298.292	87.5
298.523	91.5
298.753	88.5
298.984	84.5
299.214	91.5
299.445	91.5
299.675	92.5
299.905	98.5
300.136	82.5
300.366	91.5
300.597	91.5
300.827	82.5
301.057	88.5
301.288	94.5
301.518	91.5
301.748	92.5
301.979	83.5
302.209	92.5
302.439	83.5
302.669	71.5
302.9	82.5
303.13	95.5
303.36	90.5
303.59	94.5
303.82	109.5
304.051	115.5
304.281	107.5
304.511	99.5
304.741	80.5
304.971	87.5
305.201	90.5
305.431	69.5
305.661	79.5
305.891	87.5
306.121	87.5
306.352	91.5
306.582	98.5
306.812	95.5
307.042	87.5
307.272	93.5
307.502	87.5
307.731	87.5
307.961	90.5
308.191	93.5
308.421	90.5
308.651	81.5
308.881	95.5
309.111	101.5
309.341	97.5
309.571	94.5
309.8	78.5
310.03	92.5
310.26	82.5
310.49	90.5
310.72	87.5
310.949	89.5
311.179	76.5
311.409	87.5
311.639	94.5
311.868	96.5
312.098	95.5
312.328	85.5
312.557	97.5
312.787	93.5
313.017	91.5
313.246	102.5
313.476	86.5
313.706	96.5
313.935	83.5
314.165	118.5
314.394	91.5
314.624	98.5
314.853	91.5
315.083	93.5
315.312	91.5
315.542	97.5
315.771	99.5
316.001	80.5
316.23	89.5
316.46	96.5
316.689	90.5
316.919	101.5
317.148	93.5
317.377	95.5
317.607	88.5
317.836	111.5
318.065	110.5
318.295	76.5
318.524	98.5
318.753	92.5
318.983	89.5
319.212	87.5
319.441	91.5
319.67	99.5
319.9	85.5
320.129	94.5
320.358	102.5
320.587	102.5
320.816	110.5
321.046	92.5
321.275	83.5
321.504	94.5
321.733	89.5
321.962	96.5
322.191	82.5
322.42	89.5
322.649	100.5
322.878	110.5
323.108	106.5
323.337	120.5
323.566	108.5
323.795	122.5
324.024	186.5
324.253	347.5
324.482	735.5
324.71	1459.5
324.939	1917.5
325.168	690.5
325.397	225.5
325.626	153.5
325.855	120.5
326.084	115.5
326.313	116.5
326.542	137.5
326.77	200.5
326.999	419.5
327.228	834.5
327.457	1535.5
327.686	1187.5
327.914	339.5
328.143	175.5
328.372	127.5
328.6	106.5
328.829	101.5
329.058	113.5
329.287	105.5
329.515	102.5
329.744	98.5
329.972	95.5
330.201	114.5
330.43	112.5
330.658	115.5
330.887	123.5
331.115	112.5
331.344	95.5
331.572	98.5
331.801	108.5
332.03	102.5
332.258	83.5
332.486	102.5
332.715	97.5
332.943	86.5
333.172	90.5
333.4	94.5
333.629	91.5
333.857	101.5
334.085	97.5
334.314	95.5
334.542	95.5
334.771	96.5
334.999	87.5
335.227	107.5
335.455	94.5
335.684	83.5
335.912	92.5
336.14	108.5
336.369	86.5
336.597	101.5
336.825	97.5
337.053	81.5
337.281	96.5
337.51	92.5
337.738	92.5
337.966	81.5
338.194	95.5
338.422	108.5
338.65	91.5
338.878	99.5
339.106	84.5
339.334	88.5
339.562	92.5
339.79	97.5
340.018	85.5
340.246	80.5
340.474	98.5
340.702	75.5
340.93	86.5
341.158	67.5
341.386	99.5
341.614	101.5
341.842	99.5
342.07	98.5
342.298	76.5
342.526	93.5
342.754	85.5
342.981	94.5
343.209	96.5
343.437	89.5
343.665	82.5
343.893	77.5
344.12	94.5
344.348	91.5
344.576	101.5
344.804	95.5
345.031	97.5
345.259	86.5
345.487	96.5
345.714	79.5
345.942	81.5
346.17	99.5
346.397	93.5
346.625	112.5
346.853	82.5
347.08	93.5
347.308	102.5
347.535	87.5
347.763	110.5
347.99	87.5
348.218	97.5
348.445	98.5
348.673	94.5
348.9	89.5
349.128	93.5
349.355	85.5
349.583	88.5
349.81	86.5
350.037	81.5
350.265	103.5
350.492	95.5
350.72	109.5
350.947	94.5
351.174	105.5
351.402	106.5
351.629	104.5
351.856	89.5
352.083	96.5
352.311	101.5
352.538	99.5
352.765	109.5
352.992	112.5
353.22	97.5
353.447	108.5
353.674	109.5
353.901	102.5
354.128	91.5
354.355	98.5
354.583	90.5
354.81	93.5
355.037	98.5
355.264	94.5
355.491	88.5
355.718	85.5
355.945	79.5
356.172	94.5
356.399	83.5
356.626	91.5
356.853	91.5
357.08	94.5
357.307	92.5
357.534	100.5
357.761	98.5
357.988	102.5
358.215	78.5
358.441	88.5
358.668	79.5
358.895	74.5
359.122	86.5
359.349	87.5
359.576	102.5
359.802	96.5
360.029	96.5
360.256	96.5
360.483	107.5
360.709	94.5
360.936	99.5
361.163	91.5
361.39	88.5
361.616	90.5
361.843	97.5
362.07	81.5
362.296	95.5
362.523	94.5
362.749	103.5
362.976	89.5
363.203	91.5
363.429	83.5
363.656	89.5
363.882	77.5
364.109	87.5
364.335	102.5
364.562	95.5
364.788	95.5
365.015	87.5
365.241	91.5
365.468	94.5
365.694	96.5
365.92	88.5
366.147	85.5
366.373	99.5
366.599	90.5
366.826	85.5
367.052	89.5
367.278	96.5
367.505	87.5
367.731	87.5
367.957	93.5
368.184	83.5
368.41	102.5
368.636	105.5
368.862	107.5
369.089	97.5
369.315	81.5
369.541	103.5
369.767	93.5
369.993	90.5
370.219	84.5
370.445	104.5
370.672	89.5
370.898	98.5
371.124	92.5
371.35	78.5
371.576	93.5
371.802	91.5
372.028	87.5
372.254	94.5
372.48	73.5
372.706	99.5
372.932	91.5
373.158	76.5
373.384	103.5
373.61	79.5
373.835	92.5
374.061	93.5
374.287	87.5
374.513	89.5
374.739	93.5
374.965	93.5
375.191	90.5
375.416	87.5
375.642	95.5
375.868	93.5
376.094	93.5
376.319	87.5
376.545	88.5
376.771	97.5
376.997	88.5
377.222	85.5
377.448	85.5
377.674	84.5
377.899	89.5
378.125	83.5
378.35	88.5
378.576	89.5
378.802	90.5
379.027	78.5
379.253	90.5
379.478	104.5
379.704	85.5
379.929	96.5
380.155	96.5
380.38	104.5
380.606	97.5
380.831	109.5
381.057	105.5
381.282	86.5
381.507	97.5
381.733	90.5
381.958	96.5
382.184	100.5
382.409	92.5
382.634	105.5
382.86	98.5
383.085	108.5
383.31	89.5
383.535	87.5
383.761	98.5
383.986	96.5
384.211	93.5
384.436	91.5
384.662	99.5
384.887	99.5
385.112	97.5
385.337	110.5
385.562	101.5
385.787	99.5
386.013	112.5
386.238	108.5
386.463	92.5
386.688	96.5
386.913	105.5
387.138	100.5
387.363	82.5
387.588	83.5
387.813	105.5
388.038	114.5
388.263	102.5
388.488	95.5
388.713	95.5
388.938	83.5
389.163	103.5
389.387	106.5
389.612	89.5
389.837	92.5
390.062	96.5
390.287	99.5
390.512	94.5
390.736	74.5
390.961	88.5
391.186	105.5
391.411	94.5
391.636	90.5
391.86	96.5
392.085	77.5
392.31	70.5
392.534	84.5
392.759	85.5
392.984	83.5
393.208	89.5
393.433	85.5
393.658	94.5
393.882	84.5
394.107	75.5
394.331	82.5
394.556	89.5
394.78	89.5
395.005	96.5
395.229	91.5
395.454	97.5
395.678	81.5
395.903	87.5
396.127	105.5
396.352	94.5
396.576	95.5
396.801	74.5
397.025	86.5
397.249	73.5
397.474	88.5
397.698	101.5
397.922	88.5
398.147	91.5
398.371	91.5
398.595	86.5
398.82	89.5
399.044	75.5
399.268	91.5
399.492	85.5
399.717	86.5
399.941	89.5
400.165	93.5
400.389	89.5
400.613	80.5
400.837	82.5
401.062	82.5
401.286	90.5
401.51	76.5
401.734	90.5
401.958	93.5
402.182	121.5
402.406	150.5
402.63	111.5
402.854	91.5
403.078	90.5
403.302	94.5
403.526	97.5
403.75	83.5
403.974	88.5
404.198	93.5
404.422	78.5
404.645	95.5
404.869	76.5
405.093	94.5
405.317	88.5
405.541	103.5
405.765	91.5
405.988	99.5
406.212	173.5
406.436	193.5
406.66	122.5
406.883	93.5
407.107	103.5
407.331	96.5
407.555	98.5
407.778	91.5
408.002	91.5
408.226	99.5
408.449	92.5
408.673	88.5
408.896	71.5
409.12	83.5
409.344	102.5
409.567	81.5
409.791	76.5
410.014	107.5
410.238	82.5
410.461	73.5
410.685	91.5
410.908	98.5
411.132	98.5
411.355	93.5
411.578	101.5
411.802	85.5
412.025	81.5
412.249	83.5
412.472	86.5
412.695	89.5
412.919	82.5
413.142	80.5
413.365	73.5
413.589	99.5
413.812	87.5
414.035	109.5
414.258	87.5
414.482	111.5
414.705	81.5
414.928	91.5
415.151	92.5
415.374	101.5
415.597	89.5
415.821	98.5
416.044	92.5
416.267	89.5
416.49	87.5
416.713	98.5
416.936	85.5
417.159	80.5
417.382	80.5
417.605	81.5
417.828	97.5
418.051	81.5
418.274	90.5
418.497	86.5
418.72	94.5
418.943	81.5
419.166	98.5
419.389	77.5
419.611	106.5
419.834	76.5
420.057	91.5
420.28	101.5
420.503	75.5
420.726	87.5
420.948	90.5
421.171	98.5
421.394	98.5
421.617	92.5
421.839	98.5
422.062	83.5
422.285	80.5
422.507	92.5
422.73	92.5
422.953	91.5
423.175	104.5
423.398	86.5
423.621	94.5
423.843	82.5
424.066	99.5
424.288	89.5
424.511	89.5
424.733	97.5
424.956	102.5
425.178	101.5
425.401	112.5
425.623	94.5
425.846	83.5
426.068	99.5
426.291	94.5
426.513	91.5
426.735	87.5
426.958	95.5
427.18	89.5
427.402	122.5
427.625	150.5
427.847	115.5
428.069	91.5
428.292	79.5
428.514	83.5
428.736	84.5
428.958	95.5
429.181	87.5
429.403	98.5
429.625	87.5
429.847	80.5
430.069	95.5
430.292	91.5
430.514	82.5
430.736	89.5
430.958	90.5
431.18	88.5
431.402	89.5
431.624	71.5
431.846	87.5
432.068	95.5
432.29	88.5
432.512	88.5
432.734	81.5
432.956	94.5
433.178	102.5
433.4	97.5
433.622	95.5
433.844	101.5
434.066	99.5
434.287	90.5
434.509	79.5
434.731	89.5
434.953	79.5
435.175	87.5
435.397	89.5
435.618	82.5
435.84	96.5
436.062	114.5
436.284	112.5
436.505	93.5
436.727	112.5
436.949	90.5
437.17	83.5
437.392	82.5
437.614	95.5
437.835	90.5
438.057	100.5
438.278	90.5
438.5	96.5
438.721	115.5
438.943	90.5
439.165	81.5
439.386	91.5
439.608	96.5
439.829	99.5
440.05	122.5
440.272	117.5
440.493	90.5
440.715	85.5
440.936	76.5
441.158	81.5
441.379	83.5
441.6	110.5
441.822	89.5
442.043	86.5
442.264	93.5
442.486	87.5
442.707	92.5
442.928	97.5
443.149	127.5
443.371	114.5
443.592	92.5
443.813	93.5
444.034	114.5
444.255	98.5
444.476	89.5
444.698	79.5
444.919	106.5
445.14	136.5
445.361	120.5
445.582	120.5
445.803	131.5
446.024	130.5
446.245	127.5
446.466	101.5
446.687	96.5
446.908	85.5
447.129	87.5
447.35	102.5
447.571	104.5
447.792	90.5
448.013	94.5
448.234	104.5
448.455	96.5
448.675	104.5
448.896	110.5
449.117	94.5
449.338	82.5
449.559	122.5
449.779	114.5
450	82.5
450.221	94.5
450.442	97.5
450.662	87.5
450.883	105.5
451.104	99.5
451.324	110.5
451.545	71.5
451.766	84.5
451.986	89.5
452.207	83.5
452.428	80.5
452.648	87.5
452.869	96.5
453.089	111.5
453.31	107.5
453.53	92.5
453.751	88.5
453.971	103.5
454.192	104.5
454.412	82.5
454.633	82.5
454.853	81.5
455.073	72.5
455.294	87.5
455.514	104.5
455.734	82.5
455.955	82.5
456.175	80.5
456.395	94.5
456.616	76.5
456.836	80.5
457.056	83.5
457.276	86.5
457.497	80.5
457.717	83.5
457.937	81.5
458.157	86.5
458.377	101.5
458.598	95.5
458.818	139.5
459.038	138.5
459.258	100.5
459.478	80.5
459.698	94.5
459.918	87.5
460.138	88.5
460.358	83.5
460.578	89.5
460.798	78.5
461.018	81.5
461.238	91.5
461.458	84.5
461.678	90.5
461.898	89.5
462.118	78.5
462.338	94.5
462.558	81.5
462.777	91.5
462.997	77.5
463.217	85.5
463.437	85.5
463.657	91.5
463.876	99.5
464.096	102.5
464.316	89.5
464.536	87.5
464.755	89.5
464.975	96.5
465.195	143.5
465.414	146.5
465.634	90.5
465.854	85.5
466.073	73.5
466.293	73.5
466.512	90.5
466.732	77.5
466.951	81.5
467.171	88.5
467.391	80.5
467.61	93.5
467.829	91.5
468.049	84.5
468.268	90.5
468.488	90.5
468.707	89.5
468.927	85.5
469.146	87.5
469.365	75.5
469.585	93.5
469.804	89.5
470.023	94.5
470.243	99.5
470.462	101.5
470.681	108.5
470.901	97.5
471.12	97.5
471.339	94.5
471.558	87.5
471.777	85.5
471.997	95.5
472.216	92.5
472.435	96.5
472.654	77.5
472.873	89.5
473.092	76.5
473.311	79.5
473.53	103.5
473.749	77.5
473.968	85.5
474.187	97.5
474.406	85.5
474.625	92.5
474.844	81.5
475.063	80.5
475.282	80.5
475.501	96.5
475.72	85.5
475.939	89.5
476.158	85.5
476.377	75.5
476.596	78.5
476.814	98.5
477.033	88.5
477.252	83.5
477.471	84.5
477.69	90.5
477.908	82.5
478.127	103.5
478.346	93.5
478.564	88.5
478.783	112.5
479.002	92.5
479.22	103.5
479.439	97.5
479.658	88.5
479.876	102.5
480.095	78.5
480.313	91.5
480.532	91.5
480.751	81.5
480.969	83.5
481.188	110.5
481.406	86.5
481.624	95.5
481.843	87.5
482.061	81.5
482.28	95.5
482.498	96.5
482.717	101.5
482.935	82.5
483.153	83.5
483.372	103.5
483.59	81.5
483.808	91.5
484.027	99.5
484.245	102.5
484.463	100.5
484.681	94.5
484.9	99.5
485.118	85.5
485.336	102.5
485.554	99.5
485.772	94.5
485.99	87.5
486.209	93.5
486.427	107.5
486.645	109.5
486.863	107.5
487.081	115.5
487.299	98.5
487.517	89.5
487.735	78.5
487.953	98.5
488.171	94.5
488.389	94.5
488.607	96.5
488.825	96.5
489.043	78.5
489.261	82.5
489.479	85.5
489.696	89.5
489.914	86.5
490.132	75.5
490.35	87.5
490.568	95.5
490.786	86.5
491.003	86.5
491.221	73.5
491.439	98.5
491.657	95.5
491.874	83.5
492.092	81.5
492.31	99.5
492.527	90.5
492.745	93.5
492.963	82.5
493.18	94.5
493.398	95.5
493.615	98.5
493.833	82.5
494.05	76.5
494.268	61.5
494.485	86.5
494.703	103.5
494.92	86.5
495.138	85.5
495.355	87.5
495.573	92.5
495.79	87.5
496.008	103.5
496.225	101.5
496.442	82.5
496.66	95.5
496.877	94.5
497.094	96.5
497.312	88.5
497.529	86.5
497.746	89.5
497.963	87.5
498.181	111.5
498.398	87.5
498.615	97.5
498.832	98.5
499.049	86.5
499.267	88.5
499.484	91.5
499.701	80.5
499.918	108.5
500.135	100.5
500.352	89.5
500.569	89.5
500.786	87.5
501.003	82.5
501.22	88.5
501.437	93.5
501.654	81.5
501.871	83.5
502.088	91.5
502.305	102.5
502.522	82.5
502.739	77.5
502.956	105.5
503.172	83.5
503.389	86.5
503.606	78.5
503.823	83.5
504.04	101.5
504.256	94.5
504.473	93.5
504.69	103.5
504.907	98.5
505.123	103.5
505.34	94.5
505.557	90.5
505.773	99.5
505.99	95.5
506.207	88.5
506.423	87.5
506.64	86.5
506.856	91.5
507.073	91.5
507.289	109.5
507.506	90.5
507.722	101.5
507.939	97.5
508.155	89.5
508.372	87.5
508.588	79.5
508.805	95.5
509.021	86.5
509.238	91.5
509.454	100.5
509.67	91.5
509.887	104.5
510.103	123.5
510.319	194.5
510.536	664.5
510.752	2031.5
510.968	563.5
511.184	151.5
511.401	103.5
511.617	116.5
511.833	83.5
512.049	95.5
512.265	94.5
512.481	82.5
512.698	90.5
512.914	98.5
513.13	99.5
513.346	97.5
513.562	81.5
513.778	104.5
513.994	109.5
514.21	112.5
514.426	105.5
514.642	123.5
514.858	114.5
515.074	154.5
515.29	398.5
515.506	1191.5
515.721	456.5
515.937	156.5
516.153	78.5
516.369	77.5
516.585	90.5
516.801	76.5
517.016	95.5
517.232	107.5
517.448	90.5
517.664	102.5
517.879	87.5
518.095	93.5
518.311	99.5
518.527	95.5
518.742	99.5
518.958	104.5
519.173	88.5
519.389	100.5
519.605	101.5
519.82	102.5
520.036	99.5
520.251	112.5
520.467	92.5
520.682	106.5
520.898	111.5
521.113	98.5
521.329	129.5
521.544	192.5
521.76	473.5
521.975	2001.5
522.19	1183.5
522.406	270.5
522.621	136.5
522.836	96.5
523.052	88.5
523.267	88.5
523.482	98.5
523.698	94.5
523.913	109.5
524.128	99.5
524.343	97.5
524.559	95.5
524.774	97.5
524.989	88.5
525.204	108.5
525.419	96.5
525.634	97.5
525.849	98.5
526.064	77.5
526.28	91.5
526.495	97.5
526.71	97.5
526.925	88.5
527.14	86.5
527.355	81.5
527.57	97.5
527.785	92.5
527.999	86.5
528.214	93.5
528.429	94.5
528.644	94.5
528.859	99.5
529.074	93.5
529.289	111.5
529.503	137.5
529.718	105.5
529.933	96.5
530.148	89.5
530.363	87.5
530.577	84.5
530.792	95.5
531.007	87.5
531.221	97.5
531.436	90.5
531.651	98.5
531.865	99.5
532.08	80.5
532.295	94.5
532.509	78.5
532.724	79.5
532.938	91.5
533.153	96.5
533.367	99.5
533.582	97.5
533.796	88.5
534.011	89.5
534.225	96.5
534.44	92.5
534.654	82.5
534.868	106.5
535.083	76.5
535.297	97.5
535.511	84.5
535.726	105.5
535.94	104.5
536.154	96.5
536.369	90.5
536.583	91.5
