Data from Uncirc_1998_H10_HRD10591_00003.txt Node
Date: Wed Jan 03 11:25:25 EST 2024
User: Yrep
Spectrometer: HR+D1059
Trigger mode: 1
Integration Time (sec): 1.000000E-1
Scans to average: 1
Electric dark correction enabled: true
Nonlinearity correction enabled: false
Boxcar width: 0
XAxis mode: Wavelengths
Number of Pixels in Spectrum: 2048
>>>>>Begin Spectral Data<<<<<
223.165	-14.81
223.4	-14.81
223.635	-14.81
223.869	-17.81
224.104	-19.81
224.338	-11.81
224.573	-10.81
224.808	-7.81
225.042	-7.81
225.277	-14.81
225.511	-15.81
225.746	9.19
225.98	1.19
226.215	16.19
226.449	24.19
226.683	17.19
226.918	13.19
227.152	40.19
227.387	32.19
227.621	32.19
227.856	45.19
228.09	59.19
228.324	49.19
228.559	59.19
228.793	53.19
229.027	44.19
229.262	71.19
229.496	63.19
229.73	68.19
229.964	98.19
230.199	81.19
230.433	73.19
230.667	78.19
230.901	77.19
231.136	62.19
231.37	70.19
231.604	65.19
231.838	87.19
232.072	88.19
232.306	82.19
232.541	91.19
232.775	82.19
233.009	84.19
233.243	82.19
233.477	69.19
233.711	80.19
233.945	84.19
234.179	83.19
234.413	83.19
234.647	69.19
234.881	89.19
235.115	72.19
235.349	72.19
235.583	84.19
235.817	85.19
236.051	87.19
236.285	86.19
236.519	80.19
236.753	77.19
236.987	79.19
237.221	83.19
237.455	80.19
237.689	77.19
237.922	63.19
238.156	71.19
238.39	71.19
238.624	81.19
238.858	88.19
239.091	75.19
239.325	79.19
239.559	86.19
239.793	60.19
240.027	81.19
240.26	58.19
240.494	76.19
240.728	79.19
240.961	94.19
241.195	79.19
241.429	89.19
241.662	71.19
241.896	84.19
242.13	70.19
242.363	80.19
242.597	82.19
242.83	88.19
243.064	71.19
243.298	87.19
243.531	75.19
243.765	73.19
243.998	70.19
244.232	71.19
244.465	80.19
244.699	76.19
244.932	77.19
245.166	81.19
245.399	78.19
245.633	68.19
245.866	71.19
246.099	68.19
246.333	63.19
246.566	76.19
246.8	74.19
247.033	85.19
247.266	72.19
247.5	85.19
247.733	77.19
247.966	53.19
248.2	79.19
248.433	82.19
248.666	78.19
248.899	68.19
249.133	78.19
249.366	105.19
249.599	86.19
249.832	83.19
250.066	84.19
250.299	76.19
250.532	80.19
250.765	81.19
250.998	70.19
251.231	61.19
251.465	76.19
251.698	78.19
251.931	66.19
252.164	96.19
252.397	81.19
252.63	88.19
252.863	94.19
253.096	86.19
253.329	77.19
253.562	82.19
253.795	83.19
254.028	75.19
254.261	77.19
254.494	78.19
254.727	65.19
254.96	84.19
255.193	83.19
255.426	67.19
255.659	92.19
255.892	84.19
256.124	68.19
256.357	77.19
256.59	72.19
256.823	91.19
257.056	72.19
257.289	84.19
257.521	87.19
257.754	82.19
257.987	88.19
258.22	73.19
258.452	78.19
258.685	73.19
258.918	87.19
259.151	91.19
259.383	90.19
259.616	84.19
259.849	75.19
260.081	78.19
260.314	72.19
260.547	79.19
260.779	90.19
261.012	72.19
261.244	76.19
261.477	86.19
261.71	92.19
261.942	108.19
262.175	105.19
262.407	57.19
262.64	87.19
262.872	93.19
263.105	90.19
263.337	84.19
263.57	84.19
263.802	88.19
264.035	83.19
264.267	74.19
264.499	76.19
264.732	80.19
264.964	87.19
265.197	81.19
265.429	80.19
265.661	91.19
265.894	92.19
266.126	87.19
266.358	81.19
266.591	90.19
266.823	87.19
267.055	93.19
267.287	84.19
267.52	85.19
267.752	88.19
267.984	93.19
268.216	71.19
268.448	90.19
268.681	80.19
268.913	78.19
269.145	74.19
269.377	78.19
269.609	88.19
269.841	70.19
270.073	74.19
270.306	74.19
270.538	85.19
270.77	79.19
271.002	84.19
271.234	87.19
271.466	87.19
271.698	94.19
271.93	97.19
272.162	74.19
272.394	71.19
272.626	81.19
272.858	91.19
273.09	77.19
273.322	86.19
273.553	94.19
273.785	110.19
274.017	85.19
274.249	81.19
274.481	96.19
274.713	94.19
274.945	86.19
275.176	80.19
275.408	83.19
275.64	87.19
275.872	94.19
276.104	93.19
276.335	98.19
276.567	83.19
276.799	99.19
277.031	98.19
277.262	91.19
277.494	82.19
277.726	78.19
277.957	89.19
278.189	97.19
278.421	89.19
278.652	87.19
278.884	85.19
279.115	85.19
279.347	75.19
279.579	78.19
279.81	102.19
280.042	95.19
280.273	80.19
280.505	96.19
280.736	74.19
280.968	78.19
281.199	85.19
281.431	83.19
281.662	90.19
281.894	96.19
282.125	77.19
282.356	108.19
282.588	118.19
282.819	104.19
283.051	84.19
283.282	88.19
283.513	87.19
283.745	69.19
283.976	89.19
284.207	93.19
284.439	87.19
284.67	77.19
284.901	79.19
285.132	86.19
285.364	72.19
285.595	93.19
285.826	88.19
286.057	94.19
286.288	72.19
286.52	69.19
286.751	84.19
286.982	103.19
287.213	91.19
287.444	97.19
287.675	90.19
287.906	93.19
288.138	84.19
288.369	81.19
288.6	96.19
288.831	94.19
289.062	97.19
289.293	81.19
289.524	80.19
289.755	90.19
289.986	73.19
290.217	73.19
290.448	93.19
290.679	87.19
290.91	89.19
291.141	81.19
291.371	91.19
291.602	88.19
291.833	95.19
292.064	73.19
292.295	98.19
292.526	92.19
292.757	78.19
292.987	86.19
293.218	89.19
293.449	92.19
293.68	73.19
293.91	82.19
294.141	87.19
294.372	87.19
294.603	92.19
294.833	92.19
295.064	76.19
295.295	93.19
295.525	103.19
295.756	104.19
295.987	119.19
296.217	118.19
296.448	108.19
296.679	97.19
296.909	88.19
297.14	96.19
297.37	95.19
297.601	89.19
297.831	79.19
298.062	88.19
298.292	92.19
298.523	96.19
298.753	77.19
298.984	75.19
299.214	90.19
299.445	82.19
299.675	94.19
299.905	84.19
300.136	81.19
300.366	71.19
300.597	80.19
300.827	87.19
301.057	92.19
301.288	115.19
301.518	97.19
301.748	78.19
301.979	89.19
302.209	82.19
302.439	95.19
302.669	80.19
302.9	93.19
303.13	86.19
303.36	96.19
303.59	84.19
303.82	124.19
304.051	93.19
304.281	86.19
304.511	80.19
304.741	87.19
304.971	91.19
305.201	91.19
305.431	89.19
305.661	83.19
305.891	87.19
306.121	98.19
306.352	93.19
306.582	81.19
306.812	102.19
307.042	85.19
307.272	97.19
307.502	83.19
307.731	87.19
307.961	85.19
308.191	85.19
308.421	90.19
308.651	81.19
308.881	86.19
309.111	93.19
309.341	101.19
309.571	94.19
309.8	95.19
310.03	103.19
310.26	91.19
310.49	93.19
310.72	101.19
310.949	84.19
311.179	93.19
311.409	81.19
311.639	90.19
311.868	87.19
312.098	90.19
312.328	83.19
312.557	96.19
312.787	102.19
313.017	105.19
313.246	84.19
313.476	88.19
313.706	90.19
313.935	94.19
314.165	82.19
314.394	101.19
314.624	83.19
314.853	88.19
315.083	104.19
315.312	89.19
315.542	95.19
315.771	85.19
316.001	95.19
316.23	87.19
316.46	90.19
316.689	85.19
316.919	70.19
317.148	101.19
317.377	85.19
317.607	84.19
317.836	91.19
318.065	84.19
318.295	79.19
318.524	80.19
318.753	96.19
318.983	106.19
319.212	85.19
319.441	89.19
319.67	113.19
319.9	102.19
320.129	98.19
320.358	85.19
320.587	85.19
320.816	93.19
321.046	86.19
321.275	99.19
321.504	87.19
321.733	92.19
321.962	104.19
322.191	94.19
322.42	100.19
322.649	102.19
322.878	102.19
323.108	114.19
323.337	112.19
323.566	129.19
323.795	136.19
324.024	181.19
324.253	346.19
324.482	707.19
324.71	1480.19
324.939	1878.19
325.168	717.19
325.397	222.19
325.626	134.19
325.855	99.19
326.084	102.19
326.313	118.19
326.542	156.19
326.77	229.19
326.999	424.19
327.228	859.19
327.457	1528.19
327.686	1171.19
327.914	339.19
328.143	171.19
328.372	159.19
328.6	120.19
328.829	112.19
329.058	101.19
329.287	126.19
329.515	107.19
329.744	102.19
329.972	105.19
330.201	91.19
330.43	115.19
330.658	103.19
330.887	138.19
331.115	122.19
331.344	89.19
331.572	98.19
331.801	109.19
332.03	110.19
332.258	103.19
332.486	93.19
332.715	73.19
332.943	98.19
333.172	95.19
333.4	91.19
333.629	111.19
333.857	94.19
334.085	90.19
334.314	98.19
334.542	111.19
334.771	98.19
334.999	102.19
335.227	100.19
335.455	94.19
335.684	104.19
335.912	82.19
336.14	93.19
336.369	88.19
336.597	96.19
336.825	91.19
337.053	91.19
337.281	93.19
337.51	102.19
337.738	80.19
337.966	90.19
338.194	106.19
338.422	108.19
338.65	101.19
338.878	88.19
339.106	85.19
339.334	88.19
339.562	94.19
339.79	93.19
340.018	108.19
340.246	92.19
340.474	78.19
340.702	89.19
340.93	101.19
341.158	91.19
341.386	101.19
341.614	92.19
341.842	84.19
342.07	94.19
342.298	92.19
342.526	81.19
342.754	96.19
342.981	90.19
343.209	92.19
343.437	100.19
343.665	92.19
343.893	89.19
344.12	91.19
344.348	81.19
344.576	85.19
344.804	105.19
345.031	97.19
345.259	100.19
345.487	97.19
345.714	96.19
345.942	92.19
346.17	91.19
346.397	79.19
346.625	78.19
346.853	98.19
347.08	91.19
347.308	89.19
347.535	102.19
347.763	98.19
347.99	97.19
348.218	97.19
348.445	103.19
348.673	76.19
348.9	87.19
349.128	116.19
349.355	110.19
349.583	91.19
349.81	85.19
350.037	99.19
350.265	104.19
350.492	99.19
350.72	87.19
350.947	96.19
351.174	97.19
351.402	108.19
351.629	112.19
351.856	86.19
352.083	87.19
352.311	89.19
352.538	102.19
352.765	90.19
352.992	109.19
353.22	114.19
353.447	100.19
353.674	102.19
353.901	114.19
354.128	93.19
354.355	97.19
354.583	93.19
354.81	88.19
355.037	102.19
355.264	92.19
355.491	94.19
355.718	88.19
355.945	98.19
356.172	100.19
356.399	88.19
356.626	97.19
356.853	88.19
357.08	92.19
357.307	95.19
357.534	95.19
357.761	98.19
357.988	92.19
358.215	91.19
358.441	85.19
358.668	94.19
358.895	97.19
359.122	89.19
359.349	94.19
359.576	76.19
359.802	94.19
360.029	107.19
360.256	101.19
360.483	97.19
360.709	81.19
360.936	93.19
361.163	90.19
361.39	80.19
361.616	93.19
361.843	98.19
362.07	104.19
362.296	89.19
362.523	80.19
362.749	85.19
362.976	102.19
363.203	108.19
363.429	88.19
363.656	95.19
363.882	83.19
364.109	101.19
364.335	90.19
364.562	72.19
364.788	85.19
365.015	89.19
365.241	89.19
365.468	99.19
365.694	101.19
365.92	89.19
366.147	77.19
366.373	81.19
366.599	83.19
366.826	81.19
367.052	73.19
367.278	93.19
367.505	79.19
367.731	97.19
367.957	84.19
368.184	82.19
368.41	101.19
368.636	114.19
368.862	118.19
369.089	84.19
369.315	80.19
369.541	85.19
369.767	98.19
369.993	99.19
370.219	79.19
370.445	78.19
370.672	84.19
370.898	83.19
371.124	89.19
371.35	95.19
371.576	92.19
371.802	78.19
372.028	91.19
372.254	85.19
372.48	81.19
372.706	86.19
372.932	83.19
373.158	73.19
373.384	89.19
373.61	87.19
373.835	77.19
374.061	87.19
374.287	96.19
374.513	75.19
374.739	77.19
374.965	88.19
375.191	101.19
375.416	76.19
375.642	75.19
375.868	91.19
376.094	90.19
376.319	91.19
376.545	100.19
376.771	81.19
376.997	80.19
377.222	79.19
377.448	81.19
377.674	101.19
377.899	80.19
378.125	86.19
378.35	74.19
378.576	76.19
378.802	74.19
379.027	105.19
379.253	87.19
379.478	91.19
379.704	101.19
379.929	105.19
380.155	98.19
380.38	99.19
380.606	96.19
380.831	98.19
381.057	98.19
381.282	96.19
381.507	98.19
381.733	100.19
381.958	93.19
382.184	95.19
382.409	110.19
382.634	113.19
382.86	99.19
383.085	96.19
383.31	89.19
383.535	98.19
383.761	98.19
383.986	89.19
384.211	97.19
384.436	88.19
384.662	101.19
384.887	96.19
385.112	90.19
385.337	103.19
385.562	115.19
385.787	101.19
386.013	100.19
386.238	102.19
386.463	117.19
386.688	98.19
386.913	108.19
387.138	101.19
387.363	104.19
387.588	98.19
387.813	102.19
388.038	107.19
388.263	91.19
388.488	107.19
388.713	101.19
388.938	86.19
389.163	100.19
389.387	90.19
389.612	94.19
389.837	101.19
390.062	90.19
390.287	99.19
390.512	92.19
390.736	98.19
390.961	91.19
391.186	94.19
391.411	94.19
391.636	86.19
391.86	80.19
392.085	80.19
392.31	83.19
392.534	79.19
392.759	93.19
392.984	86.19
393.208	85.19
393.433	90.19
393.658	97.19
393.882	88.19
394.107	98.19
394.331	90.19
394.556	85.19
394.78	80.19
395.005	75.19
395.229	84.19
395.454	92.19
395.678	92.19
395.903	93.19
396.127	88.19
396.352	76.19
396.576	85.19
396.801	77.19
397.025	103.19
397.249	81.19
397.474	91.19
397.698	81.19
397.922	80.19
398.147	85.19
398.371	87.19
398.595	91.19
398.82	82.19
399.044	84.19
399.268	80.19
399.492	91.19
399.717	78.19
399.941	79.19
400.165	90.19
400.389	92.19
400.613	78.19
400.837	105.19
401.062	75.19
401.286	78.19
401.51	88.19
401.734	98.19
401.958	100.19
402.182	108.19
402.406	132.19
402.63	96.19
402.854	91.19
403.078	89.19
403.302	94.19
403.526	75.19
403.75	95.19
403.974	98.19
404.198	87.19
404.422	89.19
404.645	77.19
404.869	90.19
405.093	88.19
405.317	95.19
405.541	83.19
405.765	89.19
405.988	126.19
406.212	154.19
406.436	197.19
406.66	132.19
406.883	87.19
407.107	92.19
407.331	92.19
407.555	90.19
407.778	80.19
408.002	82.19
408.226	94.19
408.449	82.19
408.673	93.19
408.896	98.19
409.12	93.19
409.344	84.19
409.567	84.19
409.791	84.19
410.014	108.19
410.238	90.19
410.461	105.19
410.685	99.19
410.908	100.19
411.132	99.19
411.355	81.19
411.578	90.19
411.802	68.19
412.025	96.19
412.249	90.19
412.472	87.19
412.695	88.19
412.919	86.19
413.142	88.19
413.365	75.19
413.589	97.19
413.812	91.19
414.035	89.19
414.258	101.19
414.482	96.19
414.705	106.19
414.928	97.19
415.151	82.19
415.374	86.19
415.597	80.19
415.821	91.19
416.044	95.19
416.267	82.19
416.49	80.19
416.713	80.19
416.936	75.19
417.159	87.19
417.382	76.19
417.605	91.19
417.828	94.19
418.051	92.19
418.274	92.19
418.497	94.19
418.72	91.19
418.943	71.19
419.166	75.19
419.389	80.19
419.611	96.19
419.834	82.19
420.057	90.19
420.28	86.19
420.503	84.19
420.726	72.19
420.948	72.19
421.171	90.19
421.394	87.19
421.617	88.19
421.839	98.19
422.062	77.19
422.285	95.19
422.507	104.19
422.73	81.19
422.953	94.19
423.175	81.19
423.398	70.19
423.621	91.19
423.843	81.19
424.066	78.19
424.288	96.19
424.511	101.19
424.733	93.19
424.956	98.19
425.178	94.19
425.401	100.19
425.623	95.19
425.846	87.19
426.068	89.19
426.291	91.19
426.513	86.19
426.735	110.19
426.958	92.19
427.18	96.19
427.402	112.19
427.625	144.19
427.847	109.19
428.069	97.19
428.292	80.19
428.514	88.19
428.736	103.19
428.958	78.19
429.181	87.19
429.403	84.19
429.625	84.19
429.847	75.19
430.069	101.19
430.292	101.19
430.514	87.19
430.736	89.19
430.958	92.19
431.18	96.19
431.402	80.19
431.624	96.19
431.846	79.19
432.068	90.19
432.29	97.19
432.512	98.19
432.734	91.19
432.956	90.19
433.178	94.19
433.4	87.19
433.622	79.19
433.844	94.19
434.066	87.19
434.287	92.19
434.509	92.19
434.731	89.19
434.953	85.19
435.175	90.19
435.397	89.19
435.618	85.19
435.84	88.19
436.062	121.19
436.284	101.19
436.505	96.19
436.727	93.19
436.949	69.19
437.17	87.19
437.392	84.19
437.614	86.19
437.835	110.19
438.057	112.19
438.278	114.19
438.5	108.19
438.721	134.19
438.943	102.19
439.165	88.19
439.386	92.19
439.608	84.19
439.829	91.19
440.05	104.19
440.272	136.19
440.493	87.19
440.715	84.19
440.936	84.19
441.158	87.19
441.379	84.19
441.6	88.19
441.822	87.19
442.043	95.19
442.264	98.19
442.486	89.19
442.707	87.19
442.928	90.19
443.149	109.19
443.371	112.19
443.592	95.19
443.813	119.19
444.034	97.19
444.255	103.19
444.476	78.19
444.698	78.19
444.919	90.19
445.14	118.19
445.361	112.19
445.582	127.19
445.803	113.19
446.024	124.19
446.245	116.19
446.466	87.19
446.687	79.19
446.908	86.19
447.129	92.19
447.35	88.19
447.571	86.19
447.792	88.19
448.013	96.19
448.234	92.19
448.455	103.19
448.675	100.19
448.896	110.19
449.117	84.19
449.338	97.19
449.559	116.19
449.779	120.19
450	92.19
450.221	95.19
450.442	80.19
450.662	86.19
450.883	93.19
451.104	102.19
451.324	93.19
451.545	88.19
451.766	88.19
451.986	85.19
452.207	89.19
452.428	89.19
452.648	104.19
452.869	98.19
453.089	104.19
453.31	100.19
453.53	92.19
453.751	80.19
453.971	84.19
454.192	100.19
454.412	86.19
454.633	85.19
454.853	73.19
455.073	91.19
455.294	81.19
455.514	89.19
455.734	87.19
455.955	80.19
456.175	74.19
456.395	81.19
456.616	86.19
456.836	102.19
457.056	92.19
457.276	85.19
457.497	80.19
457.717	70.19
457.937	75.19
458.157	95.19
458.377	87.19
458.598	101.19
458.818	136.19
459.038	136.19
459.258	108.19
459.478	82.19
459.698	88.19
459.918	79.19
460.138	96.19
460.358	80.19
460.578	78.19
460.798	88.19
461.018	88.19
461.238	85.19
461.458	83.19
461.678	64.19
461.898	87.19
462.118	86.19
462.338	85.19
462.558	72.19
462.777	104.19
462.997	87.19
463.217	85.19
463.437	85.19
463.657	85.19
463.876	72.19
464.096	88.19
464.316	92.19
464.536	89.19
464.755	88.19
464.975	101.19
465.195	146.19
465.414	142.19
465.634	90.19
465.854	90.19
466.073	77.19
466.293	79.19
466.512	71.19
466.732	87.19
466.951	80.19
467.171	104.19
467.391	95.19
467.61	96.19
467.829	86.19
468.049	94.19
468.268	91.19
468.488	80.19
468.707	88.19
468.927	95.19
469.146	59.19
469.365	86.19
469.585	92.19
469.804	95.19
470.023	106.19
470.243	88.19
470.462	77.19
470.681	80.19
470.901	95.19
471.12	86.19
471.339	92.19
471.558	92.19
471.777	102.19
471.997	73.19
472.216	85.19
472.435	113.19
472.654	98.19
472.873	93.19
473.092	95.19
473.311	96.19
473.53	86.19
473.749	71.19
473.968	101.19
474.187	98.19
474.406	98.19
474.625	81.19
474.844	88.19
475.063	86.19
475.282	100.19
475.501	96.19
475.72	92.19
475.939	91.19
476.158	111.19
476.377	82.19
476.596	81.19
476.814	88.19
477.033	80.19
477.252	79.19
477.471	78.19
477.69	80.19
477.908	84.19
478.127	89.19
478.346	86.19
478.564	87.19
478.783	91.19
479.002	73.19
479.22	87.19
479.439	99.19
479.658	97.19
479.876	100.19
480.095	94.19
480.313	87.19
480.532	95.19
480.751	89.19
480.969	86.19
481.188	95.19
481.406	99.19
481.624	74.19
481.843	90.19
482.061	92.19
482.28	98.19
482.498	81.19
482.717	101.19
482.935	88.19
483.153	91.19
483.372	81.19
483.59	86.19
483.808	81.19
484.027	93.19
484.245	93.19
484.463	93.19
484.681	94.19
484.9	94.19
485.118	96.19
485.336	104.19
485.554	102.19
485.772	96.19
485.99	97.19
486.209	104.19
486.427	102.19
486.645	103.19
486.863	102.19
487.081	101.19
487.299	92.19
487.517	85.19
487.735	76.19
487.953	101.19
488.171	93.19
488.389	97.19
488.607	92.19
488.825	105.19
489.043	82.19
489.261	85.19
489.479	97.19
489.696	80.19
489.914	93.19
490.132	92.19
490.35	87.19
490.568	88.19
490.786	89.19
491.003	69.19
491.221	96.19
491.439	89.19
491.657	93.19
491.874	103.19
492.092	85.19
492.31	86.19
492.527	82.19
492.745	95.19
492.963	83.19
493.18	96.19
493.398	102.19
493.615	103.19
493.833	90.19
494.05	96.19
494.268	93.19
494.485	69.19
494.703	86.19
494.92	95.19
495.138	80.19
495.355	81.19
495.573	98.19
495.79	89.19
496.008	85.19
496.225	86.19
496.442	112.19
496.66	77.19
496.877	89.19
497.094	78.19
497.312	85.19
497.529	92.19
497.746	97.19
497.963	87.19
498.181	96.19
498.398	96.19
498.615	94.19
498.832	93.19
499.049	98.19
499.267	91.19
499.484	90.19
499.701	78.19
499.918	84.19
500.135	96.19
500.352	98.19
500.569	78.19
500.786	86.19
501.003	96.19
501.22	95.19
501.437	98.19
501.654	87.19
501.871	102.19
502.088	96.19
502.305	97.19
502.522	79.19
502.739	87.19
502.956	106.19
503.172	89.19
503.389	96.19
503.606	102.19
503.823	86.19
504.04	77.19
504.256	64.19
504.473	87.19
504.69	92.19
504.907	79.19
505.123	80.19
505.34	89.19
505.557	80.19
505.773	83.19
505.99	87.19
506.207	102.19
506.423	87.19
506.64	106.19
506.856	77.19
507.073	87.19
507.289	90.19
507.506	94.19
507.722	82.19
507.939	105.19
508.155	89.19
508.372	95.19
508.588	104.19
508.805	100.19
509.021	91.19
509.238	96.19
509.454	102.19
509.67	96.19
509.887	104.19
510.103	133.19
510.319	192.19
510.536	634.19
510.752	1857.19
510.968	538.19
511.184	143.19
511.401	105.19
511.617	104.19
511.833	91.19
512.049	78.19
512.265	97.19
512.481	95.19
512.698	87.19
512.914	98.19
513.13	99.19
513.346	91.19
513.562	96.19
513.778	90.19
513.994	102.19
514.21	95.19
514.426	117.19
514.642	104.19
514.858	116.19
515.074	141.19
515.29	374.19
515.506	1203.19
515.721	426.19
515.937	135.19
516.153	104.19
516.369	104.19
516.585	99.19
