Data from Uncirc_1998_H10_HRD10591_00039.txt Node
Date: Wed Jan 03 11:25:32 EST 2024
User: Yrep
Spectrometer: HR+D1059
Trigger mode: 1
Integration Time (sec): 1.000000E-1
Scans to average: 1
Electric dark correction enabled: true
Nonlinearity correction enabled: false
Boxcar width: 0
XAxis mode: Wavelengths
Number of Pixels in Spectrum: 2048
>>>>>Begin Spectral Data<<<<<
223.165	-18.12
223.4	-18.12
223.635	-18.12
223.869	-17.12
224.104	-13.12
224.338	-16.12
224.573	-24.12
224.808	-17.12
225.042	-5.12
225.277	-17.12
225.511	1.88
225.746	2.88
225.98	10.88
226.215	9.88
226.449	30.88
226.683	22.88
226.918	21.88
227.152	26.88
227.387	43.88
227.621	34.88
227.856	40.88
228.09	45.88
228.324	50.88
228.559	75.88
228.793	58.88
229.027	63.88
229.262	70.88
229.496	69.88
229.73	91.88
229.964	71.88
230.199	78.88
230.433	73.88
230.667	83.88
230.901	85.88
231.136	72.88
231.37	68.88
231.604	75.88
231.838	84.88
232.072	80.88
232.306	74.88
232.541	76.88
232.775	85.88
233.009	80.88
233.243	74.88
233.477	72.88
233.711	81.88
233.945	73.88
234.179	90.88
234.413	73.88
234.647	76.88
234.881	79.88
235.115	76.88
235.349	81.88
235.583	74.88
235.817	82.88
236.051	79.88
236.285	82.88
236.519	80.88
236.753	70.88
236.987	78.88
237.221	69.88
237.455	78.88
237.689	74.88
237.922	76.88
238.156	80.88
238.39	90.88
238.624	81.88
238.858	94.88
239.091	70.88
239.325	73.88
239.559	77.88
239.793	73.88
240.027	75.88
240.26	56.88
240.494	78.88
240.728	79.88
240.961	76.88
241.195	72.88
241.429	80.88
241.662	70.88
241.896	64.88
242.13	84.88
242.363	71.88
242.597	82.88
242.83	63.88
243.064	76.88
243.298	81.88
243.531	80.88
243.765	75.88
243.998	78.88
244.232	74.88
244.465	76.88
244.699	72.88
244.932	77.88
245.166	77.88
245.399	69.88
245.633	77.88
245.866	64.88
246.099	84.88
246.333	68.88
246.566	66.88
246.8	72.88
247.033	77.88
247.266	92.88
247.5	78.88
247.733	77.88
247.966	72.88
248.2	85.88
248.433	61.88
248.666	80.88
248.899	66.88
249.133	74.88
249.366	111.88
249.599	85.88
249.832	90.88
250.066	81.88
250.299	75.88
250.532	73.88
250.765	98.88
250.998	81.88
251.231	85.88
251.465	85.88
251.698	74.88
251.931	84.88
252.164	83.88
252.397	79.88
252.63	78.88
252.863	82.88
253.096	65.88
253.329	84.88
253.562	81.88
253.795	78.88
254.028	86.88
254.261	72.88
254.494	89.88
254.727	87.88
254.96	88.88
255.193	91.88
255.426	86.88
255.659	68.88
255.892	87.88
256.124	84.88
256.357	73.88
256.59	86.88
256.823	80.88
257.056	78.88
257.289	76.88
257.521	81.88
257.754	90.88
257.987	76.88
258.22	81.88
258.452	92.88
258.685	74.88
258.918	64.88
259.151	84.88
259.383	74.88
259.616	88.88
259.849	86.88
260.081	84.88
260.314	89.88
260.547	72.88
260.779	77.88
261.012	64.88
261.244	85.88
261.477	87.88
261.71	89.88
261.942	92.88
262.175	119.88
262.407	80.88
262.64	90.88
262.872	93.88
263.105	91.88
263.337	82.88
263.57	92.88
263.802	85.88
264.035	101.88
264.267	91.88
264.499	82.88
264.732	94.88
264.964	74.88
265.197	76.88
265.429	82.88
265.661	77.88
265.894	84.88
266.126	77.88
266.358	79.88
266.591	84.88
266.823	82.88
267.055	75.88
267.287	78.88
267.52	90.88
267.752	77.88
267.984	83.88
268.216	78.88
268.448	84.88
268.681	74.88
268.913	74.88
269.145	77.88
269.377	94.88
269.609	86.88
269.841	73.88
270.073	91.88
270.306	85.88
270.538	89.88
270.77	88.88
271.002	84.88
271.234	84.88
271.466	91.88
271.698	79.88
271.93	89.88
272.162	77.88
272.394	72.88
272.626	97.88
272.858	91.88
273.09	82.88
273.322	80.88
273.553	79.88
273.785	71.88
274.017	92.88
274.249	73.88
274.481	76.88
274.713	72.88
274.945	81.88
275.176	80.88
275.408	78.88
275.64	79.88
275.872	81.88
276.104	93.88
276.335	88.88
276.567	90.88
276.799	91.88
277.031	103.88
277.262	78.88
277.494	78.88
277.726	88.88
277.957	87.88
278.189	89.88
278.421	84.88
278.652	93.88
278.884	83.88
279.115	87.88
279.347	88.88
279.579	85.88
279.81	81.88
280.042	81.88
280.273	73.88
280.505	85.88
280.736	91.88
280.968	72.88
281.199	85.88
281.431	75.88
281.662	82.88
281.894	96.88
282.125	94.88
282.356	108.88
282.588	109.88
282.819	88.88
283.051	92.88
283.282	90.88
283.513	80.88
283.745	84.88
283.976	91.88
284.207	79.88
284.439	86.88
284.67	93.88
284.901	89.88
285.132	92.88
285.364	86.88
285.595	91.88
285.826	72.88
286.057	94.88
286.288	91.88
286.52	75.88
286.751	95.88
286.982	87.88
287.213	87.88
287.444	92.88
287.675	95.88
287.906	78.88
288.138	80.88
288.369	92.88
288.6	93.88
288.831	89.88
289.062	88.88
289.293	83.88
289.524	89.88
289.755	86.88
289.986	97.88
290.217	78.88
290.448	104.88
290.679	84.88
290.91	85.88
291.141	94.88
291.371	87.88
291.602	85.88
291.833	78.88
292.064	74.88
292.295	86.88
292.526	78.88
292.757	86.88
292.987	85.88
293.218	94.88
293.449	80.88
293.68	95.88
293.91	101.88
294.141	87.88
294.372	85.88
294.603	73.88
294.833	86.88
295.064	89.88
295.295	82.88
295.525	89.88
295.756	97.88
295.987	104.88
296.217	116.88
296.448	104.88
296.679	100.88
296.909	98.88
297.14	88.88
297.37	86.88
297.601	88.88
297.831	81.88
298.062	86.88
298.292	106.88
298.523	93.88
298.753	93.88
298.984	80.88
299.214	63.88
299.445	89.88
299.675	86.88
299.905	78.88
300.136	89.88
300.366	92.88
300.597	94.88
300.827	92.88
301.057	102.88
301.288	100.88
301.518	83.88
301.748	79.88
301.979	101.88
302.209	82.88
302.439	82.88
302.669	88.88
302.9	85.88
303.13	76.88
303.36	76.88
303.59	92.88
303.82	110.88
304.051	89.88
304.281	88.88
304.511	94.88
304.741	85.88
304.971	68.88
305.201	90.88
305.431	81.88
305.661	89.88
305.891	98.88
306.121	69.88
306.352	78.88
306.582	106.88
306.812	87.88
307.042	99.88
307.272	98.88
307.502	77.88
307.731	82.88
307.961	84.88
308.191	85.88
308.421	98.88
308.651	88.88
308.881	108.88
309.111	85.88
309.341	101.88
309.571	93.88
309.8	78.88
310.03	79.88
310.26	108.88
310.49	84.88
310.72	95.88
310.949	114.88
311.179	96.88
311.409	81.88
311.639	91.88
311.868	86.88
312.098	97.88
312.328	86.88
312.557	87.88
312.787	95.88
313.017	100.88
313.246	84.88
313.476	88.88
313.706	94.88
313.935	96.88
314.165	88.88
314.394	96.88
314.624	104.88
314.853	104.88
315.083	87.88
315.312	99.88
315.542	85.88
315.771	92.88
316.001	95.88
316.23	92.88
316.46	97.88
316.689	98.88
316.919	90.88
317.148	73.88
317.377	87.88
317.607	90.88
317.836	92.88
318.065	87.88
318.295	97.88
318.524	92.88
318.753	88.88
318.983	82.88
319.212	89.88
319.441	97.88
319.67	91.88
319.9	80.88
320.129	94.88
320.358	97.88
320.587	95.88
320.816	75.88
321.046	88.88
321.275	104.88
321.504	95.88
321.733	90.88
321.962	85.88
322.191	93.88
322.42	101.88
322.649	100.88
322.878	104.88
323.108	115.88
323.337	109.88
323.566	134.88
323.795	153.88
324.024	206.88
324.253	333.88
324.482	713.88
324.71	1435.88
324.939	1848.88
325.168	698.88
325.397	221.88
325.626	139.88
325.855	120.88
326.084	112.88
326.313	115.88
326.542	138.88
326.77	216.88
326.999	402.88
327.228	833.88
327.457	1495.88
327.686	1190.88
327.914	331.88
328.143	174.88
328.372	125.88
328.6	120.88
328.829	102.88
329.058	122.88
329.287	119.88
329.515	96.88
329.744	101.88
329.972	104.88
330.201	102.88
330.43	91.88
330.658	119.88
330.887	113.88
331.115	101.88
331.344	87.88
331.572	87.88
331.801	87.88
332.03	86.88
332.258	84.88
332.486	87.88
332.715	104.88
332.943	92.88
333.172	100.88
333.4	97.88
333.629	108.88
333.857	113.88
334.085	92.88
334.314	97.88
334.542	102.88
334.771	102.88
334.999	77.88
335.227	87.88
335.455	78.88
335.684	78.88
335.912	97.88
336.14	87.88
336.369	93.88
336.597	102.88
336.825	95.88
337.053	90.88
337.281	104.88
337.51	88.88
337.738	102.88
337.966	95.88
338.194	92.88
338.422	108.88
338.65	77.88
338.878	94.88
339.106	73.88
339.334	99.88
339.562	88.88
339.79	89.88
340.018	103.88
340.246	93.88
340.474	91.88
340.702	108.88
340.93	104.88
341.158	83.88
341.386	95.88
341.614	104.88
341.842	91.88
342.07	92.88
342.298	91.88
342.526	77.88
342.754	93.88
342.981	103.88
343.209	79.88
343.437	96.88
343.665	100.88
343.893	60.88
344.12	99.88
344.348	81.88
344.576	99.88
344.804	96.88
345.031	70.88
345.259	88.88
345.487	84.88
345.714	87.88
345.942	83.88
346.17	78.88
346.397	89.88
346.625	96.88
346.853	105.88
347.08	86.88
347.308	90.88
347.535	94.88
347.763	89.88
347.99	109.88
348.218	104.88
348.445	89.88
348.673	91.88
348.9	97.88
349.128	94.88
349.355	89.88
349.583	100.88
349.81	99.88
350.037	92.88
350.265	104.88
350.492	93.88
350.72	84.88
350.947	96.88
351.174	102.88
351.402	92.88
351.629	99.88
351.856	104.88
352.083	101.88
352.311	95.88
352.538	96.88
352.765	102.88
352.992	95.88
353.22	97.88
353.447	111.88
353.674	87.88
353.901	104.88
354.128	92.88
354.355	86.88
354.583	105.88
354.81	86.88
355.037	86.88
355.264	90.88
355.491	108.88
355.718	91.88
355.945	107.88
356.172	79.88
356.399	84.88
356.626	84.88
356.853	90.88
357.08	94.88
357.307	93.88
357.534	91.88
357.761	79.88
357.988	105.88
358.215	83.88
358.441	100.88
358.668	97.88
358.895	95.88
359.122	88.88
359.349	86.88
359.576	92.88
359.802	97.88
360.029	107.88
360.256	95.88
360.483	88.88
360.709	86.88
360.936	95.88
361.163	100.88
361.39	90.88
361.616	85.88
361.843	100.88
362.07	95.88
362.296	88.88
362.523	81.88
362.749	80.88
362.976	77.88
363.203	107.88
363.429	98.88
363.656	86.88
363.882	81.88
364.109	92.88
364.335	73.88
364.562	97.88
364.788	83.88
365.015	100.88
365.241	119.88
365.468	107.88
365.694	100.88
365.92	96.88
366.147	86.88
366.373	91.88
366.599	89.88
366.826	100.88
367.052	102.88
367.278	76.88
367.505	84.88
367.731	80.88
367.957	90.88
368.184	80.88
368.41	89.88
368.636	106.88
368.862	117.88
369.089	92.88
369.315	96.88
369.541	101.88
369.767	93.88
369.993	83.88
370.219	90.88
370.445	82.88
370.672	91.88
370.898	89.88
371.124	84.88
371.35	84.88
371.576	80.88
371.802	80.88
372.028	82.88
372.254	96.88
372.48	91.88
372.706	87.88
372.932	81.88
373.158	85.88
373.384	100.88
373.61	82.88
373.835	77.88
374.061	88.88
374.287	87.88
374.513	96.88
374.739	90.88
374.965	89.88
375.191	86.88
375.416	78.88
375.642	75.88
375.868	86.88
376.094	80.88
376.319	85.88
376.545	89.88
376.771	80.88
376.997	83.88
377.222	84.88
377.448	90.88
377.674	92.88
377.899	89.88
378.125	90.88
378.35	89.88
378.576	82.88
378.802	74.88
379.027	100.88
379.253	93.88
379.478	89.88
379.704	85.88
379.929	104.88
380.155	104.88
380.38	82.88
380.606	79.88
380.831	88.88
381.057	105.88
381.282	91.88
381.507	88.88
381.733	96.88
381.958	89.88
382.184	99.88
382.409	93.88
382.634	93.88
382.86	96.88
383.085	97.88
383.31	84.88
383.535	96.88
383.761	93.88
383.986	100.88
384.211	74.88
384.436	104.88
384.662	88.88
384.887	97.88
385.112	97.88
385.337	117.88
385.562	97.88
385.787	103.88
386.013	104.88
386.238	117.88
386.463	121.88
386.688	92.88
386.913	101.88
387.138	101.88
387.363	105.88
387.588	103.88
387.813	101.88
388.038	96.88
388.263	116.88
388.488	94.88
388.713	105.88
388.938	89.88
389.163	93.88
389.387	80.88
389.612	84.88
389.837	90.88
390.062	97.88
390.287	105.88
390.512	82.88
390.736	78.88
390.961	92.88
391.186	95.88
391.411	82.88
391.636	88.88
391.86	90.88
392.085	85.88
392.31	96.88
392.534	88.88
392.759	79.88
392.984	72.88
393.208	77.88
393.433	74.88
393.658	88.88
393.882	96.88
394.107	86.88
394.331	88.88
394.556	74.88
394.78	84.88
395.005	89.88
395.229	79.88
395.454	92.88
395.678	82.88
395.903	96.88
396.127	78.88
396.352	88.88
396.576	78.88
396.801	91.88
397.025	87.88
397.249	96.88
397.474	84.88
397.698	73.88
397.922	92.88
398.147	80.88
398.371	94.88
398.595	82.88
398.82	70.88
399.044	77.88
399.268	82.88
399.492	91.88
399.717	84.88
399.941	82.88
400.165	95.88
400.389	97.88
400.613	88.88
400.837	81.88
401.062	81.88
401.286	75.88
401.51	86.88
401.734	94.88
401.958	91.88
402.182	118.88
402.406	132.88
402.63	103.88
402.854	79.88
403.078	84.88
403.302	84.88
403.526	80.88
403.75	83.88
403.974	88.88
404.198	88.88
404.422	73.88
404.645	90.88
404.869	89.88
405.093	83.88
405.317	85.88
405.541	101.88
405.765	95.88
405.988	97.88
406.212	141.88
406.436	184.88
406.66	119.88
406.883	75.88
407.107	87.88
407.331	89.88
407.555	108.88
407.778	81.88
408.002	79.88
408.226	73.88
408.449	89.88
408.673	82.88
408.896	89.88
409.12	98.88
409.344	89.88
409.567	84.88
409.791	103.88
410.014	89.88
410.238	100.88
410.461	92.88
410.685	98.88
410.908	96.88
411.132	95.88
411.355	90.88
411.578	80.88
411.802	73.88
412.025	95.88
412.249	91.88
412.472	91.88
412.695	85.88
412.919	105.88
413.142	85.88
413.365	84.88
413.589	79.88
413.812	84.88
414.035	90.88
414.258	104.88
414.482	114.88
414.705	96.88
414.928	104.88
415.151	77.88
415.374	82.88
415.597	100.88
415.821	91.88
416.044	88.88
416.267	87.88
416.49	83.88
416.713	81.88
416.936	91.88
417.159	89.88
417.382	89.88
417.605	89.88
417.828	80.88
418.051	89.88
418.274	87.88
418.497	79.88
418.72	69.88
418.943	90.88
419.166	97.88
419.389	90.88
419.611	90.88
419.834	82.88
420.057	101.88
420.28	87.88
420.503	92.88
420.726	92.88
420.948	72.88
421.171	89.88
421.394	91.88
421.617	86.88
421.839	90.88
422.062	83.88
422.285	92.88
422.507	84.88
422.73	93.88
422.953	93.88
423.175	97.88
423.398	94.88
423.621	83.88
423.843	89.88
424.066	76.88
424.288	84.88
424.511	84.88
424.733	84.88
424.956	101.88
425.178	95.88
425.401	96.88
425.623	112.88
425.846	79.88
426.068	81.88
426.291	87.88
426.513	87.88
426.735	81.88
426.958	86.88
427.18	100.88
427.402	130.88
427.625	118.88
427.847	108.88
428.069	109.88
428.292	87.88
428.514	93.88
428.736	98.88
428.958	87.88
429.181	88.88
429.403	89.88
429.625	75.88
429.847	81.88
430.069	89.88
430.292	89.88
430.514	92.88
430.736	84.88
430.958	83.88
431.18	92.88
431.402	76.88
431.624	88.88
431.846	88.88
432.068	86.88
432.29	73.88
432.512	72.88
432.734	83.88
432.956	97.88
433.178	99.88
433.4	91.88
433.622	96.88
433.844	88.88
434.066	101.88
434.287	72.88
434.509	84.88
434.731	70.88
434.953	76.88
435.175	97.88
435.397	100.88
435.618	93.88
435.84	107.88
436.062	105.88
436.284	97.88
436.505	93.88
436.727	82.88
436.949	96.88
437.17	94.88
437.392	91.88
437.614	93.88
437.835	89.88
438.057	105.88
438.278	98.88
438.5	86.88
438.721	117.88
438.943	101.88
439.165	80.88
439.386	94.88
439.608	104.88
439.829	92.88
440.05	110.88
440.272	122.88
440.493	96.88
440.715	89.88
440.936	77.88
441.158	85.88
441.379	93.88
441.6	86.88
441.822	103.88
442.043	85.88
442.264	100.88
442.486	91.88
442.707	99.88
442.928	90.88
443.149	113.88
443.371	102.88
443.592	109.88
443.813	109.88
444.034	96.88
444.255	86.88
444.476	77.88
444.698	94.88
444.919	93.88
445.14	130.88
445.361	112.88
445.582	104.88
445.803	130.88
446.024	125.88
446.245	129.88
446.466	106.88
446.687	97.88
446.908	90.88
447.129	94.88
447.35	90.88
447.571	98.88
447.792	85.88
448.013	86.88
448.234	88.88
448.455	94.88
448.675	101.88
448.896	99.88
449.117	97.88
449.338	98.88
449.559	119.88
449.779	110.88
450	89.88
450.221	85.88
450.442	78.88
450.662	89.88
450.883	101.88
451.104	102.88
451.324	84.88
451.545	65.88
451.766	82.88
451.986	95.88
452.207	98.88
452.428	92.88
452.648	97.88
452.869	98.88
453.089	115.88
453.31	123.88
453.53	82.88
453.751	96.88
453.971	108.88
454.192	109.88
454.412	79.88
454.633	81.88
454.853	86.88
455.073	84.88
455.294	94.88
455.514	88.88
455.734	70.88
455.955	94.88
456.175	81.88
456.395	88.88
456.616	84.88
456.836	73.88
457.056	88.88
457.276	79.88
457.497	82.88
457.717	94.88
457.937	80.88
458.157	86.88
458.377	82.88
458.598	95.88
458.818	140.88
459.038	124.88
459.258	109.88
459.478	79.88
459.698	88.88
459.918	81.88
460.138	90.88
460.358	84.88
460.578	89.88
460.798	88.88
461.018	76.88
461.238	88.88
461.458	74.88
461.678	91.88
461.898	91.88
462.118	96.88
462.338	88.88
462.558	81.88
462.777	77.88
462.997	86.88
463.217	91.88
463.437	73.88
463.657	79.88
463.876	78.88
464.096	96.88
464.316	87.88
464.536	106.88
464.755	99.88
464.975	112.88
465.195	122.88
465.414	143.88
465.634	89.88
465.854	86.88
466.073	80.88
466.293	92.88
466.512	79.88
466.732	94.88
466.951	86.88
467.171	76.88
467.391	103.88
467.61	98.88
467.829	91.88
468.049	91.88
468.268	89.88
468.488	79.88
468.707	83.88
468.927	81.88
469.146	80.88
469.365	80.88
469.585	87.88
469.804	101.88
470.023	93.88
470.243	95.88
470.462	93.88
470.681	97.88
470.901	78.88
471.12	84.88
471.339	94.88
471.558	89.88
471.777	81.88
471.997	84.88
472.216	98.88
472.435	95.88
472.654	81.88
472.873	81.88
473.092	87.88
473.311	85.88
473.53	80.88
473.749	73.88
473.968	85.88
474.187	86.88
474.406	92.88
474.625	69.88
474.844	77.88
475.063	81.88
475.282	95.88
475.501	89.88
475.72	86.88
475.939	96.88
476.158	87.88
476.377	87.88
476.596	90.88
476.814	78.88
477.033	98.88
477.252	101.88
477.471	87.88
477.69	89.88
477.908	78.88
478.127	86.88
478.346	95.88
478.564	80.88
478.783	89.88
479.002	96.88
479.22	99.88
479.439	110.88
479.658	118.88
479.876	90.88
480.095	86.88
480.313	91.88
480.532	99.88
480.751	76.88
480.969	85.88
481.188	120.88
481.406	97.88
481.624	95.88
481.843	75.88
482.061	78.88
482.28	81.88
482.498	92.88
482.717	82.88
482.935	82.88
483.153	83.88
483.372	83.88
483.59	87.88
483.808	87.88
484.027	85.88
484.245	86.88
484.463	80.88
484.681	84.88
484.9	85.88
485.118	89.88
485.336	90.88
485.554	96.88
485.772	105.88
485.99	102.88
486.209	98.88
486.427	100.88
486.645	93.88
486.863	105.88
487.081	92.88
487.299	82.88
487.517	95.88
487.735	93.88
487.953	96.88
488.171	95.88
488.389	82.88
488.607	94.88
488.825	88.88
489.043	75.88
489.261	89.88
489.479	80.88
489.696	99.88
489.914	91.88
490.132	85.88
490.35	90.88
490.568	81.88
490.786	86.88
491.003	76.88
491.221	102.88
491.439	77.88
491.657	102.88
491.874	80.88
492.092	72.88
492.31	94.88
492.527	88.88
492.745	89.88
492.963	90.88
493.18	102.88
493.398	93.88
493.615	100.88
493.833	95.88
494.05	90.88
494.268	90.88
494.485	78.88
494.703	91.88
494.92	82.88
495.138	92.88
495.355	97.88
495.573	93.88
495.79	88.88
496.008	80.88
496.225	89.88
496.442	82.88
496.66	89.88
496.877	92.88
497.094	98.88
497.312	93.88
497.529	80.88
497.746	90.88
497.963	95.88
498.181	88.88
498.398	88.88
498.615	97.88
498.832	108.88
499.049	84.88
499.267	86.88
499.484	104.88
499.701	77.88
499.918	80.88
500.135	91.88
500.352	97.88
500.569	86.88
500.786	97.88
501.003	80.88
501.22	99.88
501.437	94.88
501.654	86.88
501.871	102.88
502.088	83.88
502.305	84.88
502.522	90.88
502.739	95.88
502.956	84.88
503.172	83.88
503.389	74.88
503.606	87.88
503.823	87.88
504.04	89.88
504.256	79.88
504.473	94.88
504.69	93.88
504.907	96.88
505.123	92.88
505.34	97.88
505.557	80.88
505.773	104.88
505.99	81.88
506.207	76.88
506.423	92.88
506.64	72.88
506.856	86.88
507.073	89.88
507.289	77.88
507.506	101.88
507.722	99.88
507.939	100.88
508.155	92.88
508.372	107.88
508.588	98.88
508.805	87.88
509.021	80.88
509.238	87.88
509.454	84.88
509.67	102.88
509.887	96.88
510.103	120.88
510.319	170.88
510.536	638.88
510.752	1929.88
510.968	531.88
511.184	141.88
511.401	100.88
511.617	86.88
511.833	78.88
512.049	97.88
512.265	88.88
512.481	88.88
512.698	90.88
512.914	69.88
513.13	94.88
513.346	93.88
513.562	97.88
513.778	84.88
513.994	103.88
514.21	88.88
514.426	110.88
514.642	116.88
514.858	117.88
515.074	155.88
515.29	381.88
515.506	1126.88
515.721	436.88
515.937	134.88
516.153	108.88
516.369	88.88
516.585	78.88
516.801	95.88
