Data from Uncirc_1998_H10_HRD10591_00027.txt Node
Date: Wed Jan 03 11:25:30 EST 2024
User: Yrep
Spectrometer: HR+D1059
Trigger mode: 1
Integration Time (sec): 1.000000E-1
Scans to average: 1
Electric dark correction enabled: true
Nonlinearity correction enabled: false
Boxcar width: 0
XAxis mode: Wavelengths
Number of Pixels in Spectrum: 2048
>>>>>Begin Spectral Data<<<<<
223.165	-10.06
223.4	-10.06
223.635	-10.06
223.869	-19.06
224.104	-31.06
224.338	-18.06
224.573	-20.06
224.808	-0.06
225.042	-3.06
225.277	-6.06
225.511	-4.06
225.746	-3.06
225.98	6.94
226.215	20.94
226.449	20.94
226.683	16.94
226.918	28.94
227.152	19.94
227.387	36.94
227.621	40.94
227.856	43.94
228.09	36.94
228.324	41.94
228.559	38.94
228.793	56.94
229.027	57.94
229.262	65.94
229.496	70.94
229.73	79.94
229.964	87.94
230.199	82.94
230.433	82.94
230.667	75.94
230.901	82.94
231.136	76.94
231.37	88.94
231.604	68.94
231.838	92.94
232.072	76.94
232.306	80.94
232.541	82.94
232.775	80.94
233.009	84.94
233.243	64.94
233.477	80.94
233.711	82.94
233.945	86.94
234.179	83.94
234.413	67.94
234.647	74.94
234.881	86.94
235.115	78.94
235.349	80.94
235.583	83.94
235.817	90.94
236.051	83.94
236.285	88.94
236.519	85.94
236.753	92.94
236.987	80.94
237.221	81.94
237.455	86.94
237.689	70.94
237.922	89.94
238.156	91.94
238.39	88.94
238.624	83.94
238.858	80.94
239.091	65.94
239.325	84.94
239.559	83.94
239.793	94.94
240.027	77.94
240.26	77.94
240.494	83.94
240.728	78.94
240.961	78.94
241.195	74.94
241.429	84.94
241.662	87.94
241.896	70.94
242.13	77.94
242.363	75.94
242.597	80.94
242.83	79.94
243.064	74.94
243.298	70.94
243.531	85.94
243.765	86.94
243.998	78.94
244.232	87.94
244.465	92.94
244.699	74.94
244.932	63.94
245.166	81.94
245.399	89.94
245.633	73.94
245.866	80.94
246.099	90.94
246.333	86.94
246.566	63.94
246.8	79.94
247.033	77.94
247.266	69.94
247.5	70.94
247.733	86.94
247.966	77.94
248.2	73.94
248.433	85.94
248.666	88.94
248.899	93.94
249.133	91.94
249.366	105.94
249.599	97.94
249.832	85.94
250.066	90.94
250.299	87.94
250.532	81.94
250.765	81.94
250.998	98.94
251.231	73.94
251.465	88.94
251.698	76.94
251.931	68.94
252.164	83.94
252.397	74.94
252.63	86.94
252.863	83.94
253.096	89.94
253.329	76.94
253.562	92.94
253.795	84.94
254.028	87.94
254.261	85.94
254.494	99.94
254.727	85.94
254.96	60.94
255.193	70.94
255.426	80.94
255.659	75.94
255.892	95.94
256.124	72.94
256.357	82.94
256.59	88.94
256.823	86.94
257.056	95.94
257.289	93.94
257.521	81.94
257.754	97.94
257.987	76.94
258.22	85.94
258.452	83.94
258.685	88.94
258.918	82.94
259.151	76.94
259.383	80.94
259.616	75.94
259.849	91.94
260.081	83.94
260.314	82.94
260.547	87.94
260.779	84.94
261.012	81.94
261.244	86.94
261.477	82.94
261.71	109.94
261.942	102.94
262.175	107.94
262.407	76.94
262.64	79.94
262.872	98.94
263.105	91.94
263.337	99.94
263.57	79.94
263.802	74.94
264.035	91.94
264.267	86.94
264.499	88.94
264.732	77.94
264.964	75.94
265.197	82.94
265.429	89.94
265.661	82.94
265.894	87.94
266.126	95.94
266.358	95.94
266.591	74.94
266.823	81.94
267.055	78.94
267.287	86.94
267.52	97.94
267.752	70.94
267.984	83.94
268.216	80.94
268.448	81.94
268.681	88.94
268.913	89.94
269.145	95.94
269.377	93.94
269.609	84.94
269.841	91.94
270.073	84.94
270.306	72.94
270.538	91.94
270.77	84.94
271.002	91.94
271.234	93.94
271.466	94.94
271.698	81.94
271.93	72.94
272.162	95.94
272.394	86.94
272.626	84.94
272.858	79.94
273.09	83.94
273.322	84.94
273.553	83.94
273.785	78.94
274.017	82.94
274.249	85.94
274.481	78.94
274.713	80.94
274.945	86.94
275.176	91.94
275.408	89.94
275.64	82.94
275.872	90.94
276.104	79.94
276.335	81.94
276.567	95.94
276.799	112.94
277.031	95.94
277.262	80.94
277.494	83.94
277.726	72.94
277.957	78.94
278.189	81.94
278.421	87.94
278.652	88.94
278.884	81.94
279.115	98.94
279.347	82.94
279.579	100.94
279.81	87.94
280.042	93.94
280.273	88.94
280.505	94.94
280.736	98.94
280.968	84.94
281.199	102.94
281.431	83.94
281.662	84.94
281.894	89.94
282.125	107.94
282.356	126.94
282.588	144.94
282.819	98.94
283.051	85.94
283.282	94.94
283.513	96.94
283.745	96.94
283.976	102.94
284.207	87.94
284.439	74.94
284.67	88.94
284.901	92.94
285.132	88.94
285.364	87.94
285.595	88.94
285.826	85.94
286.057	100.94
286.288	91.94
286.52	92.94
286.751	81.94
286.982	74.94
287.213	74.94
287.444	78.94
287.675	90.94
287.906	97.94
288.138	87.94
288.369	89.94
288.6	87.94
288.831	92.94
289.062	81.94
289.293	89.94
289.524	89.94
289.755	94.94
289.986	93.94
290.217	95.94
290.448	98.94
290.679	102.94
290.91	93.94
291.141	87.94
291.371	100.94
291.602	86.94
291.833	85.94
292.064	81.94
292.295	85.94
292.526	72.94
292.757	96.94
292.987	90.94
293.218	90.94
293.449	94.94
293.68	86.94
293.91	82.94
294.141	79.94
294.372	81.94
294.603	94.94
294.833	100.94
295.064	85.94
295.295	99.94
295.525	87.94
295.756	88.94
295.987	112.94
296.217	118.94
296.448	100.94
296.679	100.94
296.909	97.94
297.14	88.94
297.37	89.94
297.601	94.94
297.831	80.94
298.062	86.94
298.292	88.94
298.523	87.94
298.753	66.94
298.984	86.94
299.214	99.94
299.445	86.94
299.675	89.94
299.905	88.94
300.136	85.94
300.366	92.94
300.597	95.94
300.827	95.94
301.057	99.94
301.288	103.94
301.518	83.94
301.748	97.94
301.979	101.94
302.209	104.94
302.439	95.94
302.669	81.94
302.9	91.94
303.13	83.94
303.36	94.94
303.59	100.94
303.82	110.94
304.051	81.94
304.281	79.94
304.511	90.94
304.741	91.94
304.971	92.94
305.201	85.94
305.431	78.94
305.661	81.94
305.891	82.94
306.121	97.94
306.352	81.94
306.582	91.94
306.812	101.94
307.042	89.94
307.272	95.94
307.502	87.94
307.731	89.94
307.961	92.94
308.191	89.94
308.421	86.94
308.651	89.94
308.881	91.94
309.111	97.94
309.341	91.94
309.571	97.94
309.8	107.94
310.03	93.94
310.26	85.94
310.49	91.94
310.72	88.94
310.949	102.94
311.179	92.94
311.409	112.94
311.639	112.94
311.868	107.94
312.098	98.94
312.328	98.94
312.557	99.94
312.787	94.94
313.017	107.94
313.246	99.94
313.476	106.94
313.706	87.94
313.935	99.94
314.165	103.94
314.394	104.94
314.624	103.94
314.853	90.94
315.083	86.94
315.312	97.94
315.542	86.94
315.771	97.94
316.001	87.94
316.23	86.94
316.46	76.94
316.689	85.94
316.919	83.94
317.148	86.94
317.377	90.94
317.607	91.94
317.836	95.94
318.065	88.94
318.295	96.94
318.524	87.94
318.753	94.94
318.983	96.94
319.212	104.94
319.441	106.94
319.67	95.94
319.9	95.94
320.129	104.94
320.358	90.94
320.587	98.94
320.816	94.94
321.046	107.94
321.275	111.94
321.504	97.94
321.733	94.94
321.962	105.94
322.191	104.94
322.42	83.94
322.649	104.94
322.878	99.94
323.108	102.94
323.337	117.94
323.566	112.94
323.795	142.94
324.024	180.94
324.253	364.94
324.482	721.94
324.71	1447.94
324.939	1810.94
325.168	680.94
325.397	212.94
325.626	124.94
325.855	118.94
326.084	123.94
326.313	111.94
326.542	144.94
326.77	208.94
326.999	391.94
327.228	821.94
327.457	1432.94
327.686	1159.94
327.914	331.94
328.143	188.94
328.372	148.94
328.6	127.94
328.829	106.94
329.058	110.94
329.287	128.94
329.515	110.94
329.744	99.94
329.972	97.94
330.201	110.94
330.43	119.94
330.658	106.94
330.887	115.94
331.115	101.94
331.344	112.94
331.572	108.94
331.801	94.94
332.03	95.94
332.258	103.94
332.486	95.94
332.715	99.94
332.943	95.94
333.172	104.94
333.4	101.94
333.629	99.94
333.857	101.94
334.085	98.94
334.314	104.94
334.542	94.94
334.771	87.94
334.999	98.94
335.227	92.94
335.455	93.94
335.684	100.94
335.912	90.94
336.14	89.94
336.369	108.94
336.597	97.94
336.825	89.94
337.053	80.94
337.281	91.94
337.51	91.94
337.738	84.94
337.966	100.94
338.194	100.94
338.422	116.94
338.65	99.94
338.878	90.94
339.106	85.94
339.334	100.94
339.562	86.94
339.79	94.94
340.018	95.94
340.246	90.94
340.474	95.94
340.702	96.94
340.93	89.94
341.158	93.94
341.386	100.94
341.614	94.94
341.842	81.94
342.07	95.94
342.298	80.94
342.526	87.94
342.754	99.94
342.981	76.94
343.209	84.94
343.437	104.94
343.665	95.94
343.893	89.94
344.12	93.94
344.348	94.94
344.576	87.94
344.804	83.94
345.031	110.94
345.259	102.94
345.487	98.94
345.714	106.94
345.942	97.94
346.17	98.94
346.397	89.94
346.625	96.94
346.853	90.94
347.08	92.94
347.308	99.94
347.535	96.94
347.763	89.94
347.99	106.94
348.218	97.94
348.445	99.94
348.673	85.94
348.9	94.94
349.128	90.94
349.355	87.94
349.583	100.94
349.81	117.94
350.037	92.94
350.265	90.94
350.492	111.94
350.72	100.94
350.947	86.94
351.174	111.94
351.402	95.94
351.629	101.94
351.856	103.94
352.083	88.94
352.311	97.94
352.538	96.94
352.765	93.94
352.992	104.94
353.22	102.94
353.447	115.94
353.674	95.94
353.901	93.94
354.128	100.94
354.355	97.94
354.583	95.94
354.81	86.94
355.037	106.94
355.264	101.94
355.491	112.94
355.718	90.94
355.945	113.94
356.172	107.94
356.399	105.94
356.626	106.94
356.853	99.94
357.08	89.94
357.307	80.94
357.534	80.94
357.761	82.94
357.988	88.94
358.215	85.94
358.441	91.94
358.668	93.94
358.895	81.94
359.122	84.94
359.349	87.94
359.576	102.94
359.802	97.94
360.029	110.94
360.256	96.94
360.483	90.94
360.709	95.94
360.936	100.94
361.163	103.94
361.39	86.94
361.616	80.94
361.843	78.94
362.07	99.94
362.296	86.94
362.523	80.94
362.749	97.94
362.976	95.94
363.203	101.94
363.429	102.94
363.656	99.94
363.882	95.94
364.109	85.94
364.335	84.94
364.562	94.94
364.788	92.94
365.015	92.94
365.241	82.94
365.468	94.94
365.694	103.94
365.92	107.94
366.147	95.94
366.373	93.94
366.599	90.94
366.826	85.94
367.052	90.94
367.278	96.94
367.505	93.94
367.731	92.94
367.957	89.94
368.184	84.94
368.41	110.94
368.636	101.94
368.862	108.94
369.089	102.94
369.315	98.94
369.541	82.94
369.767	100.94
369.993	85.94
370.219	88.94
370.445	99.94
370.672	76.94
370.898	76.94
371.124	94.94
371.35	82.94
371.576	81.94
371.802	98.94
372.028	93.94
372.254	76.94
372.48	85.94
372.706	93.94
372.932	84.94
373.158	85.94
373.384	86.94
373.61	95.94
373.835	91.94
374.061	99.94
374.287	101.94
374.513	90.94
374.739	93.94
374.965	92.94
375.191	92.94
375.416	104.94
375.642	74.94
375.868	90.94
376.094	97.94
376.319	92.94
376.545	73.94
376.771	90.94
376.997	92.94
377.222	94.94
377.448	96.94
377.674	99.94
377.899	83.94
378.125	88.94
378.35	94.94
378.576	90.94
378.802	89.94
379.027	89.94
379.253	90.94
379.478	90.94
379.704	86.94
379.929	94.94
380.155	84.94
380.38	100.94
380.606	101.94
380.831	104.94
381.057	98.94
381.282	107.94
381.507	88.94
381.733	90.94
381.958	105.94
382.184	103.94
382.409	103.94
382.634	111.94
382.86	108.94
383.085	93.94
383.31	94.94
383.535	106.94
383.761	97.94
383.986	106.94
384.211	108.94
384.436	108.94
384.662	96.94
384.887	104.94
385.112	93.94
385.337	96.94
385.562	116.94
385.787	98.94
386.013	118.94
386.238	123.94
386.463	90.94
386.688	105.94
386.913	93.94
387.138	104.94
387.363	97.94
387.588	107.94
387.813	80.94
388.038	108.94
388.263	102.94
388.488	110.94
388.713	94.94
388.938	104.94
389.163	107.94
389.387	103.94
389.612	86.94
389.837	100.94
390.062	102.94
390.287	106.94
390.512	101.94
390.736	89.94
390.961	102.94
391.186	89.94
391.411	101.94
391.636	107.94
391.86	96.94
392.085	105.94
392.31	90.94
392.534	96.94
392.759	78.94
392.984	78.94
393.208	87.94
393.433	101.94
393.658	89.94
393.882	90.94
394.107	81.94
394.331	92.94
394.556	103.94
394.78	93.94
395.005	107.94
395.229	90.94
395.454	89.94
395.678	83.94
395.903	81.94
396.127	88.94
396.352	78.94
396.576	78.94
396.801	89.94
397.025	96.94
397.249	96.94
397.474	90.94
397.698	84.94
397.922	86.94
398.147	86.94
398.371	85.94
398.595	82.94
398.82	90.94
399.044	82.94
399.268	92.94
399.492	88.94
399.717	86.94
399.941	90.94
400.165	90.94
400.389	95.94
400.613	86.94
400.837	83.94
401.062	93.94
401.286	91.94
401.51	93.94
401.734	93.94
401.958	92.94
402.182	114.94
402.406	135.94
402.63	112.94
402.854	96.94
403.078	99.94
403.302	89.94
403.526	79.94
403.75	81.94
403.974	94.94
404.198	80.94
404.422	93.94
404.645	91.94
404.869	83.94
405.093	95.94
405.317	88.94
405.541	92.94
405.765	98.94
405.988	103.94
406.212	145.94
406.436	186.94
406.66	131.94
406.883	94.94
407.107	84.94
407.331	83.94
407.555	88.94
407.778	97.94
408.002	94.94
408.226	110.94
408.449	84.94
408.673	105.94
408.896	107.94
409.12	82.94
409.344	100.94
409.567	92.94
409.791	95.94
410.014	91.94
410.238	94.94
410.461	84.94
410.685	87.94
410.908	103.94
411.132	107.94
411.355	90.94
411.578	90.94
411.802	87.94
412.025	87.94
412.249	82.94
412.472	104.94
412.695	100.94
412.919	100.94
413.142	90.94
413.365	95.94
413.589	80.94
413.812	85.94
414.035	96.94
414.258	91.94
414.482	103.94
414.705	95.94
414.928	89.94
415.151	98.94
415.374	80.94
415.597	87.94
415.821	72.94
416.044	85.94
416.267	102.94
416.49	71.94
416.713	95.94
416.936	93.94
417.159	80.94
417.382	94.94
417.605	98.94
417.828	89.94
418.051	88.94
418.274	100.94
418.497	93.94
418.72	79.94
418.943	85.94
419.166	99.94
419.389	93.94
419.611	99.94
419.834	73.94
420.057	91.94
420.28	92.94
420.503	87.94
420.726	88.94
420.948	93.94
421.171	90.94
421.394	91.94
421.617	97.94
421.839	95.94
422.062	100.94
422.285	102.94
422.507	100.94
422.73	103.94
422.953	95.94
423.175	100.94
423.398	84.94
423.621	78.94
423.843	91.94
424.066	90.94
424.288	82.94
424.511	103.94
424.733	88.94
424.956	105.94
425.178	102.94
425.401	90.94
425.623	90.94
425.846	82.94
426.068	88.94
426.291	94.94
426.513	91.94
426.735	100.94
426.958	109.94
427.18	100.94
427.402	114.94
427.625	131.94
427.847	112.94
428.069	120.94
428.292	94.94
428.514	92.94
428.736	73.94
428.958	81.94
429.181	89.94
429.403	95.94
429.625	86.94
429.847	109.94
430.069	94.94
430.292	111.94
430.514	97.94
430.736	80.94
430.958	96.94
431.18	83.94
431.402	83.94
431.624	83.94
431.846	91.94
432.068	86.94
432.29	81.94
432.512	95.94
432.734	76.94
432.956	88.94
433.178	98.94
433.4	104.94
433.622	90.94
433.844	75.94
434.066	87.94
434.287	79.94
434.509	97.94
434.731	81.94
434.953	90.94
435.175	89.94
435.397	91.94
435.618	89.94
435.84	97.94
436.062	118.94
436.284	111.94
436.505	106.94
436.727	115.94
436.949	100.94
437.17	93.94
437.392	108.94
437.614	102.94
437.835	110.94
438.057	96.94
438.278	107.94
438.5	90.94
438.721	110.94
438.943	107.94
439.165	87.94
439.386	78.94
439.608	95.94
439.829	92.94
440.05	111.94
440.272	128.94
440.493	93.94
440.715	79.94
440.936	89.94
441.158	99.94
441.379	82.94
441.6	89.94
441.822	95.94
442.043	97.94
442.264	103.94
442.486	93.94
442.707	88.94
442.928	93.94
443.149	104.94
443.371	117.94
443.592	95.94
443.813	82.94
444.034	113.94
444.255	101.94
444.476	87.94
444.698	81.94
444.919	104.94
445.14	145.94
445.361	118.94
445.582	112.94
445.803	124.94
446.024	123.94
446.245	127.94
446.466	113.94
446.687	87.94
446.908	87.94
447.129	86.94
447.35	90.94
447.571	92.94
447.792	87.94
448.013	104.94
448.234	107.94
448.455	110.94
448.675	109.94
448.896	127.94
449.117	109.94
449.338	101.94
449.559	107.94
449.779	126.94
450	95.94
450.221	67.94
450.442	86.94
450.662	95.94
450.883	91.94
451.104	123.94
451.324	103.94
451.545	84.94
451.766	74.94
451.986	86.94
452.207	83.94
452.428	77.94
452.648	94.94
452.869	99.94
453.089	116.94
453.31	110.94
453.53	86.94
453.751	90.94
453.971	113.94
454.192	98.94
454.412	90.94
454.633	98.94
454.853	86.94
455.073	97.94
455.294	94.94
455.514	83.94
455.734	99.94
455.955	84.94
456.175	105.94
456.395	91.94
456.616	98.94
456.836	90.94
457.056	88.94
457.276	86.94
457.497	97.94
457.717	74.94
457.937	83.94
458.157	80.94
458.377	96.94
458.598	112.94
458.818	137.94
459.038	139.94
459.258	109.94
459.478	89.94
459.698	88.94
459.918	78.94
460.138	71.94
460.358	100.94
460.578	74.94
460.798	94.94
461.018	90.94
461.238	95.94
461.458	92.94
461.678	86.94
461.898	100.94
462.118	97.94
462.338	86.94
462.558	88.94
462.777	103.94
462.997	89.94
463.217	68.94
463.437	90.94
463.657	83.94
463.876	94.94
464.096	92.94
464.316	97.94
464.536	86.94
464.755	82.94
464.975	100.94
465.195	142.94
465.414	122.94
465.634	105.94
465.854	89.94
466.073	93.94
466.293	81.94
466.512	82.94
466.732	79.94
466.951	96.94
467.171	104.94
467.391	90.94
467.61	74.94
467.829	80.94
468.049	90.94
468.268	90.94
468.488	108.94
468.707	98.94
468.927	78.94
469.146	98.94
469.365	72.94
469.585	81.94
469.804	88.94
470.023	92.94
470.243	88.94
470.462	94.94
470.681	102.94
470.901	85.94
471.12	93.94
471.339	88.94
471.558	86.94
471.777	93.94
471.997	79.94
472.216	102.94
472.435	99.94
472.654	92.94
472.873	102.94
473.092	94.94
473.311	82.94
473.53	83.94
473.749	76.94
473.968	107.94
474.187	98.94
474.406	88.94
474.625	80.94
474.844	83.94
475.063	92.94
475.282	82.94
475.501	100.94
475.72	99.94
475.939	101.94
476.158	96.94
476.377	80.94
476.596	90.94
476.814	92.94
477.033	100.94
477.252	99.94
477.471	87.94
477.69	89.94
477.908	86.94
478.127	86.94
478.346	90.94
478.564	94.94
478.783	84.94
479.002	87.94
479.22	86.94
479.439	83.94
479.658	92.94
479.876	82.94
480.095	88.94
480.313	97.94
480.532	90.94
480.751	97.94
480.969	101.94
481.188	109.94
481.406	123.94
481.624	87.94
481.843	86.94
482.061	77.94
482.28	104.94
482.498	74.94
482.717	86.94
482.935	86.94
483.153	90.94
483.372	88.94
483.59	84.94
483.808	74.94
484.027	91.94
484.245	87.94
484.463	90.94
484.681	107.94
484.9	87.94
485.118	90.94
485.336	93.94
485.554	102.94
485.772	92.94
485.99	104.94
486.209	100.94
486.427	93.94
486.645	103.94
486.863	101.94
487.081	96.94
487.299	94.94
487.517	100.94
487.735	92.94
487.953	86.94
488.171	97.94
488.389	107.94
488.607	105.94
488.825	104.94
489.043	95.94
489.261	87.94
489.479	91.94
489.696	91.94
489.914	109.94
490.132	87.94
490.35	94.94
490.568	92.94
490.786	88.94
491.003	95.94
491.221	91.94
491.439	96.94
491.657	102.94
491.874	92.94
492.092	91.94
492.31	89.94
492.527	92.94
492.745	89.94
492.963	84.94
493.18	86.94
493.398	85.94
493.615	90.94
493.833	85.94
494.05	77.94
494.268	81.94
494.485	96.94
494.703	82.94
494.92	107.94
495.138	85.94
495.355	94.94
495.573	108.94
495.79	111.94
496.008	86.94
496.225	93.94
496.442	99.94
496.66	98.94
496.877	93.94
497.094	108.94
497.312	86.94
497.529	89.94
497.746	93.94
497.963	94.94
498.181	80.94
498.398	91.94
498.615	97.94
498.832	104.94
499.049	100.94
499.267	87.94
499.484	105.94
499.701	105.94
499.918	89.94
500.135	84.94
500.352	86.94
500.569	77.94
500.786	87.94
501.003	89.94
501.22	85.94
501.437	87.94
501.654	99.94
501.871	106.94
502.088	95.94
502.305	97.94
502.522	75.94
502.739	92.94
502.956	87.94
503.172	91.94
503.389	91.94
503.606	102.94
503.823	102.94
504.04	94.94
504.256	89.94
504.473	96.94
504.69	91.94
504.907	97.94
505.123	89.94
505.34	97.94
505.557	92.94
505.773	83.94
505.99	87.94
506.207	96.94
506.423	90.94
506.64	87.94
506.856	94.94
507.073	83.94
507.289	104.94
507.506	83.94
507.722	99.94
507.939	108.94
508.155	96.94
508.372	90.94
508.588	87.94
508.805	96.94
509.021	96.94
509.238	103.94
509.454	94.94
509.67	99.94
509.887	108.94
510.103	133.94
510.319	202.94
510.536	632.94
510.752	1923.94
510.968	522.94
511.184	150.94
511.401	107.94
511.617	88.94
511.833	98.94
512.049	93.94
512.265	92.94
512.481	79.94
512.698	85.94
512.914	97.94
513.13	114.94
513.346	89.94
513.562	99.94
513.778	102.94
513.994	98.94
514.21	94.94
514.426	104.94
514.642	132.94
514.858	120.94
515.074	129.94
515.29	367.94
515.506	1145.94
515.721	406.94
