Data from Uncirc_1998_H10_HRD10591_00078.txt Node
Date: Wed Jan 03 11:25:40 EST 2024
User: Yrep
Spectrometer: HR+D1059
Trigger mode: 1
Integration Time (sec): 1.000000E-1
Scans to average: 1
Electric dark correction enabled: true
Nonlinearity correction enabled: false
Boxcar width: 0
XAxis mode: Wavelengths
Number of Pixels in Spectrum: 2048
>>>>>Begin Spectral Data<<<<<
223.165	-9.75
223.4	-9.75
223.635	-9.75
223.869	-24.75
224.104	-13.75
224.338	-25.75
224.573	-31.75
224.808	-14.75
225.042	-4.75
225.277	13.25
225.511	3.25
225.746	1.25
225.98	-1.75
226.215	9.25
226.449	23.25
226.683	20.25
226.918	22.25
227.152	34.25
227.387	29.25
227.621	42.25
227.856	55.25
228.09	69.25
228.324	56.25
228.559	54.25
228.793	60.25
229.027	69.25
229.262	59.25
229.496	66.25
229.73	89.25
229.964	79.25
230.199	70.25
230.433	81.25
230.667	76.25
230.901	63.25
231.136	74.25
231.37	81.25
231.604	75.25
231.838	80.25
232.072	77.25
232.306	76.25
232.541	90.25
232.775	80.25
233.009	87.25
233.243	82.25
233.477	99.25
233.711	76.25
233.945	97.25
234.179	88.25
234.413	89.25
234.647	72.25
234.881	72.25
235.115	81.25
235.349	68.25
235.583	83.25
235.817	69.25
236.051	84.25
236.285	88.25
236.519	78.25
236.753	68.25
236.987	74.25
237.221	84.25
237.455	77.25
237.689	83.25
237.922	85.25
238.156	83.25
238.39	83.25
238.624	72.25
238.858	89.25
239.091	83.25
239.325	76.25
239.559	62.25
239.793	81.25
240.027	70.25
240.26	83.25
240.494	91.25
240.728	76.25
240.961	85.25
241.195	77.25
241.429	84.25
241.662	63.25
241.896	76.25
242.13	82.25
242.363	67.25
242.597	80.25
242.83	82.25
243.064	73.25
243.298	73.25
243.531	77.25
243.765	78.25
243.998	86.25
244.232	88.25
244.465	86.25
244.699	69.25
244.932	82.25
245.166	68.25
245.399	81.25
245.633	83.25
245.866	83.25
246.099	76.25
246.333	74.25
246.566	79.25
246.8	70.25
247.033	88.25
247.266	82.25
247.5	74.25
247.733	86.25
247.966	80.25
248.2	68.25
248.433	88.25
248.666	75.25
248.899	77.25
249.133	73.25
249.366	99.25
249.599	97.25
249.832	84.25
250.066	91.25
250.299	73.25
250.532	82.25
250.765	92.25
250.998	77.25
251.231	89.25
251.465	82.25
251.698	66.25
251.931	83.25
252.164	85.25
252.397	81.25
252.63	93.25
252.863	86.25
253.096	83.25
253.329	89.25
253.562	76.25
253.795	94.25
254.028	79.25
254.261	84.25
254.494	65.25
254.727	80.25
254.96	85.25
255.193	88.25
255.426	78.25
255.659	89.25
255.892	80.25
256.124	83.25
256.357	88.25
256.59	93.25
256.823	78.25
257.056	90.25
257.289	77.25
257.521	88.25
257.754	83.25
257.987	77.25
258.22	96.25
258.452	87.25
258.685	69.25
258.918	85.25
259.151	83.25
259.383	84.25
259.616	86.25
259.849	79.25
260.081	88.25
260.314	94.25
260.547	83.25
260.779	80.25
261.012	81.25
261.244	92.25
261.477	100.25
261.71	90.25
261.942	99.25
262.175	109.25
262.407	98.25
262.64	95.25
262.872	76.25
263.105	91.25
263.337	80.25
263.57	100.25
263.802	93.25
264.035	76.25
264.267	85.25
264.499	85.25
264.732	78.25
264.964	93.25
265.197	73.25
265.429	81.25
265.661	95.25
265.894	81.25
266.126	78.25
266.358	86.25
266.591	85.25
266.823	87.25
267.055	94.25
267.287	92.25
267.52	88.25
267.752	74.25
267.984	95.25
268.216	83.25
268.448	90.25
268.681	84.25
268.913	87.25
269.145	112.25
269.377	92.25
269.609	91.25
269.841	93.25
270.073	85.25
270.306	98.25
270.538	106.25
270.77	97.25
271.002	88.25
271.234	76.25
271.466	84.25
271.698	81.25
271.93	85.25
272.162	83.25
272.394	86.25
272.626	91.25
272.858	86.25
273.09	85.25
273.322	93.25
273.553	93.25
273.785	92.25
274.017	96.25
274.249	88.25
274.481	91.25
274.713	82.25
274.945	65.25
275.176	78.25
275.408	97.25
275.64	81.25
275.872	95.25
276.104	83.25
276.335	95.25
276.567	100.25
276.799	93.25
277.031	108.25
277.262	86.25
277.494	103.25
277.726	79.25
277.957	98.25
278.189	83.25
278.421	86.25
278.652	91.25
278.884	97.25
279.115	68.25
279.347	83.25
279.579	85.25
279.81	93.25
280.042	93.25
280.273	83.25
280.505	89.25
280.736	97.25
280.968	88.25
281.199	84.25
281.431	89.25
281.662	97.25
281.894	75.25
282.125	98.25
282.356	122.25
282.588	132.25
282.819	121.25
283.051	81.25
283.282	85.25
283.513	90.25
283.745	83.25
283.976	84.25
284.207	84.25
284.439	86.25
284.67	87.25
284.901	85.25
285.132	89.25
285.364	95.25
285.595	96.25
285.826	88.25
286.057	95.25
286.288	99.25
286.52	80.25
286.751	101.25
286.982	99.25
287.213	94.25
287.444	101.25
287.675	88.25
287.906	103.25
288.138	82.25
288.369	101.25
288.6	106.25
288.831	89.25
289.062	88.25
289.293	81.25
289.524	103.25
289.755	85.25
289.986	97.25
290.217	98.25
290.448	86.25
290.679	76.25
290.91	92.25
291.141	87.25
291.371	90.25
291.602	81.25
291.833	89.25
292.064	89.25
292.295	87.25
292.526	87.25
292.757	71.25
292.987	86.25
293.218	88.25
293.449	86.25
293.68	95.25
293.91	99.25
294.141	94.25
294.372	80.25
294.603	95.25
294.833	88.25
295.064	91.25
295.295	98.25
295.525	98.25
295.756	92.25
295.987	111.25
296.217	120.25
296.448	121.25
296.679	95.25
296.909	83.25
297.14	97.25
297.37	96.25
297.601	79.25
297.831	98.25
298.062	98.25
298.292	94.25
298.523	90.25
298.753	101.25
298.984	104.25
299.214	97.25
299.445	100.25
299.675	93.25
299.905	117.25
300.136	100.25
300.366	113.25
300.597	99.25
300.827	107.25
301.057	97.25
301.288	107.25
301.518	72.25
301.748	86.25
301.979	100.25
302.209	85.25
302.439	100.25
302.669	88.25
302.9	92.25
303.13	114.25
303.36	90.25
303.59	105.25
303.82	85.25
304.051	82.25
304.281	88.25
304.511	93.25
304.741	94.25
304.971	94.25
305.201	90.25
305.431	95.25
305.661	99.25
305.891	93.25
306.121	96.25
306.352	100.25
306.582	95.25
306.812	88.25
307.042	96.25
307.272	100.25
307.502	99.25
307.731	92.25
307.961	81.25
308.191	82.25
308.421	100.25
308.651	101.25
308.881	104.25
309.111	84.25
309.341	101.25
309.571	102.25
309.8	108.25
310.03	101.25
310.26	109.25
310.49	96.25
310.72	96.25
310.949	92.25
311.179	94.25
311.409	106.25
311.639	80.25
311.868	93.25
312.098	92.25
312.328	94.25
312.557	101.25
312.787	103.25
313.017	100.25
313.246	90.25
313.476	101.25
313.706	83.25
313.935	104.25
314.165	117.25
314.394	96.25
314.624	104.25
314.853	85.25
315.083	92.25
315.312	110.25
315.542	90.25
315.771	89.25
316.001	93.25
316.23	95.25
316.46	82.25
316.689	97.25
316.919	107.25
317.148	93.25
317.377	97.25
317.607	111.25
317.836	84.25
318.065	97.25
318.295	96.25
318.524	99.25
318.753	113.25
318.983	108.25
319.212	103.25
319.441	93.25
319.67	109.25
319.9	100.25
320.129	94.25
320.358	96.25
320.587	94.25
320.816	112.25
321.046	97.25
321.275	100.25
321.504	90.25
321.733	92.25
321.962	99.25
322.191	108.25
322.42	106.25
322.649	101.25
322.878	106.25
323.108	118.25
323.337	121.25
323.566	131.25
323.795	154.25
324.024	216.25
324.253	399.25
324.482	843.25
324.71	1703.25
324.939	2206.25
325.168	804.25
325.397	229.25
325.626	140.25
325.855	112.25
326.084	122.25
326.313	130.25
326.542	160.25
326.77	242.25
326.999	466.25
327.228	949.25
327.457	1706.25
327.686	1368.25
327.914	352.25
328.143	203.25
328.372	149.25
328.6	137.25
328.829	120.25
329.058	131.25
329.287	124.25
329.515	122.25
329.744	100.25
329.972	104.25
330.201	94.25
330.43	112.25
330.658	118.25
330.887	143.25
331.115	125.25
331.344	98.25
331.572	101.25
331.801	104.25
332.03	92.25
332.258	98.25
332.486	92.25
332.715	90.25
332.943	94.25
333.172	88.25
333.4	107.25
333.629	111.25
333.857	115.25
334.085	103.25
334.314	106.25
334.542	98.25
334.771	100.25
334.999	90.25
335.227	94.25
335.455	99.25
335.684	97.25
335.912	107.25
336.14	104.25
336.369	93.25
336.597	97.25
336.825	113.25
337.053	102.25
337.281	99.25
337.51	100.25
337.738	109.25
337.966	97.25
338.194	91.25
338.422	96.25
338.65	100.25
338.878	108.25
339.106	95.25
339.334	108.25
339.562	82.25
339.79	89.25
340.018	92.25
340.246	90.25
340.474	93.25
340.702	106.25
340.93	91.25
341.158	79.25
341.386	102.25
341.614	92.25
341.842	96.25
342.07	92.25
342.298	90.25
342.526	85.25
342.754	85.25
342.981	73.25
343.209	95.25
343.437	98.25
343.665	101.25
343.893	93.25
344.12	95.25
344.348	101.25
344.576	97.25
344.804	105.25
345.031	94.25
345.259	98.25
345.487	82.25
345.714	96.25
345.942	96.25
346.17	97.25
346.397	98.25
346.625	93.25
346.853	76.25
347.08	93.25
347.308	103.25
347.535	101.25
347.763	91.25
347.99	99.25
348.218	112.25
348.445	102.25
348.673	88.25
348.9	117.25
349.128	106.25
349.355	83.25
349.583	90.25
349.81	88.25
350.037	101.25
350.265	99.25
350.492	94.25
350.72	100.25
350.947	112.25
351.174	118.25
351.402	113.25
351.629	96.25
351.856	104.25
352.083	106.25
352.311	104.25
352.538	106.25
352.765	111.25
352.992	124.25
353.22	107.25
353.447	97.25
353.674	111.25
353.901	98.25
354.128	100.25
354.355	96.25
354.583	113.25
354.81	102.25
355.037	116.25
355.264	94.25
355.491	100.25
355.718	99.25
355.945	102.25
356.172	94.25
356.399	90.25
356.626	83.25
356.853	94.25
357.08	99.25
357.307	99.25
357.534	92.25
357.761	109.25
357.988	91.25
358.215	89.25
358.441	111.25
358.668	86.25
358.895	91.25
359.122	86.25
359.349	85.25
359.576	90.25
359.802	88.25
360.029	116.25
360.256	119.25
360.483	101.25
360.709	85.25
360.936	95.25
361.163	90.25
361.39	87.25
361.616	101.25
361.843	93.25
362.07	91.25
362.296	98.25
362.523	110.25
362.749	101.25
362.976	105.25
363.203	95.25
363.429	102.25
363.656	80.25
363.882	91.25
364.109	97.25
364.335	101.25
364.562	88.25
364.788	102.25
365.015	90.25
365.241	98.25
365.468	112.25
365.694	113.25
365.92	94.25
366.147	95.25
366.373	85.25
366.599	105.25
366.826	95.25
367.052	85.25
367.278	97.25
367.505	99.25
367.731	92.25
367.957	103.25
368.184	101.25
368.41	105.25
368.636	120.25
368.862	121.25
369.089	107.25
369.315	85.25
369.541	104.25
369.767	89.25
369.993	92.25
370.219	105.25
370.445	99.25
370.672	85.25
370.898	79.25
371.124	82.25
371.35	78.25
371.576	89.25
371.802	76.25
372.028	97.25
372.254	94.25
372.48	102.25
372.706	85.25
372.932	99.25
373.158	87.25
373.384	95.25
373.61	98.25
373.835	98.25
374.061	88.25
374.287	88.25
374.513	89.25
374.739	85.25
374.965	100.25
375.191	92.25
375.416	89.25
375.642	107.25
375.868	105.25
376.094	102.25
376.319	109.25
376.545	94.25
376.771	79.25
376.997	86.25
377.222	98.25
377.448	76.25
377.674	85.25
377.899	74.25
378.125	93.25
378.35	97.25
378.576	95.25
378.802	88.25
379.027	86.25
379.253	110.25
379.478	91.25
379.704	83.25
379.929	102.25
380.155	95.25
380.38	90.25
380.606	85.25
380.831	96.25
381.057	96.25
381.282	93.25
381.507	90.25
381.733	91.25
381.958	89.25
382.184	93.25
382.409	103.25
382.634	106.25
382.86	98.25
383.085	97.25
383.31	99.25
383.535	101.25
383.761	90.25
383.986	80.25
384.211	94.25
384.436	91.25
384.662	102.25
384.887	94.25
385.112	102.25
385.337	101.25
385.562	99.25
385.787	94.25
386.013	101.25
386.238	98.25
386.463	112.25
386.688	120.25
386.913	120.25
387.138	97.25
387.363	101.25
387.588	95.25
387.813	112.25
388.038	124.25
388.263	111.25
388.488	106.25
388.713	102.25
388.938	99.25
389.163	98.25
389.387	105.25
389.612	90.25
389.837	86.25
390.062	106.25
390.287	104.25
390.512	96.25
390.736	104.25
390.961	105.25
391.186	84.25
391.411	107.25
391.636	100.25
391.86	80.25
392.085	77.25
392.31	85.25
392.534	72.25
392.759	87.25
392.984	87.25
393.208	91.25
393.433	96.25
393.658	102.25
393.882	88.25
394.107	90.25
394.331	96.25
394.556	88.25
394.78	98.25
395.005	93.25
395.229	89.25
395.454	96.25
395.678	95.25
395.903	84.25
396.127	98.25
396.352	100.25
396.576	88.25
396.801	90.25
397.025	95.25
397.249	94.25
397.474	93.25
397.698	80.25
397.922	68.25
398.147	66.25
398.371	101.25
398.595	81.25
398.82	100.25
399.044	85.25
399.268	99.25
399.492	86.25
399.717	99.25
399.941	87.25
400.165	83.25
400.389	89.25
400.613	86.25
400.837	83.25
401.062	78.25
401.286	82.25
401.51	88.25
401.734	97.25
401.958	106.25
402.182	128.25
402.406	163.25
402.63	107.25
402.854	104.25
403.078	89.25
403.302	95.25
403.526	85.25
403.75	90.25
403.974	104.25
404.198	91.25
404.422	101.25
404.645	95.25
404.869	88.25
405.093	94.25
405.317	92.25
405.541	107.25
405.765	104.25
405.988	121.25
406.212	168.25
406.436	207.25
406.66	156.25
406.883	125.25
407.107	97.25
407.331	96.25
407.555	100.25
407.778	91.25
408.002	100.25
408.226	101.25
408.449	88.25
408.673	106.25
408.896	90.25
409.12	90.25
409.344	80.25
409.567	92.25
409.791	85.25
410.014	92.25
410.238	100.25
410.461	99.25
410.685	98.25
410.908	95.25
411.132	99.25
411.355	116.25
411.578	88.25
411.802	93.25
412.025	86.25
412.249	79.25
412.472	96.25
412.695	94.25
412.919	87.25
413.142	86.25
413.365	83.25
413.589	95.25
413.812	94.25
414.035	103.25
414.258	91.25
414.482	91.25
414.705	92.25
414.928	94.25
415.151	90.25
415.374	84.25
415.597	88.25
415.821	92.25
416.044	89.25
416.267	83.25
416.49	96.25
416.713	88.25
416.936	106.25
417.159	88.25
417.382	92.25
417.605	100.25
417.828	94.25
418.051	100.25
418.274	84.25
418.497	94.25
418.72	89.25
418.943	79.25
419.166	84.25
419.389	92.25
419.611	93.25
419.834	91.25
420.057	89.25
420.28	94.25
420.503	83.25
420.726	95.25
420.948	85.25
421.171	110.25
421.394	94.25
421.617	107.25
421.839	86.25
422.062	89.25
422.285	87.25
422.507	107.25
422.73	97.25
422.953	89.25
423.175	97.25
423.398	93.25
423.621	89.25
423.843	90.25
424.066	82.25
424.288	80.25
424.511	85.25
424.733	111.25
424.956	123.25
425.178	112.25
425.401	101.25
425.623	92.25
425.846	94.25
426.068	99.25
426.291	100.25
426.513	89.25
426.735	86.25
426.958	91.25
427.18	107.25
427.402	133.25
427.625	154.25
427.847	125.25
428.069	112.25
428.292	98.25
428.514	92.25
428.736	84.25
428.958	94.25
429.181	80.25
429.403	91.25
429.625	98.25
429.847	81.25
430.069	99.25
430.292	90.25
430.514	96.25
430.736	87.25
430.958	83.25
431.18	92.25
431.402	91.25
431.624	89.25
431.846	89.25
432.068	92.25
432.29	82.25
432.512	100.25
432.734	78.25
432.956	94.25
433.178	107.25
433.4	100.25
433.622	84.25
433.844	94.25
434.066	86.25
434.287	91.25
434.509	97.25
434.731	91.25
434.953	104.25
435.175	96.25
435.397	92.25
435.618	94.25
435.84	113.25
436.062	129.25
436.284	125.25
436.505	107.25
436.727	106.25
436.949	94.25
437.17	89.25
437.392	77.25
437.614	78.25
437.835	100.25
438.057	111.25
438.278	115.25
438.5	114.25
438.721	121.25
438.943	106.25
439.165	96.25
439.386	96.25
439.608	82.25
439.829	99.25
440.05	125.25
440.272	139.25
440.493	95.25
440.715	93.25
440.936	92.25
441.158	93.25
441.379	85.25
441.6	101.25
441.822	101.25
442.043	96.25
442.264	94.25
442.486	90.25
442.707	97.25
442.928	110.25
443.149	122.25
443.371	130.25
443.592	100.25
443.813	114.25
444.034	101.25
444.255	101.25
444.476	86.25
444.698	83.25
444.919	101.25
445.14	133.25
445.361	129.25
445.582	118.25
445.803	145.25
446.024	125.25
446.245	134.25
446.466	114.25
446.687	84.25
446.908	82.25
447.129	90.25
447.35	91.25
447.571	89.25
447.792	85.25
448.013	109.25
448.234	110.25
448.455	105.25
448.675	114.25
448.896	127.25
449.117	96.25
449.338	101.25
449.559	137.25
449.779	138.25
450	89.25
450.221	69.25
450.442	98.25
450.662	91.25
450.883	118.25
451.104	113.25
451.324	101.25
451.545	90.25
451.766	102.25
451.986	101.25
452.207	83.25
452.428	103.25
452.648	100.25
452.869	107.25
453.089	104.25
453.31	126.25
453.53	97.25
453.751	86.25
453.971	105.25
454.192	112.25
454.412	92.25
454.633	86.25
454.853	81.25
455.073	78.25
455.294	85.25
455.514	98.25
455.734	97.25
455.955	90.25
456.175	93.25
456.395	91.25
456.616	90.25
456.836	100.25
457.056	93.25
457.276	81.25
457.497	93.25
457.717	91.25
457.937	81.25
458.157	96.25
458.377	76.25
458.598	113.25
458.818	144.25
459.038	155.25
459.258	120.25
459.478	86.25
459.698	100.25
459.918	89.25
460.138	81.25
460.358	96.25
460.578	98.25
460.798	83.25
461.018	98.25
461.238	97.25
461.458	87.25
461.678	78.25
461.898	98.25
462.118	86.25
462.338	90.25
462.558	80.25
462.777	93.25
462.997	84.25
463.217	88.25
463.437	89.25
463.657	90.25
463.876	78.25
464.096	100.25
464.316	87.25
464.536	92.25
464.755	99.25
464.975	124.25
465.195	158.25
465.414	155.25
465.634	116.25
465.854	82.25
466.073	85.25
466.293	81.25
466.512	96.25
466.732	84.25
466.951	80.25
467.171	86.25
467.391	99.25
467.61	101.25
467.829	96.25
468.049	99.25
468.268	88.25
468.488	82.25
468.707	88.25
468.927	84.25
469.146	85.25
469.365	96.25
469.585	89.25
469.804	85.25
470.023	104.25
470.243	90.25
470.462	94.25
470.681	119.25
470.901	97.25
471.12	99.25
471.339	87.25
471.558	95.25
471.777	86.25
471.997	91.25
472.216	98.25
472.435	103.25
472.654	86.25
472.873	92.25
473.092	95.25
473.311	80.25
473.53	80.25
473.749	90.25
473.968	103.25
474.187	120.25
474.406	100.25
474.625	94.25
474.844	94.25
475.063	92.25
475.282	88.25
475.501	87.25
475.72	109.25
475.939	104.25
476.158	91.25
476.377	63.25
476.596	89.25
476.814	91.25
477.033	93.25
477.252	92.25
477.471	73.25
477.69	89.25
477.908	90.25
478.127	92.25
478.346	85.25
478.564	95.25
478.783	100.25
479.002	103.25
479.22	97.25
479.439	102.25
479.658	101.25
479.876	96.25
480.095	94.25
480.313	90.25
480.532	93.25
480.751	103.25
480.969	96.25
481.188	120.25
481.406	97.25
481.624	76.25
481.843	92.25
482.061	83.25
482.28	78.25
482.498	69.25
482.717	74.25
482.935	88.25
483.153	73.25
483.372	79.25
483.59	101.25
483.808	102.25
484.027	106.25
484.245	101.25
484.463	91.25
484.681	98.25
484.9	98.25
485.118	93.25
485.336	104.25
485.554	97.25
485.772	110.25
485.99	109.25
486.209	116.25
486.427	124.25
486.645	95.25
486.863	100.25
487.081	100.25
487.299	98.25
487.517	113.25
487.735	99.25
487.953	100.25
488.171	94.25
488.389	91.25
488.607	85.25
488.825	87.25
489.043	91.25
489.261	85.25
489.479	84.25
489.696	85.25
489.914	70.25
490.132	92.25
490.35	96.25
490.568	83.25
490.786	89.25
491.003	92.25
491.221	93.25
491.439	82.25
491.657	94.25
491.874	97.25
492.092	103.25
492.31	97.25
492.527	84.25
492.745	88.25
492.963	97.25
493.18	87.25
493.398	100.25
493.615	78.25
493.833	102.25
494.05	83.25
494.268	85.25
494.485	95.25
494.703	97.25
494.92	107.25
495.138	101.25
495.355	88.25
495.573	93.25
495.79	96.25
496.008	97.25
496.225	83.25
496.442	93.25
496.66	90.25
496.877	96.25
497.094	90.25
497.312	100.25
497.529	99.25
497.746	101.25
497.963	109.25
498.181	97.25
498.398	86.25
498.615	113.25
498.832	112.25
499.049	90.25
499.267	86.25
499.484	85.25
499.701	93.25
499.918	114.25
500.135	94.25
500.352	84.25
500.569	83.25
500.786	97.25
501.003	93.25
501.22	91.25
501.437	99.25
501.654	103.25
501.871	105.25
502.088	96.25
502.305	97.25
502.522	90.25
502.739	89.25
502.956	83.25
503.172	86.25
503.389	101.25
503.606	104.25
503.823	94.25
504.04	88.25
504.256	84.25
504.473	97.25
504.69	94.25
504.907	92.25
505.123	95.25
505.34	96.25
505.557	97.25
505.773	102.25
505.99	92.25
506.207	100.25
506.423	82.25
506.64	84.25
506.856	76.25
507.073	93.25
507.289	94.25
507.506	102.25
507.722	109.25
507.939	109.25
508.155	90.25
508.372	101.25
508.588	101.25
508.805	89.25
509.021	95.25
509.238	109.25
509.454	100.25
509.67	125.25
509.887	117.25
510.103	128.25
510.319	206.25
510.536	693.25
510.752	2138.25
510.968	608.25
511.184	156.25
511.401	112.25
511.617	116.25
511.833	97.25
512.049	92.25
512.265	99.25
512.481	92.25
512.698	97.25
512.914	100.25
513.13	91.25
513.346	84.25
513.562	88.25
513.778	93.25
513.994	94.25
514.21	110.25
514.426	118.25
514.642	129.25
514.858	116.25
