Data from Uncirc_1998_H10_HRD10591_00005.txt Node
Date: Wed Jan 03 11:25:25 EST 2024
User: Yrep
Spectrometer: HR+D1059
Trigger mode: 1
Integration Time (sec): 1.000000E-1
Scans to average: 1
Electric dark correction enabled: true
Nonlinearity correction enabled: false
Boxcar width: 0
XAxis mode: Wavelengths
Number of Pixels in Spectrum: 2048
>>>>>Begin Spectral Data<<<<<
223.165	-19.12
223.4	-19.12
223.635	-19.12
223.869	-9.12
224.104	-25.12
224.338	-7.12
224.573	-16.12
224.808	-10.12
225.042	-14.12
225.277	-9.12
225.511	5.88
225.746	0.88
225.98	4.88
226.215	15.88
226.449	9.88
226.683	12.88
226.918	24.88
227.152	34.88
227.387	23.88
227.621	44.88
227.856	32.88
228.09	31.88
228.324	52.88
228.559	47.88
228.793	59.88
229.027	57.88
229.262	74.88
229.496	66.88
229.73	72.88
229.964	85.88
230.199	54.88
230.433	74.88
230.667	65.88
230.901	74.88
231.136	76.88
231.37	71.88
231.604	83.88
231.838	79.88
232.072	79.88
232.306	81.88
232.541	85.88
232.775	80.88
233.009	72.88
233.243	72.88
233.477	79.88
233.711	79.88
233.945	86.88
234.179	78.88
234.413	84.88
234.647	78.88
234.881	79.88
235.115	64.88
235.349	81.88
235.583	75.88
235.817	79.88
236.051	70.88
236.285	86.88
236.519	79.88
236.753	76.88
236.987	74.88
237.221	80.88
237.455	86.88
237.689	79.88
237.922	84.88
238.156	69.88
238.39	65.88
238.624	57.88
238.858	73.88
239.091	71.88
239.325	64.88
239.559	82.88
239.793	79.88
240.027	85.88
240.26	67.88
240.494	74.88
240.728	77.88
240.961	86.88
241.195	77.88
241.429	75.88
241.662	77.88
241.896	86.88
242.13	75.88
242.363	70.88
242.597	76.88
242.83	78.88
243.064	77.88
243.298	79.88
243.531	71.88
243.765	81.88
243.998	63.88
244.232	73.88
244.465	75.88
244.699	77.88
244.932	75.88
245.166	70.88
245.399	87.88
245.633	71.88
245.866	78.88
246.099	69.88
246.333	68.88
246.566	74.88
246.8	79.88
247.033	64.88
247.266	69.88
247.5	69.88
247.733	80.88
247.966	70.88
248.2	75.88
248.433	82.88
248.666	76.88
248.899	86.88
249.133	70.88
249.366	101.88
249.599	75.88
249.832	83.88
250.066	85.88
250.299	79.88
250.532	87.88
250.765	78.88
250.998	84.88
251.231	73.88
251.465	85.88
251.698	71.88
251.931	69.88
252.164	75.88
252.397	72.88
252.63	77.88
252.863	85.88
253.096	81.88
253.329	77.88
253.562	89.88
253.795	74.88
254.028	79.88
254.261	78.88
254.494	76.88
254.727	68.88
254.96	88.88
255.193	92.88
255.426	65.88
255.659	81.88
255.892	91.88
256.124	83.88
256.357	53.88
256.59	86.88
256.823	80.88
257.056	84.88
257.289	71.88
257.521	84.88
257.754	90.88
257.987	89.88
258.22	77.88
258.452	88.88
258.685	78.88
258.918	78.88
259.151	71.88
259.383	83.88
259.616	85.88
259.849	75.88
260.081	86.88
260.314	96.88
260.547	76.88
260.779	78.88
261.012	73.88
261.244	87.88
261.477	68.88
261.71	87.88
261.942	109.88
262.175	105.88
262.407	87.88
262.64	97.88
262.872	88.88
263.105	75.88
263.337	87.88
263.57	90.88
263.802	92.88
264.035	97.88
264.267	80.88
264.499	77.88
264.732	77.88
264.964	81.88
265.197	81.88
265.429	83.88
265.661	81.88
265.894	70.88
266.126	91.88
266.358	81.88
266.591	95.88
266.823	72.88
267.055	64.88
267.287	96.88
267.52	93.88
267.752	88.88
267.984	87.88
268.216	84.88
268.448	84.88
268.681	81.88
268.913	84.88
269.145	81.88
269.377	85.88
269.609	88.88
269.841	92.88
270.073	77.88
270.306	94.88
270.538	90.88
270.77	80.88
271.002	80.88
271.234	75.88
271.466	79.88
271.698	97.88
271.93	78.88
272.162	82.88
272.394	90.88
272.626	72.88
272.858	71.88
273.09	80.88
273.322	81.88
273.553	78.88
273.785	69.88
274.017	74.88
274.249	80.88
274.481	76.88
274.713	90.88
274.945	100.88
275.176	74.88
275.408	78.88
275.64	81.88
275.872	78.88
276.104	85.88
276.335	83.88
276.567	94.88
276.799	112.88
277.031	96.88
277.262	87.88
277.494	76.88
277.726	79.88
277.957	91.88
278.189	77.88
278.421	79.88
278.652	82.88
278.884	76.88
279.115	88.88
279.347	95.88
279.579	97.88
279.81	91.88
280.042	81.88
280.273	92.88
280.505	89.88
280.736	101.88
280.968	88.88
281.199	86.88
281.431	87.88
281.662	98.88
281.894	99.88
282.125	91.88
282.356	106.88
282.588	108.88
282.819	96.88
283.051	97.88
283.282	88.88
283.513	83.88
283.745	93.88
283.976	77.88
284.207	77.88
284.439	94.88
284.67	79.88
284.901	70.88
285.132	91.88
285.364	77.88
285.595	86.88
285.826	105.88
286.057	86.88
286.288	83.88
286.52	80.88
286.751	90.88
286.982	79.88
287.213	83.88
287.444	97.88
287.675	88.88
287.906	78.88
288.138	89.88
288.369	79.88
288.6	93.88
288.831	84.88
289.062	90.88
289.293	89.88
289.524	83.88
289.755	98.88
289.986	88.88
290.217	91.88
290.448	88.88
290.679	86.88
290.91	83.88
291.141	73.88
291.371	91.88
291.602	70.88
291.833	81.88
292.064	85.88
292.295	79.88
292.526	84.88
292.757	84.88
292.987	86.88
293.218	77.88
293.449	78.88
293.68	95.88
293.91	82.88
294.141	85.88
294.372	91.88
294.603	77.88
294.833	86.88
295.064	77.88
295.295	97.88
295.525	85.88
295.756	107.88
295.987	104.88
296.217	107.88
296.448	119.88
296.679	97.88
296.909	88.88
297.14	76.88
297.37	79.88
297.601	71.88
297.831	78.88
298.062	78.88
298.292	76.88
298.523	94.88
298.753	96.88
298.984	86.88
299.214	95.88
299.445	78.88
299.675	89.88
299.905	99.88
300.136	86.88
300.366	81.88
300.597	88.88
300.827	89.88
301.057	95.88
301.288	96.88
301.518	71.88
301.748	85.88
301.979	103.88
302.209	85.88
302.439	72.88
302.669	88.88
302.9	90.88
303.13	91.88
303.36	99.88
303.59	95.88
303.82	107.88
304.051	104.88
304.281	76.88
304.511	84.88
304.741	92.88
304.971	74.88
305.201	90.88
305.431	88.88
305.661	88.88
305.891	75.88
306.121	92.88
306.352	104.88
306.582	97.88
306.812	91.88
307.042	91.88
307.272	90.88
307.502	89.88
307.731	97.88
307.961	83.88
308.191	84.88
308.421	96.88
308.651	88.88
308.881	77.88
309.111	89.88
309.341	90.88
309.571	109.88
309.8	86.88
310.03	101.88
310.26	88.88
310.49	96.88
310.72	96.88
310.949	79.88
311.179	100.88
311.409	90.88
311.639	82.88
311.868	102.88
312.098	96.88
312.328	97.88
312.557	100.88
312.787	103.88
313.017	100.88
313.246	85.88
313.476	95.88
313.706	99.88
313.935	95.88
314.165	85.88
314.394	99.88
314.624	97.88
314.853	98.88
315.083	85.88
315.312	81.88
315.542	91.88
315.771	92.88
316.001	87.88
316.23	93.88
316.46	84.88
316.689	94.88
316.919	83.88
317.148	96.88
317.377	100.88
317.607	78.88
317.836	95.88
318.065	91.88
318.295	104.88
318.524	78.88
318.753	81.88
318.983	94.88
319.212	101.88
319.441	103.88
319.67	98.88
319.9	84.88
320.129	88.88
320.358	78.88
320.587	89.88
320.816	103.88
321.046	80.88
321.275	101.88
321.504	102.88
321.733	97.88
321.962	100.88
322.191	87.88
322.42	99.88
322.649	105.88
322.878	114.88
323.108	106.88
323.337	118.88
323.566	120.88
323.795	147.88
324.024	196.88
324.253	355.88
324.482	751.88
324.71	1523.88
324.939	2012.88
325.168	754.88
325.397	223.88
325.626	139.88
325.855	119.88
326.084	127.88
326.313	128.88
326.542	169.88
326.77	227.88
326.999	422.88
327.228	869.88
327.457	1597.88
327.686	1260.88
327.914	367.88
328.143	199.88
328.372	162.88
328.6	115.88
328.829	111.88
329.058	127.88
329.287	110.88
329.515	102.88
329.744	94.88
329.972	92.88
330.201	97.88
330.43	117.88
330.658	103.88
330.887	112.88
331.115	106.88
331.344	109.88
331.572	86.88
331.801	88.88
332.03	107.88
332.258	102.88
332.486	86.88
332.715	100.88
332.943	73.88
333.172	97.88
333.4	71.88
333.629	96.88
333.857	98.88
334.085	101.88
334.314	89.88
334.542	101.88
334.771	107.88
334.999	86.88
335.227	87.88
335.455	75.88
335.684	92.88
335.912	101.88
336.14	95.88
336.369	102.88
336.597	98.88
336.825	78.88
337.053	90.88
337.281	81.88
337.51	98.88
337.738	103.88
337.966	80.88
338.194	112.88
338.422	111.88
338.65	108.88
338.878	101.88
339.106	95.88
339.334	88.88
339.562	84.88
339.79	89.88
340.018	86.88
340.246	91.88
340.474	104.88
340.702	85.88
340.93	91.88
341.158	81.88
341.386	85.88
341.614	84.88
341.842	88.88
342.07	115.88
342.298	92.88
342.526	83.88
342.754	81.88
342.981	86.88
343.209	68.88
343.437	93.88
343.665	87.88
343.893	82.88
344.12	77.88
344.348	88.88
344.576	92.88
344.804	74.88
345.031	89.88
345.259	86.88
345.487	94.88
345.714	86.88
345.942	104.88
346.17	99.88
346.397	87.88
346.625	102.88
346.853	96.88
347.08	78.88
347.308	79.88
347.535	86.88
347.763	90.88
347.99	92.88
348.218	95.88
348.445	99.88
348.673	101.88
348.9	95.88
349.128	98.88
349.355	93.88
349.583	90.88
349.81	91.88
350.037	88.88
350.265	76.88
350.492	90.88
350.72	84.88
350.947	94.88
351.174	95.88
351.402	115.88
351.629	96.88
351.856	98.88
352.083	99.88
352.311	100.88
352.538	99.88
352.765	100.88
352.992	109.88
353.22	107.88
353.447	103.88
353.674	105.88
353.901	96.88
354.128	88.88
354.355	99.88
354.583	110.88
354.81	97.88
355.037	104.88
355.264	89.88
355.491	92.88
355.718	79.88
355.945	103.88
356.172	105.88
356.399	95.88
356.626	92.88
356.853	83.88
357.08	87.88
357.307	99.88
357.534	83.88
357.761	86.88
357.988	99.88
358.215	110.88
358.441	88.88
358.668	100.88
358.895	96.88
359.122	100.88
359.349	85.88
359.576	103.88
359.802	104.88
360.029	92.88
360.256	104.88
360.483	88.88
360.709	78.88
360.936	84.88
361.163	93.88
361.39	97.88
361.616	87.88
361.843	85.88
362.07	89.88
362.296	82.88
362.523	100.88
362.749	76.88
362.976	80.88
363.203	91.88
363.429	83.88
363.656	85.88
363.882	96.88
364.109	84.88
364.335	85.88
364.562	97.88
364.788	89.88
365.015	106.88
365.241	109.88
365.468	92.88
365.694	94.88
365.92	108.88
366.147	100.88
366.373	89.88
366.599	86.88
366.826	76.88
367.052	98.88
367.278	87.88
367.505	93.88
367.731	77.88
367.957	93.88
368.184	80.88
368.41	108.88
368.636	99.88
368.862	109.88
369.089	95.88
369.315	92.88
369.541	82.88
369.767	93.88
369.993	71.88
370.219	104.88
370.445	92.88
370.672	69.88
370.898	80.88
371.124	92.88
371.35	97.88
371.576	96.88
371.802	93.88
372.028	80.88
372.254	87.88
372.48	86.88
372.706	87.88
372.932	85.88
373.158	99.88
373.384	79.88
373.61	91.88
373.835	71.88
374.061	84.88
374.287	91.88
374.513	88.88
374.739	81.88
374.965	99.88
375.191	83.88
375.416	83.88
375.642	97.88
375.868	100.88
376.094	100.88
376.319	92.88
376.545	84.88
376.771	77.88
376.997	96.88
377.222	84.88
377.448	88.88
377.674	91.88
377.899	91.88
378.125	101.88
378.35	103.88
378.576	89.88
378.802	88.88
379.027	103.88
379.253	75.88
379.478	90.88
379.704	93.88
379.929	96.88
380.155	86.88
380.38	81.88
380.606	81.88
380.831	93.88
381.057	84.88
381.282	92.88
381.507	94.88
381.733	89.88
381.958	86.88
382.184	96.88
382.409	104.88
382.634	95.88
382.86	89.88
383.085	103.88
383.31	113.88
383.535	87.88
383.761	99.88
383.986	104.88
384.211	85.88
384.436	95.88
384.662	100.88
384.887	102.88
385.112	113.88
385.337	110.88
385.562	98.88
385.787	99.88
386.013	104.88
386.238	110.88
386.463	91.88
386.688	99.88
386.913	112.88
387.138	102.88
387.363	99.88
387.588	104.88
387.813	85.88
388.038	97.88
388.263	103.88
388.488	103.88
388.713	94.88
388.938	110.88
389.163	96.88
389.387	77.88
389.612	92.88
389.837	92.88
390.062	100.88
390.287	88.88
390.512	98.88
390.736	86.88
390.961	96.88
391.186	80.88
391.411	88.88
391.636	89.88
391.86	90.88
392.085	85.88
392.31	82.88
392.534	78.88
392.759	91.88
392.984	84.88
393.208	98.88
393.433	99.88
393.658	93.88
393.882	83.88
394.107	79.88
394.331	88.88
394.556	62.88
394.78	88.88
395.005	88.88
395.229	95.88
395.454	93.88
395.678	99.88
395.903	94.88
396.127	95.88
396.352	81.88
396.576	78.88
396.801	81.88
397.025	94.88
397.249	91.88
397.474	89.88
397.698	79.88
397.922	77.88
398.147	78.88
398.371	81.88
398.595	87.88
398.82	80.88
399.044	67.88
399.268	83.88
399.492	91.88
399.717	86.88
399.941	90.88
400.165	89.88
400.389	73.88
400.613	78.88
400.837	87.88
401.062	99.88
401.286	92.88
401.51	93.88
401.734	95.88
401.958	98.88
402.182	106.88
402.406	137.88
402.63	111.88
402.854	96.88
403.078	86.88
403.302	87.88
403.526	73.88
403.75	85.88
403.974	77.88
404.198	83.88
404.422	93.88
404.645	96.88
404.869	87.88
405.093	93.88
405.317	101.88
405.541	88.88
405.765	107.88
405.988	106.88
406.212	138.88
406.436	176.88
406.66	126.88
406.883	92.88
407.107	103.88
407.331	94.88
407.555	89.88
407.778	97.88
408.002	93.88
408.226	89.88
408.449	81.88
408.673	85.88
408.896	88.88
409.12	88.88
409.344	110.88
409.567	96.88
409.791	87.88
410.014	77.88
410.238	83.88
410.461	93.88
410.685	95.88
410.908	97.88
411.132	92.88
411.355	99.88
411.578	88.88
411.802	89.88
412.025	100.88
412.249	104.88
412.472	84.88
412.695	94.88
412.919	104.88
413.142	88.88
413.365	94.88
413.589	88.88
413.812	97.88
414.035	86.88
414.258	87.88
414.482	67.88
414.705	84.88
414.928	87.88
415.151	87.88
415.374	88.88
415.597	95.88
415.821	91.88
416.044	85.88
416.267	85.88
416.49	95.88
416.713	93.88
416.936	81.88
417.159	71.88
417.382	86.88
417.605	82.88
417.828	85.88
418.051	96.88
418.274	91.88
418.497	71.88
418.72	90.88
418.943	94.88
419.166	87.88
419.389	83.88
419.611	81.88
419.834	78.88
420.057	93.88
420.28	105.88
420.503	81.88
420.726	92.88
420.948	88.88
421.171	91.88
421.394	84.88
421.617	107.88
421.839	87.88
422.062	77.88
422.285	84.88
422.507	103.88
422.73	86.88
422.953	89.88
423.175	91.88
423.398	79.88
423.621	92.88
423.843	84.88
424.066	85.88
424.288	85.88
424.511	90.88
424.733	87.88
424.956	102.88
425.178	100.88
425.401	101.88
425.623	104.88
425.846	87.88
426.068	89.88
426.291	91.88
426.513	85.88
426.735	95.88
426.958	106.88
427.18	111.88
427.402	123.88
427.625	143.88
427.847	116.88
428.069	109.88
428.292	92.88
428.514	79.88
428.736	89.88
428.958	79.88
429.181	80.88
429.403	82.88
429.625	89.88
429.847	87.88
430.069	100.88
430.292	97.88
430.514	91.88
430.736	79.88
430.958	87.88
431.18	80.88
431.402	84.88
431.624	90.88
431.846	70.88
432.068	73.88
432.29	79.88
432.512	86.88
432.734	94.88
432.956	82.88
433.178	88.88
433.4	78.88
433.622	78.88
433.844	85.88
434.066	82.88
434.287	95.88
434.509	81.88
434.731	80.88
434.953	79.88
435.175	96.88
435.397	87.88
435.618	83.88
435.84	98.88
436.062	112.88
436.284	89.88
436.505	102.88
436.727	107.88
436.949	93.88
437.17	83.88
437.392	83.88
437.614	80.88
437.835	90.88
438.057	105.88
438.278	113.88
438.5	101.88
438.721	108.88
438.943	93.88
439.165	99.88
439.386	73.88
439.608	95.88
439.829	92.88
440.05	104.88
440.272	127.88
440.493	88.88
440.715	91.88
440.936	85.88
441.158	85.88
441.379	78.88
441.6	95.88
441.822	88.88
442.043	95.88
442.264	96.88
442.486	101.88
442.707	102.88
442.928	93.88
443.149	112.88
443.371	109.88
443.592	118.88
443.813	103.88
444.034	98.88
444.255	85.88
444.476	89.88
444.698	88.88
444.919	88.88
445.14	119.88
445.361	121.88
445.582	116.88
445.803	114.88
446.024	134.88
446.245	123.88
446.466	108.88
446.687	88.88
446.908	93.88
447.129	74.88
447.35	93.88
447.571	88.88
447.792	92.88
448.013	100.88
448.234	98.88
448.455	75.88
448.675	112.88
448.896	105.88
449.117	105.88
449.338	108.88
449.559	117.88
449.779	128.88
450	96.88
450.221	73.88
450.442	80.88
450.662	91.88
450.883	89.88
451.104	100.88
451.324	92.88
451.545	88.88
451.766	85.88
451.986	103.88
452.207	92.88
452.428	86.88
452.648	107.88
452.869	107.88
453.089	101.88
453.31	111.88
453.53	111.88
453.751	96.88
453.971	95.88
454.192	97.88
454.412	85.88
454.633	88.88
454.853	81.88
455.073	78.88
455.294	84.88
455.514	87.88
455.734	81.88
455.955	87.88
456.175	76.88
456.395	90.88
456.616	76.88
456.836	78.88
457.056	88.88
457.276	87.88
457.497	86.88
457.717	84.88
457.937	70.88
458.157	84.88
458.377	68.88
458.598	96.88
458.818	131.88
459.038	127.88
459.258	95.88
459.478	86.88
459.698	92.88
459.918	99.88
460.138	94.88
460.358	93.88
460.578	95.88
460.798	78.88
461.018	81.88
461.238	86.88
461.458	87.88
461.678	72.88
461.898	87.88
462.118	88.88
462.338	83.88
462.558	83.88
462.777	87.88
462.997	77.88
463.217	79.88
463.437	86.88
463.657	80.88
463.876	96.88
464.096	94.88
464.316	79.88
464.536	83.88
464.755	85.88
464.975	105.88
465.195	138.88
465.414	124.88
465.634	81.88
465.854	83.88
466.073	92.88
466.293	83.88
466.512	84.88
466.732	77.88
466.951	86.88
467.171	88.88
467.391	97.88
467.61	108.88
467.829	80.88
468.049	95.88
468.268	101.88
468.488	79.88
468.707	74.88
468.927	89.88
469.146	69.88
469.365	65.88
469.585	81.88
469.804	103.88
470.023	96.88
470.243	80.88
470.462	95.88
470.681	101.88
470.901	84.88
471.12	75.88
471.339	88.88
471.558	87.88
471.777	87.88
471.997	89.88
472.216	86.88
472.435	81.88
472.654	81.88
472.873	84.88
473.092	85.88
473.311	88.88
473.53	78.88
473.749	84.88
473.968	97.88
474.187	83.88
474.406	87.88
474.625	91.88
474.844	101.88
475.063	92.88
475.282	89.88
475.501	90.88
475.72	94.88
475.939	84.88
476.158	85.88
476.377	67.88
476.596	78.88
476.814	101.88
477.033	98.88
477.252	89.88
477.471	81.88
477.69	89.88
477.908	85.88
478.127	84.88
478.346	83.88
478.564	81.88
478.783	78.88
479.002	82.88
479.22	97.88
479.439	103.88
479.658	92.88
479.876	102.88
480.095	83.88
480.313	83.88
480.532	83.88
480.751	98.88
480.969	98.88
481.188	103.88
481.406	87.88
481.624	82.88
481.843	97.88
482.061	88.88
482.28	86.88
482.498	91.88
482.717	82.88
482.935	81.88
483.153	77.88
483.372	92.88
483.59	79.88
483.808	85.88
484.027	73.88
484.245	78.88
484.463	82.88
484.681	89.88
484.9	88.88
485.118	97.88
485.336	101.88
485.554	95.88
485.772	93.88
485.99	95.88
486.209	99.88
486.427	96.88
486.645	110.88
486.863	101.88
487.081	100.88
487.299	105.88
487.517	90.88
487.735	103.88
487.953	86.88
488.171	99.88
488.389	97.88
488.607	102.88
488.825	93.88
489.043	86.88
489.261	84.88
489.479	82.88
489.696	91.88
489.914	85.88
490.132	92.88
490.35	89.88
490.568	90.88
490.786	81.88
491.003	75.88
491.221	75.88
491.439	76.88
491.657	85.88
491.874	88.88
492.092	98.88
492.31	81.88
492.527	79.88
492.745	88.88
492.963	93.88
493.18	91.88
493.398	88.88
493.615	95.88
493.833	94.88
494.05	98.88
494.268	79.88
494.485	88.88
494.703	87.88
494.92	84.88
495.138	77.88
495.355	86.88
495.573	95.88
495.79	91.88
496.008	92.88
496.225	69.88
496.442	81.88
496.66	108.88
496.877	83.88
497.094	87.88
497.312	82.88
497.529	91.88
497.746	77.88
497.963	98.88
498.181	93.88
498.398	85.88
498.615	112.88
498.832	96.88
499.049	91.88
499.267	86.88
499.484	79.88
499.701	85.88
499.918	90.88
500.135	84.88
500.352	91.88
500.569	90.88
500.786	74.88
501.003	76.88
501.22	84.88
501.437	79.88
501.654	89.88
501.871	90.88
502.088	85.88
502.305	95.88
502.522	97.88
502.739	86.88
502.956	94.88
503.172	99.88
503.389	96.88
503.606	98.88
503.823	96.88
504.04	84.88
504.256	88.88
504.473	84.88
504.69	99.88
504.907	92.88
505.123	89.88
505.34	71.88
505.557	95.88
505.773	84.88
505.99	85.88
506.207	92.88
506.423	85.88
506.64	88.88
506.856	79.88
507.073	95.88
507.289	95.88
507.506	91.88
507.722	103.88
507.939	107.88
508.155	84.88
508.372	91.88
508.588	92.88
508.805	91.88
509.021	97.88
509.238	94.88
509.454	97.88
509.67	102.88
509.887	102.88
510.103	112.88
510.319	181.88
510.536	599.88
510.752	1778.88
510.968	500.88
511.184	133.88
511.401	103.88
511.617	100.88
511.833	95.88
512.049	80.88
512.265	79.88
512.481	97.88
512.698	88.88
512.914	99.88
513.13	89.88
513.346	85.88
513.562	96.88
513.778	83.88
513.994	84.88
514.21	84.88
514.426	103.88
514.642	112.88
514.858	117.88
515.074	149.88
515.29	338.88
515.506	1092.88
515.721	390.88
515.937	126.88
516.153	113.88
516.369	105.88
516.585	81.88
