Data from Uncirc_1998_H10_HRD10591_00021.txt Node
Date: Wed Jan 03 11:25:29 EST 2024
User: Yrep
Spectrometer: HR+D1059
Trigger mode: 1
Integration Time (sec): 1.000000E-1
Scans to average: 1
Electric dark correction enabled: true
Nonlinearity correction enabled: false
Boxcar width: 0
XAxis mode: Wavelengths
Number of Pixels in Spectrum: 2048
>>>>>Begin Spectral Data<<<<<
223.165	-3.31
223.4	-3.31
223.635	-3.31
223.869	-17.31
224.104	-8.31
224.338	-26.31
224.573	-9.31
224.808	-21.31
225.042	-16.31
225.277	-10.31
225.511	-0.31
225.746	1.69
225.98	5.69
226.215	-2.31
226.449	24.69
226.683	31.69
226.918	35.69
227.152	15.69
227.387	38.69
227.621	42.69
227.856	39.69
228.09	65.69
228.324	48.69
228.559	55.69
228.793	58.69
229.027	56.69
229.262	67.69
229.496	75.69
229.73	85.69
229.964	61.69
230.199	74.69
230.433	73.69
230.667	86.69
230.901	81.69
231.136	85.69
231.37	71.69
231.604	77.69
231.838	80.69
232.072	78.69
232.306	83.69
232.541	76.69
232.775	80.69
233.009	83.69
233.243	93.69
233.477	94.69
233.711	90.69
233.945	79.69
234.179	83.69
234.413	82.69
234.647	77.69
234.881	79.69
235.115	78.69
235.349	86.69
235.583	81.69
235.817	75.69
236.051	74.69
236.285	79.69
236.519	72.69
236.753	77.69
236.987	73.69
237.221	84.69
237.455	90.69
237.689	86.69
237.922	83.69
238.156	87.69
238.39	77.69
238.624	70.69
238.858	67.69
239.091	71.69
239.325	83.69
239.559	85.69
239.793	95.69
240.027	86.69
240.26	76.69
240.494	73.69
240.728	87.69
240.961	73.69
241.195	74.69
241.429	83.69
241.662	77.69
241.896	83.69
242.13	84.69
242.363	84.69
242.597	78.69
242.83	93.69
243.064	75.69
243.298	81.69
243.531	83.69
243.765	90.69
243.998	82.69
244.232	66.69
244.465	87.69
244.699	85.69
244.932	77.69
245.166	73.69
245.399	79.69
245.633	76.69
245.866	82.69
246.099	83.69
246.333	80.69
246.566	85.69
246.8	82.69
247.033	82.69
247.266	77.69
247.5	69.69
247.733	69.69
247.966	76.69
248.2	65.69
248.433	89.69
248.666	86.69
248.899	90.69
249.133	81.69
249.366	96.69
249.599	90.69
249.832	81.69
250.066	79.69
250.299	72.69
250.532	73.69
250.765	93.69
250.998	87.69
251.231	80.69
251.465	77.69
251.698	73.69
251.931	85.69
252.164	85.69
252.397	79.69
252.63	77.69
252.863	71.69
253.096	85.69
253.329	85.69
253.562	95.69
253.795	78.69
254.028	89.69
254.261	75.69
254.494	75.69
254.727	95.69
254.96	89.69
255.193	70.69
255.426	80.69
255.659	66.69
255.892	92.69
256.124	88.69
256.357	77.69
256.59	80.69
256.823	78.69
257.056	94.69
257.289	91.69
257.521	78.69
257.754	86.69
257.987	75.69
258.22	84.69
258.452	59.69
258.685	84.69
258.918	89.69
259.151	97.69
259.383	72.69
259.616	77.69
259.849	71.69
260.081	81.69
260.314	72.69
260.547	77.69
260.779	79.69
261.012	86.69
261.244	86.69
261.477	86.69
261.71	97.69
261.942	90.69
262.175	103.69
262.407	85.69
262.64	90.69
262.872	94.69
263.105	96.69
263.337	103.69
263.57	83.69
263.802	87.69
264.035	82.69
264.267	68.69
264.499	79.69
264.732	89.69
264.964	87.69
265.197	101.69
265.429	84.69
265.661	85.69
265.894	89.69
266.126	89.69
266.358	78.69
266.591	81.69
266.823	83.69
267.055	91.69
267.287	53.69
267.52	93.69
267.752	90.69
267.984	81.69
268.216	73.69
268.448	73.69
268.681	83.69
268.913	74.69
269.145	82.69
269.377	94.69
269.609	81.69
269.841	94.69
270.073	97.69
270.306	85.69
270.538	77.69
270.77	88.69
271.002	84.69
271.234	80.69
271.466	82.69
271.698	88.69
271.93	82.69
272.162	92.69
272.394	91.69
272.626	75.69
272.858	89.69
273.09	90.69
273.322	79.69
273.553	92.69
273.785	96.69
274.017	92.69
274.249	90.69
274.481	80.69
274.713	97.69
274.945	81.69
275.176	95.69
275.408	98.69
275.64	103.69
275.872	73.69
276.104	83.69
276.335	99.69
276.567	96.69
276.799	104.69
277.031	80.69
277.262	93.69
277.494	99.69
277.726	87.69
277.957	74.69
278.189	74.69
278.421	93.69
278.652	91.69
278.884	91.69
279.115	85.69
279.347	77.69
279.579	79.69
279.81	90.69
280.042	86.69
280.273	76.69
280.505	81.69
280.736	83.69
280.968	92.69
281.199	81.69
281.431	69.69
281.662	86.69
281.894	87.69
282.125	98.69
282.356	105.69
282.588	129.69
282.819	102.69
283.051	89.69
283.282	77.69
283.513	85.69
283.745	78.69
283.976	89.69
284.207	94.69
284.439	85.69
284.67	88.69
284.901	78.69
285.132	81.69
285.364	86.69
285.595	94.69
285.826	93.69
286.057	86.69
286.288	96.69
286.52	85.69
286.751	64.69
286.982	83.69
287.213	81.69
287.444	77.69
287.675	96.69
287.906	91.69
288.138	86.69
288.369	81.69
288.6	85.69
288.831	86.69
289.062	84.69
289.293	82.69
289.524	88.69
289.755	78.69
289.986	77.69
290.217	79.69
290.448	72.69
290.679	92.69
290.91	79.69
291.141	75.69
291.371	88.69
291.602	90.69
291.833	89.69
292.064	71.69
292.295	89.69
292.526	85.69
292.757	78.69
292.987	91.69
293.218	90.69
293.449	83.69
293.68	82.69
293.91	87.69
294.141	85.69
294.372	92.69
294.603	79.69
294.833	79.69
295.064	96.69
295.295	74.69
295.525	70.69
295.756	91.69
295.987	107.69
296.217	128.69
296.448	102.69
296.679	91.69
296.909	92.69
297.14	90.69
297.37	93.69
297.601	97.69
297.831	91.69
298.062	92.69
298.292	98.69
298.523	95.69
298.753	82.69
298.984	77.69
299.214	79.69
299.445	98.69
299.675	95.69
299.905	96.69
300.136	95.69
300.366	88.69
300.597	93.69
300.827	98.69
301.057	97.69
301.288	79.69
301.518	83.69
301.748	80.69
301.979	114.69
302.209	93.69
302.439	87.69
302.669	78.69
302.9	75.69
303.13	81.69
303.36	86.69
303.59	107.69
303.82	101.69
304.051	98.69
304.281	90.69
304.511	92.69
304.741	104.69
304.971	57.69
305.201	92.69
305.431	90.69
305.661	90.69
305.891	93.69
306.121	89.69
306.352	102.69
306.582	93.69
306.812	97.69
307.042	104.69
307.272	90.69
307.502	101.69
307.731	89.69
307.961	93.69
308.191	88.69
308.421	87.69
308.651	103.69
308.881	94.69
309.111	90.69
309.341	84.69
309.571	98.69
309.8	103.69
310.03	102.69
310.26	84.69
310.49	88.69
310.72	98.69
310.949	94.69
311.179	80.69
311.409	88.69
311.639	77.69
311.868	94.69
312.098	89.69
312.328	93.69
312.557	94.69
312.787	98.69
313.017	79.69
313.246	93.69
313.476	95.69
313.706	104.69
313.935	93.69
314.165	89.69
314.394	98.69
314.624	97.69
314.853	82.69
315.083	91.69
315.312	87.69
315.542	87.69
315.771	100.69
316.001	88.69
316.23	94.69
316.46	79.69
316.689	90.69
316.919	98.69
317.148	98.69
317.377	87.69
317.607	107.69
317.836	85.69
318.065	87.69
318.295	99.69
318.524	97.69
318.753	94.69
318.983	81.69
319.212	91.69
319.441	99.69
319.67	100.69
319.9	79.69
320.129	92.69
320.358	80.69
320.587	93.69
320.816	96.69
321.046	105.69
321.275	107.69
321.504	100.69
321.733	109.69
321.962	94.69
322.191	104.69
322.42	105.69
322.649	94.69
322.878	110.69
323.108	98.69
323.337	122.69
323.566	122.69
323.795	152.69
324.024	192.69
324.253	347.69
324.482	701.69
324.71	1433.69
324.939	1801.69
325.168	677.69
325.397	205.69
325.626	141.69
325.855	126.69
326.084	114.69
326.313	129.69
326.542	140.69
326.77	213.69
326.999	407.69
327.228	829.69
327.457	1461.69
327.686	1169.69
327.914	350.69
328.143	199.69
328.372	153.69
328.6	122.69
328.829	117.69
329.058	108.69
329.287	101.69
329.515	98.69
329.744	103.69
329.972	100.69
330.201	109.69
330.43	107.69
330.658	106.69
330.887	119.69
331.115	127.69
331.344	99.69
331.572	91.69
331.801	89.69
332.03	91.69
332.258	90.69
332.486	96.69
332.715	101.69
332.943	80.69
333.172	70.69
333.4	106.69
333.629	98.69
333.857	95.69
334.085	99.69
334.314	95.69
334.542	91.69
334.771	97.69
334.999	88.69
335.227	103.69
335.455	94.69
335.684	96.69
335.912	79.69
336.14	93.69
336.369	91.69
336.597	89.69
336.825	82.69
337.053	98.69
337.281	78.69
337.51	81.69
337.738	101.69
337.966	101.69
338.194	111.69
338.422	95.69
338.65	97.69
338.878	88.69
339.106	106.69
339.334	74.69
339.562	94.69
339.79	88.69
340.018	86.69
340.246	92.69
340.474	94.69
340.702	98.69
340.93	96.69
341.158	89.69
341.386	99.69
341.614	110.69
341.842	97.69
342.07	73.69
342.298	102.69
342.526	95.69
342.754	103.69
342.981	79.69
343.209	90.69
343.437	98.69
343.665	83.69
343.893	87.69
344.12	83.69
344.348	87.69
344.576	101.69
344.804	95.69
345.031	102.69
345.259	91.69
345.487	85.69
345.714	116.69
345.942	91.69
346.17	89.69
346.397	103.69
346.625	103.69
346.853	95.69
347.08	83.69
347.308	96.69
347.535	89.69
347.763	91.69
347.99	109.69
348.218	101.69
348.445	90.69
348.673	99.69
348.9	104.69
349.128	105.69
349.355	86.69
349.583	102.69
349.81	106.69
350.037	94.69
350.265	93.69
350.492	94.69
350.72	91.69
350.947	106.69
351.174	86.69
351.402	100.69
351.629	103.69
351.856	96.69
352.083	97.69
352.311	102.69
352.538	115.69
352.765	110.69
352.992	101.69
353.22	104.69
353.447	105.69
353.674	115.69
353.901	79.69
354.128	103.69
354.355	95.69
354.583	85.69
354.81	94.69
355.037	90.69
355.264	102.69
355.491	88.69
355.718	99.69
355.945	98.69
356.172	99.69
356.399	109.69
356.626	100.69
356.853	82.69
357.08	90.69
357.307	90.69
357.534	89.69
357.761	97.69
357.988	87.69
358.215	111.69
358.441	82.69
358.668	90.69
358.895	89.69
359.122	85.69
359.349	85.69
359.576	109.69
359.802	105.69
360.029	103.69
360.256	97.69
360.483	100.69
360.709	75.69
360.936	88.69
361.163	69.69
361.39	101.69
361.616	93.69
361.843	85.69
362.07	94.69
362.296	88.69
362.523	89.69
362.749	85.69
362.976	87.69
363.203	98.69
363.429	89.69
363.656	89.69
363.882	90.69
364.109	85.69
364.335	89.69
364.562	75.69
364.788	71.69
365.015	93.69
365.241	102.69
365.468	101.69
365.694	94.69
365.92	89.69
366.147	92.69
366.373	95.69
366.599	92.69
366.826	83.69
367.052	95.69
367.278	96.69
367.505	92.69
367.731	97.69
367.957	89.69
368.184	106.69
368.41	99.69
368.636	97.69
368.862	108.69
369.089	95.69
369.315	89.69
369.541	97.69
369.767	85.69
369.993	97.69
370.219	95.69
370.445	90.69
370.672	81.69
370.898	90.69
371.124	85.69
371.35	80.69
371.576	67.69
371.802	65.69
372.028	74.69
372.254	86.69
372.48	82.69
372.706	91.69
372.932	99.69
373.158	77.69
373.384	103.69
373.61	91.69
373.835	78.69
374.061	99.69
374.287	93.69
374.513	87.69
374.739	89.69
374.965	79.69
375.191	81.69
375.416	102.69
375.642	101.69
375.868	92.69
376.094	88.69
376.319	72.69
376.545	93.69
376.771	79.69
376.997	108.69
377.222	94.69
377.448	84.69
377.674	89.69
377.899	90.69
378.125	87.69
378.35	104.69
378.576	84.69
378.802	100.69
379.027	89.69
379.253	88.69
379.478	96.69
379.704	82.69
379.929	93.69
380.155	106.69
380.38	94.69
380.606	93.69
380.831	97.69
381.057	94.69
381.282	88.69
381.507	87.69
381.733	91.69
381.958	100.69
382.184	87.69
382.409	96.69
382.634	89.69
382.86	85.69
383.085	100.69
383.31	94.69
383.535	98.69
383.761	101.69
383.986	102.69
384.211	97.69
384.436	80.69
384.662	91.69
384.887	93.69
385.112	108.69
385.337	113.69
385.562	87.69
385.787	95.69
386.013	103.69
386.238	97.69
386.463	100.69
386.688	99.69
386.913	94.69
387.138	102.69
387.363	102.69
387.588	101.69
387.813	111.69
388.038	111.69
388.263	101.69
388.488	102.69
388.713	86.69
388.938	86.69
389.163	90.69
389.387	92.69
389.612	74.69
389.837	97.69
390.062	87.69
390.287	94.69
390.512	86.69
390.736	99.69
390.961	82.69
391.186	95.69
391.411	94.69
391.636	86.69
391.86	71.69
392.085	89.69
392.31	78.69
392.534	83.69
392.759	80.69
392.984	85.69
393.208	91.69
393.433	82.69
393.658	90.69
393.882	84.69
394.107	86.69
394.331	83.69
394.556	86.69
394.78	87.69
395.005	90.69
395.229	82.69
395.454	87.69
395.678	94.69
395.903	84.69
396.127	92.69
396.352	86.69
396.576	66.69
396.801	86.69
397.025	77.69
397.249	77.69
397.474	86.69
397.698	82.69
397.922	96.69
398.147	80.69
398.371	82.69
398.595	90.69
398.82	97.69
399.044	73.69
399.268	86.69
399.492	91.69
399.717	82.69
399.941	97.69
400.165	93.69
400.389	90.69
400.613	85.69
400.837	88.69
401.062	105.69
401.286	95.69
401.51	93.69
401.734	98.69
401.958	96.69
402.182	118.69
402.406	124.69
402.63	106.69
402.854	97.69
403.078	90.69
403.302	95.69
403.526	91.69
403.75	86.69
403.974	83.69
404.198	86.69
404.422	92.69
404.645	81.69
404.869	98.69
405.093	93.69
405.317	86.69
405.541	93.69
405.765	96.69
405.988	98.69
406.212	157.69
406.436	181.69
406.66	115.69
406.883	87.69
407.107	101.69
407.331	93.69
407.555	94.69
407.778	93.69
408.002	81.69
408.226	91.69
408.449	88.69
408.673	97.69
408.896	105.69
409.12	92.69
409.344	87.69
409.567	79.69
409.791	93.69
410.014	92.69
410.238	91.69
410.461	97.69
410.685	93.69
410.908	91.69
411.132	76.69
411.355	89.69
411.578	87.69
411.802	80.69
412.025	83.69
412.249	95.69
412.472	87.69
412.695	76.69
412.919	84.69
413.142	89.69
413.365	98.69
413.589	94.69
413.812	97.69
414.035	89.69
414.258	91.69
414.482	97.69
414.705	93.69
414.928	99.69
415.151	109.69
415.374	85.69
415.597	79.69
415.821	94.69
416.044	89.69
416.267	83.69
416.49	79.69
416.713	75.69
416.936	85.69
417.159	87.69
417.382	93.69
417.605	89.69
417.828	92.69
418.051	87.69
418.274	93.69
418.497	91.69
418.72	96.69
418.943	82.69
419.166	85.69
419.389	104.69
419.611	86.69
419.834	81.69
420.057	94.69
420.28	82.69
420.503	80.69
420.726	76.69
420.948	72.69
421.171	70.69
421.394	96.69
421.617	98.69
421.839	94.69
422.062	85.69
422.285	95.69
422.507	99.69
422.73	103.69
422.953	111.69
423.175	81.69
423.398	89.69
423.621	73.69
423.843	87.69
424.066	95.69
424.288	79.69
424.511	99.69
424.733	107.69
424.956	98.69
425.178	99.69
425.401	91.69
425.623	93.69
425.846	94.69
426.068	91.69
426.291	94.69
426.513	99.69
426.735	91.69
426.958	101.69
427.18	103.69
427.402	142.69
427.625	143.69
427.847	126.69
428.069	80.69
428.292	84.69
428.514	86.69
428.736	85.69
428.958	85.69
429.181	64.69
429.403	87.69
429.625	97.69
429.847	93.69
430.069	90.69
430.292	107.69
430.514	91.69
430.736	92.69
430.958	95.69
431.18	85.69
431.402	87.69
431.624	78.69
431.846	98.69
432.068	89.69
432.29	99.69
432.512	78.69
432.734	97.69
432.956	99.69
433.178	94.69
433.4	103.69
433.622	97.69
433.844	80.69
434.066	93.69
434.287	87.69
434.509	92.69
434.731	97.69
434.953	99.69
435.175	75.69
435.397	90.69
435.618	93.69
435.84	99.69
436.062	109.69
436.284	100.69
436.505	86.69
436.727	89.69
436.949	78.69
437.17	81.69
437.392	87.69
437.614	87.69
437.835	103.69
438.057	117.69
438.278	110.69
438.5	108.69
438.721	104.69
438.943	99.69
439.165	76.69
439.386	83.69
439.608	93.69
439.829	81.69
440.05	107.69
440.272	123.69
440.493	97.69
440.715	90.69
440.936	91.69
441.158	86.69
441.379	87.69
441.6	94.69
441.822	86.69
442.043	90.69
442.264	93.69
442.486	87.69
442.707	104.69
442.928	93.69
443.149	122.69
443.371	101.69
443.592	103.69
443.813	99.69
444.034	106.69
444.255	93.69
444.476	85.69
444.698	92.69
444.919	76.69
445.14	118.69
445.361	119.69
445.582	96.69
445.803	129.69
446.024	118.69
446.245	117.69
446.466	102.69
446.687	90.69
446.908	89.69
447.129	97.69
447.35	91.69
447.571	83.69
447.792	82.69
448.013	86.69
448.234	92.69
448.455	101.69
448.675	96.69
448.896	116.69
449.117	79.69
449.338	110.69
449.559	115.69
449.779	120.69
450	100.69
450.221	94.69
450.442	87.69
450.662	87.69
450.883	90.69
451.104	122.69
451.324	95.69
451.545	89.69
451.766	89.69
451.986	85.69
452.207	90.69
452.428	90.69
452.648	101.69
452.869	92.69
453.089	108.69
453.31	102.69
453.53	87.69
453.751	85.69
453.971	97.69
454.192	92.69
454.412	87.69
454.633	86.69
454.853	89.69
455.073	96.69
455.294	94.69
455.514	94.69
455.734	97.69
455.955	98.69
456.175	96.69
456.395	94.69
456.616	87.69
456.836	90.69
457.056	86.69
457.276	81.69
457.497	86.69
457.717	80.69
457.937	94.69
458.157	67.69
458.377	90.69
458.598	95.69
458.818	121.69
459.038	142.69
459.258	109.69
459.478	102.69
459.698	97.69
459.918	74.69
460.138	77.69
460.358	85.69
460.578	86.69
460.798	92.69
461.018	73.69
461.238	98.69
461.458	66.69
461.678	72.69
461.898	74.69
462.118	87.69
462.338	84.69
462.558	84.69
462.777	72.69
462.997	89.69
463.217	99.69
463.437	91.69
463.657	89.69
463.876	109.69
464.096	78.69
464.316	84.69
464.536	88.69
464.755	79.69
464.975	103.69
465.195	131.69
465.414	130.69
465.634	84.69
465.854	76.69
466.073	96.69
466.293	87.69
466.512	87.69
466.732	66.69
466.951	95.69
467.171	89.69
467.391	72.69
467.61	93.69
467.829	90.69
468.049	99.69
468.268	76.69
468.488	79.69
468.707	94.69
468.927	82.69
469.146	82.69
469.365	79.69
469.585	103.69
469.804	101.69
470.023	93.69
470.243	101.69
470.462	93.69
470.681	106.69
470.901	90.69
471.12	91.69
471.339	90.69
471.558	90.69
471.777	85.69
471.997	93.69
472.216	94.69
472.435	89.69
472.654	98.69
472.873	93.69
473.092	94.69
473.311	96.69
473.53	81.69
473.749	81.69
473.968	102.69
474.187	91.69
474.406	87.69
474.625	82.69
474.844	85.69
475.063	97.69
475.282	88.69
475.501	87.69
475.72	90.69
475.939	102.69
476.158	90.69
476.377	89.69
476.596	82.69
476.814	93.69
477.033	77.69
477.252	99.69
477.471	77.69
477.69	99.69
477.908	93.69
478.127	103.69
478.346	80.69
478.564	82.69
478.783	104.69
479.002	95.69
479.22	90.69
479.439	80.69
479.658	110.69
479.876	94.69
480.095	89.69
480.313	91.69
480.532	81.69
480.751	81.69
480.969	80.69
481.188	100.69
481.406	90.69
481.624	78.69
481.843	97.69
482.061	85.69
482.28	101.69
482.498	97.69
482.717	85.69
482.935	88.69
483.153	85.69
483.372	103.69
483.59	89.69
483.808	95.69
484.027	85.69
484.245	80.69
484.463	87.69
484.681	91.69
484.9	91.69
485.118	93.69
485.336	96.69
485.554	96.69
485.772	90.69
485.99	102.69
486.209	94.69
486.427	102.69
486.645	99.69
486.863	103.69
487.081	91.69
487.299	86.69
487.517	89.69
487.735	112.69
487.953	99.69
488.171	105.69
488.389	99.69
488.607	93.69
488.825	84.69
489.043	103.69
489.261	86.69
489.479	94.69
489.696	93.69
489.914	109.69
490.132	86.69
490.35	89.69
490.568	90.69
490.786	75.69
491.003	95.69
491.221	93.69
491.439	102.69
491.657	96.69
491.874	101.69
492.092	80.69
492.31	73.69
492.527	89.69
492.745	90.69
492.963	102.69
493.18	98.69
493.398	99.69
493.615	102.69
493.833	98.69
494.05	95.69
494.268	90.69
494.485	85.69
494.703	80.69
494.92	93.69
495.138	91.69
495.355	88.69
495.573	95.69
495.79	96.69
496.008	87.69
496.225	82.69
496.442	84.69
496.66	97.69
496.877	101.69
497.094	99.69
497.312	89.69
497.529	84.69
497.746	96.69
497.963	89.69
498.181	96.69
498.398	86.69
498.615	96.69
498.832	110.69
499.049	90.69
499.267	94.69
499.484	87.69
499.701	87.69
499.918	96.69
500.135	91.69
500.352	108.69
500.569	87.69
500.786	88.69
501.003	105.69
501.22	83.69
501.437	95.69
501.654	96.69
501.871	89.69
502.088	78.69
502.305	91.69
502.522	77.69
502.739	88.69
502.956	102.69
503.172	94.69
503.389	95.69
503.606	93.69
503.823	106.69
504.04	95.69
504.256	84.69
504.473	95.69
504.69	89.69
504.907	102.69
505.123	100.69
505.34	87.69
505.557	111.69
505.773	99.69
505.99	91.69
506.207	93.69
506.423	79.69
506.64	90.69
506.856	88.69
507.073	78.69
507.289	81.69
507.506	91.69
507.722	99.69
507.939	96.69
508.155	102.69
508.372	86.69
508.588	87.69
508.805	97.69
509.021	89.69
509.238	103.69
509.454	90.69
509.67	104.69
509.887	113.69
510.103	109.69
510.319	182.69
510.536	597.69
510.752	1735.69
510.968	501.69
511.184	136.69
511.401	109.69
511.617	93.69
511.833	96.69
512.049	86.69
512.265	100.69
512.481	95.69
512.698	86.69
512.914	90.69
513.13	103.69
513.346	91.69
513.562	76.69
513.778	87.69
513.994	70.69
514.21	93.69
514.426	98.69
514.642	129.69
514.858	120.69
515.074	143.69
515.29	336.69
515.506	1041.69
515.721	394.69
515.937	143.69
516.153	99.69
516.369	89.69
516.585	104.69
