Data from Uncirc_1998_H10_HRD10591_00100.txt Node
Date: Wed Jan 03 11:25:44 EST 2024
User: Yrep
Spectrometer: HR+D1059
Trigger mode: 1
Integration Time (sec): 1.000000E-1
Scans to average: 1
Electric dark correction enabled: true
Nonlinearity correction enabled: false
Boxcar width: 0
XAxis mode: Wavelengths
Number of Pixels in Spectrum: 2048
>>>>>Begin Spectral Data<<<<<
223.165	-13.12
223.4	-13.12
223.635	-13.12
223.869	-29.12
224.104	-12.12
224.338	-20.12
224.573	-9.12
224.808	-16.12
225.042	4.88
225.277	-3.12
225.511	-13.12
225.746	11.88
225.98	20.88
226.215	16.88
226.449	6.88
226.683	19.88
226.918	18.88
227.152	15.88
227.387	46.88
227.621	33.88
227.856	38.88
228.09	42.88
228.324	53.88
228.559	69.88
228.793	54.88
229.027	64.88
229.262	67.88
229.496	72.88
229.73	66.88
229.964	81.88
230.199	78.88
230.433	72.88
230.667	64.88
230.901	63.88
231.136	87.88
231.37	72.88
231.604	73.88
231.838	79.88
232.072	64.88
232.306	81.88
232.541	66.88
232.775	76.88
233.009	70.88
233.243	73.88
233.477	75.88
233.711	72.88
233.945	67.88
234.179	72.88
234.413	83.88
234.647	74.88
234.881	82.88
235.115	77.88
235.349	78.88
235.583	70.88
235.817	75.88
236.051	76.88
236.285	78.88
236.519	72.88
236.753	79.88
236.987	79.88
237.221	71.88
237.455	92.88
237.689	74.88
237.922	75.88
238.156	82.88
238.39	82.88
238.624	79.88
238.858	89.88
239.091	81.88
239.325	82.88
239.559	77.88
239.793	70.88
240.027	89.88
240.26	67.88
240.494	80.88
240.728	63.88
240.961	62.88
241.195	73.88
241.429	84.88
241.662	70.88
241.896	61.88
242.13	70.88
242.363	80.88
242.597	71.88
242.83	60.88
243.064	74.88
243.298	83.88
243.531	64.88
243.765	69.88
243.998	72.88
244.232	74.88
244.465	67.88
244.699	72.88
244.932	80.88
245.166	70.88
245.399	79.88
245.633	87.88
245.866	85.88
246.099	68.88
246.333	85.88
246.566	70.88
246.8	79.88
247.033	86.88
247.266	77.88
247.5	63.88
247.733	95.88
247.966	77.88
248.2	71.88
248.433	78.88
248.666	75.88
248.899	74.88
249.133	69.88
249.366	100.88
249.599	94.88
249.832	80.88
250.066	77.88
250.299	71.88
250.532	68.88
250.765	67.88
250.998	79.88
251.231	71.88
251.465	76.88
251.698	73.88
251.931	69.88
252.164	79.88
252.397	79.88
252.63	81.88
252.863	72.88
253.096	74.88
253.329	84.88
253.562	92.88
253.795	68.88
254.028	78.88
254.261	67.88
254.494	72.88
254.727	75.88
254.96	90.88
255.193	75.88
255.426	77.88
255.659	74.88
255.892	83.88
256.124	82.88
256.357	78.88
256.59	76.88
256.823	75.88
257.056	61.88
257.289	78.88
257.521	86.88
257.754	85.88
257.987	86.88
258.22	75.88
258.452	76.88
258.685	80.88
258.918	86.88
259.151	76.88
259.383	88.88
259.616	76.88
259.849	73.88
260.081	86.88
260.314	86.88
260.547	62.88
260.779	69.88
261.012	85.88
261.244	88.88
261.477	101.88
261.71	80.88
261.942	110.88
262.175	111.88
262.407	89.88
262.64	85.88
262.872	87.88
263.105	88.88
263.337	98.88
263.57	88.88
263.802	81.88
264.035	74.88
264.267	70.88
264.499	84.88
264.732	70.88
264.964	73.88
265.197	87.88
265.429	70.88
265.661	74.88
265.894	82.88
266.126	90.88
266.358	76.88
266.591	81.88
266.823	83.88
267.055	82.88
267.287	72.88
267.52	79.88
267.752	80.88
267.984	78.88
268.216	69.88
268.448	96.88
268.681	70.88
268.913	79.88
269.145	95.88
269.377	90.88
269.609	84.88
269.841	100.88
270.073	93.88
270.306	74.88
270.538	76.88
270.77	90.88
271.002	88.88
271.234	71.88
271.466	74.88
271.698	74.88
271.93	68.88
272.162	70.88
272.394	68.88
272.626	74.88
272.858	79.88
273.09	76.88
273.322	85.88
273.553	86.88
273.785	75.88
274.017	84.88
274.249	82.88
274.481	73.88
274.713	74.88
274.945	78.88
275.176	79.88
275.408	83.88
275.64	73.88
275.872	79.88
276.104	69.88
276.335	84.88
276.567	88.88
276.799	105.88
277.031	97.88
277.262	78.88
277.494	88.88
277.726	82.88
277.957	72.88
278.189	77.88
278.421	78.88
278.652	75.88
278.884	72.88
279.115	90.88
279.347	76.88
279.579	69.88
279.81	72.88
280.042	88.88
280.273	82.88
280.505	63.88
280.736	84.88
280.968	70.88
281.199	81.88
281.431	75.88
281.662	85.88
281.894	96.88
282.125	95.88
282.356	98.88
282.588	132.88
282.819	120.88
283.051	100.88
283.282	98.88
283.513	94.88
283.745	84.88
283.976	85.88
284.207	91.88
284.439	89.88
284.67	93.88
284.901	75.88
285.132	95.88
285.364	76.88
285.595	94.88
285.826	93.88
286.057	89.88
286.288	76.88
286.52	83.88
286.751	94.88
286.982	96.88
287.213	71.88
287.444	73.88
287.675	95.88
287.906	80.88
288.138	92.88
288.369	86.88
288.6	88.88
288.831	80.88
289.062	80.88
289.293	95.88
289.524	79.88
289.755	89.88
289.986	95.88
290.217	87.88
290.448	91.88
290.679	82.88
290.91	90.88
291.141	78.88
291.371	79.88
291.602	73.88
291.833	91.88
292.064	75.88
292.295	87.88
292.526	80.88
292.757	72.88
292.987	71.88
293.218	85.88
293.449	86.88
293.68	94.88
293.91	75.88
294.141	84.88
294.372	92.88
294.603	92.88
294.833	79.88
295.064	60.88
295.295	93.88
295.525	78.88
295.756	103.88
295.987	104.88
296.217	128.88
296.448	106.88
296.679	99.88
296.909	99.88
297.14	90.88
297.37	86.88
297.601	81.88
297.831	84.88
298.062	75.88
298.292	95.88
298.523	89.88
298.753	87.88
298.984	77.88
299.214	79.88
299.445	84.88
299.675	103.88
299.905	86.88
300.136	96.88
300.366	87.88
300.597	72.88
300.827	84.88
301.057	87.88
301.288	87.88
301.518	86.88
301.748	99.88
301.979	93.88
302.209	72.88
302.439	84.88
302.669	85.88
302.9	92.88
303.13	87.88
303.36	86.88
303.59	82.88
303.82	106.88
304.051	74.88
304.281	69.88
304.511	92.88
304.741	95.88
304.971	92.88
305.201	92.88
305.431	82.88
305.661	87.88
305.891	79.88
306.121	84.88
306.352	96.88
306.582	103.88
306.812	86.88
307.042	68.88
307.272	79.88
307.502	91.88
307.731	83.88
307.961	92.88
308.191	86.88
308.421	81.88
308.651	84.88
308.881	94.88
309.111	76.88
309.341	87.88
309.571	98.88
309.8	77.88
310.03	87.88
310.26	102.88
310.49	84.88
310.72	82.88
310.949	98.88
311.179	103.88
311.409	83.88
311.639	92.88
311.868	82.88
312.098	86.88
312.328	93.88
312.557	103.88
312.787	111.88
313.017	103.88
313.246	93.88
313.476	83.88
313.706	75.88
313.935	75.88
314.165	85.88
314.394	114.88
314.624	104.88
314.853	103.88
315.083	78.88
315.312	88.88
315.542	87.88
315.771	84.88
316.001	75.88
316.23	90.88
316.46	83.88
316.689	83.88
316.919	94.88
317.148	80.88
317.377	79.88
317.607	89.88
317.836	103.88
318.065	85.88
318.295	88.88
318.524	88.88
318.753	83.88
318.983	80.88
319.212	84.88
319.441	90.88
319.67	106.88
319.9	85.88
320.129	94.88
320.358	93.88
320.587	89.88
320.816	95.88
321.046	84.88
321.275	99.88
321.504	100.88
321.733	95.88
321.962	97.88
322.191	102.88
322.42	117.88
322.649	97.88
322.878	108.88
323.108	101.88
323.337	114.88
323.566	138.88
323.795	139.88
324.024	215.88
324.253	388.88
324.482	844.88
324.71	1700.88
324.939	2196.88
325.168	814.88
325.397	238.88
325.626	150.88
325.855	126.88
326.084	116.88
326.313	130.88
326.542	157.88
326.77	214.88
326.999	469.88
327.228	957.88
327.457	1728.88
327.686	1360.88
327.914	365.88
328.143	201.88
328.372	150.88
328.6	125.88
328.829	115.88
329.058	123.88
329.287	122.88
329.515	106.88
329.744	103.88
329.972	84.88
330.201	105.88
330.43	103.88
330.658	105.88
330.887	129.88
331.115	105.88
331.344	87.88
331.572	105.88
331.801	109.88
332.03	99.88
332.258	102.88
332.486	85.88
332.715	85.88
332.943	104.88
333.172	84.88
333.4	90.88
333.629	104.88
333.857	105.88
334.085	103.88
334.314	101.88
334.542	94.88
334.771	91.88
334.999	87.88
335.227	92.88
335.455	90.88
335.684	85.88
335.912	94.88
336.14	97.88
336.369	94.88
336.597	98.88
336.825	97.88
337.053	86.88
337.281	80.88
337.51	85.88
337.738	104.88
337.966	99.88
338.194	115.88
338.422	100.88
338.65	105.88
338.878	79.88
339.106	92.88
339.334	94.88
339.562	87.88
339.79	82.88
340.018	87.88
340.246	107.88
340.474	94.88
340.702	91.88
340.93	89.88
341.158	96.88
341.386	101.88
341.614	106.88
341.842	92.88
342.07	100.88
342.298	94.88
342.526	83.88
342.754	77.88
342.981	99.88
343.209	93.88
343.437	85.88
343.665	93.88
343.893	79.88
344.12	84.88
344.348	74.88
344.576	90.88
344.804	85.88
345.031	90.88
345.259	92.88
345.487	96.88
345.714	96.88
345.942	103.88
346.17	80.88
346.397	97.88
346.625	92.88
346.853	90.88
347.08	67.88
347.308	84.88
347.535	91.88
347.763	98.88
347.99	96.88
348.218	98.88
348.445	103.88
348.673	101.88
348.9	97.88
349.128	87.88
349.355	86.88
349.583	107.88
349.81	91.88
350.037	90.88
350.265	80.88
350.492	94.88
350.72	90.88
350.947	88.88
351.174	98.88
351.402	101.88
351.629	101.88
351.856	96.88
352.083	103.88
352.311	86.88
352.538	111.88
352.765	99.88
352.992	100.88
353.22	110.88
353.447	95.88
353.674	99.88
353.901	91.88
354.128	98.88
354.355	74.88
354.583	78.88
354.81	93.88
355.037	84.88
355.264	96.88
355.491	87.88
355.718	82.88
355.945	97.88
356.172	81.88
356.399	95.88
356.626	106.88
356.853	109.88
357.08	93.88
357.307	96.88
357.534	90.88
357.761	107.88
357.988	87.88
358.215	85.88
358.441	86.88
358.668	79.88
358.895	89.88
359.122	80.88
359.349	71.88
359.576	93.88
359.802	87.88
360.029	102.88
360.256	105.88
360.483	95.88
360.709	77.88
360.936	90.88
361.163	89.88
361.39	91.88
361.616	92.88
361.843	94.88
362.07	89.88
362.296	91.88
362.523	87.88
362.749	83.88
362.976	100.88
363.203	78.88
363.429	79.88
363.656	87.88
363.882	85.88
364.109	78.88
364.335	105.88
364.562	78.88
364.788	83.88
365.015	85.88
365.241	89.88
365.468	110.88
365.694	99.88
365.92	92.88
366.147	88.88
366.373	92.88
366.599	82.88
366.826	82.88
367.052	93.88
367.278	96.88
367.505	87.88
367.731	93.88
367.957	92.88
368.184	88.88
368.41	100.88
368.636	116.88
368.862	107.88
369.089	108.88
369.315	80.88
369.541	89.88
369.767	93.88
369.993	107.88
370.219	74.88
370.445	90.88
370.672	89.88
370.898	82.88
371.124	86.88
371.35	86.88
371.576	99.88
371.802	72.88
372.028	93.88
372.254	84.88
372.48	82.88
372.706	87.88
372.932	75.88
373.158	87.88
373.384	80.88
373.61	83.88
373.835	96.88
374.061	78.88
374.287	100.88
374.513	94.88
374.739	83.88
374.965	76.88
375.191	77.88
375.416	84.88
375.642	102.88
375.868	82.88
376.094	73.88
376.319	72.88
376.545	84.88
376.771	93.88
376.997	102.88
377.222	80.88
377.448	95.88
377.674	91.88
377.899	94.88
378.125	84.88
378.35	88.88
378.576	70.88
378.802	84.88
379.027	78.88
379.253	81.88
379.478	80.88
379.704	93.88
379.929	80.88
380.155	81.88
380.38	103.88
380.606	78.88
380.831	92.88
381.057	90.88
381.282	71.88
381.507	96.88
381.733	100.88
381.958	102.88
382.184	91.88
382.409	100.88
382.634	93.88
382.86	94.88
383.085	100.88
383.31	87.88
383.535	97.88
383.761	101.88
383.986	88.88
384.211	103.88
384.436	95.88
384.662	91.88
384.887	80.88
385.112	89.88
385.337	100.88
385.562	86.88
385.787	87.88
386.013	107.88
386.238	99.88
386.463	90.88
386.688	106.88
386.913	99.88
387.138	95.88
387.363	90.88
387.588	104.88
387.813	106.88
388.038	93.88
388.263	96.88
388.488	112.88
388.713	93.88
388.938	83.88
389.163	94.88
389.387	90.88
389.612	88.88
389.837	93.88
390.062	85.88
390.287	89.88
390.512	87.88
390.736	91.88
390.961	85.88
391.186	72.88
391.411	91.88
391.636	94.88
391.86	80.88
392.085	79.88
392.31	67.88
392.534	82.88
392.759	83.88
392.984	78.88
393.208	77.88
393.433	86.88
393.658	81.88
393.882	95.88
394.107	82.88
394.331	73.88
394.556	80.88
394.78	94.88
395.005	86.88
395.229	84.88
395.454	80.88
395.678	75.88
395.903	81.88
396.127	95.88
396.352	81.88
396.576	86.88
396.801	71.88
397.025	84.88
397.249	79.88
397.474	97.88
397.698	79.88
397.922	89.88
398.147	90.88
398.371	83.88
398.595	79.88
398.82	85.88
399.044	82.88
399.268	81.88
399.492	69.88
399.717	88.88
399.941	84.88
400.165	87.88
400.389	72.88
400.613	75.88
400.837	79.88
401.062	76.88
401.286	85.88
401.51	94.88
401.734	77.88
401.958	84.88
402.182	101.88
402.406	144.88
402.63	112.88
402.854	97.88
403.078	74.88
403.302	76.88
403.526	92.88
403.75	86.88
403.974	68.88
404.198	95.88
404.422	87.88
404.645	83.88
404.869	82.88
405.093	87.88
405.317	93.88
405.541	86.88
405.765	116.88
405.988	110.88
406.212	174.88
406.436	204.88
406.66	126.88
406.883	86.88
407.107	95.88
407.331	87.88
407.555	102.88
407.778	88.88
408.002	96.88
408.226	89.88
408.449	88.88
408.673	78.88
408.896	87.88
409.12	91.88
409.344	80.88
409.567	93.88
409.791	91.88
410.014	81.88
410.238	83.88
410.461	92.88
410.685	85.88
410.908	88.88
411.132	94.88
411.355	103.88
411.578	103.88
411.802	74.88
412.025	86.88
412.249	92.88
412.472	86.88
412.695	94.88
412.919	96.88
413.142	82.88
413.365	102.88
413.589	72.88
413.812	82.88
414.035	91.88
414.258	72.88
414.482	89.88
414.705	80.88
414.928	85.88
415.151	88.88
415.374	94.88
415.597	93.88
415.821	82.88
416.044	74.88
416.267	82.88
416.49	79.88
416.713	76.88
416.936	83.88
417.159	82.88
417.382	91.88
417.605	64.88
417.828	86.88
418.051	84.88
418.274	84.88
418.497	91.88
418.72	80.88
418.943	91.88
419.166	86.88
419.389	83.88
419.611	95.88
419.834	79.88
420.057	79.88
420.28	78.88
420.503	73.88
420.726	83.88
420.948	87.88
421.171	82.88
421.394	87.88
421.617	90.88
421.839	91.88
422.062	82.88
422.285	85.88
422.507	84.88
422.73	96.88
422.953	95.88
423.175	88.88
423.398	87.88
423.621	74.88
423.843	77.88
424.066	73.88
424.288	82.88
424.511	98.88
424.733	94.88
424.956	107.88
425.178	92.88
425.401	86.88
425.623	94.88
425.846	80.88
426.068	96.88
426.291	81.88
426.513	78.88
426.735	87.88
426.958	86.88
427.18	92.88
427.402	124.88
427.625	150.88
427.847	141.88
428.069	105.88
428.292	84.88
428.514	90.88
428.736	77.88
428.958	76.88
429.181	96.88
429.403	66.88
429.625	80.88
429.847	94.88
430.069	88.88
430.292	82.88
430.514	87.88
430.736	87.88
430.958	84.88
431.18	80.88
431.402	76.88
431.624	67.88
431.846	77.88
432.068	92.88
432.29	96.88
432.512	75.88
432.734	84.88
432.956	92.88
433.178	109.88
433.4	93.88
433.622	67.88
433.844	79.88
434.066	92.88
434.287	87.88
434.509	85.88
434.731	86.88
434.953	76.88
435.175	90.88
435.397	86.88
435.618	90.88
435.84	107.88
436.062	111.88
436.284	109.88
436.505	96.88
436.727	99.88
436.949	98.88
437.17	80.88
437.392	90.88
437.614	89.88
437.835	107.88
438.057	120.88
438.278	114.88
438.5	98.88
438.721	114.88
438.943	91.88
439.165	86.88
439.386	86.88
439.608	100.88
439.829	105.88
440.05	126.88
440.272	130.88
440.493	96.88
440.715	88.88
440.936	94.88
441.158	93.88
441.379	88.88
441.6	84.88
441.822	101.88
442.043	80.88
442.264	106.88
442.486	91.88
442.707	88.88
442.928	95.88
443.149	135.88
443.371	130.88
443.592	94.88
443.813	109.88
444.034	100.88
444.255	94.88
444.476	90.88
444.698	85.88
444.919	76.88
445.14	129.88
445.361	116.88
445.582	114.88
445.803	134.88
446.024	141.88
446.245	141.88
446.466	124.88
446.687	72.88
446.908	79.88
447.129	80.88
447.35	93.88
447.571	77.88
447.792	87.88
448.013	102.88
448.234	108.88
448.455	98.88
448.675	95.88
448.896	111.88
449.117	95.88
449.338	98.88
449.559	120.88
449.779	121.88
450	94.88
450.221	88.88
450.442	87.88
450.662	89.88
450.883	101.88
451.104	106.88
451.324	95.88
451.545	84.88
451.766	87.88
451.986	84.88
452.207	89.88
452.428	89.88
452.648	89.88
452.869	112.88
453.089	118.88
453.31	111.88
453.53	90.88
453.751	92.88
453.971	96.88
454.192	94.88
454.412	86.88
454.633	85.88
454.853	97.88
455.073	79.88
455.294	90.88
455.514	102.88
455.734	79.88
455.955	77.88
456.175	75.88
456.395	76.88
456.616	68.88
456.836	82.88
457.056	63.88
457.276	84.88
457.497	74.88
457.717	84.88
457.937	83.88
458.157	90.88
458.377	98.88
458.598	95.88
458.818	140.88
459.038	150.88
459.258	114.88
459.478	90.88
459.698	79.88
459.918	89.88
460.138	72.88
460.358	83.88
460.578	71.88
460.798	86.88
461.018	79.88
461.238	76.88
461.458	86.88
461.678	72.88
461.898	94.88
462.118	86.88
462.338	88.88
462.558	85.88
462.777	77.88
462.997	93.88
463.217	95.88
463.437	79.88
463.657	90.88
463.876	75.88
464.096	92.88
464.316	90.88
464.536	85.88
464.755	90.88
464.975	96.88
465.195	171.88
465.414	156.88
465.634	103.88
465.854	86.88
466.073	67.88
466.293	79.88
466.512	84.88
466.732	77.88
466.951	83.88
467.171	88.88
467.391	89.88
467.61	100.88
467.829	90.88
468.049	74.88
468.268	90.88
468.488	86.88
468.707	85.88
468.927	76.88
469.146	87.88
469.365	84.88
469.585	94.88
469.804	86.88
470.023	91.88
470.243	89.88
470.462	97.88
470.681	100.88
470.901	90.88
471.12	81.88
471.339	72.88
471.558	83.88
471.777	84.88
471.997	91.88
472.216	88.88
472.435	90.88
472.654	78.88
472.873	90.88
473.092	79.88
473.311	85.88
473.53	73.88
473.749	87.88
473.968	74.88
474.187	76.88
474.406	98.88
474.625	91.88
474.844	79.88
475.063	74.88
475.282	73.88
475.501	77.88
475.72	91.88
475.939	78.88
476.158	95.88
476.377	92.88
476.596	79.88
476.814	91.88
477.033	88.88
477.252	85.88
477.471	75.88
477.69	87.88
477.908	99.88
478.127	98.88
478.346	79.88
478.564	82.88
478.783	84.88
479.002	79.88
479.22	90.88
479.439	88.88
479.658	99.88
479.876	100.88
480.095	85.88
480.313	92.88
480.532	86.88
480.751	90.88
480.969	96.88
481.188	104.88
481.406	84.88
481.624	91.88
481.843	88.88
482.061	83.88
482.28	97.88
482.498	83.88
482.717	80.88
482.935	82.88
483.153	97.88
483.372	95.88
483.59	82.88
483.808	74.88
484.027	82.88
484.245	84.88
484.463	85.88
484.681	102.88
484.9	80.88
485.118	79.88
485.336	81.88
485.554	84.88
485.772	84.88
485.99	90.88
486.209	103.88
486.427	104.88
486.645	114.88
486.863	99.88
487.081	97.88
487.299	82.88
487.517	103.88
487.735	91.88
487.953	79.88
488.171	85.88
488.389	99.88
488.607	100.88
488.825	91.88
489.043	90.88
489.261	89.88
489.479	88.88
489.696	84.88
489.914	86.88
490.132	95.88
490.35	87.88
490.568	78.88
490.786	80.88
491.003	94.88
491.221	88.88
491.439	91.88
491.657	93.88
491.874	91.88
492.092	90.88
492.31	82.88
492.527	88.88
492.745	80.88
492.963	83.88
493.18	84.88
493.398	80.88
493.615	95.88
493.833	106.88
494.05	91.88
494.268	87.88
494.485	81.88
494.703	61.88
494.92	97.88
495.138	82.88
495.355	85.88
495.573	94.88
495.79	83.88
496.008	100.88
496.225	89.88
496.442	84.88
496.66	90.88
496.877	99.88
497.094	77.88
497.312	87.88
497.529	79.88
497.746	95.88
497.963	97.88
498.181	94.88
498.398	95.88
498.615	105.88
498.832	87.88
499.049	79.88
499.267	93.88
499.484	80.88
499.701	91.88
499.918	95.88
500.135	83.88
500.352	80.88
500.569	83.88
500.786	92.88
501.003	94.88
501.22	103.88
501.437	87.88
501.654	94.88
501.871	102.88
502.088	86.88
502.305	93.88
502.522	79.88
502.739	94.88
502.956	77.88
503.172	82.88
503.389	103.88
503.606	109.88
503.823	86.88
504.04	84.88
504.256	93.88
504.473	87.88
504.69	92.88
504.907	89.88
505.123	86.88
505.34	77.88
505.557	86.88
505.773	95.88
505.99	85.88
506.207	85.88
506.423	82.88
506.64	96.88
506.856	84.88
507.073	79.88
507.289	73.88
507.506	101.88
507.722	96.88
507.939	95.88
508.155	86.88
508.372	93.88
508.588	84.88
508.805	88.88
509.021	94.88
509.238	89.88
509.454	79.88
509.67	104.88
509.887	103.88
510.103	133.88
510.319	213.88
510.536	775.88
510.752	2429.88
510.968	664.88
511.184	142.88
511.401	114.88
511.617	94.88
511.833	98.88
512.049	96.88
512.265	95.88
512.481	97.88
512.698	94.88
512.914	96.88
513.13	103.88
513.346	90.88
513.562	89.88
513.778	92.88
513.994	95.88
514.21	87.88
514.426	116.88
514.642	136.88
514.858	122.88
515.074	166.88
515.29	467.88
515.506	1503.88
515.721	550.88
515.937	142.88
516.153	103.88
516.369	82.88
516.585	101.88
516.801	94.88
517.016	85.88
