Data from Uncirc_1998_H10_HRD10591_00004.txt Node
Date: Wed Jan 03 11:25:25 EST 2024
User: Yrep
Spectrometer: HR+D1059
Trigger mode: 1
Integration Time (sec): 1.000000E-1
Scans to average: 1
Electric dark correction enabled: true
Nonlinearity correction enabled: false
Boxcar width: 0
XAxis mode: Wavelengths
Number of Pixels in Spectrum: 2048
>>>>>Begin Spectral Data<<<<<
223.165	-11.5
223.4	-11.5
223.635	-11.5
223.869	-15.5
224.104	-20.5
224.338	-20.5
224.573	-11.5
224.808	-7.5
225.042	-15.5
225.277	1.5
225.511	-10.5
225.746	6.5
225.98	15.5
226.215	8.5
226.449	17.5
226.683	18.5
226.918	23.5
227.152	21.5
227.387	27.5
227.621	51.5
227.856	52.5
228.09	41.5
228.324	56.5
228.559	63.5
228.793	72.5
229.027	72.5
229.262	61.5
229.496	79.5
229.73	86.5
229.964	85.5
230.199	72.5
230.433	77.5
230.667	75.5
230.901	74.5
231.136	90.5
231.37	68.5
231.604	77.5
231.838	89.5
232.072	86.5
232.306	82.5
232.541	88.5
232.775	91.5
233.009	106.5
233.243	77.5
233.477	82.5
233.711	89.5
233.945	85.5
234.179	81.5
234.413	92.5
234.647	88.5
234.881	73.5
235.115	65.5
235.349	82.5
235.583	81.5
235.817	75.5
236.051	75.5
236.285	93.5
236.519	82.5
236.753	81.5
236.987	82.5
237.221	73.5
237.455	88.5
237.689	80.5
237.922	83.5
238.156	75.5
238.39	88.5
238.624	77.5
238.858	85.5
239.091	81.5
239.325	77.5
239.559	82.5
239.793	75.5
240.027	83.5
240.26	86.5
240.494	83.5
240.728	90.5
240.961	71.5
241.195	75.5
241.429	81.5
241.662	73.5
241.896	66.5
242.13	85.5
242.363	82.5
242.597	82.5
242.83	77.5
243.064	82.5
243.298	77.5
243.531	87.5
243.765	90.5
243.998	80.5
244.232	75.5
244.465	94.5
244.699	85.5
244.932	65.5
245.166	67.5
245.399	86.5
245.633	66.5
245.866	77.5
246.099	69.5
246.333	81.5
246.566	73.5
246.8	94.5
247.033	75.5
247.266	73.5
247.5	80.5
247.733	75.5
247.966	83.5
248.2	88.5
248.433	90.5
248.666	80.5
248.899	90.5
249.133	86.5
249.366	76.5
249.599	98.5
249.832	73.5
250.066	81.5
250.299	72.5
250.532	86.5
250.765	91.5
250.998	81.5
251.231	70.5
251.465	82.5
251.698	86.5
251.931	81.5
252.164	82.5
252.397	72.5
252.63	85.5
252.863	81.5
253.096	76.5
253.329	89.5
253.562	77.5
253.795	91.5
254.028	74.5
254.261	69.5
254.494	73.5
254.727	75.5
254.96	87.5
255.193	77.5
255.426	73.5
255.659	89.5
255.892	85.5
256.124	75.5
256.357	90.5
256.59	79.5
256.823	78.5
257.056	73.5
257.289	98.5
257.521	77.5
257.754	76.5
257.987	81.5
258.22	85.5
258.452	86.5
258.685	87.5
258.918	85.5
259.151	86.5
259.383	83.5
259.616	83.5
259.849	73.5
260.081	72.5
260.314	79.5
260.547	65.5
260.779	98.5
261.012	88.5
261.244	76.5
261.477	86.5
261.71	91.5
261.942	94.5
262.175	95.5
262.407	73.5
262.64	79.5
262.872	68.5
263.105	80.5
263.337	83.5
263.57	81.5
263.802	84.5
264.035	87.5
264.267	79.5
264.499	81.5
264.732	89.5
264.964	70.5
265.197	88.5
265.429	86.5
265.661	75.5
265.894	82.5
266.126	88.5
266.358	76.5
266.591	81.5
266.823	91.5
267.055	86.5
267.287	91.5
267.52	73.5
267.752	70.5
267.984	91.5
268.216	85.5
268.448	73.5
268.681	77.5
268.913	81.5
269.145	79.5
269.377	78.5
269.609	71.5
269.841	84.5
270.073	81.5
270.306	81.5
270.538	91.5
270.77	89.5
271.002	93.5
271.234	64.5
271.466	86.5
271.698	71.5
271.93	71.5
272.162	79.5
272.394	76.5
272.626	87.5
272.858	81.5
273.09	83.5
273.322	84.5
273.553	74.5
273.785	58.5
274.017	62.5
274.249	83.5
274.481	87.5
274.713	72.5
274.945	95.5
275.176	77.5
275.408	85.5
275.64	80.5
275.872	92.5
276.104	84.5
276.335	69.5
276.567	85.5
276.799	96.5
277.031	93.5
277.262	81.5
277.494	93.5
277.726	73.5
277.957	83.5
278.189	73.5
278.421	79.5
278.652	77.5
278.884	81.5
279.115	89.5
279.347	87.5
279.579	83.5
279.81	83.5
280.042	83.5
280.273	95.5
280.505	83.5
280.736	77.5
280.968	81.5
281.199	80.5
281.431	101.5
281.662	84.5
281.894	104.5
282.125	101.5
282.356	109.5
282.588	110.5
282.819	88.5
283.051	92.5
283.282	70.5
283.513	85.5
283.745	74.5
283.976	78.5
284.207	71.5
284.439	83.5
284.67	85.5
284.901	77.5
285.132	89.5
285.364	93.5
285.595	87.5
285.826	88.5
286.057	75.5
286.288	75.5
286.52	87.5
286.751	93.5
286.982	89.5
287.213	88.5
287.444	97.5
287.675	93.5
287.906	86.5
288.138	82.5
288.369	77.5
288.6	90.5
288.831	93.5
289.062	95.5
289.293	94.5
289.524	85.5
289.755	99.5
289.986	87.5
290.217	78.5
290.448	96.5
290.679	82.5
290.91	81.5
291.141	83.5
291.371	85.5
291.602	79.5
291.833	91.5
292.064	88.5
292.295	93.5
292.526	88.5
292.757	82.5
292.987	74.5
293.218	87.5
293.449	91.5
293.68	83.5
293.91	78.5
294.141	88.5
294.372	88.5
294.603	89.5
294.833	99.5
295.064	76.5
295.295	98.5
295.525	95.5
295.756	109.5
295.987	93.5
296.217	119.5
296.448	110.5
296.679	99.5
296.909	81.5
297.14	98.5
297.37	95.5
297.601	97.5
297.831	89.5
298.062	95.5
298.292	89.5
298.523	88.5
298.753	80.5
298.984	83.5
299.214	98.5
299.445	84.5
299.675	91.5
299.905	95.5
300.136	86.5
300.366	89.5
300.597	86.5
300.827	93.5
301.057	113.5
301.288	95.5
301.518	93.5
301.748	89.5
301.979	92.5
302.209	105.5
302.439	85.5
302.669	78.5
302.9	74.5
303.13	97.5
303.36	103.5
303.59	85.5
303.82	86.5
304.051	101.5
304.281	71.5
304.511	96.5
304.741	75.5
304.971	91.5
305.201	93.5
305.431	82.5
305.661	93.5
305.891	90.5
306.121	94.5
306.352	93.5
306.582	88.5
306.812	90.5
307.042	87.5
307.272	92.5
307.502	106.5
307.731	98.5
307.961	71.5
308.191	80.5
308.421	86.5
308.651	87.5
308.881	101.5
309.111	86.5
309.341	95.5
309.571	93.5
309.8	93.5
310.03	94.5
310.26	87.5
310.49	93.5
310.72	95.5
310.949	92.5
311.179	91.5
311.409	82.5
311.639	82.5
311.868	87.5
312.098	89.5
312.328	103.5
312.557	101.5
312.787	89.5
313.017	106.5
313.246	82.5
313.476	90.5
313.706	99.5
313.935	85.5
314.165	72.5
314.394	94.5
314.624	78.5
314.853	90.5
315.083	103.5
315.312	98.5
315.542	94.5
315.771	87.5
316.001	91.5
316.23	77.5
316.46	85.5
316.689	89.5
316.919	97.5
317.148	90.5
317.377	85.5
317.607	86.5
317.836	81.5
318.065	93.5
318.295	80.5
318.524	90.5
318.753	99.5
318.983	99.5
319.212	89.5
319.441	107.5
319.67	90.5
319.9	88.5
320.129	91.5
320.358	82.5
320.587	94.5
320.816	78.5
321.046	103.5
321.275	110.5
321.504	102.5
321.733	87.5
321.962	99.5
322.191	93.5
322.42	96.5
322.649	94.5
322.878	112.5
323.108	100.5
323.337	101.5
323.566	117.5
323.795	130.5
324.024	186.5
324.253	327.5
324.482	689.5
324.71	1401.5
324.939	1852.5
325.168	701.5
325.397	223.5
325.626	140.5
325.855	119.5
326.084	109.5
326.313	113.5
326.542	154.5
326.77	219.5
326.999	407.5
327.228	839.5
327.457	1479.5
327.686	1192.5
327.914	335.5
328.143	173.5
328.372	143.5
328.6	114.5
328.829	102.5
329.058	126.5
329.287	109.5
329.515	104.5
329.744	99.5
329.972	78.5
330.201	96.5
330.43	93.5
330.658	98.5
330.887	118.5
331.115	110.5
331.344	91.5
331.572	98.5
331.801	91.5
332.03	88.5
332.258	84.5
332.486	88.5
332.715	96.5
332.943	94.5
333.172	90.5
333.4	90.5
333.629	112.5
333.857	97.5
334.085	100.5
334.314	76.5
334.542	97.5
334.771	87.5
334.999	102.5
335.227	96.5
335.455	97.5
335.684	96.5
335.912	85.5
336.14	99.5
336.369	95.5
336.597	95.5
336.825	107.5
337.053	92.5
337.281	102.5
337.51	106.5
337.738	87.5
337.966	96.5
338.194	103.5
338.422	114.5
338.65	109.5
338.878	84.5
339.106	85.5
339.334	81.5
339.562	100.5
339.79	85.5
340.018	94.5
340.246	101.5
340.474	103.5
340.702	86.5
340.93	89.5
341.158	97.5
341.386	85.5
341.614	88.5
341.842	78.5
342.07	91.5
342.298	94.5
342.526	94.5
342.754	86.5
342.981	89.5
343.209	91.5
343.437	108.5
343.665	88.5
343.893	90.5
344.12	73.5
344.348	94.5
344.576	87.5
344.804	86.5
345.031	86.5
345.259	91.5
345.487	97.5
345.714	76.5
345.942	87.5
346.17	90.5
346.397	99.5
346.625	111.5
346.853	87.5
347.08	79.5
347.308	95.5
347.535	92.5
347.763	91.5
347.99	89.5
348.218	88.5
348.445	87.5
348.673	87.5
348.9	97.5
349.128	87.5
349.355	90.5
349.583	91.5
349.81	91.5
350.037	99.5
350.265	79.5
350.492	105.5
350.72	95.5
350.947	103.5
351.174	105.5
351.402	105.5
351.629	94.5
351.856	103.5
352.083	97.5
352.311	108.5
352.538	96.5
352.765	103.5
352.992	113.5
353.22	104.5
353.447	114.5
353.674	97.5
353.901	111.5
354.128	98.5
354.355	94.5
354.583	81.5
354.81	96.5
355.037	105.5
355.264	103.5
355.491	101.5
355.718	86.5
355.945	97.5
356.172	86.5
356.399	74.5
356.626	95.5
356.853	97.5
357.08	102.5
357.307	99.5
357.534	79.5
357.761	96.5
357.988	80.5
358.215	86.5
358.441	89.5
358.668	98.5
358.895	95.5
359.122	94.5
359.349	90.5
359.576	89.5
359.802	95.5
360.029	102.5
360.256	103.5
360.483	80.5
360.709	94.5
360.936	104.5
361.163	93.5
361.39	116.5
361.616	98.5
361.843	87.5
362.07	81.5
362.296	96.5
362.523	80.5
362.749	94.5
362.976	79.5
363.203	84.5
363.429	79.5
363.656	80.5
363.882	97.5
364.109	91.5
364.335	91.5
364.562	98.5
364.788	98.5
365.015	88.5
365.241	88.5
365.468	103.5
365.694	99.5
365.92	100.5
366.147	100.5
366.373	96.5
366.599	97.5
366.826	97.5
367.052	92.5
367.278	93.5
367.505	96.5
367.731	91.5
367.957	79.5
368.184	94.5
368.41	114.5
368.636	86.5
368.862	99.5
369.089	87.5
369.315	84.5
369.541	99.5
369.767	94.5
369.993	88.5
370.219	87.5
370.445	89.5
370.672	85.5
370.898	85.5
371.124	76.5
371.35	87.5
371.576	64.5
371.802	80.5
372.028	94.5
372.254	86.5
372.48	87.5
372.706	82.5
372.932	97.5
373.158	89.5
373.384	95.5
373.61	91.5
373.835	78.5
374.061	85.5
374.287	91.5
374.513	101.5
374.739	86.5
374.965	89.5
375.191	96.5
375.416	82.5
375.642	87.5
375.868	92.5
376.094	91.5
376.319	96.5
376.545	75.5
376.771	94.5
376.997	90.5
377.222	92.5
377.448	87.5
377.674	83.5
377.899	81.5
378.125	78.5
378.35	93.5
378.576	91.5
378.802	108.5
379.027	85.5
379.253	85.5
379.478	103.5
379.704	107.5
379.929	82.5
380.155	87.5
380.38	91.5
380.606	86.5
380.831	100.5
381.057	94.5
381.282	99.5
381.507	95.5
381.733	111.5
381.958	91.5
382.184	97.5
382.409	94.5
382.634	92.5
382.86	82.5
383.085	114.5
383.31	106.5
383.535	101.5
383.761	95.5
383.986	93.5
384.211	97.5
384.436	107.5
384.662	83.5
384.887	103.5
385.112	100.5
385.337	110.5
385.562	104.5
385.787	94.5
386.013	105.5
386.238	108.5
386.463	90.5
386.688	119.5
386.913	98.5
387.138	108.5
387.363	102.5
387.588	107.5
387.813	100.5
388.038	107.5
388.263	112.5
388.488	112.5
388.713	105.5
388.938	94.5
389.163	93.5
389.387	109.5
389.612	89.5
389.837	89.5
390.062	96.5
390.287	106.5
390.512	87.5
390.736	79.5
390.961	91.5
391.186	79.5
391.411	92.5
391.636	103.5
391.86	76.5
392.085	97.5
392.31	106.5
392.534	85.5
392.759	82.5
392.984	83.5
393.208	86.5
393.433	95.5
393.658	90.5
393.882	87.5
394.107	87.5
394.331	80.5
394.556	93.5
394.78	95.5
395.005	88.5
395.229	104.5
395.454	90.5
395.678	87.5
395.903	105.5
396.127	97.5
396.352	95.5
396.576	93.5
396.801	93.5
397.025	90.5
397.249	79.5
397.474	91.5
397.698	91.5
397.922	84.5
398.147	94.5
398.371	91.5
398.595	83.5
398.82	89.5
399.044	86.5
399.268	75.5
399.492	79.5
399.717	79.5
399.941	99.5
400.165	93.5
400.389	93.5
400.613	86.5
400.837	88.5
401.062	88.5
401.286	95.5
401.51	83.5
401.734	84.5
401.958	105.5
402.182	116.5
402.406	130.5
402.63	107.5
402.854	86.5
403.078	86.5
403.302	85.5
403.526	94.5
403.75	79.5
403.974	89.5
404.198	80.5
404.422	93.5
404.645	69.5
404.869	93.5
405.093	91.5
405.317	86.5
405.541	104.5
405.765	94.5
405.988	101.5
406.212	143.5
406.436	176.5
406.66	124.5
406.883	87.5
407.107	89.5
407.331	81.5
407.555	90.5
407.778	82.5
408.002	94.5
408.226	96.5
408.449	80.5
408.673	82.5
408.896	86.5
409.12	89.5
409.344	96.5
409.567	82.5
409.791	94.5
410.014	90.5
410.238	75.5
410.461	91.5
410.685	98.5
410.908	81.5
411.132	104.5
411.355	93.5
411.578	91.5
411.802	95.5
412.025	91.5
412.249	94.5
412.472	95.5
412.695	80.5
412.919	71.5
413.142	84.5
413.365	86.5
413.589	90.5
413.812	88.5
414.035	87.5
414.258	88.5
414.482	79.5
414.705	93.5
414.928	83.5
415.151	97.5
415.374	89.5
415.597	90.5
415.821	77.5
416.044	93.5
416.267	83.5
416.49	98.5
416.713	78.5
416.936	86.5
417.159	90.5
417.382	96.5
417.605	89.5
417.828	90.5
418.051	95.5
418.274	93.5
418.497	98.5
418.72	88.5
418.943	83.5
419.166	92.5
419.389	101.5
419.611	89.5
419.834	98.5
420.057	85.5
420.28	82.5
420.503	103.5
420.726	84.5
420.948	96.5
421.171	102.5
421.394	102.5
421.617	104.5
421.839	94.5
422.062	93.5
422.285	93.5
422.507	110.5
422.73	103.5
422.953	90.5
423.175	86.5
423.398	83.5
423.621	99.5
423.843	85.5
424.066	98.5
424.288	84.5
424.511	93.5
424.733	93.5
424.956	103.5
425.178	97.5
425.401	94.5
425.623	95.5
425.846	96.5
426.068	77.5
426.291	96.5
426.513	88.5
426.735	103.5
426.958	104.5
427.18	93.5
427.402	130.5
427.625	159.5
427.847	127.5
428.069	95.5
428.292	95.5
428.514	78.5
428.736	88.5
428.958	98.5
429.181	82.5
429.403	88.5
429.625	93.5
429.847	90.5
430.069	93.5
430.292	98.5
430.514	74.5
430.736	91.5
430.958	106.5
431.18	89.5
431.402	91.5
431.624	86.5
431.846	85.5
432.068	86.5
432.29	85.5
432.512	88.5
432.734	91.5
432.956	83.5
433.178	80.5
433.4	105.5
433.622	90.5
433.844	102.5
434.066	104.5
434.287	93.5
434.509	75.5
434.731	88.5
434.953	84.5
435.175	84.5
435.397	97.5
435.618	102.5
435.84	102.5
436.062	118.5
436.284	109.5
436.505	80.5
436.727	111.5
436.949	82.5
437.17	101.5
437.392	77.5
437.614	111.5
437.835	96.5
438.057	112.5
438.278	96.5
438.5	96.5
438.721	136.5
438.943	89.5
439.165	102.5
439.386	87.5
439.608	95.5
439.829	94.5
440.05	112.5
440.272	121.5
440.493	93.5
440.715	96.5
440.936	89.5
441.158	98.5
441.379	90.5
441.6	90.5
441.822	95.5
442.043	84.5
442.264	100.5
442.486	102.5
442.707	100.5
442.928	98.5
443.149	123.5
443.371	129.5
443.592	98.5
443.813	111.5
444.034	93.5
444.255	96.5
444.476	94.5
444.698	78.5
444.919	89.5
445.14	130.5
445.361	104.5
445.582	109.5
445.803	126.5
446.024	132.5
446.245	130.5
446.466	106.5
446.687	84.5
446.908	85.5
447.129	89.5
447.35	86.5
447.571	86.5
447.792	96.5
448.013	87.5
448.234	99.5
448.455	103.5
448.675	120.5
448.896	122.5
449.117	106.5
449.338	105.5
449.559	134.5
449.779	124.5
450	96.5
450.221	96.5
450.442	97.5
450.662	87.5
450.883	98.5
451.104	98.5
451.324	86.5
451.545	85.5
451.766	96.5
451.986	83.5
452.207	77.5
452.428	92.5
452.648	93.5
452.869	98.5
453.089	112.5
453.31	106.5
453.53	82.5
453.751	96.5
453.971	86.5
454.192	98.5
454.412	80.5
454.633	87.5
454.853	91.5
455.073	91.5
455.294	78.5
455.514	88.5
455.734	108.5
455.955	70.5
456.175	91.5
456.395	99.5
456.616	90.5
456.836	96.5
457.056	86.5
457.276	91.5
457.497	90.5
457.717	95.5
457.937	77.5
458.157	80.5
458.377	92.5
458.598	93.5
458.818	119.5
459.038	118.5
459.258	103.5
459.478	95.5
459.698	89.5
459.918	82.5
460.138	80.5
460.358	75.5
460.578	88.5
460.798	92.5
461.018	85.5
461.238	94.5
461.458	85.5
461.678	88.5
461.898	79.5
462.118	87.5
462.338	87.5
462.558	97.5
462.777	93.5
462.997	86.5
463.217	84.5
463.437	80.5
463.657	89.5
463.876	78.5
464.096	93.5
464.316	77.5
464.536	93.5
464.755	94.5
464.975	102.5
465.195	130.5
465.414	130.5
465.634	103.5
465.854	94.5
466.073	82.5
466.293	101.5
466.512	88.5
466.732	83.5
466.951	93.5
467.171	77.5
467.391	95.5
467.61	82.5
467.829	89.5
468.049	96.5
468.268	96.5
468.488	82.5
468.707	83.5
468.927	74.5
469.146	79.5
469.365	81.5
469.585	87.5
469.804	106.5
470.023	105.5
470.243	93.5
470.462	98.5
470.681	95.5
470.901	76.5
471.12	104.5
471.339	83.5
471.558	83.5
471.777	90.5
471.997	106.5
472.216	100.5
472.435	89.5
472.654	90.5
472.873	94.5
473.092	81.5
473.311	81.5
473.53	72.5
473.749	80.5
473.968	89.5
474.187	108.5
474.406	104.5
474.625	83.5
474.844	84.5
475.063	91.5
475.282	85.5
475.501	85.5
475.72	86.5
475.939	88.5
476.158	78.5
476.377	93.5
476.596	99.5
476.814	82.5
477.033	90.5
477.252	94.5
477.471	70.5
477.69	102.5
477.908	97.5
478.127	99.5
478.346	90.5
478.564	87.5
478.783	82.5
479.002	97.5
479.22	81.5
479.439	95.5
479.658	94.5
479.876	90.5
480.095	81.5
480.313	85.5
480.532	99.5
480.751	98.5
480.969	92.5
481.188	108.5
481.406	100.5
481.624	103.5
481.843	81.5
482.061	104.5
482.28	98.5
482.498	106.5
482.717	92.5
482.935	97.5
483.153	88.5
483.372	101.5
483.59	93.5
483.808	98.5
484.027	88.5
484.245	86.5
484.463	81.5
484.681	88.5
484.9	95.5
485.118	99.5
485.336	85.5
485.554	104.5
485.772	117.5
485.99	113.5
486.209	101.5
486.427	96.5
486.645	109.5
486.863	88.5
487.081	97.5
487.299	91.5
487.517	99.5
487.735	98.5
487.953	89.5
488.171	92.5
488.389	82.5
488.607	98.5
488.825	86.5
489.043	96.5
489.261	93.5
489.479	103.5
489.696	88.5
489.914	92.5
490.132	100.5
490.35	94.5
490.568	95.5
490.786	87.5
491.003	98.5
491.221	91.5
491.439	89.5
491.657	85.5
491.874	91.5
492.092	98.5
492.31	91.5
492.527	79.5
492.745	95.5
492.963	85.5
493.18	102.5
493.398	97.5
493.615	90.5
493.833	84.5
494.05	98.5
494.268	96.5
494.485	99.5
494.703	73.5
494.92	88.5
495.138	88.5
495.355	90.5
495.573	97.5
495.79	96.5
496.008	88.5
496.225	94.5
496.442	89.5
496.66	96.5
496.877	93.5
497.094	97.5
497.312	88.5
497.529	82.5
497.746	101.5
497.963	98.5
498.181	95.5
498.398	104.5
498.615	108.5
498.832	93.5
499.049	97.5
499.267	72.5
499.484	83.5
499.701	87.5
499.918	90.5
500.135	105.5
500.352	105.5
500.569	95.5
500.786	85.5
501.003	100.5
501.22	93.5
501.437	97.5
501.654	98.5
501.871	99.5
502.088	94.5
502.305	107.5
502.522	88.5
502.739	93.5
502.956	89.5
503.172	97.5
503.389	91.5
503.606	92.5
503.823	89.5
504.04	100.5
504.256	96.5
504.473	86.5
504.69	100.5
504.907	86.5
505.123	83.5
505.34	95.5
505.557	91.5
505.773	86.5
505.99	101.5
506.207	83.5
506.423	91.5
506.64	94.5
506.856	100.5
507.073	89.5
507.289	99.5
507.506	97.5
507.722	97.5
507.939	88.5
508.155	96.5
508.372	87.5
508.588	95.5
508.805	98.5
509.021	88.5
509.238	103.5
509.454	92.5
509.67	96.5
509.887	97.5
510.103	117.5
510.319	170.5
510.536	559.5
510.752	1579.5
510.968	487.5
511.184	130.5
511.401	99.5
511.617	102.5
511.833	109.5
512.049	90.5
512.265	98.5
512.481	91.5
512.698	96.5
512.914	100.5
513.13	92.5
513.346	84.5
513.562	86.5
513.778	89.5
513.994	95.5
514.21	105.5
514.426	111.5
514.642	119.5
514.858	103.5
515.074	134.5
515.29	337.5
515.506	1003.5
515.721	370.5
515.937	125.5
516.153	113.5
516.369	79.5
516.585	88.5
516.801	86.5
517.016	98.5
517.232	98.5
517.448	101.5
517.664	98.5
517.879	96.5
518.095	93.5
518.311	95.5
518.527	90.5
518.742	84.5
518.958	98.5
519.173	95.5
519.389	103.5
519.605	99.5
519.82	98.5
520.036	109.5
520.251	109.5
520.467	108.5
520.682	87.5
520.898	104.5
521.113	99.5
521.329	118.5
521.544	181.5
521.76	394.5
521.975	1575.5
522.19	937.5
522.406	220.5
522.621	107.5
522.836	93.5
523.052	103.5
523.267	90.5
523.482	91.5
523.698	101.5
523.913	112.5
524.128	111.5
524.343	104.5
524.559	99.5
524.774	90.5
524.989	92.5
525.204	86.5
525.419	86.5
525.634	76.5
525.849	99.5
526.064	94.5
526.28	85.5
526.495	86.5
526.71	89.5
526.925	87.5
527.14	99.5
527.355	96.5
527.57	89.5
527.785	96.5
527.999	93.5
528.214	102.5
528.429	94.5
528.644	86.5
528.859	91.5
529.074	89.5
529.289	116.5
529.503	142.5
529.718	91.5
529.933	80.5
530.148	104.5
530.363	94.5
530.577	96.5
530.792	94.5
531.007	95.5
531.221	99.5
531.436	88.5
531.651	90.5
531.865	96.5
532.08	98.5
532.295	94.5
532.509	91.5
532.724	88.5
532.938	93.5
533.153	114.5
533.367	107.5
533.582	79.5
533.796	88.5
534.011	99.5
534.225	90.5
534.44	88.5
534.654	96.5
534.868	82.5
535.083	98.5
535.297	102.5
535.511	89.5
535.726	87.5
535.94	96.5
536.154	98.5
536.369	84.5
