Data from Uncirc_1998_H10_HRD10591_00077.txt Node
Date: Wed Jan 03 11:25:40 EST 2024
User: Yrep
Spectrometer: HR+D1059
Trigger mode: 1
Integration Time (sec): 1.000000E-1
Scans to average: 1
Electric dark correction enabled: true
Nonlinearity correction enabled: false
Boxcar width: 0
XAxis mode: Wavelengths
Number of Pixels in Spectrum: 2048
>>>>>Begin Spectral Data<<<<<
223.165	-29.06
223.4	-29.06
223.635	-29.06
223.869	-28.06
224.104	-4.06
224.338	-16.06
224.573	-23.06
224.808	-20.06
225.042	-10.06
225.277	1.94
225.511	6.94
225.746	10.94
225.98	-2.06
226.215	9.94
226.449	11.94
226.683	26.94
226.918	27.94
227.152	35.94
227.387	34.94
227.621	20.94
227.856	42.94
228.09	43.94
228.324	46.94
228.559	51.94
228.793	65.94
229.027	49.94
229.262	71.94
229.496	73.94
229.73	87.94
229.964	83.94
230.199	73.94
230.433	73.94
230.667	78.94
230.901	85.94
231.136	88.94
231.37	69.94
231.604	79.94
231.838	62.94
232.072	83.94
232.306	78.94
232.541	73.94
232.775	62.94
233.009	85.94
233.243	83.94
233.477	71.94
233.711	78.94
233.945	60.94
234.179	76.94
234.413	70.94
234.647	78.94
234.881	61.94
235.115	70.94
235.349	66.94
235.583	81.94
235.817	71.94
236.051	69.94
236.285	68.94
236.519	67.94
236.753	67.94
236.987	87.94
237.221	77.94
237.455	79.94
237.689	63.94
237.922	74.94
238.156	66.94
238.39	68.94
238.624	64.94
238.858	60.94
239.091	72.94
239.325	68.94
239.559	76.94
239.793	76.94
240.027	70.94
240.26	76.94
240.494	67.94
240.728	69.94
240.961	74.94
241.195	71.94
241.429	71.94
241.662	72.94
241.896	75.94
242.13	76.94
242.363	51.94
242.597	69.94
242.83	63.94
243.064	73.94
243.298	62.94
243.531	58.94
243.765	79.94
243.998	72.94
244.232	84.94
244.465	75.94
244.699	81.94
244.932	71.94
245.166	81.94
245.399	70.94
245.633	85.94
245.866	78.94
246.099	75.94
246.333	69.94
246.566	76.94
246.8	63.94
247.033	73.94
247.266	70.94
247.5	78.94
247.733	73.94
247.966	81.94
248.2	83.94
248.433	76.94
248.666	73.94
248.899	72.94
249.133	78.94
249.366	86.94
249.599	110.94
249.832	67.94
250.066	80.94
250.299	67.94
250.532	65.94
250.765	84.94
250.998	75.94
251.231	84.94
251.465	89.94
251.698	70.94
251.931	76.94
252.164	82.94
252.397	69.94
252.63	74.94
252.863	70.94
253.096	84.94
253.329	74.94
253.562	75.94
253.795	86.94
254.028	79.94
254.261	89.94
254.494	70.94
254.727	75.94
254.96	63.94
255.193	70.94
255.426	70.94
255.659	80.94
255.892	78.94
256.124	81.94
256.357	77.94
256.59	78.94
256.823	87.94
257.056	76.94
257.289	83.94
257.521	71.94
257.754	76.94
257.987	72.94
258.22	75.94
258.452	67.94
258.685	93.94
258.918	73.94
259.151	86.94
259.383	76.94
259.616	82.94
259.849	84.94
260.081	78.94
260.314	86.94
260.547	73.94
260.779	87.94
261.012	73.94
261.244	88.94
261.477	92.94
261.71	91.94
261.942	101.94
262.175	120.94
262.407	99.94
262.64	85.94
262.872	70.94
263.105	80.94
263.337	82.94
263.57	89.94
263.802	86.94
264.035	85.94
264.267	82.94
264.499	61.94
264.732	82.94
264.964	69.94
265.197	91.94
265.429	86.94
265.661	63.94
265.894	69.94
266.126	76.94
266.358	86.94
266.591	75.94
266.823	67.94
267.055	77.94
267.287	84.94
267.52	78.94
267.752	90.94
267.984	90.94
268.216	85.94
268.448	70.94
268.681	90.94
268.913	91.94
269.145	73.94
269.377	95.94
269.609	84.94
269.841	86.94
270.073	62.94
270.306	76.94
270.538	72.94
270.77	81.94
271.002	87.94
271.234	74.94
271.466	87.94
271.698	71.94
271.93	79.94
272.162	84.94
272.394	77.94
272.626	83.94
272.858	75.94
273.09	73.94
273.322	91.94
273.553	89.94
273.785	84.94
274.017	83.94
274.249	99.94
274.481	92.94
274.713	82.94
274.945	68.94
275.176	75.94
275.408	75.94
275.64	69.94
275.872	81.94
276.104	85.94
276.335	79.94
276.567	100.94
276.799	94.94
277.031	96.94
277.262	74.94
277.494	75.94
277.726	70.94
277.957	81.94
278.189	86.94
278.421	78.94
278.652	84.94
278.884	76.94
279.115	84.94
279.347	82.94
279.579	80.94
279.81	71.94
280.042	77.94
280.273	94.94
280.505	85.94
280.736	78.94
280.968	80.94
281.199	99.94
281.431	92.94
281.662	83.94
281.894	99.94
282.125	91.94
282.356	118.94
282.588	141.94
282.819	103.94
283.051	87.94
283.282	81.94
283.513	87.94
283.745	82.94
283.976	91.94
284.207	92.94
284.439	83.94
284.67	89.94
284.901	69.94
285.132	92.94
285.364	82.94
285.595	72.94
285.826	91.94
286.057	97.94
286.288	69.94
286.52	90.94
286.751	78.94
286.982	80.94
287.213	81.94
287.444	85.94
287.675	85.94
287.906	90.94
288.138	76.94
288.369	85.94
288.6	78.94
288.831	92.94
289.062	68.94
289.293	88.94
289.524	89.94
289.755	83.94
289.986	88.94
290.217	80.94
290.448	85.94
290.679	84.94
290.91	82.94
291.141	70.94
291.371	92.94
291.602	88.94
291.833	86.94
292.064	91.94
292.295	84.94
292.526	77.94
292.757	71.94
292.987	89.94
293.218	84.94
293.449	83.94
293.68	79.94
293.91	94.94
294.141	86.94
294.372	83.94
294.603	77.94
294.833	83.94
295.064	86.94
295.295	96.94
295.525	82.94
295.756	108.94
295.987	111.94
296.217	123.94
296.448	113.94
296.679	80.94
296.909	88.94
297.14	79.94
297.37	81.94
297.601	72.94
297.831	79.94
298.062	93.94
298.292	93.94
298.523	85.94
298.753	88.94
298.984	103.94
299.214	90.94
299.445	90.94
299.675	89.94
299.905	81.94
300.136	73.94
300.366	76.94
300.597	89.94
300.827	99.94
301.057	107.94
301.288	95.94
301.518	81.94
301.748	86.94
301.979	103.94
302.209	77.94
302.439	66.94
302.669	88.94
302.9	62.94
303.13	90.94
303.36	93.94
303.59	99.94
303.82	91.94
304.051	94.94
304.281	80.94
304.511	94.94
304.741	82.94
304.971	98.94
305.201	96.94
305.431	68.94
305.661	98.94
305.891	75.94
306.121	101.94
306.352	87.94
306.582	101.94
306.812	94.94
307.042	83.94
307.272	79.94
307.502	87.94
307.731	81.94
307.961	85.94
308.191	69.94
308.421	85.94
308.651	100.94
308.881	88.94
309.111	93.94
309.341	83.94
309.571	81.94
309.8	85.94
310.03	84.94
310.26	93.94
310.49	98.94
310.72	81.94
310.949	86.94
311.179	102.94
311.409	79.94
311.639	106.94
311.868	105.94
312.098	84.94
312.328	81.94
312.557	98.94
312.787	105.94
313.017	101.94
313.246	99.94
313.476	101.94
313.706	101.94
313.935	87.94
314.165	87.94
314.394	95.94
314.624	103.94
314.853	98.94
315.083	97.94
315.312	98.94
315.542	89.94
315.771	105.94
316.001	97.94
316.23	87.94
316.46	80.94
316.689	83.94
316.919	83.94
317.148	91.94
317.377	85.94
317.607	95.94
317.836	87.94
318.065	82.94
318.295	83.94
318.524	87.94
318.753	85.94
318.983	89.94
319.212	94.94
319.441	102.94
319.67	122.94
319.9	78.94
320.129	84.94
320.358	89.94
320.587	91.94
320.816	95.94
321.046	85.94
321.275	103.94
321.504	88.94
321.733	87.94
321.962	104.94
322.191	98.94
322.42	90.94
322.649	101.94
322.878	95.94
323.108	117.94
323.337	104.94
323.566	125.94
323.795	135.94
324.024	213.94
324.253	392.94
324.482	791.94
324.71	1617.94
324.939	2087.94
325.168	782.94
325.397	246.94
325.626	146.94
325.855	121.94
326.084	116.94
326.313	126.94
326.542	131.94
326.77	218.94
326.999	441.94
327.228	905.94
327.457	1639.94
327.686	1283.94
327.914	355.94
328.143	203.94
328.372	160.94
328.6	121.94
328.829	111.94
329.058	122.94
329.287	122.94
329.515	85.94
329.744	89.94
329.972	96.94
330.201	95.94
330.43	101.94
330.658	100.94
330.887	132.94
331.115	117.94
331.344	92.94
331.572	105.94
331.801	110.94
332.03	94.94
332.258	84.94
332.486	76.94
332.715	88.94
332.943	94.94
333.172	92.94
333.4	85.94
333.629	85.94
333.857	96.94
334.085	91.94
334.314	96.94
334.542	103.94
334.771	92.94
334.999	96.94
335.227	90.94
335.455	95.94
335.684	107.94
335.912	93.94
336.14	84.94
336.369	94.94
336.597	103.94
336.825	90.94
337.053	102.94
337.281	93.94
337.51	90.94
337.738	95.94
337.966	98.94
338.194	101.94
338.422	107.94
338.65	107.94
338.878	77.94
339.106	82.94
339.334	85.94
339.562	99.94
339.79	87.94
340.018	93.94
340.246	74.94
340.474	100.94
340.702	83.94
340.93	89.94
341.158	83.94
341.386	94.94
341.614	82.94
341.842	83.94
342.07	91.94
342.298	101.94
342.526	87.94
342.754	89.94
342.981	82.94
343.209	106.94
343.437	107.94
343.665	87.94
343.893	84.94
344.12	90.94
344.348	89.94
344.576	82.94
344.804	63.94
345.031	87.94
345.259	85.94
345.487	86.94
345.714	97.94
345.942	95.94
346.17	84.94
346.397	94.94
346.625	97.94
346.853	82.94
347.08	83.94
347.308	81.94
347.535	99.94
347.763	92.94
347.99	97.94
348.218	95.94
348.445	103.94
348.673	90.94
348.9	103.94
349.128	93.94
349.355	80.94
349.583	78.94
349.81	93.94
350.037	87.94
350.265	97.94
350.492	85.94
350.72	98.94
350.947	93.94
351.174	120.94
351.402	116.94
351.629	102.94
351.856	94.94
352.083	91.94
352.311	111.94
352.538	107.94
352.765	101.94
352.992	87.94
353.22	97.94
353.447	88.94
353.674	98.94
353.901	91.94
354.128	97.94
354.355	90.94
354.583	110.94
354.81	106.94
355.037	107.94
355.264	95.94
355.491	76.94
355.718	71.94
355.945	91.94
356.172	89.94
356.399	83.94
356.626	87.94
356.853	88.94
357.08	93.94
357.307	86.94
357.534	79.94
357.761	113.94
357.988	97.94
358.215	91.94
358.441	90.94
358.668	90.94
358.895	95.94
359.122	80.94
359.349	86.94
359.576	90.94
359.802	100.94
360.029	101.94
360.256	104.94
360.483	81.94
360.709	94.94
360.936	86.94
361.163	104.94
361.39	76.94
361.616	93.94
361.843	88.94
362.07	81.94
362.296	88.94
362.523	80.94
362.749	85.94
362.976	88.94
363.203	94.94
363.429	90.94
363.656	91.94
363.882	76.94
364.109	90.94
364.335	78.94
364.562	79.94
364.788	81.94
365.015	77.94
365.241	104.94
365.468	117.94
365.694	101.94
365.92	86.94
366.147	75.94
366.373	75.94
366.599	82.94
366.826	66.94
367.052	80.94
367.278	89.94
367.505	92.94
367.731	94.94
367.957	95.94
368.184	95.94
368.41	76.94
368.636	105.94
368.862	115.94
369.089	114.94
369.315	92.94
369.541	87.94
369.767	83.94
369.993	105.94
370.219	85.94
370.445	84.94
370.672	65.94
370.898	81.94
371.124	87.94
371.35	89.94
371.576	85.94
371.802	93.94
372.028	90.94
372.254	73.94
372.48	94.94
372.706	99.94
372.932	79.94
373.158	84.94
373.384	91.94
373.61	81.94
373.835	90.94
374.061	85.94
374.287	80.94
374.513	87.94
374.739	75.94
374.965	84.94
375.191	82.94
375.416	90.94
375.642	85.94
375.868	104.94
376.094	86.94
376.319	89.94
376.545	89.94
376.771	95.94
376.997	79.94
377.222	82.94
377.448	100.94
377.674	84.94
377.899	91.94
378.125	73.94
378.35	76.94
378.576	83.94
378.802	81.94
379.027	87.94
379.253	93.94
379.478	83.94
379.704	86.94
379.929	85.94
380.155	89.94
380.38	86.94
380.606	90.94
380.831	82.94
381.057	83.94
381.282	93.94
381.507	81.94
381.733	97.94
381.958	104.94
382.184	87.94
382.409	84.94
382.634	105.94
382.86	93.94
383.085	98.94
383.31	93.94
383.535	82.94
383.761	86.94
383.986	87.94
384.211	94.94
384.436	72.94
384.662	84.94
384.887	85.94
385.112	85.94
385.337	104.94
385.562	101.94
385.787	91.94
386.013	101.94
386.238	101.94
386.463	101.94
386.688	89.94
386.913	93.94
387.138	97.94
387.363	92.94
387.588	94.94
387.813	105.94
388.038	89.94
388.263	99.94
388.488	95.94
388.713	92.94
388.938	101.94
389.163	83.94
389.387	83.94
389.612	102.94
389.837	89.94
390.062	76.94
390.287	97.94
390.512	81.94
390.736	85.94
390.961	104.94
391.186	95.94
391.411	99.94
391.636	93.94
391.86	71.94
392.085	90.94
392.31	79.94
392.534	83.94
392.759	81.94
392.984	90.94
393.208	90.94
393.433	88.94
393.658	80.94
393.882	90.94
394.107	84.94
394.331	100.94
394.556	70.94
394.78	95.94
395.005	90.94
395.229	78.94
395.454	65.94
395.678	86.94
395.903	98.94
396.127	87.94
396.352	69.94
396.576	86.94
396.801	88.94
397.025	88.94
397.249	70.94
397.474	73.94
397.698	74.94
397.922	90.94
398.147	73.94
398.371	89.94
398.595	97.94
398.82	85.94
399.044	94.94
399.268	82.94
399.492	75.94
399.717	88.94
399.941	87.94
400.165	93.94
400.389	89.94
400.613	75.94
400.837	76.94
401.062	81.94
401.286	85.94
401.51	85.94
401.734	82.94
401.958	83.94
402.182	119.94
402.406	139.94
402.63	101.94
402.854	83.94
403.078	89.94
403.302	85.94
403.526	85.94
403.75	86.94
403.974	89.94
404.198	82.94
404.422	81.94
404.645	87.94
404.869	97.94
405.093	80.94
405.317	89.94
405.541	95.94
405.765	83.94
405.988	115.94
406.212	147.94
406.436	203.94
406.66	124.94
406.883	93.94
407.107	87.94
407.331	88.94
407.555	90.94
407.778	78.94
408.002	78.94
408.226	77.94
408.449	91.94
408.673	86.94
408.896	85.94
409.12	99.94
409.344	92.94
409.567	92.94
409.791	97.94
410.014	95.94
410.238	88.94
410.461	89.94
410.685	98.94
410.908	84.94
411.132	90.94
411.355	79.94
411.578	101.94
411.802	66.94
412.025	74.94
412.249	103.94
412.472	73.94
412.695	83.94
412.919	81.94
413.142	87.94
413.365	87.94
413.589	86.94
413.812	74.94
414.035	92.94
414.258	94.94
414.482	74.94
414.705	91.94
414.928	75.94
415.151	100.94
415.374	87.94
415.597	82.94
415.821	82.94
416.044	101.94
416.267	90.94
416.49	84.94
416.713	73.94
416.936	79.94
417.159	81.94
417.382	76.94
417.605	85.94
417.828	94.94
418.051	79.94
418.274	93.94
418.497	89.94
418.72	98.94
418.943	81.94
419.166	81.94
419.389	80.94
419.611	77.94
419.834	77.94
420.057	77.94
420.28	72.94
420.503	83.94
420.726	72.94
420.948	70.94
421.171	71.94
421.394	85.94
421.617	89.94
421.839	85.94
422.062	92.94
422.285	89.94
422.507	100.94
422.73	103.94
422.953	85.94
423.175	83.94
423.398	93.94
423.621	81.94
423.843	86.94
424.066	82.94
424.288	88.94
424.511	76.94
424.733	92.94
424.956	104.94
425.178	109.94
425.401	97.94
425.623	107.94
425.846	72.94
426.068	97.94
426.291	72.94
426.513	77.94
426.735	94.94
426.958	87.94
427.18	91.94
427.402	125.94
427.625	143.94
427.847	124.94
428.069	95.94
428.292	89.94
428.514	85.94
428.736	83.94
428.958	84.94
429.181	80.94
429.403	62.94
429.625	90.94
429.847	80.94
430.069	88.94
430.292	93.94
430.514	67.94
430.736	85.94
430.958	89.94
431.18	75.94
431.402	85.94
431.624	85.94
431.846	78.94
432.068	89.94
432.29	96.94
432.512	103.94
432.734	84.94
432.956	81.94
433.178	93.94
433.4	106.94
433.622	92.94
433.844	75.94
434.066	85.94
434.287	85.94
434.509	92.94
434.731	83.94
434.953	81.94
435.175	82.94
435.397	60.94
435.618	99.94
435.84	113.94
436.062	102.94
436.284	108.94
436.505	92.94
436.727	101.94
436.949	85.94
437.17	95.94
437.392	83.94
437.614	93.94
437.835	85.94
438.057	113.94
438.278	112.94
438.5	113.94
438.721	122.94
438.943	81.94
439.165	86.94
439.386	76.94
439.608	83.94
439.829	88.94
440.05	104.94
440.272	141.94
440.493	97.94
440.715	84.94
440.936	72.94
441.158	89.94
441.379	101.94
441.6	92.94
441.822	79.94
442.043	89.94
442.264	92.94
442.486	88.94
442.707	95.94
442.928	91.94
443.149	120.94
443.371	124.94
443.592	93.94
443.813	99.94
444.034	109.94
444.255	92.94
444.476	63.94
444.698	89.94
444.919	90.94
445.14	125.94
445.361	126.94
445.582	104.94
445.803	132.94
446.024	133.94
446.245	131.94
446.466	92.94
446.687	94.94
446.908	89.94
447.129	81.94
447.35	96.94
447.571	77.94
447.792	89.94
448.013	93.94
448.234	103.94
448.455	91.94
448.675	98.94
448.896	114.94
449.117	96.94
449.338	92.94
449.559	121.94
449.779	113.94
450	84.94
450.221	66.94
450.442	86.94
450.662	90.94
450.883	94.94
451.104	107.94
451.324	85.94
451.545	80.94
451.766	93.94
451.986	81.94
452.207	87.94
452.428	86.94
452.648	95.94
452.869	105.94
453.089	101.94
453.31	123.94
453.53	97.94
453.751	82.94
453.971	90.94
454.192	94.94
454.412	77.94
454.633	87.94
454.853	75.94
455.073	89.94
455.294	87.94
455.514	101.94
455.734	87.94
455.955	96.94
456.175	86.94
456.395	84.94
456.616	78.94
456.836	80.94
457.056	89.94
457.276	81.94
457.497	85.94
457.717	73.94
457.937	85.94
458.157	95.94
458.377	84.94
458.598	105.94
458.818	136.94
459.038	132.94
459.258	111.94
459.478	81.94
459.698	73.94
459.918	76.94
460.138	74.94
460.358	72.94
460.578	82.94
460.798	97.94
461.018	82.94
461.238	71.94
461.458	81.94
461.678	76.94
461.898	79.94
462.118	81.94
462.338	65.94
462.558	76.94
462.777	82.94
462.997	85.94
463.217	85.94
463.437	85.94
463.657	72.94
463.876	88.94
464.096	86.94
464.316	86.94
464.536	90.94
464.755	67.94
464.975	113.94
465.195	135.94
465.414	158.94
465.634	95.94
465.854	78.94
466.073	82.94
466.293	75.94
466.512	86.94
466.732	82.94
466.951	75.94
467.171	83.94
467.391	85.94
467.61	110.94
467.829	87.94
468.049	91.94
468.268	86.94
468.488	86.94
468.707	95.94
468.927	83.94
469.146	89.94
469.365	88.94
469.585	77.94
469.804	76.94
470.023	75.94
470.243	89.94
470.462	101.94
470.681	106.94
470.901	79.94
471.12	78.94
471.339	80.94
471.558	77.94
471.777	76.94
471.997	66.94
472.216	89.94
472.435	91.94
472.654	81.94
472.873	71.94
473.092	89.94
473.311	89.94
473.53	82.94
473.749	73.94
473.968	97.94
474.187	97.94
474.406	95.94
474.625	71.94
474.844	89.94
475.063	79.94
475.282	87.94
475.501	87.94
475.72	93.94
475.939	83.94
476.158	75.94
476.377	75.94
476.596	103.94
476.814	86.94
477.033	83.94
477.252	83.94
477.471	77.94
477.69	87.94
477.908	80.94
478.127	87.94
478.346	99.94
478.564	106.94
478.783	108.94
479.002	103.94
479.22	86.94
479.439	85.94
479.658	99.94
479.876	92.94
480.095	85.94
480.313	94.94
480.532	94.94
480.751	81.94
480.969	78.94
481.188	91.94
481.406	102.94
481.624	74.94
481.843	79.94
482.061	83.94
482.28	93.94
482.498	91.94
482.717	86.94
482.935	85.94
483.153	86.94
483.372	75.94
483.59	82.94
483.808	72.94
484.027	88.94
484.245	81.94
484.463	83.94
484.681	78.94
484.9	90.94
485.118	85.94
485.336	82.94
485.554	89.94
485.772	84.94
485.99	94.94
486.209	83.94
486.427	106.94
486.645	99.94
486.863	96.94
487.081	78.94
487.299	85.94
487.517	93.94
487.735	95.94
487.953	95.94
488.171	95.94
488.389	86.94
488.607	94.94
488.825	77.94
489.043	79.94
489.261	85.94
489.479	89.94
489.696	82.94
489.914	84.94
490.132	90.94
490.35	84.94
490.568	71.94
490.786	91.94
491.003	75.94
491.221	79.94
491.439	83.94
491.657	85.94
491.874	74.94
492.092	83.94
492.31	80.94
492.527	86.94
492.745	91.94
492.963	96.94
493.18	84.94
493.398	86.94
493.615	106.94
493.833	99.94
494.05	82.94
494.268	94.94
494.485	88.94
494.703	71.94
494.92	92.94
495.138	96.94
495.355	92.94
495.573	99.94
495.79	86.94
496.008	84.94
496.225	79.94
496.442	94.94
496.66	97.94
496.877	92.94
497.094	93.94
497.312	90.94
497.529	74.94
497.746	85.94
497.963	89.94
498.181	90.94
498.398	100.94
498.615	96.94
498.832	114.94
499.049	95.94
499.267	75.94
499.484	89.94
499.701	80.94
499.918	102.94
500.135	81.94
500.352	81.94
500.569	88.94
500.786	91.94
501.003	93.94
501.22	89.94
501.437	92.94
501.654	83.94
501.871	108.94
502.088	105.94
502.305	83.94
502.522	81.94
502.739	88.94
502.956	85.94
503.172	88.94
503.389	92.94
503.606	93.94
503.823	87.94
504.04	78.94
504.256	83.94
504.473	87.94
504.69	85.94
504.907	79.94
505.123	94.94
505.34	88.94
505.557	86.94
505.773	95.94
505.99	76.94
506.207	83.94
506.423	86.94
506.64	89.94
506.856	89.94
507.073	88.94
507.289	71.94
507.506	100.94
507.722	108.94
507.939	106.94
508.155	91.94
508.372	95.94
508.588	90.94
508.805	95.94
509.021	84.94
509.238	108.94
509.454	82.94
509.67	86.94
509.887	109.94
510.103	139.94
510.319	204.94
510.536	753.94
510.752	2311.94
510.968	635.94
511.184	160.94
511.401	99.94
511.617	112.94
511.833	81.94
512.049	87.94
512.265	86.94
512.481	93.94
512.698	85.94
512.914	96.94
513.13	98.94
513.346	95.94
513.562	90.94
513.778	95.94
513.994	89.94
514.21	108.94
514.426	114.94
514.642	133.94
514.858	105.94
515.074	168.94
515.29	419.94
515.506	1395.94
515.721	501.94
515.937	143.94
516.153	108.94
516.369	90.94
516.585	79.94
516.801	94.94
517.016	98.94
517.232	90.94
