Data from Uncirc_1998_H10_HRD10591_00071.txt Node
Date: Wed Jan 03 11:25:39 EST 2024
User: Yrep
Spectrometer: HR+D1059
Trigger mode: 1
Integration Time (sec): 1.000000E-1
Scans to average: 1
Electric dark correction enabled: true
Nonlinearity correction enabled: false
Boxcar width: 0
XAxis mode: Wavelengths
Number of Pixels in Spectrum: 2048
>>>>>Begin Spectral Data<<<<<
223.165	-16.62
223.4	-16.62
223.635	-16.62
223.869	-20.62
224.104	-21.62
224.338	-30.62
224.573	-5.62
224.808	0.38
225.042	-4.62
225.277	-12.62
225.511	-6.62
225.746	-2.62
225.98	16.38
226.215	13.38
226.449	7.38
226.683	16.38
226.918	36.38
227.152	31.38
227.387	47.38
227.621	54.38
227.856	50.38
228.09	41.38
228.324	54.38
228.559	53.38
228.793	64.38
229.027	62.38
229.262	72.38
229.496	81.38
229.73	89.38
229.964	84.38
230.199	89.38
230.433	79.38
230.667	77.38
230.901	91.38
231.136	97.38
231.37	88.38
231.604	81.38
231.838	83.38
232.072	82.38
232.306	75.38
232.541	80.38
232.775	77.38
233.009	74.38
233.243	95.38
233.477	82.38
233.711	97.38
233.945	92.38
234.179	85.38
234.413	94.38
234.647	85.38
234.881	79.38
235.115	95.38
235.349	80.38
235.583	79.38
235.817	80.38
236.051	81.38
236.285	79.38
236.519	83.38
236.753	68.38
236.987	79.38
237.221	97.38
237.455	80.38
237.689	92.38
237.922	65.38
238.156	79.38
238.39	72.38
238.624	78.38
238.858	73.38
239.091	89.38
239.325	73.38
239.559	81.38
239.793	79.38
240.027	65.38
240.26	75.38
240.494	76.38
240.728	69.38
240.961	89.38
241.195	84.38
241.429	83.38
241.662	90.38
241.896	94.38
242.13	80.38
242.363	82.38
242.597	83.38
242.83	77.38
243.064	82.38
243.298	84.38
243.531	78.38
243.765	81.38
243.998	81.38
244.232	75.38
244.465	78.38
244.699	89.38
244.932	94.38
245.166	94.38
245.399	84.38
245.633	83.38
245.866	72.38
246.099	87.38
246.333	68.38
246.566	77.38
246.8	78.38
247.033	78.38
247.266	84.38
247.5	93.38
247.733	85.38
247.966	81.38
248.2	81.38
248.433	90.38
248.666	79.38
248.899	80.38
249.133	88.38
249.366	84.38
249.599	94.38
249.832	85.38
250.066	83.38
250.299	87.38
250.532	93.38
250.765	65.38
250.998	77.38
251.231	84.38
251.465	70.38
251.698	84.38
251.931	91.38
252.164	91.38
252.397	98.38
252.63	85.38
252.863	78.38
253.096	73.38
253.329	93.38
253.562	89.38
253.795	77.38
254.028	85.38
254.261	76.38
254.494	94.38
254.727	93.38
254.96	89.38
255.193	81.38
255.426	84.38
255.659	75.38
255.892	81.38
256.124	89.38
256.357	95.38
256.59	87.38
256.823	88.38
257.056	79.38
257.289	82.38
257.521	99.38
257.754	77.38
257.987	86.38
258.22	89.38
258.452	86.38
258.685	83.38
258.918	84.38
259.151	89.38
259.383	99.38
259.616	78.38
259.849	91.38
260.081	93.38
260.314	86.38
260.547	81.38
260.779	87.38
261.012	98.38
261.244	85.38
261.477	77.38
261.71	95.38
261.942	109.38
262.175	92.38
262.407	87.38
262.64	77.38
262.872	90.38
263.105	87.38
263.337	77.38
263.57	95.38
263.802	93.38
264.035	85.38
264.267	81.38
264.499	84.38
264.732	95.38
264.964	84.38
265.197	91.38
265.429	83.38
265.661	99.38
265.894	82.38
266.126	102.38
266.358	108.38
266.591	82.38
266.823	75.38
267.055	92.38
267.287	88.38
267.52	65.38
267.752	79.38
267.984	79.38
268.216	85.38
268.448	82.38
268.681	88.38
268.913	91.38
269.145	75.38
269.377	80.38
269.609	74.38
269.841	88.38
270.073	80.38
270.306	99.38
270.538	66.38
270.77	91.38
271.002	89.38
271.234	80.38
271.466	91.38
271.698	98.38
271.93	91.38
272.162	101.38
272.394	105.38
272.626	74.38
272.858	85.38
273.09	73.38
273.322	92.38
273.553	96.38
273.785	103.38
274.017	70.38
274.249	87.38
274.481	97.38
274.713	91.38
274.945	99.38
275.176	91.38
275.408	86.38
275.64	79.38
275.872	87.38
276.104	100.38
276.335	75.38
276.567	106.38
276.799	112.38
277.031	90.38
277.262	101.38
277.494	87.38
277.726	93.38
277.957	103.38
278.189	108.38
278.421	80.38
278.652	84.38
278.884	102.38
279.115	93.38
279.347	94.38
279.579	85.38
279.81	89.38
280.042	87.38
280.273	90.38
280.505	93.38
280.736	72.38
280.968	79.38
281.199	102.38
281.431	89.38
281.662	92.38
281.894	99.38
282.125	100.38
282.356	117.38
282.588	131.38
282.819	108.38
283.051	94.38
283.282	82.38
283.513	84.38
283.745	98.38
283.976	93.38
284.207	96.38
284.439	105.38
284.67	91.38
284.901	90.38
285.132	97.38
285.364	94.38
285.595	95.38
285.826	90.38
286.057	103.38
286.288	100.38
286.52	90.38
286.751	89.38
286.982	87.38
287.213	85.38
287.444	89.38
287.675	95.38
287.906	94.38
288.138	89.38
288.369	86.38
288.6	76.38
288.831	86.38
289.062	90.38
289.293	89.38
289.524	90.38
289.755	85.38
289.986	93.38
290.217	85.38
290.448	93.38
290.679	97.38
290.91	73.38
291.141	78.38
291.371	100.38
291.602	90.38
291.833	94.38
292.064	92.38
292.295	92.38
292.526	87.38
292.757	84.38
292.987	87.38
293.218	89.38
293.449	96.38
293.68	93.38
293.91	86.38
294.141	95.38
294.372	102.38
294.603	107.38
294.833	96.38
295.064	94.38
295.295	86.38
295.525	100.38
295.756	103.38
295.987	109.38
296.217	124.38
296.448	109.38
296.679	102.38
296.909	117.38
297.14	101.38
297.37	85.38
297.601	86.38
297.831	92.38
298.062	93.38
298.292	89.38
298.523	101.38
298.753	105.38
298.984	82.38
299.214	81.38
299.445	100.38
299.675	91.38
299.905	87.38
300.136	100.38
300.366	97.38
300.597	89.38
300.827	98.38
301.057	111.38
301.288	94.38
301.518	91.38
301.748	102.38
301.979	103.38
302.209	90.38
302.439	97.38
302.669	104.38
302.9	95.38
303.13	102.38
303.36	76.38
303.59	101.38
303.82	102.38
304.051	111.38
304.281	101.38
304.511	102.38
304.741	105.38
304.971	96.38
305.201	104.38
305.431	91.38
305.661	108.38
305.891	88.38
306.121	93.38
306.352	99.38
306.582	95.38
306.812	109.38
307.042	100.38
307.272	98.38
307.502	86.38
307.731	104.38
307.961	98.38
308.191	86.38
308.421	80.38
308.651	103.38
308.881	93.38
309.111	105.38
309.341	100.38
309.571	90.38
309.8	92.38
310.03	93.38
310.26	102.38
310.49	89.38
310.72	103.38
310.949	100.38
311.179	105.38
311.409	82.38
311.639	97.38
311.868	91.38
312.098	96.38
312.328	98.38
312.557	100.38
312.787	119.38
313.017	116.38
313.246	85.38
313.476	107.38
313.706	84.38
313.935	108.38
314.165	89.38
314.394	101.38
314.624	96.38
314.853	89.38
315.083	100.38
315.312	84.38
315.542	94.38
315.771	98.38
316.001	88.38
316.23	76.38
316.46	102.38
316.689	102.38
316.919	94.38
317.148	104.38
317.377	98.38
317.607	95.38
317.836	97.38
318.065	106.38
318.295	107.38
318.524	85.38
318.753	95.38
318.983	94.38
319.212	100.38
319.441	111.38
319.67	99.38
319.9	88.38
320.129	102.38
320.358	106.38
320.587	100.38
320.816	101.38
321.046	97.38
321.275	84.38
321.504	88.38
321.733	107.38
321.962	91.38
322.191	99.38
322.42	109.38
322.649	98.38
322.878	103.38
323.108	111.38
323.337	115.38
323.566	128.38
323.795	154.38
324.024	190.38
324.253	341.38
324.482	717.38
324.71	1404.38
324.939	1821.38
325.168	683.38
325.397	206.38
325.626	145.38
325.855	130.38
326.084	134.38
326.313	136.38
326.542	137.38
326.77	226.38
326.999	394.38
327.228	833.38
327.457	1471.38
327.686	1143.38
327.914	313.38
328.143	189.38
328.372	131.38
328.6	110.38
328.829	106.38
329.058	103.38
329.287	118.38
329.515	124.38
329.744	113.38
329.972	98.38
330.201	110.38
330.43	108.38
330.658	110.38
330.887	124.38
331.115	113.38
331.344	102.38
331.572	96.38
331.801	96.38
332.03	98.38
332.258	106.38
332.486	90.38
332.715	115.38
332.943	89.38
333.172	105.38
333.4	111.38
333.629	96.38
333.857	123.38
334.085	114.38
334.314	109.38
334.542	102.38
334.771	106.38
334.999	103.38
335.227	91.38
335.455	92.38
335.684	89.38
335.912	94.38
336.14	94.38
336.369	94.38
336.597	109.38
336.825	93.38
337.053	95.38
337.281	102.38
337.51	83.38
337.738	100.38
337.966	90.38
338.194	99.38
338.422	106.38
338.65	105.38
338.878	113.38
339.106	74.38
339.334	93.38
339.562	93.38
339.79	109.38
340.018	96.38
340.246	80.38
340.474	99.38
340.702	99.38
340.93	101.38
341.158	98.38
341.386	93.38
341.614	105.38
341.842	86.38
342.07	94.38
342.298	76.38
342.526	101.38
342.754	81.38
342.981	95.38
343.209	80.38
343.437	117.38
343.665	93.38
343.893	86.38
344.12	107.38
344.348	94.38
344.576	94.38
344.804	94.38
345.031	109.38
345.259	99.38
345.487	95.38
345.714	98.38
345.942	78.38
346.17	91.38
346.397	93.38
346.625	90.38
346.853	97.38
347.08	89.38
347.308	101.38
347.535	90.38
347.763	99.38
347.99	101.38
348.218	102.38
348.445	103.38
348.673	91.38
348.9	102.38
349.128	91.38
349.355	99.38
349.583	98.38
349.81	83.38
350.037	99.38
350.265	100.38
350.492	86.38
350.72	99.38
350.947	101.38
351.174	109.38
351.402	119.38
351.629	97.38
351.856	103.38
352.083	103.38
352.311	110.38
352.538	89.38
352.765	128.38
352.992	107.38
353.22	99.38
353.447	113.38
353.674	101.38
353.901	100.38
354.128	100.38
354.355	102.38
354.583	91.38
354.81	108.38
355.037	104.38
355.264	98.38
355.491	93.38
355.718	107.38
355.945	97.38
356.172	102.38
356.399	107.38
356.626	94.38
356.853	78.38
357.08	101.38
357.307	91.38
357.534	96.38
357.761	91.38
357.988	111.38
358.215	98.38
358.441	100.38
358.668	99.38
358.895	89.38
359.122	106.38
359.349	68.38
359.576	106.38
359.802	83.38
360.029	111.38
360.256	101.38
360.483	113.38
360.709	88.38
360.936	95.38
361.163	98.38
361.39	105.38
361.616	105.38
361.843	114.38
362.07	83.38
362.296	89.38
362.523	96.38
362.749	96.38
362.976	96.38
363.203	101.38
363.429	98.38
363.656	102.38
363.882	98.38
364.109	110.38
364.335	95.38
364.562	99.38
364.788	106.38
365.015	96.38
365.241	105.38
365.468	109.38
365.694	121.38
365.92	86.38
366.147	93.38
366.373	90.38
366.599	90.38
366.826	99.38
367.052	93.38
367.278	103.38
367.505	103.38
367.731	94.38
367.957	89.38
368.184	102.38
368.41	99.38
368.636	114.38
368.862	108.38
369.089	102.38
369.315	106.38
369.541	100.38
369.767	90.38
369.993	89.38
370.219	97.38
370.445	86.38
370.672	107.38
370.898	113.38
371.124	91.38
371.35	82.38
371.576	90.38
371.802	98.38
372.028	91.38
372.254	84.38
372.48	98.38
372.706	101.38
372.932	86.38
373.158	81.38
373.384	103.38
373.61	79.38
373.835	90.38
374.061	95.38
374.287	94.38
374.513	87.38
374.739	85.38
374.965	96.38
375.191	103.38
375.416	80.38
375.642	88.38
375.868	93.38
376.094	90.38
376.319	95.38
376.545	90.38
376.771	85.38
376.997	96.38
377.222	80.38
377.448	94.38
377.674	96.38
377.899	86.38
378.125	91.38
378.35	92.38
378.576	91.38
378.802	104.38
379.027	91.38
379.253	83.38
379.478	89.38
379.704	99.38
379.929	82.38
380.155	91.38
380.38	96.38
380.606	101.38
380.831	97.38
381.057	97.38
381.282	93.38
381.507	107.38
381.733	102.38
381.958	89.38
382.184	105.38
382.409	98.38
382.634	104.38
382.86	89.38
383.085	96.38
383.31	105.38
383.535	113.38
383.761	100.38
383.986	101.38
384.211	94.38
384.436	91.38
384.662	101.38
384.887	119.38
385.112	117.38
385.337	97.38
385.562	103.38
385.787	92.38
386.013	103.38
386.238	106.38
386.463	114.38
386.688	107.38
386.913	104.38
387.138	104.38
387.363	114.38
387.588	93.38
387.813	102.38
388.038	87.38
388.263	87.38
388.488	87.38
388.713	102.38
388.938	99.38
389.163	107.38
389.387	99.38
389.612	93.38
389.837	97.38
390.062	91.38
390.287	114.38
390.512	105.38
390.736	107.38
390.961	89.38
391.186	92.38
391.411	91.38
391.636	95.38
391.86	101.38
392.085	94.38
392.31	100.38
392.534	80.38
392.759	90.38
392.984	91.38
393.208	83.38
393.433	87.38
393.658	104.38
393.882	79.38
394.107	86.38
394.331	83.38
394.556	73.38
394.78	95.38
395.005	96.38
395.229	91.38
395.454	82.38
395.678	98.38
395.903	87.38
396.127	95.38
396.352	95.38
396.576	86.38
396.801	91.38
397.025	89.38
397.249	81.38
397.474	79.38
397.698	91.38
397.922	101.38
398.147	93.38
398.371	98.38
398.595	101.38
398.82	102.38
399.044	72.38
399.268	93.38
399.492	88.38
399.717	84.38
399.941	85.38
400.165	94.38
400.389	85.38
400.613	89.38
400.837	80.38
401.062	94.38
401.286	82.38
401.51	92.38
401.734	89.38
401.958	97.38
402.182	118.38
402.406	142.38
402.63	107.38
402.854	90.38
403.078	82.38
403.302	83.38
403.526	97.38
403.75	90.38
403.974	87.38
404.198	81.38
404.422	95.38
404.645	79.38
404.869	94.38
405.093	91.38
405.317	93.38
405.541	98.38
405.765	111.38
405.988	105.38
406.212	134.38
406.436	195.38
406.66	135.38
406.883	101.38
407.107	102.38
407.331	109.38
407.555	106.38
407.778	106.38
408.002	82.38
408.226	90.38
408.449	92.38
408.673	88.38
408.896	93.38
409.12	84.38
409.344	79.38
409.567	91.38
409.791	86.38
410.014	101.38
410.238	81.38
410.461	95.38
410.685	103.38
410.908	95.38
411.132	101.38
411.355	86.38
411.578	86.38
411.802	82.38
412.025	85.38
412.249	77.38
412.472	87.38
412.695	93.38
412.919	77.38
413.142	89.38
413.365	86.38
413.589	96.38
413.812	98.38
414.035	100.38
414.258	90.38
414.482	84.38
414.705	104.38
414.928	95.38
415.151	85.38
415.374	93.38
415.597	78.38
415.821	85.38
416.044	93.38
416.267	87.38
416.49	100.38
416.713	97.38
416.936	106.38
417.159	88.38
417.382	87.38
417.605	100.38
417.828	94.38
418.051	82.38
418.274	97.38
418.497	92.38
418.72	92.38
418.943	104.38
419.166	91.38
419.389	99.38
419.611	90.38
419.834	75.38
420.057	92.38
420.28	87.38
420.503	102.38
420.726	89.38
420.948	94.38
421.171	95.38
421.394	96.38
421.617	98.38
421.839	106.38
422.062	88.38
422.285	100.38
422.507	114.38
422.73	105.38
422.953	102.38
423.175	100.38
423.398	85.38
423.621	87.38
423.843	87.38
424.066	70.38
424.288	100.38
424.511	100.38
424.733	85.38
424.956	101.38
425.178	99.38
425.401	105.38
425.623	94.38
425.846	81.38
426.068	95.38
426.291	85.38
426.513	80.38
426.735	105.38
426.958	92.38
427.18	89.38
427.402	135.38
427.625	145.38
427.847	123.38
428.069	99.38
428.292	98.38
428.514	82.38
428.736	77.38
428.958	85.38
429.181	86.38
429.403	88.38
429.625	83.38
429.847	89.38
430.069	87.38
430.292	97.38
430.514	105.38
430.736	91.38
430.958	92.38
431.18	101.38
431.402	91.38
431.624	78.38
431.846	77.38
432.068	87.38
432.29	99.38
432.512	92.38
432.734	94.38
432.956	98.38
433.178	103.38
433.4	93.38
433.622	93.38
433.844	84.38
434.066	76.38
434.287	108.38
434.509	89.38
434.731	98.38
434.953	99.38
435.175	91.38
435.397	88.38
435.618	99.38
435.84	82.38
436.062	116.38
436.284	93.38
436.505	106.38
436.727	114.38
436.949	94.38
437.17	100.38
437.392	87.38
437.614	91.38
437.835	90.38
438.057	109.38
438.278	95.38
438.5	97.38
438.721	130.38
438.943	101.38
439.165	93.38
439.386	96.38
439.608	98.38
439.829	106.38
440.05	124.38
440.272	129.38
440.493	90.38
440.715	100.38
440.936	93.38
441.158	82.38
441.379	99.38
441.6	97.38
441.822	95.38
442.043	95.38
442.264	99.38
442.486	86.38
442.707	81.38
442.928	100.38
443.149	117.38
443.371	120.38
443.592	113.38
443.813	117.38
444.034	103.38
444.255	91.38
444.476	94.38
444.698	89.38
444.919	101.38
445.14	135.38
445.361	131.38
445.582	112.38
445.803	135.38
446.024	122.38
446.245	137.38
446.466	98.38
446.687	87.38
446.908	93.38
447.129	87.38
447.35	96.38
447.571	105.38
447.792	96.38
448.013	97.38
448.234	109.38
448.455	99.38
448.675	108.38
448.896	108.38
449.117	90.38
449.338	102.38
449.559	125.38
449.779	129.38
450	98.38
450.221	82.38
450.442	109.38
450.662	109.38
450.883	119.38
451.104	108.38
451.324	86.38
451.545	89.38
451.766	96.38
451.986	91.38
452.207	91.38
452.428	85.38
452.648	95.38
452.869	109.38
453.089	97.38
453.31	115.38
453.53	89.38
453.751	93.38
453.971	100.38
454.192	113.38
454.412	89.38
454.633	97.38
454.853	98.38
455.073	89.38
455.294	99.38
455.514	94.38
455.734	99.38
455.955	98.38
456.175	80.38
456.395	94.38
456.616	81.38
456.836	86.38
457.056	84.38
457.276	84.38
457.497	76.38
457.717	78.38
457.937	78.38
458.157	103.38
458.377	103.38
458.598	103.38
458.818	128.38
459.038	150.38
459.258	94.38
459.478	72.38
459.698	94.38
459.918	97.38
460.138	78.38
460.358	84.38
460.578	85.38
460.798	78.38
461.018	89.38
461.238	93.38
461.458	82.38
461.678	88.38
461.898	85.38
462.118	102.38
462.338	90.38
462.558	94.38
462.777	78.38
462.997	84.38
463.217	82.38
463.437	81.38
463.657	91.38
463.876	79.38
464.096	102.38
464.316	102.38
464.536	90.38
464.755	94.38
464.975	103.38
465.195	151.38
465.414	134.38
465.634	94.38
465.854	93.38
466.073	93.38
466.293	91.38
466.512	83.38
466.732	79.38
466.951	88.38
467.171	91.38
467.391	88.38
467.61	119.38
467.829	102.38
468.049	93.38
468.268	97.38
468.488	95.38
468.707	92.38
468.927	85.38
469.146	90.38
469.365	83.38
469.585	85.38
469.804	90.38
470.023	102.38
470.243	108.38
470.462	81.38
470.681	85.38
470.901	85.38
471.12	78.38
471.339	94.38
471.558	70.38
471.777	113.38
471.997	97.38
472.216	105.38
472.435	106.38
472.654	93.38
472.873	83.38
473.092	89.38
473.311	89.38
473.53	99.38
473.749	84.38
473.968	88.38
474.187	93.38
474.406	110.38
474.625	83.38
474.844	94.38
475.063	90.38
475.282	91.38
475.501	93.38
475.72	88.38
475.939	91.38
476.158	75.38
476.377	74.38
476.596	90.38
476.814	95.38
477.033	78.38
477.252	92.38
477.471	89.38
477.69	93.38
477.908	68.38
478.127	88.38
478.346	89.38
478.564	93.38
478.783	86.38
479.002	87.38
479.22	84.38
479.439	96.38
479.658	109.38
479.876	99.38
480.095	93.38
480.313	105.38
480.532	83.38
480.751	82.38
480.969	94.38
481.188	107.38
481.406	91.38
481.624	106.38
481.843	88.38
482.061	86.38
482.28	81.38
482.498	94.38
482.717	100.38
482.935	92.38
483.153	103.38
483.372	96.38
483.59	84.38
483.808	89.38
484.027	99.38
484.245	85.38
484.463	93.38
484.681	95.38
484.9	102.38
485.118	105.38
485.336	90.38
485.554	95.38
485.772	101.38
485.99	106.38
486.209	102.38
486.427	102.38
486.645	85.38
486.863	106.38
487.081	87.38
487.299	101.38
487.517	94.38
487.735	106.38
487.953	93.38
488.171	97.38
488.389	105.38
488.607	90.38
488.825	99.38
489.043	89.38
489.261	94.38
489.479	90.38
489.696	90.38
489.914	80.38
490.132	93.38
490.35	107.38
490.568	93.38
490.786	80.38
491.003	83.38
491.221	95.38
491.439	97.38
491.657	109.38
491.874	100.38
492.092	85.38
492.31	97.38
492.527	104.38
492.745	97.38
492.963	94.38
493.18	95.38
493.398	74.38
493.615	100.38
493.833	101.38
494.05	101.38
494.268	94.38
494.485	83.38
494.703	80.38
494.92	103.38
495.138	83.38
495.355	98.38
495.573	92.38
495.79	93.38
496.008	101.38
496.225	81.38
496.442	99.38
496.66	79.38
496.877	90.38
497.094	100.38
497.312	99.38
497.529	87.38
497.746	97.38
497.963	86.38
498.181	87.38
498.398	85.38
498.615	113.38
498.832	97.38
499.049	90.38
499.267	99.38
499.484	79.38
499.701	95.38
499.918	107.38
500.135	92.38
500.352	98.38
500.569	98.38
500.786	94.38
501.003	86.38
501.22	74.38
501.437	86.38
501.654	81.38
501.871	114.38
502.088	91.38
502.305	101.38
502.522	96.38
502.739	91.38
502.956	106.38
503.172	105.38
503.389	111.38
503.606	113.38
503.823	88.38
504.04	95.38
504.256	99.38
504.473	92.38
504.69	97.38
504.907	94.38
505.123	77.38
505.34	101.38
505.557	99.38
505.773	94.38
505.99	84.38
506.207	107.38
506.423	87.38
506.64	99.38
506.856	85.38
507.073	95.38
507.289	98.38
507.506	93.38
507.722	111.38
507.939	103.38
508.155	94.38
508.372	106.38
508.588	84.38
508.805	104.38
509.021	97.38
509.238	92.38
509.454	110.38
509.67	107.38
509.887	124.38
510.103	134.38
510.319	201.38
510.536	699.38
510.752	2006.38
510.968	562.38
511.184	137.38
511.401	125.38
511.617	100.38
511.833	96.38
512.049	86.38
512.265	105.38
512.481	85.38
512.698	86.38
512.914	79.38
513.13	101.38
513.346	97.38
513.562	95.38
513.778	107.38
513.994	99.38
514.21	100.38
514.426	103.38
514.642	134.38
