Data from Uncirc_1998_H10_HRD10591_00022.txt Node
Date: Wed Jan 03 11:25:29 EST 2024
User: Yrep
Spectrometer: HR+D1059
Trigger mode: 1
Integration Time (sec): 1.000000E-1
Scans to average: 1
Electric dark correction enabled: true
Nonlinearity correction enabled: false
Boxcar width: 0
XAxis mode: Wavelengths
Number of Pixels in Spectrum: 2048
>>>>>Begin Spectral Data<<<<<
223.165	-12.62
223.4	-12.62
223.635	-12.62
223.869	-27.62
224.104	-26.62
224.338	-12.62
224.573	-14.62
224.808	-7.62
225.042	-10.62
225.277	-5.62
225.511	0.38
225.746	16.38
225.98	13.38
226.215	16.38
226.449	10.38
226.683	21.38
226.918	16.38
227.152	23.38
227.387	40.38
227.621	43.38
227.856	44.38
228.09	45.38
228.324	38.38
228.559	60.38
228.793	49.38
229.027	68.38
229.262	61.38
229.496	75.38
229.73	82.38
229.964	96.38
230.199	96.38
230.433	90.38
230.667	71.38
230.901	93.38
231.136	64.38
231.37	79.38
231.604	81.38
231.838	83.38
232.072	91.38
232.306	87.38
232.541	86.38
232.775	85.38
233.009	70.38
233.243	77.38
233.477	96.38
233.711	81.38
233.945	75.38
234.179	76.38
234.413	83.38
234.647	77.38
234.881	87.38
235.115	81.38
235.349	91.38
235.583	95.38
235.817	79.38
236.051	82.38
236.285	82.38
236.519	94.38
236.753	83.38
236.987	80.38
237.221	73.38
237.455	86.38
237.689	69.38
237.922	84.38
238.156	68.38
238.39	77.38
238.624	84.38
238.858	77.38
239.091	81.38
239.325	81.38
239.559	75.38
239.793	72.38
240.027	94.38
240.26	75.38
240.494	80.38
240.728	76.38
240.961	87.38
241.195	77.38
241.429	73.38
241.662	86.38
241.896	74.38
242.13	85.38
242.363	79.38
242.597	80.38
242.83	65.38
243.064	62.38
243.298	83.38
243.531	80.38
243.765	68.38
243.998	90.38
244.232	64.38
244.465	82.38
244.699	82.38
244.932	72.38
245.166	84.38
245.399	75.38
245.633	85.38
245.866	85.38
246.099	76.38
246.333	87.38
246.566	97.38
246.8	83.38
247.033	88.38
247.266	87.38
247.5	87.38
247.733	82.38
247.966	84.38
248.2	78.38
248.433	74.38
248.666	69.38
248.899	77.38
249.133	70.38
249.366	98.38
249.599	96.38
249.832	82.38
250.066	82.38
250.299	88.38
250.532	89.38
250.765	103.38
250.998	79.38
251.231	82.38
251.465	85.38
251.698	80.38
251.931	79.38
252.164	73.38
252.397	85.38
252.63	84.38
252.863	81.38
253.096	80.38
253.329	89.38
253.562	81.38
253.795	76.38
254.028	87.38
254.261	86.38
254.494	90.38
254.727	84.38
254.96	84.38
255.193	64.38
255.426	77.38
255.659	98.38
255.892	72.38
256.124	73.38
256.357	90.38
256.59	83.38
256.823	67.38
257.056	87.38
257.289	89.38
257.521	76.38
257.754	83.38
257.987	75.38
258.22	75.38
258.452	97.38
258.685	96.38
258.918	99.38
259.151	79.38
259.383	96.38
259.616	67.38
259.849	75.38
260.081	88.38
260.314	75.38
260.547	75.38
260.779	89.38
261.012	84.38
261.244	87.38
261.477	74.38
261.71	91.38
261.942	119.38
262.175	112.38
262.407	83.38
262.64	87.38
262.872	77.38
263.105	77.38
263.337	96.38
263.57	83.38
263.802	78.38
264.035	94.38
264.267	81.38
264.499	82.38
264.732	92.38
264.964	90.38
265.197	67.38
265.429	83.38
265.661	84.38
265.894	91.38
266.126	85.38
266.358	87.38
266.591	84.38
266.823	95.38
267.055	81.38
267.287	89.38
267.52	75.38
267.752	66.38
267.984	84.38
268.216	95.38
268.448	91.38
268.681	69.38
268.913	89.38
269.145	91.38
269.377	98.38
269.609	92.38
269.841	88.38
270.073	79.38
270.306	86.38
270.538	80.38
270.77	91.38
271.002	89.38
271.234	89.38
271.466	94.38
271.698	89.38
271.93	74.38
272.162	82.38
272.394	82.38
272.626	96.38
272.858	79.38
273.09	92.38
273.322	79.38
273.553	89.38
273.785	73.38
274.017	84.38
274.249	75.38
274.481	82.38
274.713	96.38
274.945	92.38
275.176	87.38
275.408	85.38
275.64	91.38
275.872	84.38
276.104	90.38
276.335	91.38
276.567	93.38
276.799	92.38
277.031	89.38
277.262	82.38
277.494	97.38
277.726	79.38
277.957	72.38
278.189	84.38
278.421	91.38
278.652	76.38
278.884	82.38
279.115	80.38
279.347	100.38
279.579	96.38
279.81	79.38
280.042	79.38
280.273	80.38
280.505	92.38
280.736	92.38
280.968	87.38
281.199	78.38
281.431	72.38
281.662	88.38
281.894	84.38
282.125	95.38
282.356	114.38
282.588	124.38
282.819	109.38
283.051	94.38
283.282	91.38
283.513	97.38
283.745	88.38
283.976	72.38
284.207	89.38
284.439	89.38
284.67	80.38
284.901	93.38
285.132	89.38
285.364	99.38
285.595	87.38
285.826	83.38
286.057	77.38
286.288	84.38
286.52	80.38
286.751	87.38
286.982	97.38
287.213	88.38
287.444	89.38
287.675	84.38
287.906	82.38
288.138	82.38
288.369	91.38
288.6	92.38
288.831	80.38
289.062	83.38
289.293	91.38
289.524	86.38
289.755	86.38
289.986	80.38
290.217	81.38
290.448	85.38
290.679	79.38
290.91	96.38
291.141	93.38
291.371	93.38
291.602	92.38
291.833	95.38
292.064	75.38
292.295	77.38
292.526	81.38
292.757	82.38
292.987	90.38
293.218	89.38
293.449	89.38
293.68	87.38
293.91	91.38
294.141	84.38
294.372	91.38
294.603	89.38
294.833	93.38
295.064	98.38
295.295	86.38
295.525	100.38
295.756	101.38
295.987	117.38
296.217	117.38
296.448	93.38
296.679	88.38
296.909	93.38
297.14	99.38
297.37	98.38
297.601	82.38
297.831	80.38
298.062	89.38
298.292	81.38
298.523	98.38
298.753	81.38
298.984	91.38
299.214	74.38
299.445	76.38
299.675	97.38
299.905	84.38
300.136	95.38
300.366	100.38
300.597	103.38
300.827	90.38
301.057	88.38
301.288	91.38
301.518	96.38
301.748	90.38
301.979	90.38
302.209	92.38
302.439	80.38
302.669	91.38
302.9	87.38
303.13	87.38
303.36	92.38
303.59	99.38
303.82	74.38
304.051	89.38
304.281	98.38
304.511	89.38
304.741	83.38
304.971	67.38
305.201	97.38
305.431	97.38
305.661	98.38
305.891	99.38
306.121	86.38
306.352	103.38
306.582	98.38
306.812	101.38
307.042	92.38
307.272	89.38
307.502	81.38
307.731	84.38
307.961	78.38
308.191	108.38
308.421	82.38
308.651	97.38
308.881	88.38
309.111	89.38
309.341	107.38
309.571	100.38
309.8	100.38
310.03	99.38
310.26	92.38
310.49	87.38
310.72	91.38
310.949	89.38
311.179	86.38
311.409	84.38
311.639	90.38
311.868	88.38
312.098	90.38
312.328	86.38
312.557	113.38
312.787	97.38
313.017	97.38
313.246	81.38
313.476	104.38
313.706	91.38
313.935	93.38
314.165	104.38
314.394	105.38
314.624	80.38
314.853	106.38
315.083	88.38
315.312	89.38
315.542	104.38
315.771	90.38
316.001	97.38
316.23	89.38
316.46	93.38
316.689	82.38
316.919	100.38
317.148	91.38
317.377	84.38
317.607	101.38
317.836	98.38
318.065	93.38
318.295	92.38
318.524	87.38
318.753	78.38
318.983	98.38
319.212	110.38
319.441	97.38
319.67	100.38
319.9	96.38
320.129	87.38
320.358	85.38
320.587	86.38
320.816	94.38
321.046	109.38
321.275	115.38
321.504	78.38
321.733	109.38
321.962	103.38
322.191	86.38
322.42	113.38
322.649	115.38
322.878	94.38
323.108	115.38
323.337	118.38
323.566	120.38
323.795	127.38
324.024	186.38
324.253	333.38
324.482	671.38
324.71	1359.38
324.939	1747.38
325.168	626.38
325.397	224.38
325.626	141.38
325.855	111.38
326.084	114.38
326.313	115.38
326.542	144.38
326.77	210.38
326.999	396.38
327.228	775.38
327.457	1406.38
327.686	1103.38
327.914	321.38
328.143	171.38
328.372	143.38
328.6	114.38
328.829	106.38
329.058	114.38
329.287	117.38
329.515	88.38
329.744	85.38
329.972	91.38
330.201	111.38
330.43	107.38
330.658	113.38
330.887	144.38
331.115	102.38
331.344	105.38
331.572	101.38
331.801	96.38
332.03	96.38
332.258	89.38
332.486	87.38
332.715	88.38
332.943	100.38
333.172	92.38
333.4	91.38
333.629	108.38
333.857	122.38
334.085	95.38
334.314	101.38
334.542	85.38
334.771	93.38
334.999	105.38
335.227	104.38
335.455	90.38
335.684	106.38
335.912	108.38
336.14	91.38
336.369	87.38
336.597	107.38
336.825	96.38
337.053	100.38
337.281	90.38
337.51	97.38
337.738	97.38
337.966	103.38
338.194	110.38
338.422	110.38
338.65	90.38
338.878	97.38
339.106	93.38
339.334	91.38
339.562	77.38
339.79	88.38
340.018	92.38
340.246	85.38
340.474	101.38
340.702	93.38
340.93	80.38
341.158	94.38
341.386	113.38
341.614	93.38
341.842	95.38
342.07	88.38
342.298	99.38
342.526	103.38
342.754	77.38
342.981	90.38
343.209	81.38
343.437	108.38
343.665	89.38
343.893	91.38
344.12	83.38
344.348	92.38
344.576	84.38
344.804	100.38
345.031	95.38
345.259	101.38
345.487	94.38
345.714	90.38
345.942	97.38
346.17	98.38
346.397	104.38
346.625	92.38
346.853	96.38
347.08	80.38
347.308	98.38
347.535	111.38
347.763	100.38
347.99	81.38
348.218	91.38
348.445	100.38
348.673	95.38
348.9	101.38
349.128	111.38
349.355	96.38
349.583	93.38
349.81	92.38
350.037	93.38
350.265	79.38
350.492	116.38
350.72	106.38
350.947	100.38
351.174	90.38
351.402	108.38
351.629	96.38
351.856	107.38
352.083	107.38
352.311	89.38
352.538	106.38
352.765	108.38
352.992	102.38
353.22	91.38
353.447	106.38
353.674	93.38
353.901	94.38
354.128	97.38
354.355	111.38
354.583	101.38
354.81	108.38
355.037	111.38
355.264	98.38
355.491	105.38
355.718	95.38
355.945	92.38
356.172	93.38
356.399	80.38
356.626	94.38
356.853	107.38
357.08	100.38
357.307	98.38
357.534	88.38
357.761	107.38
357.988	110.38
358.215	96.38
358.441	96.38
358.668	93.38
358.895	94.38
359.122	84.38
359.349	97.38
359.576	114.38
359.802	91.38
360.029	107.38
360.256	94.38
360.483	91.38
360.709	85.38
360.936	105.38
361.163	91.38
361.39	105.38
361.616	95.38
361.843	90.38
362.07	86.38
362.296	76.38
362.523	96.38
362.749	105.38
362.976	101.38
363.203	104.38
363.429	89.38
363.656	87.38
363.882	101.38
364.109	84.38
364.335	101.38
364.562	91.38
364.788	84.38
365.015	100.38
365.241	88.38
365.468	109.38
365.694	94.38
365.92	75.38
366.147	87.38
366.373	91.38
366.599	91.38
366.826	83.38
367.052	95.38
367.278	88.38
367.505	92.38
367.731	83.38
367.957	95.38
368.184	93.38
368.41	97.38
368.636	105.38
368.862	112.38
369.089	100.38
369.315	97.38
369.541	96.38
369.767	84.38
369.993	101.38
370.219	97.38
370.445	95.38
370.672	80.38
370.898	88.38
371.124	100.38
371.35	89.38
371.576	85.38
371.802	81.38
372.028	100.38
372.254	89.38
372.48	111.38
372.706	87.38
372.932	83.38
373.158	89.38
373.384	88.38
373.61	92.38
373.835	93.38
374.061	93.38
374.287	90.38
374.513	107.38
374.739	85.38
374.965	81.38
375.191	100.38
375.416	88.38
375.642	84.38
375.868	90.38
376.094	82.38
376.319	87.38
376.545	84.38
376.771	100.38
376.997	93.38
377.222	92.38
377.448	90.38
377.674	103.38
377.899	99.38
378.125	93.38
378.35	89.38
378.576	87.38
378.802	92.38
379.027	98.38
379.253	96.38
379.478	88.38
379.704	73.38
379.929	94.38
380.155	86.38
380.38	79.38
380.606	95.38
380.831	101.38
381.057	101.38
381.282	92.38
381.507	101.38
381.733	86.38
381.958	112.38
382.184	94.38
382.409	96.38
382.634	109.38
382.86	107.38
383.085	95.38
383.31	95.38
383.535	97.38
383.761	88.38
383.986	106.38
384.211	87.38
384.436	91.38
384.662	99.38
384.887	115.38
385.112	96.38
385.337	89.38
385.562	112.38
385.787	103.38
386.013	112.38
386.238	111.38
386.463	93.38
386.688	98.38
386.913	105.38
387.138	94.38
387.363	111.38
387.588	98.38
387.813	110.38
388.038	104.38
388.263	114.38
388.488	100.38
388.713	104.38
388.938	95.38
389.163	111.38
389.387	100.38
389.612	89.38
389.837	86.38
390.062	104.38
390.287	90.38
390.512	101.38
390.736	114.38
390.961	95.38
391.186	107.38
391.411	96.38
391.636	95.38
391.86	76.38
392.085	82.38
392.31	80.38
392.534	85.38
392.759	77.38
392.984	67.38
393.208	92.38
393.433	74.38
393.658	92.38
393.882	93.38
394.107	98.38
394.331	92.38
394.556	93.38
394.78	97.38
395.005	78.38
395.229	84.38
395.454	73.38
395.678	89.38
395.903	88.38
396.127	86.38
396.352	82.38
396.576	85.38
396.801	91.38
397.025	91.38
397.249	83.38
397.474	86.38
397.698	103.38
397.922	98.38
398.147	82.38
398.371	98.38
398.595	97.38
398.82	89.38
399.044	82.38
399.268	85.38
399.492	100.38
399.717	84.38
399.941	96.38
400.165	99.38
400.389	93.38
400.613	84.38
400.837	92.38
401.062	92.38
401.286	94.38
401.51	87.38
401.734	82.38
401.958	92.38
402.182	130.38
402.406	154.38
402.63	114.38
402.854	87.38
403.078	94.38
403.302	93.38
403.526	98.38
403.75	101.38
403.974	86.38
404.198	80.38
404.422	100.38
404.645	91.38
404.869	93.38
405.093	83.38
405.317	94.38
405.541	115.38
405.765	90.38
405.988	104.38
406.212	157.38
406.436	188.38
406.66	136.38
406.883	93.38
407.107	83.38
407.331	94.38
407.555	102.38
407.778	101.38
408.002	91.38
408.226	89.38
408.449	96.38
408.673	92.38
408.896	87.38
409.12	91.38
409.344	93.38
409.567	98.38
409.791	93.38
410.014	98.38
410.238	88.38
410.461	106.38
410.685	95.38
410.908	98.38
411.132	90.38
411.355	92.38
411.578	102.38
411.802	97.38
412.025	90.38
412.249	88.38
412.472	98.38
412.695	91.38
412.919	100.38
413.142	92.38
413.365	84.38
413.589	88.38
413.812	75.38
414.035	91.38
414.258	83.38
414.482	90.38
414.705	80.38
414.928	95.38
415.151	98.38
415.374	86.38
415.597	98.38
415.821	85.38
416.044	82.38
416.267	94.38
416.49	96.38
416.713	87.38
416.936	87.38
417.159	90.38
417.382	73.38
417.605	97.38
417.828	92.38
418.051	91.38
418.274	92.38
418.497	88.38
418.72	85.38
418.943	91.38
419.166	86.38
419.389	84.38
419.611	93.38
419.834	85.38
420.057	77.38
420.28	84.38
420.503	93.38
420.726	83.38
420.948	86.38
421.171	99.38
421.394	82.38
421.617	98.38
421.839	94.38
422.062	92.38
422.285	79.38
422.507	90.38
422.73	101.38
422.953	95.38
423.175	88.38
423.398	91.38
423.621	85.38
423.843	88.38
424.066	103.38
424.288	96.38
424.511	89.38
424.733	90.38
424.956	103.38
425.178	119.38
425.401	90.38
425.623	94.38
425.846	99.38
426.068	97.38
426.291	76.38
426.513	84.38
426.735	90.38
426.958	88.38
427.18	85.38
427.402	136.38
427.625	133.38
427.847	113.38
428.069	111.38
428.292	87.38
428.514	90.38
428.736	80.38
428.958	96.38
429.181	92.38
429.403	84.38
429.625	92.38
429.847	92.38
430.069	104.38
430.292	96.38
430.514	87.38
430.736	84.38
430.958	91.38
431.18	72.38
431.402	78.38
431.624	76.38
431.846	94.38
432.068	90.38
432.29	95.38
432.512	84.38
432.734	90.38
432.956	96.38
433.178	101.38
433.4	94.38
433.622	90.38
433.844	87.38
434.066	89.38
434.287	84.38
434.509	82.38
434.731	86.38
434.953	82.38
435.175	79.38
435.397	89.38
435.618	83.38
435.84	92.38
436.062	119.38
436.284	114.38
436.505	84.38
436.727	92.38
436.949	92.38
437.17	80.38
437.392	89.38
437.614	89.38
437.835	104.38
438.057	120.38
438.278	94.38
438.5	113.38
438.721	112.38
438.943	105.38
439.165	84.38
439.386	92.38
439.608	95.38
439.829	95.38
440.05	109.38
440.272	109.38
440.493	95.38
440.715	83.38
440.936	90.38
441.158	97.38
441.379	94.38
441.6	93.38
441.822	95.38
442.043	100.38
442.264	95.38
442.486	99.38
442.707	91.38
442.928	93.38
443.149	125.38
443.371	119.38
443.592	100.38
443.813	93.38
444.034	100.38
444.255	90.38
444.476	89.38
444.698	94.38
444.919	79.38
445.14	132.38
445.361	118.38
445.582	105.38
445.803	124.38
446.024	113.38
446.245	115.38
446.466	105.38
446.687	116.38
446.908	87.38
447.129	87.38
447.35	89.38
447.571	99.38
447.792	74.38
448.013	108.38
448.234	101.38
448.455	106.38
448.675	117.38
448.896	108.38
449.117	95.38
449.338	94.38
449.559	124.38
449.779	130.38
450	96.38
450.221	93.38
450.442	93.38
450.662	93.38
450.883	91.38
451.104	115.38
451.324	109.38
451.545	97.38
451.766	91.38
451.986	101.38
452.207	96.38
452.428	91.38
452.648	89.38
452.869	104.38
453.089	113.38
453.31	98.38
453.53	86.38
453.751	97.38
453.971	100.38
454.192	107.38
454.412	107.38
454.633	82.38
454.853	92.38
455.073	98.38
455.294	86.38
455.514	93.38
455.734	102.38
455.955	100.38
456.175	96.38
456.395	75.38
456.616	99.38
456.836	96.38
457.056	91.38
457.276	81.38
457.497	80.38
457.717	81.38
457.937	93.38
458.157	80.38
458.377	92.38
458.598	111.38
458.818	132.38
459.038	128.38
459.258	108.38
459.478	94.38
459.698	98.38
459.918	81.38
460.138	92.38
460.358	94.38
460.578	96.38
460.798	94.38
461.018	93.38
461.238	96.38
461.458	96.38
461.678	97.38
461.898	76.38
462.118	87.38
462.338	111.38
462.558	65.38
462.777	100.38
462.997	87.38
463.217	91.38
463.437	86.38
463.657	91.38
463.876	95.38
464.096	91.38
464.316	84.38
464.536	90.38
464.755	97.38
464.975	105.38
465.195	136.38
465.414	142.38
465.634	95.38
465.854	86.38
466.073	89.38
466.293	78.38
466.512	90.38
466.732	63.38
466.951	103.38
467.171	87.38
467.391	95.38
467.61	96.38
467.829	87.38
468.049	97.38
468.268	92.38
468.488	67.38
468.707	87.38
468.927	101.38
469.146	88.38
469.365	68.38
469.585	96.38
469.804	102.38
470.023	87.38
470.243	101.38
470.462	101.38
470.681	93.38
470.901	108.38
471.12	90.38
471.339	79.38
471.558	75.38
471.777	85.38
471.997	87.38
472.216	93.38
472.435	98.38
472.654	90.38
472.873	84.38
473.092	85.38
473.311	81.38
473.53	104.38
473.749	74.38
473.968	96.38
474.187	120.38
474.406	89.38
474.625	94.38
474.844	99.38
475.063	90.38
475.282	92.38
475.501	84.38
475.72	88.38
475.939	72.38
476.158	94.38
476.377	94.38
476.596	91.38
476.814	82.38
477.033	87.38
477.252	82.38
477.471	86.38
477.69	80.38
477.908	82.38
478.127	87.38
478.346	87.38
478.564	77.38
478.783	107.38
479.002	90.38
479.22	95.38
479.439	96.38
479.658	108.38
479.876	100.38
480.095	92.38
480.313	84.38
480.532	97.38
480.751	100.38
480.969	92.38
481.188	108.38
481.406	90.38
481.624	100.38
481.843	89.38
482.061	90.38
482.28	87.38
482.498	97.38
482.717	91.38
482.935	69.38
483.153	97.38
483.372	91.38
483.59	92.38
483.808	109.38
484.027	96.38
484.245	95.38
484.463	101.38
484.681	99.38
484.9	99.38
485.118	89.38
485.336	82.38
485.554	92.38
485.772	100.38
485.99	98.38
486.209	94.38
486.427	108.38
486.645	92.38
486.863	99.38
487.081	103.38
487.299	87.38
487.517	90.38
487.735	93.38
487.953	91.38
488.171	92.38
488.389	81.38
488.607	105.38
488.825	85.38
489.043	85.38
489.261	98.38
489.479	76.38
489.696	91.38
489.914	89.38
490.132	93.38
490.35	86.38
490.568	92.38
490.786	92.38
491.003	99.38
491.221	96.38
491.439	89.38
491.657	99.38
491.874	86.38
492.092	94.38
492.31	89.38
492.527	100.38
492.745	83.38
492.963	104.38
493.18	98.38
493.398	90.38
493.615	92.38
493.833	94.38
494.05	89.38
494.268	83.38
494.485	87.38
494.703	87.38
494.92	83.38
495.138	93.38
495.355	87.38
495.573	104.38
495.79	103.38
496.008	77.38
496.225	81.38
496.442	98.38
496.66	94.38
496.877	105.38
497.094	92.38
497.312	85.38
497.529	84.38
497.746	82.38
497.963	104.38
498.181	85.38
498.398	94.38
498.615	100.38
498.832	92.38
499.049	102.38
499.267	105.38
499.484	89.38
499.701	93.38
499.918	108.38
500.135	107.38
500.352	92.38
500.569	99.38
500.786	99.38
501.003	95.38
501.22	84.38
501.437	89.38
501.654	91.38
501.871	102.38
502.088	80.38
502.305	87.38
502.522	96.38
502.739	81.38
502.956	94.38
503.172	95.38
503.389	101.38
503.606	103.38
503.823	94.38
504.04	84.38
504.256	92.38
504.473	97.38
504.69	94.38
504.907	93.38
505.123	99.38
505.34	89.38
505.557	92.38
505.773	89.38
505.99	88.38
506.207	104.38
506.423	90.38
506.64	100.38
506.856	100.38
507.073	104.38
507.289	92.38
507.506	101.38
507.722	106.38
507.939	112.38
508.155	87.38
508.372	103.38
508.588	99.38
508.805	92.38
509.021	83.38
509.238	92.38
509.454	90.38
509.67	109.38
509.887	108.38
510.103	111.38
510.319	165.38
510.536	581.38
510.752	1722.38
510.968	496.38
511.184	139.38
511.401	104.38
511.617	105.38
511.833	89.38
512.049	97.38
512.265	88.38
512.481	98.38
512.698	99.38
512.914	90.38
513.13	77.38
513.346	86.38
513.562	91.38
513.778	95.38
513.994	93.38
514.21	93.38
514.426	114.38
514.642	121.38
514.858	105.38
515.074	157.38
515.29	344.38
515.506	1049.38
515.721	393.38
