Data from Uncirc_1998_H10_HRD10591_00012.txt Node
Date: Wed Jan 03 11:25:27 EST 2024
User: Yrep
Spectrometer: HR+D1059
Trigger mode: 1
Integration Time (sec): 1.000000E-1
Scans to average: 1
Electric dark correction enabled: true
Nonlinearity correction enabled: false
Boxcar width: 0
XAxis mode: Wavelengths
Number of Pixels in Spectrum: 2048
>>>>>Begin Spectral Data<<<<<
223.165	-23
223.4	-23
223.635	-23
223.869	-19
224.104	-7
224.338	-21
224.573	-21
224.808	-21
225.042	-6
225.277	-8
225.511	3
225.746	9
225.98	-2
226.215	19
226.449	24
226.683	19
226.918	14
227.152	40
227.387	33
227.621	42
227.856	40
228.09	47
228.324	46
228.559	54
228.793	51
229.027	70
229.262	72
229.496	72
229.73	78
229.964	83
230.199	94
230.433	82
230.667	77
230.901	87
231.136	87
231.37	81
231.604	91
231.838	77
232.072	86
232.306	84
232.541	67
232.775	63
233.009	77
233.243	84
233.477	79
233.711	82
233.945	74
234.179	71
234.413	79
234.647	74
234.881	81
235.115	85
235.349	94
235.583	83
235.817	82
236.051	81
236.285	85
236.519	75
236.753	74
236.987	82
237.221	89
237.455	74
237.689	68
237.922	82
238.156	70
238.39	71
238.624	80
238.858	76
239.091	73
239.325	67
239.559	81
239.793	76
240.027	90
240.26	83
240.494	63
240.728	72
240.961	76
241.195	72
241.429	66
241.662	79
241.896	79
242.13	70
242.363	86
242.597	79
242.83	75
243.064	63
243.298	90
243.531	79
243.765	82
243.998	71
244.232	86
244.465	83
244.699	93
244.932	70
245.166	79
245.399	80
245.633	62
245.866	81
246.099	78
246.333	78
246.566	81
246.8	76
247.033	84
247.266	88
247.5	74
247.733	81
247.966	90
248.2	73
248.433	88
248.666	86
248.899	80
249.133	76
249.366	85
249.599	93
249.832	74
250.066	95
250.299	91
250.532	79
250.765	70
250.998	88
251.231	86
251.465	76
251.698	87
251.931	84
252.164	64
252.397	77
252.63	82
252.863	84
253.096	94
253.329	86
253.562	79
253.795	88
254.028	83
254.261	89
254.494	82
254.727	81
254.96	72
255.193	81
255.426	89
255.659	88
255.892	89
256.124	84
256.357	96
256.59	94
256.823	78
257.056	62
257.289	65
257.521	81
257.754	84
257.987	82
258.22	82
258.452	83
258.685	79
258.918	72
259.151	94
259.383	105
259.616	70
259.849	86
260.081	85
260.314	81
260.547	79
260.779	90
261.012	92
261.244	73
261.477	102
261.71	90
261.942	100
262.175	92
262.407	86
262.64	91
262.872	88
263.105	92
263.337	84
263.57	74
263.802	82
264.035	83
264.267	85
264.499	78
264.732	80
264.964	98
265.197	86
265.429	96
265.661	95
265.894	79
266.126	78
266.358	93
266.591	84
266.823	86
267.055	83
267.287	88
267.52	83
267.752	101
267.984	75
268.216	74
268.448	93
268.681	92
268.913	94
269.145	86
269.377	91
269.609	83
269.841	86
270.073	92
270.306	83
270.538	93
270.77	72
271.002	90
271.234	95
271.466	96
271.698	88
271.93	88
272.162	82
272.394	92
272.626	83
272.858	83
273.09	81
273.322	87
273.553	82
273.785	92
274.017	83
274.249	97
274.481	93
274.713	82
274.945	96
275.176	74
275.408	82
275.64	93
275.872	84
276.104	88
276.335	78
276.567	95
276.799	99
277.031	87
277.262	91
277.494	87
277.726	82
277.957	84
278.189	95
278.421	89
278.652	92
278.884	91
279.115	101
279.347	83
279.579	79
279.81	82
280.042	95
280.273	87
280.505	86
280.736	96
280.968	95
281.199	88
281.431	80
281.662	90
281.894	87
282.125	93
282.356	98
282.588	134
282.819	97
283.051	78
283.282	73
283.513	91
283.745	100
283.976	84
284.207	97
284.439	91
284.67	94
284.901	78
285.132	90
285.364	75
285.595	86
285.826	93
286.057	90
286.288	78
286.52	98
286.751	99
286.982	88
287.213	87
287.444	87
287.675	86
287.906	94
288.138	79
288.369	89
288.6	92
288.831	79
289.062	82
289.293	89
289.524	81
289.755	89
289.986	84
290.217	80
290.448	87
290.679	91
290.91	91
291.141	89
291.371	81
291.602	88
291.833	81
292.064	86
292.295	90
292.526	100
292.757	80
292.987	78
293.218	90
293.449	86
293.68	86
293.91	93
294.141	95
294.372	90
294.603	105
294.833	85
295.064	91
295.295	80
295.525	83
295.756	99
295.987	112
296.217	114
296.448	115
296.679	108
296.909	98
297.14	91
297.37	96
297.601	88
297.831	86
298.062	89
298.292	95
298.523	86
298.753	86
298.984	93
299.214	83
299.445	95
299.675	80
299.905	98
300.136	102
300.366	78
300.597	96
300.827	83
301.057	91
301.288	91
301.518	82
301.748	93
301.979	91
302.209	101
302.439	98
302.669	97
302.9	87
303.13	85
303.36	103
303.59	103
303.82	104
304.051	92
304.281	95
304.511	97
304.741	93
304.971	90
305.201	89
305.431	96
305.661	95
305.891	88
306.121	83
306.352	95
306.582	105
306.812	91
307.042	94
307.272	86
307.502	90
307.731	101
307.961	83
308.191	97
308.421	91
308.651	87
308.881	97
309.111	81
309.341	95
309.571	113
309.8	99
310.03	100
310.26	82
310.49	91
310.72	84
310.949	105
311.179	97
311.409	118
311.639	93
311.868	97
312.098	87
312.328	92
312.557	104
312.787	99
313.017	84
313.246	95
313.476	81
313.706	91
313.935	90
314.165	99
314.394	91
314.624	99
314.853	105
315.083	89
315.312	78
315.542	95
315.771	110
316.001	91
316.23	99
316.46	87
316.689	93
316.919	99
317.148	88
317.377	101
317.607	92
317.836	80
318.065	97
318.295	93
318.524	92
318.753	97
318.983	99
319.212	93
319.441	96
319.67	105
319.9	94
320.129	78
320.358	100
320.587	84
320.816	97
321.046	91
321.275	100
321.504	105
321.733	101
321.962	99
322.191	87
322.42	99
322.649	87
322.878	114
323.108	118
323.337	123
323.566	108
323.795	135
324.024	161
324.253	326
324.482	654
324.71	1328
324.939	1696
325.168	641
325.397	210
325.626	146
325.855	114
326.084	108
326.313	125
326.542	128
326.77	213
326.999	366
327.228	792
327.457	1363
327.686	1070
327.914	332
328.143	177
328.372	134
328.6	106
328.829	102
329.058	118
329.287	126
329.515	107
329.744	90
329.972	87
330.201	90
330.43	98
330.658	117
330.887	128
331.115	118
331.344	88
331.572	103
331.801	89
332.03	96
332.258	106
332.486	79
332.715	97
332.943	99
333.172	95
333.4	96
333.629	92
333.857	103
334.085	99
334.314	112
334.542	102
334.771	95
334.999	114
335.227	89
335.455	100
335.684	104
335.912	108
336.14	103
336.369	82
336.597	96
336.825	88
337.053	96
337.281	86
337.51	94
337.738	81
337.966	89
338.194	107
338.422	106
338.65	105
338.878	91
339.106	75
339.334	100
339.562	96
339.79	96
340.018	101
340.246	94
340.474	90
340.702	95
340.93	91
341.158	104
341.386	95
341.614	93
341.842	84
342.07	104
342.298	89
342.526	86
342.754	86
342.981	87
343.209	99
343.437	105
343.665	94
343.893	82
344.12	80
344.348	102
344.576	95
344.804	84
345.031	100
345.259	100
345.487	82
345.714	86
345.942	84
346.17	90
346.397	90
346.625	76
346.853	92
347.08	103
347.308	89
347.535	90
347.763	95
347.99	90
348.218	103
348.445	100
348.673	90
348.9	100
349.128	99
349.355	79
349.583	95
349.81	111
350.037	100
350.265	110
350.492	87
350.72	97
350.947	101
351.174	107
351.402	91
351.629	97
351.856	104
352.083	97
352.311	90
352.538	115
352.765	110
352.992	99
353.22	112
353.447	108
353.674	109
353.901	102
354.128	94
354.355	96
354.583	99
354.81	97
355.037	108
355.264	100
355.491	109
355.718	79
355.945	82
356.172	97
356.399	92
356.626	83
356.853	104
357.08	94
357.307	80
357.534	82
357.761	91
357.988	105
358.215	92
358.441	94
358.668	95
358.895	92
359.122	87
359.349	90
359.576	94
359.802	89
360.029	105
360.256	97
360.483	103
360.709	88
360.936	89
361.163	101
361.39	88
361.616	97
361.843	94
362.07	82
362.296	83
362.523	89
362.749	80
362.976	96
363.203	84
363.429	79
363.656	91
363.882	79
364.109	89
364.335	94
364.562	97
364.788	97
365.015	89
365.241	94
365.468	94
365.694	99
365.92	92
366.147	77
366.373	90
366.599	87
366.826	82
367.052	95
367.278	88
367.505	93
367.731	81
367.957	93
368.184	104
368.41	92
368.636	109
368.862	108
369.089	101
369.315	102
369.541	80
369.767	84
369.993	88
370.219	89
370.445	99
370.672	84
370.898	88
371.124	87
371.35	85
371.576	88
371.802	99
372.028	97
372.254	74
372.48	81
372.706	90
372.932	97
373.158	84
373.384	86
373.61	89
373.835	80
374.061	94
374.287	85
374.513	84
374.739	92
374.965	86
375.191	92
375.416	99
375.642	91
375.868	94
376.094	74
376.319	87
376.545	92
376.771	89
376.997	82
377.222	92
377.448	84
377.674	91
377.899	93
378.125	89
378.35	85
378.576	90
378.802	81
379.027	92
379.253	86
379.478	92
379.704	90
379.929	84
380.155	91
380.38	84
380.606	83
380.831	88
381.057	88
381.282	87
381.507	98
381.733	97
381.958	84
382.184	99
382.409	99
382.634	107
382.86	106
383.085	107
383.31	101
383.535	94
383.761	96
383.986	102
384.211	96
384.436	98
384.662	112
384.887	102
385.112	91
385.337	105
385.562	93
385.787	108
386.013	105
386.238	111
386.463	118
386.688	99
386.913	91
387.138	95
387.363	111
387.588	110
387.813	95
388.038	111
388.263	113
388.488	120
388.713	108
388.938	95
389.163	86
389.387	91
389.612	113
389.837	100
390.062	84
390.287	94
390.512	98
390.736	100
390.961	107
391.186	99
391.411	97
391.636	90
391.86	90
392.085	87
392.31	102
392.534	95
392.759	83
392.984	82
393.208	82
393.433	91
393.658	95
393.882	87
394.107	81
394.331	78
394.556	100
394.78	93
395.005	80
395.229	82
395.454	88
395.678	90
395.903	87
396.127	92
396.352	110
396.576	91
396.801	78
397.025	84
397.249	91
397.474	105
397.698	92
397.922	98
398.147	79
398.371	92
398.595	94
398.82	84
399.044	77
399.268	75
399.492	73
399.717	106
399.941	88
400.165	99
400.389	91
400.613	93
400.837	88
401.062	88
401.286	87
401.51	100
401.734	82
401.958	87
402.182	116
402.406	123
402.63	92
402.854	92
403.078	93
403.302	82
403.526	99
403.75	83
403.974	106
404.198	96
404.422	92
404.645	83
404.869	95
405.093	89
405.317	90
405.541	91
405.765	83
405.988	105
406.212	152
406.436	166
406.66	118
406.883	97
407.107	102
407.331	97
407.555	89
407.778	103
408.002	86
408.226	89
408.449	105
408.673	95
408.896	89
409.12	84
409.344	91
409.567	80
409.791	91
410.014	94
410.238	92
410.461	92
410.685	87
410.908	103
411.132	108
411.355	96
411.578	98
411.802	91
412.025	89
412.249	89
412.472	88
412.695	93
412.919	78
413.142	108
413.365	83
413.589	91
413.812	107
414.035	93
414.258	88
414.482	86
414.705	83
414.928	90
415.151	87
415.374	102
415.597	96
415.821	94
416.044	97
416.267	79
416.49	79
416.713	94
416.936	104
417.159	99
417.382	76
417.605	96
417.828	97
418.051	101
418.274	93
418.497	97
418.72	84
418.943	97
419.166	83
419.389	72
419.611	98
419.834	94
420.057	99
420.28	91
420.503	91
420.726	89
420.948	91
421.171	91
421.394	93
421.617	84
421.839	92
422.062	83
422.285	92
422.507	94
422.73	88
422.953	87
423.175	90
423.398	92
423.621	95
423.843	69
424.066	80
424.288	94
424.511	86
424.733	84
424.956	101
425.178	94
425.401	89
425.623	97
425.846	83
426.068	91
426.291	103
426.513	106
426.735	81
426.958	108
427.18	101
427.402	129
427.625	140
427.847	113
428.069	102
428.292	86
428.514	76
428.736	95
428.958	75
429.181	86
429.403	86
429.625	75
429.847	93
430.069	95
430.292	80
430.514	78
430.736	91
430.958	79
431.18	91
431.402	76
431.624	89
431.846	74
432.068	83
432.29	72
432.512	95
432.734	95
432.956	99
433.178	73
433.4	90
433.622	92
433.844	83
434.066	88
434.287	90
434.509	94
434.731	90
434.953	99
435.175	95
435.397	75
435.618	90
435.84	84
436.062	125
436.284	112
436.505	88
436.727	106
436.949	86
437.17	94
437.392	94
437.614	100
437.835	100
438.057	100
438.278	96
438.5	105
438.721	98
438.943	99
439.165	78
439.386	98
439.608	96
439.829	94
440.05	104
440.272	115
440.493	90
440.715	87
440.936	91
441.158	80
441.379	100
441.6	89
441.822	80
442.043	102
442.264	112
442.486	94
442.707	92
442.928	102
443.149	118
443.371	113
443.592	103
443.813	94
444.034	89
444.255	99
444.476	88
444.698	82
444.919	97
445.14	128
445.361	121
445.582	114
445.803	108
446.024	110
446.245	123
446.466	101
446.687	92
446.908	79
447.129	96
447.35	82
447.571	89
447.792	90
448.013	88
448.234	103
448.455	88
448.675	101
448.896	122
449.117	116
449.338	102
449.559	106
449.779	107
450	109
450.221	85
450.442	91
450.662	97
450.883	93
451.104	84
451.324	86
451.545	71
451.766	71
451.986	88
452.207	90
452.428	84
452.648	85
452.869	93
453.089	107
453.31	98
453.53	89
453.751	78
453.971	100
454.192	100
454.412	88
454.633	95
454.853	98
455.073	92
455.294	70
455.514	81
455.734	98
455.955	92
456.175	89
456.395	84
456.616	77
456.836	86
457.056	84
457.276	96
457.497	91
457.717	88
457.937	81
458.157	81
458.377	97
458.598	97
458.818	124
459.038	131
459.258	108
459.478	93
459.698	79
459.918	95
460.138	100
460.358	76
460.578	92
460.798	85
461.018	76
461.238	82
461.458	94
461.678	99
461.898	86
462.118	94
462.338	89
462.558	85
462.777	92
462.997	89
463.217	90
463.437	100
463.657	94
463.876	74
464.096	82
464.316	87
464.536	86
464.755	84
464.975	97
465.195	126
465.414	132
465.634	99
465.854	84
466.073	97
466.293	96
466.512	98
466.732	80
466.951	92
467.171	78
467.391	98
467.61	94
467.829	88
468.049	86
468.268	95
468.488	78
468.707	71
468.927	82
469.146	75
469.365	88
469.585	93
469.804	99
470.023	95
470.243	92
470.462	99
470.681	108
470.901	92
471.12	87
471.339	105
471.558	91
471.777	92
471.997	80
472.216	104
472.435	98
472.654	79
472.873	89
473.092	88
473.311	83
473.53	93
473.749	85
473.968	92
474.187	100
474.406	92
474.625	77
474.844	88
475.063	95
475.282	86
475.501	81
475.72	84
475.939	79
476.158	78
476.377	94
476.596	75
476.814	86
477.033	88
477.252	82
477.471	90
477.69	97
477.908	93
478.127	99
478.346	95
478.564	93
478.783	84
479.002	91
479.22	76
479.439	92
479.658	96
479.876	99
480.095	96
480.313	83
480.532	88
480.751	94
480.969	94
481.188	107
481.406	99
481.624	91
481.843	91
482.061	90
482.28	103
482.498	91
482.717	80
482.935	82
483.153	86
483.372	94
483.59	82
483.808	88
484.027	74
484.245	106
484.463	98
484.681	90
484.9	87
485.118	81
485.336	86
485.554	92
485.772	107
485.99	91
486.209	97
486.427	92
486.645	109
486.863	112
487.081	112
487.299	105
487.517	95
487.735	102
487.953	90
488.171	84
488.389	90
488.607	86
488.825	92
489.043	75
489.261	96
489.479	94
489.696	94
489.914	80
490.132	79
490.35	103
490.568	89
490.786	91
491.003	95
491.221	90
491.439	94
491.657	98
491.874	83
492.092	85
492.31	87
492.527	90
492.745	96
492.963	92
493.18	91
493.398	99
493.615	110
493.833	91
494.05	98
494.268	84
494.485	104
494.703	83
494.92	87
495.138	86
495.355	81
495.573	99
495.79	79
496.008	92
496.225	82
496.442	94
496.66	74
496.877	92
497.094	99
497.312	82
497.529	86
497.746	96
497.963	90
498.181	101
498.398	94
498.615	103
498.832	101
499.049	104
499.267	78
499.484	95
499.701	92
499.918	84
500.135	105
500.352	91
500.569	83
500.786	93
501.003	90
501.22	94
501.437	83
501.654	95
501.871	107
502.088	94
502.305	88
502.522	98
502.739	81
502.956	82
503.172	97
503.389	91
503.606	83
503.823	91
504.04	91
504.256	109
504.473	76
504.69	88
504.907	91
505.123	96
505.34	87
505.557	82
505.773	98
505.99	86
506.207	103
506.423	80
506.64	85
506.856	97
507.073	97
507.289	108
507.506	96
507.722	99
507.939	103
508.155	92
508.372	90
508.588	70
508.805	96
509.021	103
509.238	86
509.454	98
509.67	99
509.887	99
510.103	134
510.319	169
510.536	549
510.752	1585
510.968	474
511.184	136
511.401	105
511.617	95
511.833	96
512.049	83
512.265	88
512.481	82
512.698	92
512.914	102
513.13	104
513.346	91
513.562	90
513.778	89
513.994	87
514.21	89
514.426	117
514.642	124
514.858	114
515.074	146
515.29	324
515.506	907
515.721	362
515.937	129
516.153	104
516.369	99
516.585	99
516.801	85
517.016	94
517.232	100
517.448	84
517.664	97
517.879	97
518.095	95
518.311	76
518.527	89
518.742	95
518.958	94
519.173	87
519.389	87
519.605	91
519.82	102
520.036	96
520.251	104
520.467	98
520.682	94
520.898	109
521.113	119
521.329	123
521.544	167
521.76	371
521.975	1522
522.19	922
522.406	228
522.621	104
522.836	100
523.052	85
523.267	99
523.482	104
523.698	89
523.913	126
524.128	96
524.343	104
524.559	93
524.774	88
524.989	100
525.204	106
525.419	108
525.634	89
525.849	86
526.064	86
526.28	96
526.495	92
526.71	92
526.925	98
527.14	103
527.355	86
527.57	85
527.785	86
527.999	90
528.214	95
528.429	86
528.644	96
528.859	90
529.074	94
529.289	120
529.503	138
529.718	100
529.933	88
530.148	94
530.363	76
530.577	84
530.792	96
531.007	97
531.221	86
531.436	87
531.651	88
531.865	82
532.08	91
532.295	90
532.509	84
532.724	103
532.938	110
533.153	91
533.367	90
533.582	98
533.796	106
534.011	92
534.225	86
534.44	84
534.654	91
534.868	92
535.083	76
535.297	87
535.511	99
535.726	100
535.94	90
536.154	82
536.369	98
536.583	90
536.797	91
537.011	81
537.225	91
537.44	87
537.654	89
537.868	91
538.082	90
538.296	94
538.51	82
538.724	81
538.938	82
539.153	100
539.367	116
539.581	96
539.795	91
540.009	95
540.222	86
540.436	99
540.65	86
540.864	85
541.078	84
541.292	87
541.506	103
541.72	88
541.934	86
542.147	105
542.361	88
542.575	87
542.789	85
543.002	92
543.216	94
543.43	95
543.644	91
543.857	116
544.071	95
544.285	87
544.498	92
544.712	98
544.925	95
545.139	84
545.352	92
545.566	106
545.779	104
545.993	90
546.206	89
546.42	84
546.633	90
546.847	94
547.06	91
547.274	104
547.487	92
547.7	72
547.914	90
548.127	98
548.34	79
548.554	97
548.767	100
548.98	97
549.193	79
549.407	96
549.62	102
549.833	106
550.046	94
550.259	87
550.473	88
550.686	104
550.899	88
551.112	81
551.325	93
551.538	88
551.751	84
551.964	85
552.177	86
552.39	83
552.603	91
552.816	93
553.029	88
553.242	86
553.455	111
553.667	99
553.88	92
554.093	96
554.306	99
554.519	86
554.732	82
554.944	103
555.157	105
555.37	91
555.583	91
555.795	90
556.008	92
556.221	99
556.433	96
556.646	82
556.859	80
557.071	103
557.284	98
557.496	91
557.709	83
557.921	91
558.134	92
558.346	94
558.559	91
558.771	85
558.984	88
559.196	82
559.409	75
559.621	85
559.833	73
560.046	96
560.258	97
560.47	83
560.683	75
560.895	86
561.107	80
561.32	99
561.532	86
561.744	97
561.956	96
562.168	102
562.381	104
562.593	95
562.805	91
563.017	86
563.229	81
563.441	85
563.653	82
563.865	93
564.077	97
564.289	87
564.501	87
564.713	89
564.925	101
565.137	87
565.349	109
565.561	92
565.773	97
565.985	79
566.197	92
566.408	88
566.62	92
566.832	90
567.044	73
567.255	81
567.467	88
567.679	90
567.891	94
568.102	81
568.314	89
568.526	88
568.737	87
568.949	89
569.161	78
569.372	78
569.584	91
569.795	92
570.007	102
570.218	180
570.43	127
570.641	94
570.853	76
571.064	82
571.276	96
571.487	91
571.698	100
571.91	87
572.121	91
572.333	89
572.544	90
572.755	86
572.966	77
573.178	85
573.389	90
573.6	99
573.811	87
574.023	97
574.234	85
574.445	87
574.656	91
574.867	97
575.078	87
575.289	82
575.501	94
575.712	89
575.923	100
576.134	79
576.345	86
576.556	89
576.767	95
576.978	90
577.188	106
577.399	79
577.61	96
577.821	89
578.032	92
578.243	220
578.454	546
578.665	180
578.875	95
579.086	94
579.297	87
579.508	82
579.718	80
579.929	99
580.14	86
580.35	92
580.561	88
580.772	87
580.982	87
581.193	83
581.403	80
581.614	80
581.825	83
582.035	98
582.246	98
582.456	88
582.667	95
582.877	99
583.087	88
583.298	91
583.508	81
583.719	79
583.929	89
584.139	90
584.35	96
584.56	102
584.77	92
584.981	102
585.191	91
585.401	94
