Data from Uncirc_1998_H10_HRD10591_00095.txt Node
Date: Wed Jan 03 11:25:43 EST 2024
User: Yrep
Spectrometer: HR+D1059
Trigger mode: 1
Integration Time (sec): 1.000000E-1
Scans to average: 1
Electric dark correction enabled: true
Nonlinearity correction enabled: false
Boxcar width: 0
XAxis mode: Wavelengths
Number of Pixels in Spectrum: 2048
>>>>>Begin Spectral Data<<<<<
223.165	-26.31
223.4	-26.31
223.635	-26.31
223.869	-24.31
224.104	-16.31
224.338	-19.31
224.573	-9.31
224.808	-12.31
225.042	-9.31
225.277	3.69
225.511	8.69
225.746	-0.31
225.98	-0.31
226.215	22.69
226.449	24.69
226.683	12.69
226.918	16.69
227.152	28.69
227.387	40.69
227.621	54.69
227.856	53.69
228.09	44.69
228.324	44.69
228.559	62.69
228.793	75.69
229.027	68.69
229.262	78.69
229.496	70.69
229.73	84.69
229.964	79.69
230.199	63.69
230.433	65.69
230.667	74.69
230.901	77.69
231.136	81.69
231.37	86.69
231.604	101.69
231.838	73.69
232.072	84.69
232.306	94.69
232.541	90.69
232.775	98.69
233.009	84.69
233.243	75.69
233.477	109.69
233.711	88.69
233.945	84.69
234.179	100.69
234.413	90.69
234.647	92.69
234.881	95.69
235.115	92.69
235.349	86.69
235.583	89.69
235.817	96.69
236.051	68.69
236.285	86.69
236.519	86.69
236.753	78.69
236.987	88.69
237.221	87.69
237.455	97.69
237.689	82.69
237.922	86.69
238.156	87.69
238.39	86.69
238.624	84.69
238.858	71.69
239.091	76.69
239.325	75.69
239.559	99.69
239.793	85.69
240.027	97.69
240.26	72.69
240.494	76.69
240.728	81.69
240.961	68.69
241.195	76.69
241.429	64.69
241.662	83.69
241.896	90.69
242.13	84.69
242.363	83.69
242.597	93.69
242.83	78.69
243.064	69.69
243.298	69.69
243.531	75.69
243.765	78.69
243.998	80.69
244.232	91.69
244.465	94.69
244.699	76.69
244.932	87.69
245.166	63.69
245.399	81.69
245.633	99.69
245.866	91.69
246.099	88.69
246.333	85.69
246.566	96.69
246.8	96.69
247.033	94.69
247.266	80.69
247.5	86.69
247.733	94.69
247.966	80.69
248.2	83.69
248.433	87.69
248.666	85.69
248.899	86.69
249.133	95.69
249.366	99.69
249.599	99.69
249.832	79.69
250.066	85.69
250.299	86.69
250.532	74.69
250.765	95.69
250.998	74.69
251.231	82.69
251.465	70.69
251.698	78.69
251.931	79.69
252.164	83.69
252.397	86.69
252.63	94.69
252.863	80.69
253.096	64.69
253.329	81.69
253.562	84.69
253.795	81.69
254.028	83.69
254.261	84.69
254.494	86.69
254.727	96.69
254.96	96.69
255.193	89.69
255.426	85.69
255.659	77.69
255.892	96.69
256.124	70.69
256.357	86.69
256.59	83.69
256.823	76.69
257.056	73.69
257.289	91.69
257.521	88.69
257.754	84.69
257.987	83.69
258.22	94.69
258.452	82.69
258.685	89.69
258.918	96.69
259.151	87.69
259.383	85.69
259.616	90.69
259.849	98.69
260.081	92.69
260.314	89.69
260.547	84.69
260.779	94.69
261.012	78.69
261.244	84.69
261.477	92.69
261.71	103.69
261.942	114.69
262.175	122.69
262.407	95.69
262.64	94.69
262.872	82.69
263.105	83.69
263.337	85.69
263.57	79.69
263.802	101.69
264.035	96.69
264.267	108.69
264.499	101.69
264.732	84.69
264.964	82.69
265.197	85.69
265.429	72.69
265.661	92.69
265.894	66.69
266.126	83.69
266.358	101.69
266.591	81.69
266.823	83.69
267.055	85.69
267.287	94.69
267.52	73.69
267.752	102.69
267.984	102.69
268.216	88.69
268.448	93.69
268.681	80.69
268.913	81.69
269.145	113.69
269.377	99.69
269.609	81.69
269.841	88.69
270.073	95.69
270.306	91.69
270.538	98.69
270.77	92.69
271.002	85.69
271.234	103.69
271.466	83.69
271.698	96.69
271.93	93.69
272.162	107.69
272.394	94.69
272.626	80.69
272.858	93.69
273.09	92.69
273.322	100.69
273.553	71.69
273.785	86.69
274.017	94.69
274.249	86.69
274.481	95.69
274.713	92.69
274.945	93.69
275.176	96.69
275.408	96.69
275.64	94.69
275.872	90.69
276.104	91.69
276.335	96.69
276.567	98.69
276.799	110.69
277.031	102.69
277.262	85.69
277.494	91.69
277.726	98.69
277.957	103.69
278.189	88.69
278.421	96.69
278.652	86.69
278.884	97.69
279.115	86.69
279.347	88.69
279.579	96.69
279.81	83.69
280.042	88.69
280.273	115.69
280.505	93.69
280.736	91.69
280.968	84.69
281.199	100.69
281.431	89.69
281.662	95.69
281.894	93.69
282.125	98.69
282.356	123.69
282.588	122.69
282.819	111.69
283.051	87.69
283.282	90.69
283.513	78.69
283.745	107.69
283.976	80.69
284.207	93.69
284.439	86.69
284.67	101.69
284.901	104.69
285.132	94.69
285.364	87.69
285.595	91.69
285.826	94.69
286.057	92.69
286.288	80.69
286.52	84.69
286.751	90.69
286.982	99.69
287.213	98.69
287.444	90.69
287.675	96.69
287.906	87.69
288.138	82.69
288.369	88.69
288.6	85.69
288.831	81.69
289.062	94.69
289.293	99.69
289.524	86.69
289.755	81.69
289.986	95.69
290.217	94.69
290.448	104.69
290.679	94.69
290.91	86.69
291.141	103.69
291.371	89.69
291.602	90.69
291.833	81.69
292.064	99.69
292.295	91.69
292.526	96.69
292.757	91.69
292.987	81.69
293.218	99.69
293.449	93.69
293.68	96.69
293.91	91.69
294.141	87.69
294.372	99.69
294.603	90.69
294.833	91.69
295.064	86.69
295.295	97.69
295.525	102.69
295.756	100.69
295.987	115.69
296.217	156.69
296.448	135.69
296.679	93.69
296.909	83.69
297.14	101.69
297.37	98.69
297.601	84.69
297.831	94.69
298.062	87.69
298.292	89.69
298.523	92.69
298.753	98.69
298.984	99.69
299.214	85.69
299.445	109.69
299.675	89.69
299.905	104.69
300.136	106.69
300.366	87.69
300.597	92.69
300.827	87.69
301.057	89.69
301.288	108.69
301.518	111.69
301.748	90.69
301.979	116.69
302.209	91.69
302.439	97.69
302.669	87.69
302.9	109.69
303.13	102.69
303.36	93.69
303.59	109.69
303.82	104.69
304.051	102.69
304.281	85.69
304.511	97.69
304.741	87.69
304.971	92.69
305.201	102.69
305.431	83.69
305.661	94.69
305.891	91.69
306.121	97.69
306.352	111.69
306.582	111.69
306.812	104.69
307.042	96.69
307.272	91.69
307.502	88.69
307.731	85.69
307.961	95.69
308.191	90.69
308.421	102.69
308.651	100.69
308.881	121.69
309.111	90.69
309.341	89.69
309.571	88.69
309.8	100.69
310.03	98.69
310.26	92.69
310.49	98.69
310.72	99.69
310.949	99.69
311.179	94.69
311.409	111.69
311.639	111.69
311.868	102.69
312.098	107.69
312.328	97.69
312.557	100.69
312.787	108.69
313.017	116.69
313.246	124.69
313.476	103.69
313.706	75.69
313.935	99.69
314.165	107.69
314.394	103.69
314.624	99.69
314.853	99.69
315.083	98.69
315.312	97.69
315.542	98.69
315.771	92.69
316.001	91.69
316.23	88.69
316.46	100.69
316.689	82.69
316.919	94.69
317.148	96.69
317.377	102.69
317.607	102.69
317.836	94.69
318.065	91.69
318.295	94.69
318.524	95.69
318.753	104.69
318.983	99.69
319.212	100.69
319.441	108.69
319.67	100.69
319.9	99.69
320.129	92.69
320.358	91.69
320.587	86.69
320.816	88.69
321.046	105.69
321.275	114.69
321.504	91.69
321.733	106.69
321.962	106.69
322.191	105.69
322.42	110.69
322.649	100.69
322.878	128.69
323.108	130.69
323.337	121.69
323.566	131.69
323.795	153.69
324.024	202.69
324.253	393.69
324.482	786.69
324.71	1610.69
324.939	2086.69
325.168	764.69
325.397	238.69
325.626	152.69
325.855	128.69
326.084	119.69
326.313	126.69
326.542	152.69
326.77	228.69
326.999	450.69
327.228	909.69
327.457	1646.69
327.686	1306.69
327.914	356.69
328.143	192.69
328.372	138.69
328.6	126.69
328.829	126.69
329.058	120.69
329.287	125.69
329.515	110.69
329.744	116.69
329.972	108.69
330.201	106.69
330.43	127.69
330.658	108.69
330.887	116.69
331.115	123.69
331.344	98.69
331.572	96.69
331.801	90.69
332.03	107.69
332.258	95.69
332.486	110.69
332.715	98.69
332.943	100.69
333.172	99.69
333.4	98.69
333.629	99.69
333.857	104.69
334.085	111.69
334.314	106.69
334.542	104.69
334.771	108.69
334.999	90.69
335.227	107.69
335.455	115.69
335.684	96.69
335.912	96.69
336.14	94.69
336.369	102.69
336.597	108.69
336.825	100.69
337.053	91.69
337.281	107.69
337.51	94.69
337.738	90.69
337.966	102.69
338.194	103.69
338.422	110.69
338.65	96.69
338.878	105.69
339.106	88.69
339.334	107.69
339.562	84.69
339.79	98.69
340.018	95.69
340.246	86.69
340.474	94.69
340.702	95.69
340.93	104.69
341.158	90.69
341.386	89.69
341.614	91.69
341.842	98.69
342.07	92.69
342.298	107.69
342.526	96.69
342.754	94.69
342.981	84.69
343.209	100.69
343.437	102.69
343.665	91.69
343.893	87.69
344.12	109.69
344.348	108.69
344.576	106.69
344.804	102.69
345.031	88.69
345.259	107.69
345.487	95.69
345.714	90.69
345.942	96.69
346.17	108.69
346.397	87.69
346.625	96.69
346.853	87.69
347.08	92.69
347.308	102.69
347.535	94.69
347.763	94.69
347.99	96.69
348.218	119.69
348.445	103.69
348.673	104.69
348.9	103.69
349.128	112.69
349.355	92.69
349.583	110.69
349.81	107.69
350.037	94.69
350.265	111.69
350.492	88.69
350.72	112.69
350.947	126.69
351.174	113.69
351.402	116.69
351.629	101.69
351.856	95.69
352.083	97.69
352.311	107.69
352.538	124.69
352.765	124.69
352.992	122.69
353.22	109.69
353.447	96.69
353.674	99.69
353.901	101.69
354.128	95.69
354.355	102.69
354.583	109.69
354.81	109.69
355.037	94.69
355.264	103.69
355.491	85.69
355.718	100.69
355.945	103.69
356.172	88.69
356.399	103.69
356.626	92.69
356.853	101.69
357.08	97.69
357.307	100.69
357.534	95.69
357.761	106.69
357.988	105.69
358.215	90.69
358.441	101.69
358.668	99.69
358.895	94.69
359.122	107.69
359.349	86.69
359.576	89.69
359.802	102.69
360.029	108.69
360.256	121.69
360.483	96.69
360.709	97.69
360.936	90.69
361.163	98.69
361.39	108.69
361.616	94.69
361.843	92.69
362.07	97.69
362.296	96.69
362.523	83.69
362.749	102.69
362.976	107.69
363.203	98.69
363.429	92.69
363.656	90.69
363.882	86.69
364.109	88.69
364.335	91.69
364.562	96.69
364.788	86.69
365.015	94.69
365.241	89.69
365.468	114.69
365.694	97.69
365.92	104.69
366.147	94.69
366.373	92.69
366.599	90.69
366.826	110.69
367.052	78.69
367.278	85.69
367.505	90.69
367.731	104.69
367.957	107.69
368.184	107.69
368.41	106.69
368.636	128.69
368.862	113.69
369.089	92.69
369.315	67.69
369.541	86.69
369.767	88.69
369.993	94.69
370.219	100.69
370.445	98.69
370.672	95.69
370.898	101.69
371.124	93.69
371.35	93.69
371.576	77.69
371.802	90.69
372.028	92.69
372.254	97.69
372.48	92.69
372.706	87.69
372.932	86.69
373.158	112.69
373.384	92.69
373.61	92.69
373.835	83.69
374.061	97.69
374.287	91.69
374.513	96.69
374.739	87.69
374.965	97.69
375.191	98.69
375.416	90.69
375.642	92.69
375.868	91.69
376.094	91.69
376.319	91.69
376.545	90.69
376.771	95.69
376.997	109.69
377.222	90.69
377.448	88.69
377.674	94.69
377.899	100.69
378.125	106.69
378.35	96.69
378.576	95.69
378.802	92.69
379.027	91.69
379.253	96.69
379.478	83.69
379.704	99.69
379.929	107.69
380.155	96.69
380.38	93.69
380.606	105.69
380.831	91.69
381.057	99.69
381.282	99.69
381.507	97.69
381.733	91.69
381.958	100.69
382.184	94.69
382.409	103.69
382.634	109.69
382.86	101.69
383.085	90.69
383.31	97.69
383.535	93.69
383.761	109.69
383.986	94.69
384.211	95.69
384.436	83.69
384.662	96.69
384.887	104.69
385.112	105.69
385.337	95.69
385.562	103.69
385.787	92.69
386.013	124.69
386.238	122.69
386.463	94.69
386.688	104.69
386.913	97.69
387.138	103.69
387.363	108.69
387.588	95.69
387.813	98.69
388.038	118.69
388.263	98.69
388.488	108.69
388.713	93.69
388.938	103.69
389.163	95.69
389.387	90.69
389.612	92.69
389.837	91.69
390.062	104.69
390.287	96.69
390.512	98.69
390.736	89.69
390.961	100.69
391.186	91.69
391.411	96.69
391.636	96.69
391.86	96.69
392.085	92.69
392.31	104.69
392.534	96.69
392.759	93.69
392.984	90.69
393.208	79.69
393.433	81.69
393.658	89.69
393.882	97.69
394.107	88.69
394.331	93.69
394.556	94.69
394.78	109.69
395.005	84.69
395.229	93.69
395.454	87.69
395.678	94.69
395.903	102.69
396.127	93.69
396.352	86.69
396.576	101.69
396.801	92.69
397.025	97.69
397.249	99.69
397.474	71.69
397.698	94.69
397.922	82.69
398.147	76.69
398.371	98.69
398.595	86.69
398.82	92.69
399.044	101.69
399.268	77.69
399.492	71.69
399.717	78.69
399.941	96.69
400.165	95.69
400.389	91.69
400.613	90.69
400.837	101.69
401.062	83.69
401.286	104.69
401.51	97.69
401.734	86.69
401.958	98.69
402.182	130.69
402.406	151.69
402.63	116.69
402.854	102.69
403.078	74.69
403.302	99.69
403.526	77.69
403.75	92.69
403.974	92.69
404.198	86.69
404.422	85.69
404.645	97.69
404.869	94.69
405.093	94.69
405.317	108.69
405.541	104.69
405.765	104.69
405.988	123.69
406.212	165.69
406.436	209.69
406.66	134.69
406.883	98.69
407.107	88.69
407.331	93.69
407.555	100.69
407.778	96.69
408.002	95.69
408.226	91.69
408.449	104.69
408.673	94.69
408.896	90.69
409.12	80.69
409.344	107.69
409.567	98.69
409.791	90.69
410.014	93.69
410.238	100.69
410.461	98.69
410.685	95.69
410.908	94.69
411.132	103.69
411.355	108.69
411.578	91.69
411.802	101.69
412.025	98.69
412.249	87.69
412.472	96.69
412.695	67.69
412.919	80.69
413.142	82.69
413.365	84.69
413.589	107.69
413.812	88.69
414.035	85.69
414.258	84.69
414.482	80.69
414.705	96.69
414.928	97.69
415.151	95.69
415.374	92.69
415.597	74.69
415.821	98.69
416.044	87.69
416.267	96.69
416.49	71.69
416.713	94.69
416.936	91.69
417.159	98.69
417.382	84.69
417.605	90.69
417.828	89.69
418.051	84.69
418.274	100.69
418.497	91.69
418.72	80.69
418.943	111.69
419.166	101.69
419.389	99.69
419.611	79.69
419.834	84.69
420.057	103.69
420.28	86.69
420.503	105.69
420.726	88.69
420.948	86.69
421.171	100.69
421.394	91.69
421.617	94.69
421.839	108.69
422.062	82.69
422.285	101.69
422.507	103.69
422.73	99.69
422.953	95.69
423.175	99.69
423.398	102.69
423.621	104.69
423.843	97.69
424.066	89.69
424.288	96.69
424.511	96.69
424.733	109.69
424.956	106.69
425.178	110.69
425.401	104.69
425.623	114.69
425.846	84.69
426.068	104.69
426.291	93.69
426.513	93.69
426.735	100.69
426.958	96.69
427.18	100.69
427.402	127.69
427.625	161.69
427.847	114.69
428.069	84.69
428.292	98.69
428.514	83.69
428.736	81.69
428.958	91.69
429.181	86.69
429.403	86.69
429.625	89.69
429.847	82.69
430.069	102.69
430.292	109.69
430.514	83.69
430.736	86.69
430.958	91.69
431.18	93.69
431.402	98.69
431.624	91.69
431.846	97.69
432.068	86.69
432.29	83.69
432.512	99.69
432.734	83.69
432.956	84.69
433.178	103.69
433.4	110.69
433.622	103.69
433.844	93.69
434.066	78.69
434.287	114.69
434.509	90.69
434.731	86.69
434.953	83.69
435.175	91.69
435.397	110.69
435.618	101.69
435.84	111.69
436.062	130.69
436.284	112.69
436.505	105.69
436.727	107.69
436.949	108.69
437.17	91.69
437.392	93.69
437.614	107.69
437.835	112.69
438.057	114.69
438.278	116.69
438.5	107.69
438.721	123.69
438.943	112.69
439.165	88.69
439.386	93.69
439.608	95.69
439.829	109.69
440.05	115.69
440.272	130.69
440.493	90.69
440.715	95.69
440.936	100.69
441.158	84.69
441.379	92.69
441.6	93.69
441.822	103.69
442.043	101.69
442.264	100.69
442.486	102.69
442.707	101.69
442.928	101.69
443.149	132.69
443.371	126.69
443.592	111.69
443.813	114.69
444.034	118.69
444.255	107.69
444.476	108.69
444.698	100.69
444.919	95.69
445.14	131.69
445.361	129.69
445.582	103.69
445.803	123.69
446.024	137.69
446.245	116.69
446.466	105.69
446.687	94.69
446.908	103.69
447.129	108.69
447.35	82.69
447.571	76.69
447.792	103.69
448.013	110.69
448.234	99.69
448.455	97.69
448.675	123.69
448.896	118.69
449.117	98.69
449.338	106.69
449.559	128.69
449.779	130.69
450	90.69
450.221	91.69
450.442	97.69
450.662	99.69
450.883	112.69
451.104	110.69
451.324	101.69
451.545	99.69
451.766	76.69
451.986	85.69
452.207	89.69
452.428	86.69
452.648	106.69
452.869	115.69
453.089	123.69
453.31	121.69
453.53	92.69
453.751	98.69
453.971	97.69
454.192	115.69
454.412	96.69
454.633	94.69
454.853	89.69
455.073	92.69
455.294	89.69
455.514	91.69
455.734	103.69
455.955	96.69
456.175	88.69
456.395	88.69
456.616	89.69
456.836	89.69
457.056	79.69
457.276	88.69
457.497	99.69
457.717	88.69
457.937	85.69
458.157	75.69
458.377	91.69
458.598	99.69
458.818	143.69
459.038	152.69
459.258	112.69
459.478	110.69
459.698	99.69
459.918	98.69
460.138	81.69
460.358	90.69
460.578	87.69
460.798	87.69
461.018	78.69
461.238	91.69
461.458	81.69
461.678	101.69
461.898	106.69
462.118	96.69
462.338	95.69
462.558	87.69
462.777	89.69
462.997	94.69
463.217	82.69
463.437	92.69
463.657	89.69
463.876	87.69
464.096	97.69
464.316	102.69
464.536	102.69
464.755	99.69
464.975	106.69
465.195	173.69
465.414	150.69
465.634	104.69
465.854	78.69
466.073	95.69
466.293	93.69
466.512	104.69
466.732	87.69
466.951	92.69
467.171	87.69
467.391	96.69
467.61	97.69
467.829	103.69
468.049	102.69
468.268	95.69
468.488	69.69
468.707	103.69
468.927	87.69
469.146	90.69
469.365	87.69
469.585	84.69
469.804	87.69
470.023	83.69
470.243	104.69
470.462	100.69
470.681	114.69
470.901	96.69
471.12	71.69
471.339	99.69
471.558	99.69
471.777	84.69
471.997	99.69
472.216	91.69
472.435	112.69
472.654	99.69
472.873	97.69
473.092	85.69
473.311	90.69
473.53	96.69
473.749	98.69
473.968	97.69
474.187	90.69
474.406	95.69
474.625	91.69
474.844	84.69
475.063	84.69
475.282	93.69
475.501	101.69
475.72	90.69
475.939	97.69
476.158	94.69
476.377	80.69
476.596	84.69
476.814	84.69
477.033	86.69
477.252	85.69
477.471	100.69
477.69	107.69
477.908	86.69
478.127	86.69
478.346	90.69
478.564	90.69
478.783	95.69
479.002	94.69
479.22	88.69
479.439	112.69
479.658	115.69
479.876	86.69
480.095	99.69
480.313	96.69
480.532	98.69
480.751	97.69
480.969	90.69
481.188	108.69
481.406	110.69
481.624	87.69
481.843	107.69
482.061	98.69
482.28	84.69
482.498	89.69
482.717	97.69
482.935	95.69
483.153	90.69
483.372	95.69
483.59	94.69
483.808	83.69
484.027	91.69
484.245	87.69
484.463	93.69
484.681	87.69
484.9	104.69
485.118	95.69
485.336	83.69
485.554	97.69
485.772	102.69
485.99	113.69
486.209	116.69
486.427	96.69
486.645	117.69
486.863	115.69
487.081	111.69
487.299	92.69
487.517	92.69
487.735	85.69
487.953	102.69
488.171	78.69
488.389	96.69
488.607	92.69
488.825	88.69
489.043	103.69
489.261	93.69
489.479	94.69
489.696	102.69
489.914	98.69
490.132	99.69
490.35	97.69
490.568	93.69
490.786	88.69
491.003	92.69
491.221	92.69
491.439	101.69
491.657	79.69
491.874	94.69
492.092	92.69
492.31	100.69
492.527	97.69
492.745	94.69
492.963	89.69
493.18	99.69
493.398	109.69
493.615	104.69
493.833	94.69
494.05	96.69
494.268	99.69
494.485	94.69
494.703	93.69
494.92	92.69
495.138	75.69
495.355	83.69
495.573	84.69
495.79	93.69
496.008	91.69
496.225	92.69
496.442	89.69
496.66	91.69
496.877	104.69
497.094	98.69
497.312	97.69
497.529	100.69
497.746	89.69
497.963	102.69
498.181	98.69
498.398	95.69
498.615	124.69
498.832	100.69
499.049	90.69
499.267	115.69
499.484	94.69
499.701	94.69
499.918	88.69
500.135	108.69
500.352	91.69
500.569	87.69
500.786	96.69
501.003	85.69
501.22	88.69
501.437	88.69
501.654	98.69
501.871	101.69
502.088	104.69
502.305	102.69
502.522	90.69
502.739	101.69
502.956	92.69
503.172	109.69
503.389	97.69
503.606	97.69
503.823	104.69
504.04	102.69
504.256	87.69
504.473	87.69
504.69	91.69
504.907	103.69
505.123	105.69
505.34	94.69
505.557	87.69
505.773	100.69
505.99	100.69
506.207	103.69
506.423	100.69
506.64	81.69
506.856	94.69
507.073	98.69
507.289	96.69
507.506	102.69
507.722	108.69
507.939	120.69
508.155	90.69
508.372	84.69
508.588	85.69
508.805	110.69
509.021	102.69
509.238	114.69
509.454	111.69
509.67	86.69
509.887	114.69
510.103	125.69
510.319	222.69
510.536	734.69
510.752	2158.69
510.968	614.69
511.184	155.69
511.401	121.69
511.617	105.69
511.833	103.69
512.049	100.69
512.265	85.69
512.481	90.69
512.698	82.69
512.914	94.69
513.13	90.69
513.346	93.69
513.562	88.69
513.778	95.69
513.994	117.69
514.21	110.69
