Data from Uncirc_1998_H10_HRD10591_00059.txt Node
Date: Wed Jan 03 11:25:36 EST 2024
User: Yrep
Spectrometer: HR+D1059
Trigger mode: 1
Integration Time (sec): 1.000000E-1
Scans to average: 1
Electric dark correction enabled: true
Nonlinearity correction enabled: false
Boxcar width: 0
XAxis mode: Wavelengths
Number of Pixels in Spectrum: 2048
>>>>>Begin Spectral Data<<<<<
223.165	-18.5
223.4	-18.5
223.635	-18.5
223.869	-30.5
224.104	-11.5
224.338	-11.5
224.573	-14.5
224.808	-7.5
225.042	-4.5
225.277	-20.5
225.511	-1.5
225.746	15.5
225.98	10.5
226.215	15.5
226.449	10.5
226.683	16.5
226.918	30.5
227.152	21.5
227.387	12.5
227.621	42.5
227.856	44.5
228.09	43.5
228.324	58.5
228.559	57.5
228.793	46.5
229.027	58.5
229.262	61.5
229.496	73.5
229.73	81.5
229.964	74.5
230.199	82.5
230.433	57.5
230.667	74.5
230.901	81.5
231.136	67.5
231.37	80.5
231.604	87.5
231.838	84.5
232.072	81.5
232.306	82.5
232.541	88.5
232.775	82.5
233.009	88.5
233.243	92.5
233.477	80.5
233.711	90.5
233.945	86.5
234.179	76.5
234.413	78.5
234.647	93.5
234.881	85.5
235.115	80.5
235.349	86.5
235.583	71.5
235.817	76.5
236.051	88.5
236.285	64.5
236.519	75.5
236.753	84.5
236.987	82.5
237.221	81.5
237.455	77.5
237.689	68.5
237.922	61.5
238.156	80.5
238.39	68.5
238.624	81.5
238.858	69.5
239.091	88.5
239.325	80.5
239.559	81.5
239.793	80.5
240.027	69.5
240.26	82.5
240.494	75.5
240.728	82.5
240.961	78.5
241.195	80.5
241.429	76.5
241.662	71.5
241.896	65.5
242.13	86.5
242.363	61.5
242.597	58.5
242.83	70.5
243.064	76.5
243.298	71.5
243.531	74.5
243.765	75.5
243.998	63.5
244.232	81.5
244.465	92.5
244.699	86.5
244.932	75.5
245.166	68.5
245.399	78.5
245.633	70.5
245.866	80.5
246.099	65.5
246.333	84.5
246.566	91.5
246.8	87.5
247.033	76.5
247.266	76.5
247.5	72.5
247.733	58.5
247.966	63.5
248.2	77.5
248.433	70.5
248.666	75.5
248.899	78.5
249.133	80.5
249.366	83.5
249.599	89.5
249.832	69.5
250.066	68.5
250.299	75.5
250.532	74.5
250.765	90.5
250.998	93.5
251.231	74.5
251.465	82.5
251.698	81.5
251.931	87.5
252.164	81.5
252.397	73.5
252.63	81.5
252.863	86.5
253.096	68.5
253.329	83.5
253.562	75.5
253.795	82.5
254.028	81.5
254.261	77.5
254.494	88.5
254.727	84.5
254.96	81.5
255.193	80.5
255.426	80.5
255.659	75.5
255.892	85.5
256.124	85.5
256.357	81.5
256.59	82.5
256.823	91.5
257.056	83.5
257.289	76.5
257.521	77.5
257.754	70.5
257.987	60.5
258.22	77.5
258.452	82.5
258.685	74.5
258.918	81.5
259.151	74.5
259.383	75.5
259.616	83.5
259.849	82.5
260.081	90.5
260.314	85.5
260.547	75.5
260.779	84.5
261.012	84.5
261.244	86.5
261.477	80.5
261.71	89.5
261.942	109.5
262.175	110.5
262.407	92.5
262.64	87.5
262.872	72.5
263.105	70.5
263.337	83.5
263.57	68.5
263.802	90.5
264.035	82.5
264.267	77.5
264.499	85.5
264.732	88.5
264.964	77.5
265.197	82.5
265.429	81.5
265.661	63.5
265.894	78.5
266.126	91.5
266.358	81.5
266.591	97.5
266.823	88.5
267.055	76.5
267.287	82.5
267.52	82.5
267.752	68.5
267.984	80.5
268.216	88.5
268.448	74.5
268.681	78.5
268.913	84.5
269.145	78.5
269.377	72.5
269.609	92.5
269.841	89.5
270.073	94.5
270.306	81.5
270.538	94.5
270.77	84.5
271.002	89.5
271.234	91.5
271.466	84.5
271.698	84.5
271.93	67.5
272.162	76.5
272.394	85.5
272.626	90.5
272.858	96.5
273.09	91.5
273.322	87.5
273.553	76.5
273.785	85.5
274.017	84.5
274.249	84.5
274.481	97.5
274.713	81.5
274.945	87.5
275.176	84.5
275.408	93.5
275.64	89.5
275.872	86.5
276.104	87.5
276.335	82.5
276.567	97.5
276.799	107.5
277.031	105.5
277.262	102.5
277.494	89.5
277.726	84.5
277.957	85.5
278.189	81.5
278.421	80.5
278.652	93.5
278.884	83.5
279.115	85.5
279.347	77.5
279.579	82.5
279.81	87.5
280.042	82.5
280.273	71.5
280.505	70.5
280.736	83.5
280.968	89.5
281.199	91.5
281.431	91.5
281.662	85.5
281.894	88.5
282.125	90.5
282.356	123.5
282.588	132.5
282.819	106.5
283.051	75.5
283.282	86.5
283.513	82.5
283.745	97.5
283.976	85.5
284.207	87.5
284.439	83.5
284.67	84.5
284.901	78.5
285.132	83.5
285.364	85.5
285.595	89.5
285.826	75.5
286.057	83.5
286.288	85.5
286.52	90.5
286.751	91.5
286.982	90.5
287.213	89.5
287.444	93.5
287.675	85.5
287.906	92.5
288.138	95.5
288.369	86.5
288.6	97.5
288.831	79.5
289.062	87.5
289.293	89.5
289.524	84.5
289.755	75.5
289.986	92.5
290.217	75.5
290.448	76.5
290.679	73.5
290.91	76.5
291.141	81.5
291.371	88.5
291.602	78.5
291.833	97.5
292.064	101.5
292.295	84.5
292.526	80.5
292.757	79.5
292.987	85.5
293.218	84.5
293.449	90.5
293.68	92.5
293.91	79.5
294.141	76.5
294.372	93.5
294.603	86.5
294.833	85.5
295.064	96.5
295.295	98.5
295.525	96.5
295.756	104.5
295.987	109.5
296.217	128.5
296.448	114.5
296.679	86.5
296.909	110.5
297.14	88.5
297.37	90.5
297.601	99.5
297.831	98.5
298.062	96.5
298.292	85.5
298.523	91.5
298.753	92.5
298.984	97.5
299.214	85.5
299.445	92.5
299.675	85.5
299.905	85.5
300.136	92.5
300.366	79.5
300.597	78.5
300.827	106.5
301.057	90.5
301.288	107.5
301.518	105.5
301.748	80.5
301.979	94.5
302.209	87.5
302.439	107.5
302.669	87.5
302.9	95.5
303.13	84.5
303.36	101.5
303.59	106.5
303.82	110.5
304.051	103.5
304.281	98.5
304.511	72.5
304.741	85.5
304.971	74.5
305.201	77.5
305.431	89.5
305.661	88.5
305.891	86.5
306.121	94.5
306.352	88.5
306.582	91.5
306.812	90.5
307.042	97.5
307.272	92.5
307.502	93.5
307.731	93.5
307.961	92.5
308.191	92.5
308.421	84.5
308.651	86.5
308.881	89.5
309.111	84.5
309.341	98.5
309.571	94.5
309.8	95.5
310.03	79.5
310.26	98.5
310.49	89.5
310.72	81.5
310.949	100.5
311.179	93.5
311.409	92.5
311.639	91.5
311.868	93.5
312.098	98.5
312.328	94.5
312.557	93.5
312.787	109.5
313.017	101.5
313.246	101.5
313.476	85.5
313.706	79.5
313.935	96.5
314.165	95.5
314.394	89.5
314.624	97.5
314.853	88.5
315.083	110.5
315.312	97.5
315.542	96.5
315.771	89.5
316.001	102.5
316.23	92.5
316.46	94.5
316.689	96.5
316.919	91.5
317.148	100.5
317.377	95.5
317.607	93.5
317.836	88.5
318.065	99.5
318.295	95.5
318.524	89.5
318.753	84.5
318.983	93.5
319.212	105.5
319.441	107.5
319.67	101.5
319.9	97.5
320.129	98.5
320.358	88.5
320.587	95.5
320.816	103.5
321.046	97.5
321.275	84.5
321.504	85.5
321.733	100.5
321.962	90.5
322.191	84.5
322.42	93.5
322.649	94.5
322.878	94.5
323.108	110.5
323.337	108.5
323.566	131.5
323.795	153.5
324.024	178.5
324.253	366.5
324.482	755.5
324.71	1517.5
324.939	2006.5
325.168	715.5
325.397	229.5
325.626	144.5
325.855	119.5
326.084	129.5
326.313	121.5
326.542	152.5
326.77	225.5
326.999	413.5
327.228	889.5
327.457	1567.5
327.686	1240.5
327.914	329.5
328.143	176.5
328.372	135.5
328.6	128.5
328.829	106.5
329.058	127.5
329.287	121.5
329.515	105.5
329.744	90.5
329.972	79.5
330.201	98.5
330.43	113.5
330.658	113.5
330.887	145.5
331.115	109.5
331.344	102.5
331.572	101.5
331.801	95.5
332.03	104.5
332.258	103.5
332.486	85.5
332.715	107.5
332.943	97.5
333.172	96.5
333.4	91.5
333.629	111.5
333.857	100.5
334.085	105.5
334.314	81.5
334.542	90.5
334.771	98.5
334.999	89.5
335.227	100.5
335.455	86.5
335.684	99.5
335.912	106.5
336.14	83.5
336.369	94.5
336.597	76.5
336.825	102.5
337.053	92.5
337.281	77.5
337.51	90.5
337.738	91.5
337.966	90.5
338.194	84.5
338.422	96.5
338.65	93.5
338.878	96.5
339.106	84.5
339.334	83.5
339.562	88.5
339.79	92.5
340.018	87.5
340.246	103.5
340.474	86.5
340.702	80.5
340.93	88.5
341.158	79.5
341.386	80.5
341.614	92.5
341.842	93.5
342.07	85.5
342.298	81.5
342.526	103.5
342.754	86.5
342.981	82.5
343.209	95.5
343.437	106.5
343.665	94.5
343.893	86.5
344.12	87.5
344.348	83.5
344.576	89.5
344.804	85.5
345.031	79.5
345.259	97.5
345.487	87.5
345.714	98.5
345.942	89.5
346.17	92.5
346.397	77.5
346.625	73.5
346.853	85.5
347.08	90.5
347.308	104.5
347.535	92.5
347.763	96.5
347.99	94.5
348.218	78.5
348.445	100.5
348.673	96.5
348.9	106.5
349.128	81.5
349.355	73.5
349.583	95.5
349.81	100.5
350.037	104.5
350.265	92.5
350.492	84.5
350.72	79.5
350.947	98.5
351.174	106.5
351.402	100.5
351.629	101.5
351.856	95.5
352.083	87.5
352.311	87.5
352.538	108.5
352.765	102.5
352.992	112.5
353.22	104.5
353.447	108.5
353.674	94.5
353.901	95.5
354.128	98.5
354.355	96.5
354.583	91.5
354.81	92.5
355.037	106.5
355.264	96.5
355.491	96.5
355.718	96.5
355.945	96.5
356.172	80.5
356.399	107.5
356.626	93.5
356.853	88.5
357.08	98.5
357.307	88.5
357.534	93.5
357.761	104.5
357.988	107.5
358.215	96.5
358.441	84.5
358.668	94.5
358.895	92.5
359.122	90.5
359.349	90.5
359.576	83.5
359.802	89.5
360.029	103.5
360.256	104.5
360.483	105.5
360.709	78.5
360.936	80.5
361.163	90.5
361.39	102.5
361.616	86.5
361.843	94.5
362.07	96.5
362.296	93.5
362.523	85.5
362.749	93.5
362.976	96.5
363.203	93.5
363.429	107.5
363.656	85.5
363.882	84.5
364.109	81.5
364.335	92.5
364.562	92.5
364.788	82.5
365.015	97.5
365.241	107.5
365.468	89.5
365.694	90.5
365.92	99.5
366.147	102.5
366.373	84.5
366.599	89.5
366.826	87.5
367.052	74.5
367.278	85.5
367.505	98.5
367.731	96.5
367.957	87.5
368.184	105.5
368.41	78.5
368.636	104.5
368.862	118.5
369.089	93.5
369.315	75.5
369.541	87.5
369.767	89.5
369.993	88.5
370.219	95.5
370.445	91.5
370.672	96.5
370.898	86.5
371.124	83.5
371.35	87.5
371.576	95.5
371.802	80.5
372.028	95.5
372.254	79.5
372.48	74.5
372.706	87.5
372.932	83.5
373.158	87.5
373.384	100.5
373.61	98.5
373.835	93.5
374.061	70.5
374.287	94.5
374.513	82.5
374.739	78.5
374.965	91.5
375.191	83.5
375.416	107.5
375.642	98.5
375.868	86.5
376.094	94.5
376.319	105.5
376.545	96.5
376.771	86.5
376.997	88.5
377.222	96.5
377.448	90.5
377.674	96.5
377.899	91.5
378.125	95.5
378.35	101.5
378.576	85.5
378.802	85.5
379.027	84.5
379.253	93.5
379.478	104.5
379.704	87.5
379.929	104.5
380.155	85.5
380.38	94.5
380.606	71.5
380.831	85.5
381.057	98.5
381.282	92.5
381.507	89.5
381.733	92.5
381.958	87.5
382.184	88.5
382.409	90.5
382.634	98.5
382.86	87.5
383.085	96.5
383.31	96.5
383.535	85.5
383.761	97.5
383.986	97.5
384.211	78.5
384.436	90.5
384.662	93.5
384.887	103.5
385.112	97.5
385.337	110.5
385.562	104.5
385.787	86.5
386.013	103.5
386.238	97.5
386.463	91.5
386.688	103.5
386.913	92.5
387.138	110.5
387.363	87.5
387.588	84.5
387.813	101.5
388.038	108.5
388.263	97.5
388.488	93.5
388.713	92.5
388.938	90.5
389.163	103.5
389.387	93.5
389.612	85.5
389.837	86.5
390.062	84.5
390.287	87.5
390.512	79.5
390.736	104.5
390.961	89.5
391.186	98.5
391.411	114.5
391.636	92.5
391.86	94.5
392.085	82.5
392.31	86.5
392.534	90.5
392.759	72.5
392.984	84.5
393.208	85.5
393.433	98.5
393.658	78.5
393.882	82.5
394.107	74.5
394.331	87.5
394.556	84.5
394.78	92.5
395.005	94.5
395.229	87.5
395.454	81.5
395.678	93.5
395.903	79.5
396.127	85.5
396.352	75.5
396.576	88.5
396.801	86.5
397.025	87.5
397.249	82.5
397.474	90.5
397.698	97.5
397.922	94.5
398.147	79.5
398.371	81.5
398.595	87.5
398.82	96.5
399.044	84.5
399.268	90.5
399.492	78.5
399.717	87.5
399.941	91.5
400.165	82.5
400.389	90.5
400.613	99.5
400.837	85.5
401.062	97.5
401.286	81.5
401.51	91.5
401.734	87.5
401.958	89.5
402.182	105.5
402.406	141.5
402.63	108.5
402.854	86.5
403.078	77.5
403.302	77.5
403.526	87.5
403.75	90.5
403.974	88.5
404.198	79.5
404.422	97.5
404.645	85.5
404.869	91.5
405.093	86.5
405.317	93.5
405.541	89.5
405.765	93.5
405.988	114.5
406.212	152.5
406.436	191.5
406.66	131.5
406.883	95.5
407.107	95.5
407.331	107.5
407.555	90.5
407.778	109.5
408.002	89.5
408.226	90.5
408.449	107.5
408.673	107.5
408.896	86.5
409.12	84.5
409.344	70.5
409.567	87.5
409.791	94.5
410.014	96.5
410.238	89.5
410.461	102.5
410.685	96.5
410.908	102.5
411.132	102.5
411.355	84.5
411.578	96.5
411.802	86.5
412.025	89.5
412.249	94.5
412.472	74.5
412.695	89.5
412.919	73.5
413.142	84.5
413.365	86.5
413.589	80.5
413.812	84.5
414.035	91.5
414.258	78.5
414.482	86.5
414.705	97.5
414.928	81.5
415.151	89.5
415.374	99.5
415.597	83.5
415.821	83.5
416.044	82.5
416.267	85.5
416.49	91.5
416.713	73.5
416.936	93.5
417.159	87.5
417.382	85.5
417.605	87.5
417.828	90.5
418.051	82.5
418.274	93.5
418.497	97.5
418.72	79.5
418.943	86.5
419.166	81.5
419.389	97.5
419.611	93.5
419.834	73.5
420.057	91.5
420.28	81.5
420.503	94.5
420.726	102.5
420.948	84.5
421.171	99.5
421.394	100.5
421.617	89.5
421.839	97.5
422.062	98.5
422.285	97.5
422.507	97.5
422.73	95.5
422.953	95.5
423.175	73.5
423.398	78.5
423.621	93.5
423.843	78.5
424.066	80.5
424.288	93.5
424.511	96.5
424.733	107.5
424.956	107.5
425.178	105.5
425.401	84.5
425.623	95.5
425.846	85.5
426.068	104.5
426.291	82.5
426.513	92.5
426.735	91.5
426.958	92.5
427.18	93.5
427.402	132.5
427.625	158.5
427.847	121.5
428.069	91.5
428.292	79.5
428.514	84.5
428.736	80.5
428.958	78.5
429.181	70.5
429.403	72.5
429.625	87.5
429.847	97.5
430.069	98.5
430.292	90.5
430.514	97.5
430.736	87.5
430.958	70.5
431.18	68.5
431.402	72.5
431.624	77.5
431.846	87.5
432.068	86.5
432.29	78.5
432.512	91.5
432.734	81.5
432.956	85.5
433.178	88.5
433.4	87.5
433.622	89.5
433.844	90.5
434.066	74.5
434.287	83.5
434.509	90.5
434.731	85.5
434.953	92.5
435.175	74.5
435.397	95.5
435.618	83.5
435.84	104.5
436.062	119.5
436.284	111.5
436.505	103.5
436.727	90.5
436.949	80.5
437.17	94.5
437.392	101.5
437.614	80.5
437.835	94.5
438.057	105.5
438.278	95.5
438.5	102.5
438.721	103.5
438.943	92.5
439.165	97.5
439.386	90.5
439.608	87.5
439.829	90.5
440.05	119.5
440.272	116.5
440.493	105.5
440.715	79.5
440.936	100.5
441.158	85.5
441.379	86.5
441.6	86.5
441.822	86.5
442.043	95.5
442.264	92.5
442.486	102.5
442.707	81.5
442.928	98.5
443.149	122.5
443.371	116.5
443.592	91.5
443.813	95.5
444.034	97.5
444.255	87.5
444.476	96.5
444.698	86.5
444.919	90.5
445.14	127.5
445.361	133.5
445.582	102.5
445.803	119.5
446.024	120.5
446.245	110.5
446.466	104.5
446.687	83.5
446.908	81.5
447.129	85.5
447.35	88.5
447.571	89.5
447.792	93.5
448.013	101.5
448.234	101.5
448.455	96.5
448.675	100.5
448.896	106.5
449.117	82.5
449.338	96.5
449.559	115.5
449.779	123.5
450	89.5
450.221	100.5
450.442	94.5
450.662	84.5
450.883	91.5
451.104	104.5
451.324	94.5
451.545	88.5
451.766	95.5
451.986	92.5
452.207	80.5
452.428	106.5
452.648	95.5
452.869	106.5
453.089	105.5
453.31	109.5
453.53	85.5
453.751	91.5
453.971	84.5
454.192	89.5
454.412	92.5
454.633	89.5
454.853	103.5
455.073	92.5
455.294	94.5
455.514	86.5
455.734	81.5
455.955	85.5
456.175	74.5
456.395	80.5
456.616	92.5
456.836	84.5
457.056	86.5
457.276	81.5
457.497	85.5
457.717	87.5
457.937	81.5
458.157	81.5
458.377	79.5
458.598	95.5
458.818	119.5
459.038	139.5
459.258	112.5
459.478	101.5
459.698	84.5
459.918	93.5
460.138	95.5
460.358	88.5
460.578	80.5
460.798	86.5
461.018	92.5
461.238	81.5
461.458	88.5
461.678	74.5
461.898	91.5
462.118	78.5
462.338	89.5
462.558	76.5
462.777	74.5
462.997	94.5
463.217	76.5
463.437	77.5
463.657	84.5
463.876	93.5
464.096	90.5
464.316	89.5
464.536	86.5
464.755	93.5
464.975	88.5
465.195	136.5
465.414	144.5
465.634	103.5
465.854	94.5
466.073	81.5
466.293	92.5
466.512	94.5
466.732	91.5
466.951	93.5
467.171	98.5
467.391	88.5
467.61	85.5
467.829	96.5
468.049	76.5
468.268	93.5
468.488	88.5
468.707	92.5
468.927	74.5
469.146	81.5
469.365	79.5
469.585	80.5
469.804	88.5
470.023	97.5
470.243	71.5
470.462	95.5
470.681	97.5
470.901	97.5
471.12	79.5
471.339	82.5
471.558	75.5
471.777	81.5
471.997	87.5
472.216	93.5
472.435	85.5
472.654	92.5
472.873	87.5
473.092	86.5
473.311	92.5
473.53	80.5
473.749	92.5
473.968	97.5
474.187	104.5
474.406	78.5
474.625	83.5
474.844	79.5
475.063	91.5
475.282	88.5
475.501	81.5
475.72	91.5
475.939	88.5
476.158	84.5
476.377	85.5
476.596	79.5
476.814	87.5
477.033	88.5
477.252	79.5
477.471	92.5
477.69	97.5
477.908	101.5
478.127	86.5
478.346	79.5
478.564	93.5
478.783	84.5
479.002	90.5
479.22	81.5
479.439	97.5
479.658	84.5
479.876	85.5
480.095	81.5
480.313	86.5
480.532	95.5
480.751	76.5
480.969	90.5
481.188	108.5
481.406	92.5
481.624	80.5
481.843	80.5
482.061	81.5
482.28	80.5
482.498	92.5
482.717	101.5
482.935	83.5
483.153	93.5
483.372	89.5
483.59	88.5
483.808	87.5
484.027	90.5
484.245	81.5
484.463	88.5
484.681	97.5
484.9	82.5
485.118	93.5
485.336	98.5
485.554	89.5
485.772	97.5
485.99	104.5
486.209	86.5
486.427	86.5
486.645	88.5
486.863	111.5
487.081	98.5
487.299	105.5
487.517	94.5
487.735	84.5
487.953	93.5
488.171	89.5
488.389	94.5
488.607	102.5
488.825	97.5
489.043	76.5
489.261	73.5
489.479	85.5
489.696	93.5
489.914	87.5
490.132	82.5
490.35	98.5
490.568	84.5
490.786	91.5
491.003	82.5
491.221	98.5
491.439	101.5
491.657	80.5
491.874	103.5
492.092	98.5
492.31	83.5
492.527	86.5
492.745	86.5
492.963	93.5
493.18	81.5
493.398	95.5
493.615	103.5
493.833	89.5
494.05	86.5
494.268	79.5
494.485	76.5
494.703	84.5
494.92	87.5
495.138	85.5
495.355	83.5
495.573	91.5
495.79	91.5
496.008	94.5
496.225	81.5
496.442	85.5
496.66	92.5
496.877	90.5
497.094	97.5
497.312	91.5
497.529	95.5
497.746	88.5
497.963	83.5
498.181	81.5
498.398	92.5
498.615	108.5
498.832	96.5
499.049	94.5
499.267	82.5
499.484	100.5
499.701	80.5
499.918	95.5
500.135	88.5
500.352	87.5
500.569	77.5
500.786	93.5
501.003	96.5
501.22	89.5
501.437	93.5
501.654	79.5
501.871	91.5
502.088	98.5
502.305	89.5
502.522	97.5
502.739	75.5
502.956	82.5
503.172	101.5
503.389	97.5
503.606	98.5
503.823	93.5
504.04	91.5
504.256	81.5
504.473	90.5
504.69	92.5
504.907	93.5
505.123	92.5
505.34	90.5
505.557	92.5
505.773	85.5
505.99	82.5
506.207	77.5
506.423	78.5
506.64	95.5
506.856	89.5
507.073	89.5
507.289	94.5
507.506	79.5
507.722	102.5
507.939	102.5
508.155	103.5
508.372	93.5
508.588	87.5
508.805	95.5
509.021	85.5
509.238	104.5
509.454	106.5
509.67	99.5
509.887	123.5
510.103	135.5
510.319	205.5
510.536	639.5
510.752	1950.5
510.968	553.5
511.184	146.5
511.401	102.5
511.617	88.5
511.833	91.5
512.049	101.5
512.265	95.5
512.481	94.5
512.698	93.5
512.914	83.5
513.13	91.5
513.346	93.5
513.562	93.5
513.778	96.5
513.994	102.5
514.21	86.5
514.426	92.5
514.642	110.5
514.858	118.5
515.074	143.5
515.29	372.5
515.506	1154.5
515.721	437.5
515.937	149.5
516.153	105.5
516.369	86.5
516.585	106.5
516.801	87.5
517.016	87.5
517.232	92.5
517.448	102.5
517.664	87.5
517.879	90.5
518.095	87.5
518.311	100.5
518.527	80.5
518.742	86.5
518.958	92.5
519.173	99.5
519.389	89.5
519.605	92.5
519.82	103.5
520.036	100.5
520.251	106.5
520.467	105.5
520.682	97.5
520.898	91.5
521.113	105.5
521.329	128.5
521.544	176.5
521.76	462.5
521.975	1916.5
522.19	1136.5
522.406	265.5
522.621	117.5
522.836	96.5
523.052	90.5
523.267	90.5
523.482	103.5
523.698	84.5
523.913	112.5
524.128	102.5
524.343	82.5
524.559	75.5
524.774	76.5
524.989	92.5
525.204	110.5
525.419	100.5
525.634	110.5
525.849	88.5
526.064	87.5
526.28	87.5
526.495	98.5
526.71	102.5
526.925	79.5
527.14	98.5
527.355	97.5
527.57	91.5
527.785	84.5
527.999	88.5
528.214	82.5
528.429	84.5
528.644	94.5
528.859	85.5
529.074	93.5
529.289	109.5
529.503	162.5
529.718	108.5
529.933	84.5
530.148	85.5
530.363	100.5
530.577	96.5
530.792	86.5
531.007	87.5
531.221	78.5
531.436	104.5
531.651	92.5
531.865	88.5
532.08	81.5
532.295	90.5
532.509	84.5
532.724	90.5
532.938	89.5
533.153	94.5
533.367	88.5
533.582	94.5
533.796	101.5
534.011	74.5
534.225	88.5
534.44	76.5
534.654	91.5
534.868	79.5
535.083	90.5
535.297	84.5
535.511	105.5
535.726	97.5
535.94	79.5
536.154	99.5
536.369	84.5
536.583	77.5
