Data from Uncirc_1998_H10_HRD10591_00094.txt Node
Date: Wed Jan 03 11:25:43 EST 2024
User: Yrep
Spectrometer: HR+D1059
Trigger mode: 1
Integration Time (sec): 1.000000E-1
Scans to average: 1
Electric dark correction enabled: true
Nonlinearity correction enabled: false
Boxcar width: 0
XAxis mode: Wavelengths
Number of Pixels in Spectrum: 2048
>>>>>Begin Spectral Data<<<<<
223.165	-23.81
223.4	-23.81
223.635	-23.81
223.869	-26.81
224.104	-6.81
224.338	-11.81
224.573	-6.81
224.808	-16.81
225.042	-3.81
225.277	-3.81
225.511	9.19
225.746	4.19
225.98	0.19
226.215	15.19
226.449	-15.81
226.683	27.19
226.918	31.19
227.152	29.19
227.387	32.19
227.621	47.19
227.856	49.19
228.09	43.19
228.324	49.19
228.559	52.19
228.793	62.19
229.027	67.19
229.262	73.19
229.496	58.19
229.73	79.19
229.964	86.19
230.199	61.19
230.433	66.19
230.667	83.19
230.901	79.19
231.136	79.19
231.37	94.19
231.604	66.19
231.838	78.19
232.072	92.19
232.306	79.19
232.541	77.19
232.775	86.19
233.009	88.19
233.243	82.19
233.477	74.19
233.711	78.19
233.945	73.19
234.179	62.19
234.413	95.19
234.647	88.19
234.881	63.19
235.115	76.19
235.349	79.19
235.583	86.19
235.817	73.19
236.051	65.19
236.285	75.19
236.519	89.19
236.753	96.19
236.987	81.19
237.221	91.19
237.455	84.19
237.689	91.19
237.922	77.19
238.156	87.19
238.39	80.19
238.624	75.19
238.858	92.19
239.091	83.19
239.325	91.19
239.559	86.19
239.793	74.19
240.027	87.19
240.26	95.19
240.494	76.19
240.728	71.19
240.961	82.19
241.195	75.19
241.429	90.19
241.662	78.19
241.896	75.19
242.13	81.19
242.363	83.19
242.597	80.19
242.83	79.19
243.064	77.19
243.298	82.19
243.531	81.19
243.765	70.19
243.998	78.19
244.232	97.19
244.465	92.19
244.699	94.19
244.932	79.19
245.166	76.19
245.399	86.19
245.633	84.19
245.866	74.19
246.099	80.19
246.333	78.19
246.566	80.19
246.8	77.19
247.033	93.19
247.266	65.19
247.5	78.19
247.733	69.19
247.966	77.19
248.2	76.19
248.433	81.19
248.666	75.19
248.899	90.19
249.133	87.19
249.366	89.19
249.599	100.19
249.832	85.19
250.066	81.19
250.299	65.19
250.532	74.19
250.765	83.19
250.998	80.19
251.231	81.19
251.465	87.19
251.698	84.19
251.931	73.19
252.164	93.19
252.397	88.19
252.63	97.19
252.863	75.19
253.096	89.19
253.329	85.19
253.562	74.19
253.795	79.19
254.028	75.19
254.261	64.19
254.494	92.19
254.727	83.19
254.96	79.19
255.193	68.19
255.426	101.19
255.659	85.19
255.892	88.19
256.124	61.19
256.357	89.19
256.59	80.19
256.823	92.19
257.056	87.19
257.289	66.19
257.521	75.19
257.754	78.19
257.987	79.19
258.22	75.19
258.452	87.19
258.685	88.19
258.918	76.19
259.151	83.19
259.383	92.19
259.616	77.19
259.849	79.19
260.081	85.19
260.314	64.19
260.547	86.19
260.779	80.19
261.012	71.19
261.244	85.19
261.477	91.19
261.71	95.19
261.942	122.19
262.175	105.19
262.407	88.19
262.64	89.19
262.872	82.19
263.105	93.19
263.337	100.19
263.57	91.19
263.802	69.19
264.035	93.19
264.267	86.19
264.499	78.19
264.732	75.19
264.964	76.19
265.197	82.19
265.429	91.19
265.661	87.19
265.894	73.19
266.126	74.19
266.358	77.19
266.591	71.19
266.823	87.19
267.055	82.19
267.287	87.19
267.52	87.19
267.752	93.19
267.984	82.19
268.216	84.19
268.448	82.19
268.681	73.19
268.913	82.19
269.145	89.19
269.377	87.19
269.609	79.19
269.841	94.19
270.073	94.19
270.306	82.19
270.538	89.19
270.77	85.19
271.002	84.19
271.234	89.19
271.466	75.19
271.698	92.19
271.93	96.19
272.162	82.19
272.394	78.19
272.626	66.19
272.858	78.19
273.09	89.19
273.322	73.19
273.553	97.19
273.785	88.19
274.017	108.19
274.249	94.19
274.481	76.19
274.713	71.19
274.945	76.19
275.176	80.19
275.408	80.19
275.64	83.19
275.872	79.19
276.104	93.19
276.335	84.19
276.567	100.19
276.799	116.19
277.031	92.19
277.262	82.19
277.494	105.19
277.726	91.19
277.957	87.19
278.189	100.19
278.421	95.19
278.652	98.19
278.884	81.19
279.115	77.19
279.347	80.19
279.579	80.19
279.81	92.19
280.042	82.19
280.273	62.19
280.505	84.19
280.736	92.19
280.968	73.19
281.199	92.19
281.431	84.19
281.662	104.19
281.894	83.19
282.125	111.19
282.356	100.19
282.588	118.19
282.819	112.19
283.051	100.19
283.282	84.19
283.513	89.19
283.745	90.19
283.976	94.19
284.207	78.19
284.439	90.19
284.67	86.19
284.901	88.19
285.132	77.19
285.364	90.19
285.595	80.19
285.826	89.19
286.057	84.19
286.288	92.19
286.52	84.19
286.751	83.19
286.982	98.19
287.213	98.19
287.444	90.19
287.675	91.19
287.906	104.19
288.138	103.19
288.369	85.19
288.6	86.19
288.831	84.19
289.062	87.19
289.293	98.19
289.524	83.19
289.755	92.19
289.986	88.19
290.217	86.19
290.448	91.19
290.679	101.19
290.91	100.19
291.141	95.19
291.371	92.19
291.602	97.19
291.833	95.19
292.064	92.19
292.295	102.19
292.526	92.19
292.757	82.19
292.987	91.19
293.218	88.19
293.449	88.19
293.68	92.19
293.91	83.19
294.141	95.19
294.372	90.19
294.603	93.19
294.833	76.19
295.064	91.19
295.295	85.19
295.525	90.19
295.756	109.19
295.987	104.19
296.217	119.19
296.448	108.19
296.679	87.19
296.909	82.19
297.14	91.19
297.37	91.19
297.601	74.19
297.831	99.19
298.062	88.19
298.292	91.19
298.523	87.19
298.753	77.19
298.984	100.19
299.214	84.19
299.445	85.19
299.675	82.19
299.905	80.19
300.136	84.19
300.366	96.19
300.597	84.19
300.827	93.19
301.057	103.19
301.288	102.19
301.518	100.19
301.748	81.19
301.979	85.19
302.209	82.19
302.439	91.19
302.669	94.19
302.9	88.19
303.13	107.19
303.36	101.19
303.59	102.19
303.82	92.19
304.051	95.19
304.281	94.19
304.511	105.19
304.741	92.19
304.971	83.19
305.201	102.19
305.431	99.19
305.661	99.19
305.891	97.19
306.121	104.19
306.352	109.19
306.582	99.19
306.812	96.19
307.042	91.19
307.272	99.19
307.502	102.19
307.731	91.19
307.961	85.19
308.191	94.19
308.421	92.19
308.651	95.19
308.881	89.19
309.111	84.19
309.341	90.19
309.571	108.19
309.8	106.19
310.03	88.19
310.26	93.19
310.49	92.19
310.72	106.19
310.949	90.19
311.179	84.19
311.409	87.19
311.639	98.19
311.868	87.19
312.098	102.19
312.328	85.19
312.557	91.19
312.787	101.19
313.017	98.19
313.246	91.19
313.476	100.19
313.706	96.19
313.935	97.19
314.165	98.19
314.394	93.19
314.624	97.19
314.853	97.19
315.083	87.19
315.312	95.19
315.542	77.19
315.771	109.19
316.001	77.19
316.23	91.19
316.46	81.19
316.689	88.19
316.919	89.19
317.148	95.19
317.377	105.19
317.607	91.19
317.836	85.19
318.065	88.19
318.295	93.19
318.524	98.19
318.753	83.19
318.983	88.19
319.212	88.19
319.441	123.19
319.67	105.19
319.9	99.19
320.129	95.19
320.358	89.19
320.587	95.19
320.816	97.19
321.046	99.19
321.275	92.19
321.504	90.19
321.733	97.19
321.962	111.19
322.191	97.19
322.42	87.19
322.649	104.19
322.878	112.19
323.108	119.19
323.337	124.19
323.566	136.19
323.795	163.19
324.024	184.19
324.253	365.19
324.482	775.19
324.71	1586.19
324.939	2018.19
325.168	739.19
325.397	226.19
325.626	152.19
325.855	123.19
326.084	123.19
326.313	127.19
326.542	164.19
326.77	227.19
326.999	451.19
327.228	891.19
327.457	1566.19
327.686	1249.19
327.914	352.19
328.143	183.19
328.372	151.19
328.6	116.19
328.829	118.19
329.058	127.19
329.287	127.19
329.515	119.19
329.744	103.19
329.972	90.19
330.201	109.19
330.43	110.19
330.658	121.19
330.887	138.19
331.115	113.19
331.344	93.19
331.572	105.19
331.801	106.19
332.03	104.19
332.258	102.19
332.486	96.19
332.715	85.19
332.943	82.19
333.172	88.19
333.4	93.19
333.629	90.19
333.857	106.19
334.085	119.19
334.314	92.19
334.542	90.19
334.771	94.19
334.999	78.19
335.227	89.19
335.455	96.19
335.684	107.19
335.912	95.19
336.14	107.19
336.369	95.19
336.597	98.19
336.825	109.19
337.053	99.19
337.281	80.19
337.51	84.19
337.738	106.19
337.966	101.19
338.194	93.19
338.422	92.19
338.65	87.19
338.878	101.19
339.106	91.19
339.334	87.19
339.562	82.19
339.79	103.19
340.018	95.19
340.246	93.19
340.474	103.19
340.702	100.19
340.93	81.19
341.158	96.19
341.386	99.19
341.614	93.19
341.842	88.19
342.07	87.19
342.298	84.19
342.526	84.19
342.754	89.19
342.981	88.19
343.209	86.19
343.437	101.19
343.665	96.19
343.893	101.19
344.12	77.19
344.348	90.19
344.576	84.19
344.804	96.19
345.031	105.19
345.259	104.19
345.487	85.19
345.714	94.19
345.942	84.19
346.17	96.19
346.397	87.19
346.625	89.19
346.853	88.19
347.08	94.19
347.308	92.19
347.535	94.19
347.763	108.19
347.99	123.19
348.218	108.19
348.445	96.19
348.673	89.19
348.9	97.19
349.128	92.19
349.355	80.19
349.583	93.19
349.81	96.19
350.037	105.19
350.265	109.19
350.492	103.19
350.72	101.19
350.947	103.19
351.174	96.19
351.402	107.19
351.629	107.19
351.856	107.19
352.083	108.19
352.311	97.19
352.538	104.19
352.765	106.19
352.992	101.19
353.22	113.19
353.447	111.19
353.674	93.19
353.901	109.19
354.128	93.19
354.355	99.19
354.583	92.19
354.81	106.19
355.037	94.19
355.264	96.19
355.491	99.19
355.718	101.19
355.945	105.19
356.172	99.19
356.399	106.19
356.626	90.19
356.853	88.19
357.08	104.19
357.307	97.19
357.534	92.19
357.761	82.19
357.988	82.19
358.215	95.19
358.441	88.19
358.668	84.19
358.895	92.19
359.122	81.19
359.349	97.19
359.576	97.19
359.802	108.19
360.029	104.19
360.256	108.19
360.483	102.19
360.709	90.19
360.936	103.19
361.163	88.19
361.39	101.19
361.616	107.19
361.843	93.19
362.07	107.19
362.296	104.19
362.523	93.19
362.749	98.19
362.976	83.19
363.203	93.19
363.429	93.19
363.656	89.19
363.882	92.19
364.109	101.19
364.335	93.19
364.562	83.19
364.788	91.19
365.015	108.19
365.241	95.19
365.468	95.19
365.694	116.19
365.92	96.19
366.147	87.19
366.373	98.19
366.599	95.19
366.826	102.19
367.052	88.19
367.278	96.19
367.505	76.19
367.731	80.19
367.957	87.19
368.184	96.19
368.41	85.19
368.636	127.19
368.862	115.19
369.089	107.19
369.315	93.19
369.541	95.19
369.767	97.19
369.993	98.19
370.219	93.19
370.445	103.19
370.672	75.19
370.898	87.19
371.124	80.19
371.35	81.19
371.576	85.19
371.802	92.19
372.028	85.19
372.254	79.19
372.48	91.19
372.706	89.19
372.932	95.19
373.158	80.19
373.384	80.19
373.61	90.19
373.835	102.19
374.061	85.19
374.287	89.19
374.513	95.19
374.739	91.19
374.965	93.19
375.191	91.19
375.416	92.19
375.642	92.19
375.868	92.19
376.094	96.19
376.319	105.19
376.545	84.19
376.771	92.19
376.997	101.19
377.222	86.19
377.448	96.19
377.674	94.19
377.899	98.19
378.125	78.19
378.35	82.19
378.576	107.19
378.802	94.19
379.027	94.19
379.253	103.19
379.478	94.19
379.704	95.19
379.929	95.19
380.155	108.19
380.38	99.19
380.606	89.19
380.831	84.19
381.057	99.19
381.282	91.19
381.507	92.19
381.733	93.19
381.958	89.19
382.184	106.19
382.409	114.19
382.634	104.19
382.86	103.19
383.085	103.19
383.31	97.19
383.535	98.19
383.761	100.19
383.986	100.19
384.211	88.19
384.436	69.19
384.662	102.19
384.887	92.19
385.112	96.19
385.337	88.19
385.562	111.19
385.787	104.19
386.013	116.19
386.238	105.19
386.463	104.19
386.688	100.19
386.913	95.19
387.138	117.19
387.363	87.19
387.588	105.19
387.813	100.19
388.038	90.19
388.263	95.19
388.488	101.19
388.713	100.19
388.938	108.19
389.163	99.19
389.387	91.19
389.612	106.19
389.837	84.19
390.062	93.19
390.287	95.19
390.512	98.19
390.736	99.19
390.961	93.19
391.186	87.19
391.411	96.19
391.636	92.19
391.86	93.19
392.085	81.19
392.31	83.19
392.534	103.19
392.759	83.19
392.984	97.19
393.208	95.19
393.433	104.19
393.658	96.19
393.882	90.19
394.107	84.19
394.331	89.19
394.556	89.19
394.78	89.19
395.005	97.19
395.229	81.19
395.454	87.19
395.678	87.19
395.903	97.19
396.127	96.19
396.352	95.19
396.576	86.19
396.801	85.19
397.025	86.19
397.249	92.19
397.474	93.19
397.698	99.19
397.922	76.19
398.147	80.19
398.371	77.19
398.595	99.19
398.82	89.19
399.044	79.19
399.268	83.19
399.492	91.19
399.717	87.19
399.941	87.19
400.165	92.19
400.389	81.19
400.613	80.19
400.837	89.19
401.062	86.19
401.286	91.19
401.51	89.19
401.734	83.19
401.958	98.19
402.182	116.19
402.406	146.19
402.63	105.19
402.854	98.19
403.078	86.19
403.302	85.19
403.526	91.19
403.75	96.19
403.974	88.19
404.198	90.19
404.422	97.19
404.645	86.19
404.869	77.19
405.093	98.19
405.317	88.19
405.541	110.19
405.765	109.19
405.988	117.19
406.212	163.19
406.436	221.19
406.66	140.19
406.883	105.19
407.107	88.19
407.331	101.19
407.555	93.19
407.778	111.19
408.002	87.19
408.226	85.19
408.449	90.19
408.673	91.19
408.896	108.19
409.12	96.19
409.344	95.19
409.567	99.19
409.791	71.19
410.014	86.19
410.238	101.19
410.461	95.19
410.685	99.19
410.908	109.19
411.132	127.19
411.355	104.19
411.578	105.19
411.802	81.19
412.025	77.19
412.249	78.19
412.472	82.19
412.695	90.19
412.919	84.19
413.142	88.19
413.365	97.19
413.589	101.19
413.812	93.19
414.035	92.19
414.258	91.19
414.482	82.19
414.705	88.19
414.928	96.19
415.151	91.19
415.374	116.19
415.597	87.19
415.821	87.19
416.044	83.19
416.267	91.19
416.49	86.19
416.713	94.19
416.936	87.19
417.159	89.19
417.382	88.19
417.605	96.19
417.828	106.19
418.051	90.19
418.274	82.19
418.497	85.19
418.72	92.19
418.943	97.19
419.166	97.19
419.389	77.19
419.611	81.19
419.834	88.19
420.057	84.19
420.28	89.19
420.503	90.19
420.726	77.19
420.948	77.19
421.171	88.19
421.394	96.19
421.617	85.19
421.839	99.19
422.062	98.19
422.285	90.19
422.507	92.19
422.73	103.19
422.953	95.19
423.175	92.19
423.398	81.19
423.621	103.19
423.843	104.19
424.066	98.19
424.288	96.19
424.511	93.19
424.733	92.19
424.956	114.19
425.178	81.19
425.401	98.19
425.623	90.19
425.846	95.19
426.068	92.19
426.291	86.19
426.513	107.19
426.735	88.19
426.958	113.19
427.18	123.19
427.402	129.19
427.625	147.19
427.847	124.19
428.069	89.19
428.292	96.19
428.514	88.19
428.736	95.19
428.958	102.19
429.181	74.19
429.403	87.19
429.625	95.19
429.847	72.19
430.069	98.19
430.292	94.19
430.514	80.19
430.736	82.19
430.958	93.19
431.18	78.19
431.402	91.19
431.624	94.19
431.846	83.19
432.068	83.19
432.29	81.19
432.512	95.19
432.734	79.19
432.956	90.19
433.178	91.19
433.4	109.19
433.622	89.19
433.844	85.19
434.066	95.19
434.287	81.19
434.509	90.19
434.731	75.19
434.953	88.19
435.175	86.19
435.397	97.19
435.618	95.19
435.84	92.19
436.062	117.19
436.284	117.19
436.505	93.19
436.727	109.19
436.949	99.19
437.17	94.19
437.392	93.19
437.614	95.19
437.835	105.19
438.057	110.19
438.278	115.19
438.5	108.19
438.721	102.19
438.943	111.19
439.165	80.19
439.386	88.19
439.608	89.19
439.829	94.19
440.05	125.19
440.272	131.19
440.493	100.19
440.715	81.19
440.936	75.19
441.158	79.19
441.379	101.19
441.6	100.19
441.822	100.19
442.043	93.19
442.264	93.19
442.486	104.19
442.707	98.19
442.928	104.19
443.149	135.19
443.371	119.19
443.592	110.19
443.813	96.19
444.034	117.19
444.255	102.19
444.476	93.19
444.698	91.19
444.919	88.19
445.14	123.19
445.361	125.19
445.582	92.19
445.803	128.19
446.024	127.19
446.245	130.19
446.466	97.19
446.687	94.19
446.908	87.19
447.129	83.19
447.35	81.19
447.571	88.19
447.792	86.19
448.013	105.19
448.234	90.19
448.455	106.19
448.675	111.19
448.896	114.19
449.117	93.19
449.338	105.19
449.559	123.19
449.779	129.19
450	102.19
450.221	93.19
450.442	82.19
450.662	105.19
450.883	104.19
451.104	117.19
451.324	94.19
451.545	88.19
451.766	102.19
451.986	100.19
452.207	81.19
452.428	104.19
452.648	99.19
452.869	107.19
453.089	119.19
453.31	122.19
453.53	94.19
453.751	87.19
453.971	108.19
454.192	96.19
454.412	96.19
454.633	89.19
454.853	85.19
455.073	88.19
455.294	89.19
455.514	93.19
455.734	96.19
455.955	92.19
456.175	85.19
456.395	92.19
456.616	85.19
456.836	85.19
457.056	87.19
457.276	84.19
457.497	75.19
457.717	81.19
457.937	81.19
458.157	81.19
458.377	84.19
458.598	99.19
458.818	138.19
459.038	151.19
459.258	110.19
459.478	92.19
459.698	73.19
459.918	84.19
460.138	99.19
460.358	77.19
460.578	96.19
460.798	81.19
461.018	89.19
461.238	86.19
461.458	99.19
461.678	96.19
461.898	72.19
462.118	88.19
462.338	87.19
462.558	95.19
462.777	80.19
462.997	75.19
463.217	95.19
463.437	82.19
463.657	82.19
463.876	103.19
464.096	92.19
464.316	84.19
464.536	84.19
464.755	96.19
464.975	108.19
465.195	152.19
465.414	147.19
465.634	105.19
465.854	81.19
466.073	97.19
466.293	75.19
466.512	89.19
466.732	90.19
466.951	80.19
467.171	89.19
467.391	104.19
467.61	99.19
467.829	95.19
468.049	100.19
468.268	98.19
468.488	90.19
468.707	103.19
468.927	84.19
469.146	83.19
469.365	93.19
469.585	98.19
469.804	91.19
470.023	98.19
470.243	87.19
470.462	104.19
470.681	107.19
470.901	79.19
471.12	81.19
471.339	86.19
471.558	81.19
471.777	92.19
471.997	103.19
472.216	108.19
472.435	110.19
472.654	97.19
472.873	97.19
473.092	79.19
473.311	82.19
473.53	90.19
473.749	86.19
473.968	95.19
474.187	98.19
474.406	85.19
474.625	82.19
474.844	89.19
475.063	92.19
475.282	92.19
475.501	87.19
475.72	75.19
475.939	102.19
476.158	82.19
476.377	87.19
476.596	83.19
476.814	85.19
477.033	86.19
477.252	93.19
477.471	85.19
477.69	92.19
477.908	102.19
478.127	81.19
478.346	94.19
478.564	80.19
478.783	87.19
479.002	93.19
479.22	105.19
479.439	101.19
479.658	110.19
479.876	98.19
480.095	98.19
480.313	99.19
480.532	91.19
480.751	92.19
480.969	107.19
481.188	112.19
481.406	106.19
481.624	88.19
481.843	89.19
482.061	90.19
482.28	77.19
482.498	92.19
482.717	93.19
482.935	90.19
483.153	81.19
483.372	86.19
483.59	76.19
483.808	90.19
484.027	100.19
484.245	98.19
484.463	93.19
484.681	111.19
484.9	87.19
485.118	84.19
485.336	100.19
485.554	98.19
485.772	99.19
485.99	115.19
486.209	101.19
486.427	114.19
486.645	106.19
486.863	110.19
487.081	97.19
487.299	98.19
487.517	91.19
487.735	96.19
487.953	88.19
488.171	100.19
488.389	107.19
488.607	108.19
488.825	92.19
489.043	90.19
489.261	105.19
489.479	99.19
489.696	96.19
489.914	98.19
490.132	87.19
490.35	87.19
490.568	96.19
490.786	101.19
491.003	97.19
491.221	101.19
491.439	91.19
491.657	100.19
491.874	85.19
492.092	82.19
492.31	93.19
492.527	97.19
492.745	95.19
492.963	92.19
493.18	91.19
493.398	90.19
493.615	88.19
493.833	86.19
494.05	88.19
494.268	83.19
494.485	94.19
494.703	87.19
494.92	95.19
495.138	95.19
495.355	99.19
495.573	94.19
495.79	92.19
496.008	96.19
496.225	88.19
496.442	93.19
496.66	90.19
496.877	95.19
497.094	82.19
497.312	100.19
497.529	99.19
497.746	98.19
497.963	94.19
498.181	99.19
498.398	98.19
498.615	106.19
498.832	106.19
499.049	95.19
499.267	101.19
499.484	100.19
499.701	89.19
499.918	99.19
500.135	84.19
500.352	85.19
500.569	93.19
500.786	97.19
501.003	102.19
501.22	101.19
501.437	99.19
501.654	104.19
501.871	96.19
502.088	99.19
502.305	94.19
502.522	90.19
502.739	104.19
502.956	94.19
503.172	88.19
503.389	99.19
503.606	97.19
503.823	91.19
504.04	97.19
504.256	98.19
504.473	98.19
504.69	88.19
504.907	99.19
505.123	96.19
505.34	101.19
505.557	101.19
505.773	94.19
505.99	98.19
506.207	101.19
506.423	91.19
506.64	87.19
506.856	90.19
507.073	90.19
507.289	85.19
507.506	102.19
507.722	101.19
507.939	103.19
508.155	91.19
508.372	99.19
508.588	100.19
508.805	103.19
509.021	99.19
509.238	104.19
509.454	90.19
509.67	101.19
509.887	112.19
510.103	124.19
510.319	201.19
510.536	698.19
510.752	2023.19
510.968	561.19
511.184	159.19
511.401	119.19
511.617	96.19
511.833	103.19
512.049	99.19
512.265	71.19
512.481	96.19
512.698	105.19
512.914	95.19
513.13	85.19
513.346	86.19
513.562	92.19
513.778	103.19
513.994	92.19
514.21	100.19
514.426	112.19
514.642	129.19
514.858	130.19
515.074	167.19
515.29	397.19
515.506	1189.19
