Data from Uncirc_1998_H10_HRD10591_00080.txt Node
Date: Wed Jan 03 11:25:40 EST 2024
User: Yrep
Spectrometer: HR+D1059
Trigger mode: 1
Integration Time (sec): 1.000000E-1
Scans to average: 1
Electric dark correction enabled: true
Nonlinearity correction enabled: false
Boxcar width: 0
XAxis mode: Wavelengths
Number of Pixels in Spectrum: 2048
>>>>>Begin Spectral Data<<<<<
223.165	-24.56
223.4	-24.56
223.635	-24.56
223.869	-23.56
224.104	-15.56
224.338	-26.56
224.573	-14.56
224.808	-12.56
225.042	-7.56
225.277	-2.56
225.511	-2.56
225.746	9.44
225.98	0.44
226.215	25.44
226.449	16.44
226.683	15.44
226.918	25.44
227.152	37.44
227.387	43.44
227.621	26.44
227.856	36.44
228.09	36.44
228.324	56.44
228.559	58.44
228.793	60.44
229.027	69.44
229.262	66.44
229.496	71.44
229.73	78.44
229.964	77.44
230.199	81.44
230.433	77.44
230.667	84.44
230.901	60.44
231.136	70.44
231.37	71.44
231.604	75.44
231.838	82.44
232.072	82.44
232.306	75.44
232.541	79.44
232.775	72.44
233.009	74.44
233.243	75.44
233.477	72.44
233.711	85.44
233.945	79.44
234.179	76.44
234.413	95.44
234.647	85.44
234.881	84.44
235.115	94.44
235.349	78.44
235.583	63.44
235.817	83.44
236.051	85.44
236.285	85.44
236.519	81.44
236.753	84.44
236.987	88.44
237.221	86.44
237.455	71.44
237.689	82.44
237.922	70.44
238.156	88.44
238.39	75.44
238.624	70.44
238.858	70.44
239.091	79.44
239.325	77.44
239.559	81.44
239.793	75.44
240.027	74.44
240.26	72.44
240.494	78.44
240.728	57.44
240.961	69.44
241.195	83.44
241.429	71.44
241.662	66.44
241.896	63.44
242.13	74.44
242.363	75.44
242.597	75.44
242.83	86.44
243.064	79.44
243.298	77.44
243.531	72.44
243.765	79.44
243.998	83.44
244.232	73.44
244.465	77.44
244.699	71.44
244.932	90.44
245.166	66.44
245.399	75.44
245.633	76.44
245.866	90.44
246.099	90.44
246.333	72.44
246.566	85.44
246.8	85.44
247.033	66.44
247.266	81.44
247.5	85.44
247.733	71.44
247.966	75.44
248.2	67.44
248.433	84.44
248.666	79.44
248.899	72.44
249.133	94.44
249.366	91.44
249.599	90.44
249.832	80.44
250.066	85.44
250.299	73.44
250.532	76.44
250.765	79.44
250.998	73.44
251.231	87.44
251.465	76.44
251.698	91.44
251.931	72.44
252.164	74.44
252.397	81.44
252.63	71.44
252.863	85.44
253.096	77.44
253.329	83.44
253.562	80.44
253.795	75.44
254.028	88.44
254.261	77.44
254.494	84.44
254.727	84.44
254.96	75.44
255.193	87.44
255.426	79.44
255.659	79.44
255.892	81.44
256.124	81.44
256.357	76.44
256.59	80.44
256.823	95.44
257.056	90.44
257.289	78.44
257.521	85.44
257.754	79.44
257.987	83.44
258.22	90.44
258.452	93.44
258.685	89.44
258.918	86.44
259.151	86.44
259.383	79.44
259.616	83.44
259.849	82.44
260.081	87.44
260.314	96.44
260.547	77.44
260.779	80.44
261.012	77.44
261.244	79.44
261.477	97.44
261.71	81.44
261.942	91.44
262.175	104.44
262.407	85.44
262.64	79.44
262.872	89.44
263.105	91.44
263.337	76.44
263.57	83.44
263.802	86.44
264.035	96.44
264.267	83.44
264.499	80.44
264.732	83.44
264.964	82.44
265.197	72.44
265.429	96.44
265.661	88.44
265.894	106.44
266.126	88.44
266.358	88.44
266.591	95.44
266.823	87.44
267.055	98.44
267.287	82.44
267.52	82.44
267.752	77.44
267.984	76.44
268.216	82.44
268.448	82.44
268.681	79.44
268.913	82.44
269.145	90.44
269.377	81.44
269.609	89.44
269.841	79.44
270.073	80.44
270.306	91.44
270.538	90.44
270.77	85.44
271.002	97.44
271.234	88.44
271.466	78.44
271.698	89.44
271.93	75.44
272.162	72.44
272.394	94.44
272.626	83.44
272.858	97.44
273.09	73.44
273.322	88.44
273.553	92.44
273.785	91.44
274.017	83.44
274.249	84.44
274.481	94.44
274.713	78.44
274.945	73.44
275.176	84.44
275.408	85.44
275.64	89.44
275.872	83.44
276.104	94.44
276.335	89.44
276.567	98.44
276.799	108.44
277.031	96.44
277.262	88.44
277.494	90.44
277.726	82.44
277.957	82.44
278.189	82.44
278.421	92.44
278.652	97.44
278.884	92.44
279.115	78.44
279.347	74.44
279.579	88.44
279.81	79.44
280.042	83.44
280.273	94.44
280.505	91.44
280.736	88.44
280.968	83.44
281.199	85.44
281.431	87.44
281.662	86.44
281.894	90.44
282.125	96.44
282.356	103.44
282.588	135.44
282.819	110.44
283.051	101.44
283.282	87.44
283.513	83.44
283.745	86.44
283.976	79.44
284.207	85.44
284.439	85.44
284.67	96.44
284.901	93.44
285.132	87.44
285.364	85.44
285.595	79.44
285.826	78.44
286.057	86.44
286.288	98.44
286.52	83.44
286.751	91.44
286.982	75.44
287.213	74.44
287.444	93.44
287.675	68.44
287.906	95.44
288.138	90.44
288.369	91.44
288.6	98.44
288.831	92.44
289.062	87.44
289.293	78.44
289.524	82.44
289.755	83.44
289.986	89.44
290.217	80.44
290.448	94.44
290.679	100.44
290.91	98.44
291.141	79.44
291.371	77.44
291.602	77.44
291.833	88.44
292.064	73.44
292.295	90.44
292.526	85.44
292.757	82.44
292.987	74.44
293.218	85.44
293.449	87.44
293.68	98.44
293.91	72.44
294.141	83.44
294.372	73.44
294.603	90.44
294.833	93.44
295.064	93.44
295.295	100.44
295.525	90.44
295.756	95.44
295.987	125.44
296.217	139.44
296.448	118.44
296.679	82.44
296.909	76.44
297.14	82.44
297.37	88.44
297.601	89.44
297.831	96.44
298.062	88.44
298.292	93.44
298.523	91.44
298.753	104.44
298.984	83.44
299.214	80.44
299.445	87.44
299.675	96.44
299.905	95.44
300.136	87.44
300.366	87.44
300.597	94.44
300.827	84.44
301.057	92.44
301.288	85.44
301.518	96.44
301.748	87.44
301.979	92.44
302.209	69.44
302.439	78.44
302.669	77.44
302.9	88.44
303.13	88.44
303.36	83.44
303.59	91.44
303.82	109.44
304.051	93.44
304.281	81.44
304.511	76.44
304.741	82.44
304.971	85.44
305.201	83.44
305.431	93.44
305.661	94.44
305.891	89.44
306.121	92.44
306.352	102.44
306.582	101.44
306.812	90.44
307.042	87.44
307.272	75.44
307.502	79.44
307.731	102.44
307.961	90.44
308.191	85.44
308.421	82.44
308.651	89.44
308.881	93.44
309.111	89.44
309.341	100.44
309.571	90.44
309.8	100.44
310.03	103.44
310.26	100.44
310.49	96.44
310.72	95.44
310.949	84.44
311.179	95.44
311.409	97.44
311.639	83.44
311.868	98.44
312.098	81.44
312.328	88.44
312.557	106.44
312.787	101.44
313.017	98.44
313.246	87.44
313.476	89.44
313.706	84.44
313.935	90.44
314.165	97.44
314.394	104.44
314.624	85.44
314.853	99.44
315.083	86.44
315.312	92.44
315.542	101.44
315.771	99.44
316.001	95.44
316.23	79.44
316.46	96.44
316.689	95.44
316.919	88.44
317.148	89.44
317.377	87.44
317.607	104.44
317.836	90.44
318.065	84.44
318.295	96.44
318.524	87.44
318.753	92.44
318.983	100.44
319.212	95.44
319.441	90.44
319.67	96.44
319.9	85.44
320.129	98.44
320.358	93.44
320.587	92.44
320.816	98.44
321.046	99.44
321.275	83.44
321.504	95.44
321.733	93.44
321.962	78.44
322.191	111.44
322.42	118.44
322.649	110.44
322.878	95.44
323.108	113.44
323.337	114.44
323.566	119.44
323.795	151.44
324.024	181.44
324.253	354.44
324.482	765.44
324.71	1492.44
324.939	1933.44
325.168	745.44
325.397	230.44
325.626	166.44
325.855	116.44
326.084	115.44
326.313	130.44
326.542	140.44
326.77	205.44
326.999	425.44
327.228	820.44
327.457	1471.44
327.686	1184.44
327.914	338.44
328.143	186.44
328.372	117.44
328.6	118.44
328.829	112.44
329.058	132.44
329.287	114.44
329.515	119.44
329.744	91.44
329.972	113.44
330.201	98.44
330.43	110.44
330.658	109.44
330.887	133.44
331.115	118.44
331.344	114.44
331.572	86.44
331.801	90.44
332.03	107.44
332.258	89.44
332.486	92.44
332.715	93.44
332.943	102.44
333.172	101.44
333.4	85.44
333.629	103.44
333.857	115.44
334.085	105.44
334.314	96.44
334.542	87.44
334.771	97.44
334.999	99.44
335.227	101.44
335.455	102.44
335.684	109.44
335.912	104.44
336.14	97.44
336.369	122.44
336.597	98.44
336.825	100.44
337.053	89.44
337.281	83.44
337.51	88.44
337.738	105.44
337.966	94.44
338.194	98.44
338.422	110.44
338.65	101.44
338.878	95.44
339.106	86.44
339.334	90.44
339.562	94.44
339.79	97.44
340.018	85.44
340.246	90.44
340.474	91.44
340.702	83.44
340.93	87.44
341.158	84.44
341.386	97.44
341.614	98.44
341.842	84.44
342.07	96.44
342.298	94.44
342.526	99.44
342.754	100.44
342.981	81.44
343.209	91.44
343.437	92.44
343.665	105.44
343.893	95.44
344.12	91.44
344.348	88.44
344.576	102.44
344.804	96.44
345.031	95.44
345.259	98.44
345.487	97.44
345.714	94.44
345.942	90.44
346.17	112.44
346.397	103.44
346.625	83.44
346.853	84.44
347.08	95.44
347.308	85.44
347.535	88.44
347.763	97.44
347.99	96.44
348.218	83.44
348.445	98.44
348.673	83.44
348.9	94.44
349.128	90.44
349.355	91.44
349.583	89.44
349.81	98.44
350.037	87.44
350.265	93.44
350.492	98.44
350.72	94.44
350.947	98.44
351.174	97.44
351.402	110.44
351.629	91.44
351.856	96.44
352.083	100.44
352.311	108.44
352.538	100.44
352.765	110.44
352.992	104.44
353.22	113.44
353.447	107.44
353.674	97.44
353.901	82.44
354.128	94.44
354.355	98.44
354.583	101.44
354.81	74.44
355.037	118.44
355.264	84.44
355.491	97.44
355.718	91.44
355.945	89.44
356.172	87.44
356.399	94.44
356.626	97.44
356.853	86.44
357.08	87.44
357.307	85.44
357.534	86.44
357.761	82.44
357.988	102.44
358.215	90.44
358.441	95.44
358.668	87.44
358.895	104.44
359.122	91.44
359.349	78.44
359.576	88.44
359.802	99.44
360.029	104.44
360.256	104.44
360.483	96.44
360.709	90.44
360.936	96.44
361.163	98.44
361.39	99.44
361.616	95.44
361.843	91.44
362.07	109.44
362.296	95.44
362.523	86.44
362.749	93.44
362.976	83.44
363.203	94.44
363.429	95.44
363.656	90.44
363.882	97.44
364.109	99.44
364.335	89.44
364.562	96.44
364.788	91.44
365.015	92.44
365.241	96.44
365.468	104.44
365.694	80.44
365.92	109.44
366.147	82.44
366.373	90.44
366.599	82.44
366.826	94.44
367.052	88.44
367.278	98.44
367.505	86.44
367.731	97.44
367.957	103.44
368.184	93.44
368.41	100.44
368.636	100.44
368.862	106.44
369.089	101.44
369.315	82.44
369.541	86.44
369.767	93.44
369.993	83.44
370.219	86.44
370.445	86.44
370.672	79.44
370.898	78.44
371.124	85.44
371.35	91.44
371.576	96.44
371.802	76.44
372.028	82.44
372.254	83.44
372.48	108.44
372.706	83.44
372.932	87.44
373.158	88.44
373.384	98.44
373.61	91.44
373.835	80.44
374.061	87.44
374.287	106.44
374.513	85.44
374.739	89.44
374.965	95.44
375.191	95.44
375.416	79.44
375.642	79.44
375.868	88.44
376.094	98.44
376.319	86.44
376.545	85.44
376.771	93.44
376.997	71.44
377.222	98.44
377.448	95.44
377.674	81.44
377.899	95.44
378.125	99.44
378.35	94.44
378.576	81.44
378.802	92.44
379.027	82.44
379.253	90.44
379.478	88.44
379.704	88.44
379.929	96.44
380.155	100.44
380.38	86.44
380.606	91.44
380.831	89.44
381.057	80.44
381.282	90.44
381.507	82.44
381.733	97.44
381.958	105.44
382.184	92.44
382.409	108.44
382.634	98.44
382.86	107.44
383.085	106.44
383.31	89.44
383.535	97.44
383.761	102.44
383.986	93.44
384.211	111.44
384.436	103.44
384.662	96.44
384.887	109.44
385.112	104.44
385.337	94.44
385.562	101.44
385.787	110.44
386.013	105.44
386.238	101.44
386.463	88.44
386.688	99.44
386.913	93.44
387.138	103.44
387.363	87.44
387.588	95.44
387.813	99.44
388.038	97.44
388.263	108.44
388.488	81.44
388.713	95.44
388.938	91.44
389.163	87.44
389.387	96.44
389.612	104.44
389.837	93.44
390.062	94.44
390.287	100.44
390.512	104.44
390.736	87.44
390.961	80.44
391.186	93.44
391.411	83.44
391.636	87.44
391.86	82.44
392.085	83.44
392.31	77.44
392.534	80.44
392.759	56.44
392.984	70.44
393.208	106.44
393.433	82.44
393.658	73.44
393.882	91.44
394.107	87.44
394.331	90.44
394.556	93.44
394.78	89.44
395.005	94.44
395.229	79.44
395.454	88.44
395.678	85.44
395.903	75.44
396.127	85.44
396.352	83.44
396.576	91.44
396.801	80.44
397.025	90.44
397.249	89.44
397.474	89.44
397.698	87.44
397.922	78.44
398.147	75.44
398.371	77.44
398.595	72.44
398.82	82.44
399.044	79.44
399.268	74.44
399.492	94.44
399.717	89.44
399.941	82.44
400.165	99.44
400.389	82.44
400.613	86.44
400.837	89.44
401.062	83.44
401.286	76.44
401.51	98.44
401.734	82.44
401.958	110.44
402.182	139.44
402.406	143.44
402.63	110.44
402.854	85.44
403.078	81.44
403.302	103.44
403.526	86.44
403.75	81.44
403.974	93.44
404.198	93.44
404.422	85.44
404.645	99.44
404.869	72.44
405.093	95.44
405.317	102.44
405.541	109.44
405.765	95.44
405.988	113.44
406.212	161.44
406.436	194.44
406.66	123.44
406.883	86.44
407.107	82.44
407.331	103.44
407.555	89.44
407.778	95.44
408.002	82.44
408.226	86.44
408.449	79.44
408.673	80.44
408.896	103.44
409.12	99.44
409.344	85.44
409.567	73.44
409.791	96.44
410.014	112.44
410.238	87.44
410.461	96.44
410.685	83.44
410.908	97.44
411.132	92.44
411.355	100.44
411.578	88.44
411.802	86.44
412.025	88.44
412.249	90.44
412.472	92.44
412.695	78.44
412.919	88.44
413.142	89.44
413.365	72.44
413.589	82.44
413.812	94.44
414.035	93.44
414.258	88.44
414.482	83.44
414.705	78.44
414.928	86.44
415.151	84.44
415.374	89.44
415.597	91.44
415.821	93.44
416.044	90.44
416.267	81.44
416.49	83.44
416.713	88.44
416.936	94.44
417.159	81.44
417.382	75.44
417.605	95.44
417.828	98.44
418.051	96.44
418.274	95.44
418.497	79.44
418.72	85.44
418.943	95.44
419.166	93.44
419.389	100.44
419.611	88.44
419.834	91.44
420.057	83.44
420.28	77.44
420.503	80.44
420.726	86.44
420.948	104.44
421.171	96.44
421.394	95.44
421.617	86.44
421.839	87.44
422.062	91.44
422.285	93.44
422.507	109.44
422.73	97.44
422.953	95.44
423.175	91.44
423.398	82.44
423.621	87.44
423.843	83.44
424.066	78.44
424.288	108.44
424.511	94.44
424.733	99.44
424.956	112.44
425.178	106.44
425.401	102.44
425.623	88.44
425.846	95.44
426.068	95.44
426.291	78.44
426.513	90.44
426.735	109.44
426.958	92.44
427.18	109.44
427.402	134.44
427.625	133.44
427.847	127.44
428.069	89.44
428.292	89.44
428.514	105.44
428.736	96.44
428.958	77.44
429.181	95.44
429.403	87.44
429.625	62.44
429.847	95.44
430.069	98.44
430.292	103.44
430.514	93.44
430.736	80.44
430.958	91.44
431.18	79.44
431.402	83.44
431.624	88.44
431.846	82.44
432.068	93.44
432.29	65.44
432.512	85.44
432.734	91.44
432.956	97.44
433.178	104.44
433.4	78.44
433.622	94.44
433.844	78.44
434.066	82.44
434.287	93.44
434.509	94.44
434.731	86.44
434.953	76.44
435.175	87.44
435.397	78.44
435.618	85.44
435.84	90.44
436.062	113.44
436.284	114.44
436.505	95.44
436.727	99.44
436.949	100.44
437.17	101.44
437.392	102.44
437.614	89.44
437.835	86.44
438.057	104.44
438.278	114.44
438.5	118.44
438.721	126.44
438.943	85.44
439.165	86.44
439.386	90.44
439.608	89.44
439.829	104.44
440.05	119.44
440.272	147.44
440.493	63.44
440.715	89.44
440.936	88.44
441.158	88.44
441.379	95.44
441.6	83.44
441.822	94.44
442.043	88.44
442.264	109.44
442.486	82.44
442.707	102.44
442.928	102.44
443.149	111.44
443.371	113.44
443.592	98.44
443.813	105.44
444.034	98.44
444.255	81.44
444.476	90.44
444.698	104.44
444.919	81.44
445.14	116.44
445.361	133.44
445.582	109.44
445.803	130.44
446.024	140.44
446.245	129.44
446.466	102.44
446.687	77.44
446.908	88.44
447.129	90.44
447.35	88.44
447.571	82.44
447.792	101.44
448.013	95.44
448.234	97.44
448.455	92.44
448.675	109.44
448.896	112.44
449.117	105.44
449.338	108.44
449.559	117.44
449.779	133.44
450	87.44
450.221	88.44
450.442	110.44
450.662	88.44
450.883	98.44
451.104	102.44
451.324	92.44
451.545	90.44
451.766	92.44
451.986	89.44
452.207	94.44
452.428	102.44
452.648	102.44
452.869	112.44
453.089	117.44
453.31	106.44
453.53	95.44
453.751	89.44
453.971	88.44
454.192	90.44
454.412	100.44
454.633	91.44
454.853	96.44
455.073	86.44
455.294	92.44
455.514	93.44
455.734	92.44
455.955	89.44
456.175	94.44
456.395	76.44
456.616	90.44
456.836	87.44
457.056	86.44
457.276	89.44
457.497	73.44
457.717	88.44
457.937	78.44
458.157	77.44
458.377	86.44
458.598	98.44
458.818	143.44
459.038	137.44
459.258	94.44
459.478	93.44
459.698	83.44
459.918	83.44
460.138	87.44
460.358	69.44
460.578	82.44
460.798	95.44
461.018	76.44
461.238	83.44
461.458	93.44
461.678	84.44
461.898	73.44
462.118	69.44
462.338	77.44
462.558	89.44
462.777	94.44
462.997	95.44
463.217	73.44
463.437	92.44
463.657	83.44
463.876	75.44
464.096	95.44
464.316	97.44
464.536	100.44
464.755	78.44
464.975	93.44
465.195	159.44
465.414	149.44
465.634	87.44
465.854	75.44
466.073	90.44
466.293	77.44
466.512	90.44
466.732	94.44
466.951	92.44
467.171	90.44
467.391	88.44
467.61	89.44
467.829	93.44
468.049	98.44
468.268	93.44
468.488	81.44
468.707	87.44
468.927	90.44
469.146	85.44
469.365	84.44
469.585	80.44
469.804	88.44
470.023	89.44
470.243	82.44
470.462	91.44
470.681	91.44
470.901	98.44
471.12	98.44
471.339	83.44
471.558	86.44
471.777	92.44
471.997	86.44
472.216	92.44
472.435	104.44
472.654	81.44
472.873	96.44
473.092	83.44
473.311	85.44
473.53	82.44
473.749	88.44
473.968	87.44
474.187	97.44
474.406	99.44
474.625	86.44
474.844	94.44
475.063	87.44
475.282	77.44
475.501	82.44
475.72	95.44
475.939	76.44
476.158	77.44
476.377	88.44
476.596	81.44
476.814	89.44
477.033	94.44
477.252	93.44
477.471	83.44
477.69	95.44
477.908	87.44
478.127	90.44
478.346	79.44
478.564	79.44
478.783	89.44
479.002	94.44
479.22	94.44
479.439	97.44
479.658	105.44
479.876	86.44
480.095	97.44
480.313	91.44
480.532	81.44
480.751	95.44
480.969	101.44
481.188	110.44
481.406	93.44
481.624	85.44
481.843	94.44
482.061	97.44
482.28	87.44
482.498	84.44
482.717	74.44
482.935	91.44
483.153	87.44
483.372	87.44
483.59	86.44
483.808	71.44
484.027	90.44
484.245	84.44
484.463	91.44
484.681	81.44
484.9	78.44
485.118	89.44
485.336	97.44
485.554	101.44
485.772	98.44
485.99	118.44
486.209	99.44
486.427	101.44
486.645	108.44
486.863	106.44
487.081	93.44
487.299	93.44
487.517	90.44
487.735	94.44
487.953	96.44
488.171	93.44
488.389	79.44
488.607	88.44
488.825	84.44
489.043	89.44
489.261	73.44
489.479	83.44
489.696	78.44
489.914	82.44
490.132	90.44
490.35	101.44
490.568	81.44
490.786	88.44
491.003	87.44
491.221	86.44
491.439	90.44
491.657	83.44
491.874	93.44
492.092	87.44
492.31	81.44
492.527	79.44
492.745	90.44
492.963	89.44
493.18	88.44
493.398	88.44
493.615	103.44
493.833	97.44
494.05	92.44
494.268	90.44
494.485	100.44
494.703	85.44
494.92	94.44
495.138	88.44
495.355	86.44
495.573	82.44
495.79	85.44
496.008	102.44
496.225	87.44
496.442	93.44
496.66	90.44
496.877	75.44
497.094	85.44
497.312	95.44
497.529	90.44
497.746	90.44
497.963	92.44
498.181	95.44
498.398	91.44
498.615	100.44
498.832	102.44
499.049	105.44
499.267	94.44
499.484	90.44
499.701	86.44
499.918	89.44
500.135	86.44
500.352	88.44
500.569	92.44
500.786	90.44
501.003	90.44
501.22	80.44
501.437	106.44
501.654	94.44
501.871	102.44
502.088	92.44
502.305	104.44
502.522	92.44
502.739	92.44
502.956	88.44
503.172	84.44
503.389	97.44
503.606	103.44
503.823	103.44
504.04	105.44
504.256	91.44
504.473	75.44
504.69	98.44
504.907	93.44
505.123	98.44
505.34	80.44
505.557	83.44
505.773	83.44
505.99	91.44
506.207	86.44
506.423	77.44
506.64	82.44
506.856	90.44
507.073	88.44
507.289	89.44
507.506	97.44
507.722	95.44
507.939	111.44
508.155	98.44
508.372	94.44
508.588	96.44
508.805	86.44
509.021	86.44
509.238	106.44
509.454	101.44
509.67	96.44
509.887	113.44
510.103	125.44
510.319	204.44
510.536	716.44
510.752	2134.44
510.968	578.44
511.184	138.44
511.401	106.44
511.617	94.44
511.833	88.44
512.049	98.44
512.265	93.44
512.481	87.44
512.698	92.44
512.914	92.44
513.13	87.44
513.346	83.44
513.562	113.44
513.778	97.44
513.994	85.44
514.21	105.44
514.426	105.44
514.642	111.44
514.858	122.44
515.074	157.44
515.29	407.44
515.506	1288.44
515.721	469.44
515.937	142.44
516.153	126.44
516.369	90.44
516.585	93.44
