Data from Uncirc_1998_H10_HRD10591_00087.txt Node
Date: Wed Jan 03 11:25:42 EST 2024
User: Yrep
Spectrometer: HR+D1059
Trigger mode: 1
Integration Time (sec): 1.000000E-1
Scans to average: 1
Electric dark correction enabled: true
Nonlinearity correction enabled: false
Boxcar width: 0
XAxis mode: Wavelengths
Number of Pixels in Spectrum: 2048
>>>>>Begin Spectral Data<<<<<
223.165	-22.88
223.4	-22.88
223.635	-22.88
223.869	-18.88
224.104	-30.88
224.338	-9.88
224.573	-17.88
224.808	-12.88
225.042	-5.88
225.277	0.12
225.511	7.12
225.746	1.12
225.98	-0.88
226.215	12.12
226.449	12.12
226.683	23.12
226.918	21.12
227.152	43.12
227.387	24.12
227.621	34.12
227.856	50.12
228.09	37.12
228.324	59.12
228.559	54.12
228.793	60.12
229.027	57.12
229.262	89.12
229.496	71.12
229.73	84.12
229.964	97.12
230.199	80.12
230.433	76.12
230.667	94.12
230.901	78.12
231.136	72.12
231.37	95.12
231.604	83.12
231.838	67.12
232.072	83.12
232.306	86.12
232.541	79.12
232.775	75.12
233.009	94.12
233.243	99.12
233.477	83.12
233.711	71.12
233.945	81.12
234.179	81.12
234.413	84.12
234.647	72.12
234.881	79.12
235.115	83.12
235.349	76.12
235.583	76.12
235.817	93.12
236.051	68.12
236.285	78.12
236.519	91.12
236.753	78.12
236.987	80.12
237.221	92.12
237.455	75.12
237.689	70.12
237.922	86.12
238.156	68.12
238.39	74.12
238.624	76.12
238.858	80.12
239.091	72.12
239.325	73.12
239.559	78.12
239.793	84.12
240.027	79.12
240.26	73.12
240.494	65.12
240.728	78.12
240.961	90.12
241.195	75.12
241.429	71.12
241.662	72.12
241.896	75.12
242.13	81.12
242.363	75.12
242.597	68.12
242.83	74.12
243.064	100.12
243.298	79.12
243.531	88.12
243.765	88.12
243.998	86.12
244.232	88.12
244.465	95.12
244.699	75.12
244.932	76.12
245.166	73.12
245.399	74.12
245.633	74.12
245.866	76.12
246.099	83.12
246.333	70.12
246.566	75.12
246.8	74.12
247.033	73.12
247.266	79.12
247.5	91.12
247.733	75.12
247.966	75.12
248.2	92.12
248.433	75.12
248.666	68.12
248.899	70.12
249.133	81.12
249.366	103.12
249.599	94.12
249.832	73.12
250.066	90.12
250.299	83.12
250.532	95.12
250.765	71.12
250.998	77.12
251.231	86.12
251.465	70.12
251.698	72.12
251.931	60.12
252.164	72.12
252.397	82.12
252.63	73.12
252.863	79.12
253.096	82.12
253.329	78.12
253.562	94.12
253.795	89.12
254.028	73.12
254.261	90.12
254.494	74.12
254.727	78.12
254.96	82.12
255.193	78.12
255.426	80.12
255.659	83.12
255.892	87.12
256.124	84.12
256.357	71.12
256.59	81.12
256.823	74.12
257.056	73.12
257.289	72.12
257.521	80.12
257.754	91.12
257.987	79.12
258.22	87.12
258.452	78.12
258.685	84.12
258.918	76.12
259.151	81.12
259.383	70.12
259.616	81.12
259.849	95.12
260.081	82.12
260.314	86.12
260.547	85.12
260.779	87.12
261.012	89.12
261.244	72.12
261.477	99.12
261.71	88.12
261.942	98.12
262.175	110.12
262.407	82.12
262.64	81.12
262.872	79.12
263.105	82.12
263.337	73.12
263.57	81.12
263.802	91.12
264.035	86.12
264.267	82.12
264.499	81.12
264.732	92.12
264.964	75.12
265.197	72.12
265.429	76.12
265.661	88.12
265.894	100.12
266.126	68.12
266.358	86.12
266.591	86.12
266.823	74.12
267.055	86.12
267.287	82.12
267.52	88.12
267.752	78.12
267.984	83.12
268.216	90.12
268.448	83.12
268.681	90.12
268.913	72.12
269.145	90.12
269.377	87.12
269.609	80.12
269.841	84.12
270.073	97.12
270.306	79.12
270.538	88.12
270.77	80.12
271.002	77.12
271.234	82.12
271.466	87.12
271.698	80.12
271.93	81.12
272.162	86.12
272.394	79.12
272.626	78.12
272.858	83.12
273.09	83.12
273.322	81.12
273.553	91.12
273.785	88.12
274.017	100.12
274.249	82.12
274.481	86.12
274.713	82.12
274.945	83.12
275.176	92.12
275.408	96.12
275.64	88.12
275.872	83.12
276.104	90.12
276.335	86.12
276.567	92.12
276.799	105.12
277.031	104.12
277.262	70.12
277.494	95.12
277.726	91.12
277.957	94.12
278.189	84.12
278.421	80.12
278.652	79.12
278.884	86.12
279.115	76.12
279.347	82.12
279.579	86.12
279.81	82.12
280.042	98.12
280.273	87.12
280.505	93.12
280.736	79.12
280.968	92.12
281.199	88.12
281.431	74.12
281.662	88.12
281.894	80.12
282.125	106.12
282.356	109.12
282.588	124.12
282.819	112.12
283.051	85.12
283.282	75.12
283.513	76.12
283.745	70.12
283.976	73.12
284.207	70.12
284.439	92.12
284.67	83.12
284.901	78.12
285.132	88.12
285.364	97.12
285.595	70.12
285.826	91.12
286.057	99.12
286.288	81.12
286.52	76.12
286.751	92.12
286.982	96.12
287.213	85.12
287.444	103.12
287.675	82.12
287.906	92.12
288.138	88.12
288.369	82.12
288.6	85.12
288.831	82.12
289.062	100.12
289.293	97.12
289.524	88.12
289.755	79.12
289.986	77.12
290.217	100.12
290.448	89.12
290.679	86.12
290.91	89.12
291.141	87.12
291.371	84.12
291.602	84.12
291.833	83.12
292.064	87.12
292.295	98.12
292.526	86.12
292.757	88.12
292.987	84.12
293.218	81.12
293.449	82.12
293.68	86.12
293.91	102.12
294.141	89.12
294.372	87.12
294.603	92.12
294.833	104.12
295.064	85.12
295.295	99.12
295.525	95.12
295.756	109.12
295.987	88.12
296.217	122.12
296.448	108.12
296.679	101.12
296.909	87.12
297.14	81.12
297.37	106.12
297.601	83.12
297.831	86.12
298.062	100.12
298.292	104.12
298.523	90.12
298.753	77.12
298.984	74.12
299.214	83.12
299.445	93.12
299.675	87.12
299.905	89.12
300.136	98.12
300.366	87.12
300.597	87.12
300.827	87.12
301.057	92.12
301.288	92.12
301.518	90.12
301.748	103.12
301.979	111.12
302.209	89.12
302.439	86.12
302.669	84.12
302.9	89.12
303.13	92.12
303.36	99.12
303.59	99.12
303.82	112.12
304.051	95.12
304.281	100.12
304.511	88.12
304.741	94.12
304.971	90.12
305.201	95.12
305.431	74.12
305.661	89.12
305.891	81.12
306.121	91.12
306.352	98.12
306.582	125.12
306.812	88.12
307.042	90.12
307.272	92.12
307.502	90.12
307.731	92.12
307.961	80.12
308.191	93.12
308.421	102.12
308.651	96.12
308.881	91.12
309.111	86.12
309.341	97.12
309.571	81.12
309.8	100.12
310.03	74.12
310.26	94.12
310.49	102.12
310.72	86.12
310.949	106.12
311.179	95.12
311.409	97.12
311.639	103.12
311.868	103.12
312.098	90.12
312.328	88.12
312.557	89.12
312.787	98.12
313.017	101.12
313.246	88.12
313.476	95.12
313.706	98.12
313.935	86.12
314.165	93.12
314.394	105.12
314.624	98.12
314.853	89.12
315.083	93.12
315.312	86.12
315.542	94.12
315.771	98.12
316.001	87.12
316.23	93.12
316.46	82.12
316.689	89.12
316.919	99.12
317.148	99.12
317.377	105.12
317.607	99.12
317.836	91.12
318.065	89.12
318.295	93.12
318.524	90.12
318.753	94.12
318.983	91.12
319.212	114.12
319.441	98.12
319.67	99.12
319.9	91.12
320.129	97.12
320.358	82.12
320.587	103.12
320.816	88.12
321.046	100.12
321.275	104.12
321.504	94.12
321.733	100.12
321.962	99.12
322.191	105.12
322.42	102.12
322.649	119.12
322.878	99.12
323.108	135.12
323.337	119.12
323.566	122.12
323.795	145.12
324.024	184.12
324.253	351.12
324.482	716.12
324.71	1491.12
324.939	1912.12
325.168	723.12
325.397	226.12
325.626	140.12
325.855	123.12
326.084	119.12
326.313	135.12
326.542	159.12
326.77	219.12
326.999	419.12
327.228	842.12
327.457	1528.12
327.686	1224.12
327.914	348.12
328.143	179.12
328.372	140.12
328.6	128.12
328.829	107.12
329.058	106.12
329.287	126.12
329.515	108.12
329.744	88.12
329.972	100.12
330.201	91.12
330.43	112.12
330.658	111.12
330.887	127.12
331.115	116.12
331.344	112.12
331.572	84.12
331.801	104.12
332.03	110.12
332.258	93.12
332.486	98.12
332.715	90.12
332.943	97.12
333.172	99.12
333.4	88.12
333.629	103.12
333.857	109.12
334.085	107.12
334.314	92.12
334.542	100.12
334.771	92.12
334.999	91.12
335.227	98.12
335.455	90.12
335.684	97.12
335.912	84.12
336.14	98.12
336.369	111.12
336.597	89.12
336.825	91.12
337.053	104.12
337.281	100.12
337.51	106.12
337.738	90.12
337.966	90.12
338.194	94.12
338.422	94.12
338.65	81.12
338.878	96.12
339.106	70.12
339.334	80.12
339.562	89.12
339.79	98.12
340.018	102.12
340.246	94.12
340.474	100.12
340.702	97.12
340.93	103.12
341.158	97.12
341.386	95.12
341.614	91.12
341.842	93.12
342.07	98.12
342.298	94.12
342.526	94.12
342.754	92.12
342.981	88.12
343.209	89.12
343.437	101.12
343.665	86.12
343.893	83.12
344.12	104.12
344.348	83.12
344.576	86.12
344.804	81.12
345.031	105.12
345.259	92.12
345.487	90.12
345.714	82.12
345.942	90.12
346.17	84.12
346.397	81.12
346.625	87.12
346.853	100.12
347.08	84.12
347.308	97.12
347.535	97.12
347.763	95.12
347.99	98.12
348.218	106.12
348.445	112.12
348.673	87.12
348.9	101.12
349.128	96.12
349.355	85.12
349.583	91.12
349.81	104.12
350.037	97.12
350.265	96.12
350.492	100.12
350.72	89.12
350.947	105.12
351.174	107.12
351.402	107.12
351.629	104.12
351.856	107.12
352.083	90.12
352.311	94.12
352.538	112.12
352.765	90.12
352.992	124.12
353.22	124.12
353.447	105.12
353.674	94.12
353.901	98.12
354.128	96.12
354.355	100.12
354.583	92.12
354.81	89.12
355.037	99.12
355.264	99.12
355.491	87.12
355.718	93.12
355.945	93.12
356.172	94.12
356.399	98.12
356.626	94.12
356.853	80.12
357.08	86.12
357.307	85.12
357.534	98.12
357.761	104.12
357.988	102.12
358.215	96.12
358.441	89.12
358.668	96.12
358.895	94.12
359.122	92.12
359.349	85.12
359.576	95.12
359.802	99.12
360.029	107.12
360.256	102.12
360.483	93.12
360.709	95.12
360.936	70.12
361.163	90.12
361.39	94.12
361.616	97.12
361.843	98.12
362.07	94.12
362.296	84.12
362.523	94.12
362.749	88.12
362.976	94.12
363.203	78.12
363.429	90.12
363.656	101.12
363.882	96.12
364.109	101.12
364.335	101.12
364.562	95.12
364.788	103.12
365.015	105.12
365.241	111.12
365.468	108.12
365.694	108.12
365.92	102.12
366.147	83.12
366.373	90.12
366.599	91.12
366.826	96.12
367.052	84.12
367.278	79.12
367.505	80.12
367.731	105.12
367.957	94.12
368.184	89.12
368.41	97.12
368.636	99.12
368.862	114.12
369.089	103.12
369.315	83.12
369.541	89.12
369.767	99.12
369.993	98.12
370.219	87.12
370.445	89.12
370.672	80.12
370.898	82.12
371.124	90.12
371.35	92.12
371.576	87.12
371.802	84.12
372.028	73.12
372.254	90.12
372.48	87.12
372.706	91.12
372.932	81.12
373.158	92.12
373.384	71.12
373.61	97.12
373.835	92.12
374.061	88.12
374.287	93.12
374.513	80.12
374.739	95.12
374.965	94.12
375.191	102.12
375.416	100.12
375.642	94.12
375.868	98.12
376.094	86.12
376.319	79.12
376.545	83.12
376.771	104.12
376.997	103.12
377.222	95.12
377.448	80.12
377.674	99.12
377.899	81.12
378.125	87.12
378.35	86.12
378.576	97.12
378.802	92.12
379.027	100.12
379.253	98.12
379.478	91.12
379.704	98.12
379.929	107.12
380.155	97.12
380.38	97.12
380.606	98.12
380.831	85.12
381.057	101.12
381.282	109.12
381.507	95.12
381.733	92.12
381.958	106.12
382.184	92.12
382.409	102.12
382.634	97.12
382.86	101.12
383.085	92.12
383.31	100.12
383.535	97.12
383.761	90.12
383.986	100.12
384.211	112.12
384.436	109.12
384.662	90.12
384.887	110.12
385.112	88.12
385.337	102.12
385.562	110.12
385.787	106.12
386.013	114.12
386.238	108.12
386.463	103.12
386.688	109.12
386.913	102.12
387.138	103.12
387.363	104.12
387.588	87.12
387.813	98.12
388.038	100.12
388.263	115.12
388.488	101.12
388.713	100.12
388.938	98.12
389.163	103.12
389.387	105.12
389.612	84.12
389.837	98.12
390.062	95.12
390.287	87.12
390.512	79.12
390.736	89.12
390.961	97.12
391.186	96.12
391.411	82.12
391.636	82.12
391.86	82.12
392.085	94.12
392.31	99.12
392.534	76.12
392.759	94.12
392.984	81.12
393.208	90.12
393.433	90.12
393.658	80.12
393.882	87.12
394.107	84.12
394.331	86.12
394.556	83.12
394.78	80.12
395.005	82.12
395.229	98.12
395.454	91.12
395.678	96.12
395.903	97.12
396.127	83.12
396.352	79.12
396.576	87.12
396.801	73.12
397.025	92.12
397.249	88.12
397.474	99.12
397.698	92.12
397.922	95.12
398.147	84.12
398.371	83.12
398.595	105.12
398.82	91.12
399.044	92.12
399.268	92.12
399.492	86.12
399.717	74.12
399.941	80.12
400.165	96.12
400.389	97.12
400.613	99.12
400.837	81.12
401.062	79.12
401.286	95.12
401.51	70.12
401.734	72.12
401.958	97.12
402.182	107.12
402.406	144.12
402.63	112.12
402.854	97.12
403.078	90.12
403.302	88.12
403.526	91.12
403.75	99.12
403.974	90.12
404.198	86.12
404.422	88.12
404.645	95.12
404.869	91.12
405.093	91.12
405.317	100.12
405.541	110.12
405.765	107.12
405.988	112.12
406.212	148.12
406.436	182.12
406.66	129.12
406.883	99.12
407.107	99.12
407.331	94.12
407.555	97.12
407.778	94.12
408.002	98.12
408.226	86.12
408.449	73.12
408.673	97.12
408.896	91.12
409.12	97.12
409.344	84.12
409.567	96.12
409.791	92.12
410.014	90.12
410.238	82.12
410.461	88.12
410.685	97.12
410.908	87.12
411.132	104.12
411.355	102.12
411.578	97.12
411.802	93.12
412.025	79.12
412.249	80.12
412.472	80.12
412.695	85.12
412.919	95.12
413.142	82.12
413.365	71.12
413.589	90.12
413.812	82.12
414.035	86.12
414.258	89.12
414.482	95.12
414.705	93.12
414.928	97.12
415.151	88.12
415.374	105.12
415.597	77.12
415.821	86.12
416.044	97.12
416.267	94.12
416.49	74.12
416.713	86.12
416.936	82.12
417.159	92.12
417.382	98.12
417.605	87.12
417.828	98.12
418.051	88.12
418.274	93.12
418.497	90.12
418.72	91.12
418.943	90.12
419.166	80.12
419.389	90.12
419.611	79.12
419.834	92.12
420.057	95.12
420.28	100.12
420.503	77.12
420.726	94.12
420.948	83.12
421.171	86.12
421.394	95.12
421.617	84.12
421.839	97.12
422.062	89.12
422.285	94.12
422.507	100.12
422.73	101.12
422.953	109.12
423.175	96.12
423.398	95.12
423.621	94.12
423.843	85.12
424.066	79.12
424.288	77.12
424.511	94.12
424.733	100.12
424.956	94.12
425.178	104.12
425.401	102.12
425.623	88.12
425.846	81.12
426.068	77.12
426.291	98.12
426.513	93.12
426.735	110.12
426.958	105.12
427.18	110.12
427.402	139.12
427.625	163.12
427.847	109.12
428.069	106.12
428.292	82.12
428.514	79.12
428.736	96.12
428.958	84.12
429.181	87.12
429.403	90.12
429.625	85.12
429.847	102.12
430.069	100.12
430.292	108.12
430.514	105.12
430.736	84.12
430.958	79.12
431.18	93.12
431.402	84.12
431.624	90.12
431.846	87.12
432.068	91.12
432.29	97.12
432.512	85.12
432.734	88.12
432.956	101.12
433.178	110.12
433.4	90.12
433.622	87.12
433.844	85.12
434.066	91.12
434.287	98.12
434.509	91.12
434.731	82.12
434.953	90.12
435.175	89.12
435.397	96.12
435.618	82.12
435.84	100.12
436.062	112.12
436.284	106.12
436.505	106.12
436.727	105.12
436.949	94.12
437.17	97.12
437.392	91.12
437.614	97.12
437.835	108.12
438.057	116.12
438.278	120.12
438.5	117.12
438.721	107.12
438.943	91.12
439.165	99.12
439.386	79.12
439.608	88.12
439.829	90.12
440.05	107.12
440.272	129.12
440.493	95.12
440.715	92.12
440.936	78.12
441.158	98.12
441.379	83.12
441.6	76.12
441.822	94.12
442.043	89.12
442.264	107.12
442.486	97.12
442.707	90.12
442.928	95.12
443.149	104.12
443.371	116.12
443.592	103.12
443.813	98.12
444.034	88.12
444.255	88.12
444.476	81.12
444.698	92.12
444.919	82.12
445.14	129.12
445.361	117.12
445.582	118.12
445.803	125.12
446.024	124.12
446.245	122.12
446.466	105.12
446.687	99.12
446.908	96.12
447.129	80.12
447.35	87.12
447.571	89.12
447.792	86.12
448.013	100.12
448.234	95.12
448.455	112.12
448.675	111.12
448.896	114.12
449.117	97.12
449.338	96.12
449.559	136.12
449.779	138.12
450	100.12
450.221	94.12
450.442	96.12
450.662	79.12
450.883	88.12
451.104	123.12
451.324	96.12
451.545	86.12
451.766	95.12
451.986	93.12
452.207	78.12
452.428	97.12
452.648	88.12
452.869	101.12
453.089	112.12
453.31	111.12
453.53	93.12
453.751	101.12
453.971	117.12
454.192	100.12
454.412	95.12
454.633	94.12
454.853	89.12
455.073	80.12
455.294	79.12
455.514	96.12
455.734	86.12
455.955	70.12
456.175	95.12
456.395	79.12
456.616	89.12
456.836	74.12
457.056	87.12
457.276	95.12
457.497	71.12
457.717	88.12
457.937	99.12
458.157	98.12
458.377	87.12
458.598	107.12
458.818	140.12
459.038	128.12
459.258	107.12
459.478	98.12
459.698	75.12
459.918	96.12
460.138	81.12
460.358	89.12
460.578	74.12
460.798	86.12
461.018	86.12
461.238	83.12
461.458	82.12
461.678	88.12
461.898	73.12
462.118	85.12
462.338	104.12
462.558	96.12
462.777	80.12
462.997	83.12
463.217	82.12
463.437	89.12
463.657	67.12
463.876	90.12
464.096	90.12
464.316	81.12
464.536	73.12
464.755	88.12
464.975	96.12
465.195	149.12
465.414	138.12
465.634	96.12
465.854	82.12
466.073	101.12
466.293	82.12
466.512	92.12
466.732	94.12
466.951	99.12
467.171	82.12
467.391	95.12
467.61	106.12
467.829	101.12
468.049	95.12
468.268	92.12
468.488	86.12
468.707	91.12
468.927	67.12
469.146	89.12
469.365	86.12
469.585	86.12
469.804	97.12
470.023	82.12
470.243	84.12
470.462	94.12
470.681	102.12
470.901	82.12
471.12	78.12
471.339	84.12
471.558	96.12
471.777	90.12
471.997	90.12
472.216	88.12
472.435	90.12
472.654	83.12
472.873	81.12
473.092	84.12
473.311	81.12
473.53	83.12
473.749	85.12
473.968	99.12
474.187	108.12
474.406	88.12
474.625	84.12
474.844	91.12
475.063	92.12
475.282	79.12
475.501	88.12
475.72	90.12
475.939	89.12
476.158	90.12
476.377	87.12
476.596	95.12
476.814	91.12
477.033	83.12
477.252	91.12
477.471	99.12
477.69	83.12
477.908	77.12
478.127	78.12
478.346	91.12
478.564	88.12
478.783	91.12
479.002	86.12
479.22	83.12
479.439	102.12
479.658	90.12
479.876	90.12
480.095	88.12
480.313	88.12
480.532	92.12
480.751	94.12
480.969	105.12
481.188	103.12
481.406	107.12
481.624	92.12
481.843	85.12
482.061	72.12
482.28	93.12
482.498	82.12
482.717	99.12
482.935	94.12
483.153	91.12
483.372	80.12
483.59	97.12
483.808	90.12
484.027	91.12
484.245	95.12
484.463	86.12
484.681	78.12
484.9	99.12
485.118	95.12
485.336	89.12
485.554	86.12
485.772	101.12
485.99	104.12
486.209	92.12
486.427	108.12
486.645	101.12
486.863	113.12
487.081	95.12
487.299	100.12
487.517	90.12
487.735	92.12
487.953	87.12
488.171	91.12
488.389	91.12
488.607	82.12
488.825	94.12
489.043	100.12
489.261	89.12
489.479	95.12
489.696	89.12
489.914	92.12
490.132	86.12
490.35	89.12
490.568	96.12
490.786	85.12
491.003	90.12
491.221	88.12
491.439	85.12
491.657	87.12
491.874	91.12
492.092	65.12
492.31	84.12
492.527	80.12
492.745	84.12
492.963	86.12
493.18	96.12
493.398	91.12
493.615	96.12
493.833	90.12
494.05	89.12
494.268	100.12
494.485	100.12
494.703	86.12
494.92	89.12
495.138	77.12
495.355	81.12
495.573	102.12
495.79	88.12
496.008	94.12
496.225	75.12
496.442	78.12
496.66	90.12
496.877	97.12
497.094	87.12
497.312	99.12
497.529	95.12
497.746	92.12
497.963	88.12
498.181	78.12
498.398	98.12
498.615	101.12
498.832	92.12
499.049	72.12
499.267	91.12
499.484	89.12
499.701	94.12
499.918	82.12
500.135	90.12
500.352	98.12
500.569	92.12
500.786	93.12
501.003	88.12
501.22	95.12
501.437	95.12
501.654	95.12
501.871	110.12
502.088	92.12
502.305	89.12
502.522	96.12
502.739	90.12
502.956	98.12
503.172	100.12
503.389	91.12
503.606	104.12
503.823	93.12
504.04	88.12
504.256	101.12
504.473	81.12
504.69	87.12
504.907	88.12
505.123	95.12
505.34	110.12
505.557	109.12
505.773	86.12
505.99	97.12
506.207	80.12
506.423	75.12
506.64	99.12
506.856	96.12
507.073	98.12
507.289	90.12
507.506	106.12
507.722	99.12
507.939	98.12
508.155	97.12
508.372	97.12
508.588	90.12
508.805	110.12
509.021	95.12
509.238	87.12
509.454	93.12
509.67	96.12
509.887	99.12
510.103	132.12
510.319	202.12
510.536	656.12
510.752	1982.12
510.968	559.12
511.184	155.12
511.401	111.12
511.617	91.12
511.833	89.12
512.049	82.12
512.265	97.12
512.481	105.12
512.698	95.12
512.914	102.12
513.13	87.12
513.346	88.12
513.562	101.12
513.778	97.12
513.994	100.12
514.21	101.12
514.426	104.12
514.642	128.12
514.858	116.12
515.074	143.12
515.29	383.12
515.506	1180.12
515.721	436.12
515.937	150.12
