Data from Uncirc_1998_H10_HRD10591_00018.txt Node
Date: Wed Jan 03 11:25:28 EST 2024
User: Yrep
Spectrometer: HR+D1059
Trigger mode: 1
Integration Time (sec): 1.000000E-1
Scans to average: 1
Electric dark correction enabled: true
Nonlinearity correction enabled: false
Boxcar width: 0
XAxis mode: Wavelengths
Number of Pixels in Spectrum: 2048
>>>>>Begin Spectral Data<<<<<
223.165	-16.5
223.4	-16.5
223.635	-16.5
223.869	-14.5
224.104	-28.5
224.338	-22.5
224.573	-5.5
224.808	-18.5
225.042	3.5
225.277	-5.5
225.511	-1.5
225.746	7.5
225.98	6.5
226.215	6.5
226.449	10.5
226.683	19.5
226.918	34.5
227.152	24.5
227.387	38.5
227.621	37.5
227.856	44.5
228.09	59.5
228.324	48.5
228.559	57.5
228.793	75.5
229.027	69.5
229.262	60.5
229.496	55.5
229.73	88.5
229.964	79.5
230.199	83.5
230.433	68.5
230.667	77.5
230.901	98.5
231.136	88.5
231.37	85.5
231.604	78.5
231.838	80.5
232.072	73.5
232.306	87.5
232.541	67.5
232.775	79.5
233.009	89.5
233.243	88.5
233.477	76.5
233.711	89.5
233.945	78.5
234.179	73.5
234.413	80.5
234.647	85.5
234.881	72.5
235.115	78.5
235.349	81.5
235.583	83.5
235.817	74.5
236.051	72.5
236.285	88.5
236.519	81.5
236.753	88.5
236.987	82.5
237.221	73.5
237.455	94.5
237.689	91.5
237.922	78.5
238.156	81.5
238.39	74.5
238.624	80.5
238.858	74.5
239.091	83.5
239.325	83.5
239.559	83.5
239.793	83.5
240.027	83.5
240.26	80.5
240.494	86.5
240.728	74.5
240.961	85.5
241.195	78.5
241.429	71.5
241.662	77.5
241.896	66.5
242.13	82.5
242.363	75.5
242.597	87.5
242.83	69.5
243.064	77.5
243.298	84.5
243.531	83.5
243.765	81.5
243.998	79.5
244.232	74.5
244.465	86.5
244.699	82.5
244.932	88.5
245.166	86.5
245.399	81.5
245.633	65.5
245.866	75.5
246.099	89.5
246.333	77.5
246.566	91.5
246.8	91.5
247.033	77.5
247.266	67.5
247.5	89.5
247.733	69.5
247.966	79.5
248.2	89.5
248.433	65.5
248.666	90.5
248.899	88.5
249.133	97.5
249.366	100.5
249.599	83.5
249.832	82.5
250.066	85.5
250.299	78.5
250.532	91.5
250.765	68.5
250.998	73.5
251.231	77.5
251.465	80.5
251.698	94.5
251.931	78.5
252.164	89.5
252.397	87.5
252.63	79.5
252.863	86.5
253.096	75.5
253.329	77.5
253.562	87.5
253.795	85.5
254.028	81.5
254.261	92.5
254.494	88.5
254.727	92.5
254.96	92.5
255.193	100.5
255.426	74.5
255.659	83.5
255.892	87.5
256.124	80.5
256.357	81.5
256.59	99.5
256.823	88.5
257.056	87.5
257.289	82.5
257.521	93.5
257.754	97.5
257.987	71.5
258.22	82.5
258.452	80.5
258.685	75.5
258.918	89.5
259.151	106.5
259.383	86.5
259.616	80.5
259.849	76.5
260.081	83.5
260.314	90.5
260.547	71.5
260.779	89.5
261.012	79.5
261.244	78.5
261.477	85.5
261.71	103.5
261.942	94.5
262.175	102.5
262.407	95.5
262.64	79.5
262.872	83.5
263.105	93.5
263.337	98.5
263.57	78.5
263.802	96.5
264.035	72.5
264.267	80.5
264.499	71.5
264.732	91.5
264.964	91.5
265.197	88.5
265.429	88.5
265.661	88.5
265.894	83.5
266.126	93.5
266.358	75.5
266.591	93.5
266.823	76.5
267.055	85.5
267.287	99.5
267.52	77.5
267.752	104.5
267.984	83.5
268.216	87.5
268.448	68.5
268.681	94.5
268.913	82.5
269.145	98.5
269.377	97.5
269.609	93.5
269.841	82.5
270.073	83.5
270.306	76.5
270.538	73.5
270.77	86.5
271.002	87.5
271.234	80.5
271.466	79.5
271.698	81.5
271.93	86.5
272.162	95.5
272.394	100.5
272.626	68.5
272.858	80.5
273.09	88.5
273.322	90.5
273.553	91.5
273.785	89.5
274.017	83.5
274.249	91.5
274.481	73.5
274.713	98.5
274.945	85.5
275.176	92.5
275.408	69.5
275.64	96.5
275.872	90.5
276.104	87.5
276.335	97.5
276.567	101.5
276.799	111.5
277.031	96.5
277.262	77.5
277.494	95.5
277.726	84.5
277.957	84.5
278.189	92.5
278.421	85.5
278.652	99.5
278.884	96.5
279.115	75.5
279.347	77.5
279.579	74.5
279.81	91.5
280.042	84.5
280.273	90.5
280.505	73.5
280.736	87.5
280.968	86.5
281.199	93.5
281.431	87.5
281.662	84.5
281.894	100.5
282.125	100.5
282.356	101.5
282.588	113.5
282.819	93.5
283.051	85.5
283.282	92.5
283.513	85.5
283.745	93.5
283.976	78.5
284.207	83.5
284.439	79.5
284.67	100.5
284.901	84.5
285.132	86.5
285.364	89.5
285.595	89.5
285.826	79.5
286.057	100.5
286.288	83.5
286.52	95.5
286.751	93.5
286.982	85.5
287.213	92.5
287.444	98.5
287.675	97.5
287.906	84.5
288.138	94.5
288.369	91.5
288.6	107.5
288.831	76.5
289.062	96.5
289.293	78.5
289.524	98.5
289.755	93.5
289.986	83.5
290.217	90.5
290.448	94.5
290.679	109.5
290.91	99.5
291.141	75.5
291.371	86.5
291.602	79.5
291.833	79.5
292.064	86.5
292.295	82.5
292.526	68.5
292.757	71.5
292.987	87.5
293.218	91.5
293.449	90.5
293.68	97.5
293.91	77.5
294.141	93.5
294.372	91.5
294.603	88.5
294.833	89.5
295.064	93.5
295.295	100.5
295.525	109.5
295.756	98.5
295.987	110.5
296.217	136.5
296.448	109.5
296.679	91.5
296.909	95.5
297.14	94.5
297.37	83.5
297.601	97.5
297.831	94.5
298.062	100.5
298.292	97.5
298.523	88.5
298.753	85.5
298.984	96.5
299.214	93.5
299.445	89.5
299.675	100.5
299.905	87.5
300.136	95.5
300.366	78.5
300.597	89.5
300.827	89.5
301.057	101.5
301.288	97.5
301.518	96.5
301.748	79.5
301.979	93.5
302.209	86.5
302.439	101.5
302.669	117.5
302.9	98.5
303.13	90.5
303.36	88.5
303.59	90.5
303.82	106.5
304.051	93.5
304.281	104.5
304.511	106.5
304.741	91.5
304.971	81.5
305.201	93.5
305.431	88.5
305.661	82.5
305.891	99.5
306.121	108.5
306.352	106.5
306.582	94.5
306.812	100.5
307.042	86.5
307.272	97.5
307.502	92.5
307.731	99.5
307.961	93.5
308.191	93.5
308.421	92.5
308.651	84.5
308.881	87.5
309.111	98.5
309.341	111.5
309.571	101.5
309.8	86.5
310.03	90.5
310.26	103.5
310.49	102.5
310.72	90.5
310.949	90.5
311.179	108.5
311.409	81.5
311.639	95.5
311.868	93.5
312.098	116.5
312.328	106.5
312.557	89.5
312.787	96.5
313.017	98.5
313.246	99.5
313.476	82.5
313.706	95.5
313.935	101.5
314.165	99.5
314.394	100.5
314.624	111.5
314.853	83.5
315.083	95.5
315.312	98.5
315.542	97.5
315.771	111.5
316.001	96.5
316.23	75.5
316.46	95.5
316.689	96.5
316.919	92.5
317.148	101.5
317.377	84.5
317.607	89.5
317.836	93.5
318.065	88.5
318.295	101.5
318.524	89.5
318.753	108.5
318.983	89.5
319.212	105.5
319.441	107.5
319.67	95.5
319.9	94.5
320.129	91.5
320.358	89.5
320.587	96.5
320.816	85.5
321.046	97.5
321.275	95.5
321.504	108.5
321.733	106.5
321.962	90.5
322.191	99.5
322.42	101.5
322.649	112.5
322.878	117.5
323.108	100.5
323.337	120.5
323.566	121.5
323.795	144.5
324.024	173.5
324.253	335.5
324.482	685.5
324.71	1331.5
324.939	1713.5
325.168	649.5
325.397	210.5
325.626	156.5
325.855	115.5
326.084	114.5
326.313	109.5
326.542	148.5
326.77	205.5
326.999	405.5
327.228	799.5
327.457	1381.5
327.686	1112.5
327.914	321.5
328.143	199.5
328.372	156.5
328.6	124.5
328.829	107.5
329.058	122.5
329.287	117.5
329.515	89.5
329.744	105.5
329.972	93.5
330.201	120.5
330.43	105.5
330.658	101.5
330.887	118.5
331.115	100.5
331.344	92.5
331.572	98.5
331.801	122.5
332.03	103.5
332.258	94.5
332.486	85.5
332.715	88.5
332.943	102.5
333.172	84.5
333.4	88.5
333.629	104.5
333.857	107.5
334.085	88.5
334.314	91.5
334.542	91.5
334.771	113.5
334.999	91.5
335.227	81.5
335.455	100.5
335.684	106.5
335.912	88.5
336.14	105.5
336.369	104.5
336.597	84.5
336.825	93.5
337.053	104.5
337.281	88.5
337.51	84.5
337.738	98.5
337.966	107.5
338.194	111.5
338.422	100.5
338.65	94.5
338.878	98.5
339.106	91.5
339.334	100.5
339.562	93.5
339.79	99.5
340.018	84.5
340.246	91.5
340.474	93.5
340.702	97.5
340.93	88.5
341.158	85.5
341.386	100.5
341.614	96.5
341.842	90.5
342.07	84.5
342.298	101.5
342.526	87.5
342.754	89.5
342.981	101.5
343.209	104.5
343.437	104.5
343.665	107.5
343.893	104.5
344.12	91.5
344.348	93.5
344.576	87.5
344.804	89.5
345.031	88.5
345.259	94.5
345.487	76.5
345.714	97.5
345.942	94.5
346.17	94.5
346.397	96.5
346.625	90.5
346.853	96.5
347.08	99.5
347.308	91.5
347.535	82.5
347.763	113.5
347.99	95.5
348.218	90.5
348.445	100.5
348.673	100.5
348.9	100.5
349.128	98.5
349.355	98.5
349.583	115.5
349.81	100.5
350.037	85.5
350.265	83.5
350.492	107.5
350.72	97.5
350.947	83.5
351.174	103.5
351.402	110.5
351.629	97.5
351.856	94.5
352.083	105.5
352.311	98.5
352.538	106.5
352.765	112.5
352.992	114.5
353.22	101.5
353.447	114.5
353.674	98.5
353.901	81.5
354.128	84.5
354.355	109.5
354.583	109.5
354.81	102.5
355.037	100.5
355.264	94.5
355.491	87.5
355.718	99.5
355.945	105.5
356.172	117.5
356.399	96.5
356.626	104.5
356.853	95.5
357.08	106.5
357.307	101.5
357.534	92.5
357.761	83.5
357.988	100.5
358.215	98.5
358.441	84.5
358.668	86.5
358.895	86.5
359.122	95.5
359.349	93.5
359.576	100.5
359.802	97.5
360.029	105.5
360.256	115.5
360.483	90.5
360.709	85.5
360.936	89.5
361.163	97.5
361.39	100.5
361.616	85.5
361.843	90.5
362.07	99.5
362.296	92.5
362.523	93.5
362.749	89.5
362.976	87.5
363.203	84.5
363.429	75.5
363.656	95.5
363.882	81.5
364.109	96.5
364.335	89.5
364.562	90.5
364.788	88.5
365.015	95.5
365.241	103.5
365.468	116.5
365.694	104.5
365.92	112.5
366.147	85.5
366.373	71.5
366.599	97.5
366.826	105.5
367.052	97.5
367.278	80.5
367.505	84.5
367.731	92.5
367.957	96.5
368.184	113.5
368.41	90.5
368.636	91.5
368.862	97.5
369.089	111.5
369.315	95.5
369.541	87.5
369.767	108.5
369.993	86.5
370.219	99.5
370.445	97.5
370.672	96.5
370.898	81.5
371.124	82.5
371.35	92.5
371.576	96.5
371.802	98.5
372.028	96.5
372.254	84.5
372.48	95.5
372.706	94.5
372.932	85.5
373.158	85.5
373.384	95.5
373.61	93.5
373.835	94.5
374.061	98.5
374.287	87.5
374.513	98.5
374.739	90.5
374.965	91.5
375.191	83.5
375.416	102.5
375.642	90.5
375.868	95.5
376.094	102.5
376.319	87.5
376.545	92.5
376.771	106.5
376.997	92.5
377.222	86.5
377.448	101.5
377.674	92.5
377.899	103.5
378.125	79.5
378.35	91.5
378.576	95.5
378.802	99.5
379.027	93.5
379.253	103.5
379.478	92.5
379.704	95.5
379.929	82.5
380.155	84.5
380.38	99.5
380.606	80.5
380.831	108.5
381.057	105.5
381.282	94.5
381.507	92.5
381.733	98.5
381.958	91.5
382.184	110.5
382.409	97.5
382.634	97.5
382.86	92.5
383.085	86.5
383.31	104.5
383.535	106.5
383.761	105.5
383.986	97.5
384.211	104.5
384.436	87.5
384.662	100.5
384.887	102.5
385.112	99.5
385.337	106.5
385.562	94.5
385.787	105.5
386.013	97.5
386.238	109.5
386.463	107.5
386.688	109.5
386.913	102.5
387.138	99.5
387.363	107.5
387.588	95.5
387.813	101.5
388.038	114.5
388.263	106.5
388.488	101.5
388.713	104.5
388.938	89.5
389.163	98.5
389.387	99.5
389.612	78.5
389.837	93.5
390.062	96.5
390.287	103.5
390.512	91.5
390.736	107.5
390.961	86.5
391.186	98.5
391.411	94.5
391.636	84.5
391.86	75.5
392.085	88.5
392.31	91.5
392.534	97.5
392.759	92.5
392.984	96.5
393.208	97.5
393.433	95.5
393.658	98.5
393.882	98.5
394.107	91.5
394.331	93.5
394.556	92.5
394.78	93.5
395.005	92.5
395.229	87.5
395.454	91.5
395.678	94.5
395.903	90.5
396.127	73.5
396.352	58.5
396.576	73.5
396.801	88.5
397.025	94.5
397.249	88.5
397.474	90.5
397.698	102.5
397.922	98.5
398.147	92.5
398.371	89.5
398.595	90.5
398.82	90.5
399.044	83.5
399.268	85.5
399.492	92.5
399.717	85.5
399.941	83.5
400.165	85.5
400.389	95.5
400.613	96.5
400.837	96.5
401.062	81.5
401.286	78.5
401.51	94.5
401.734	83.5
401.958	84.5
402.182	111.5
402.406	122.5
402.63	103.5
402.854	94.5
403.078	75.5
403.302	87.5
403.526	92.5
403.75	92.5
403.974	92.5
404.198	75.5
404.422	92.5
404.645	80.5
404.869	94.5
405.093	88.5
405.317	91.5
405.541	88.5
405.765	89.5
405.988	108.5
406.212	141.5
406.436	177.5
406.66	138.5
406.883	97.5
407.107	103.5
407.331	94.5
407.555	101.5
407.778	91.5
408.002	80.5
408.226	81.5
408.449	80.5
408.673	86.5
408.896	93.5
409.12	95.5
409.344	99.5
409.567	88.5
409.791	102.5
410.014	93.5
410.238	87.5
410.461	92.5
410.685	93.5
410.908	101.5
411.132	102.5
411.355	89.5
411.578	95.5
411.802	96.5
412.025	88.5
412.249	106.5
412.472	86.5
412.695	90.5
412.919	91.5
413.142	89.5
413.365	105.5
413.589	91.5
413.812	97.5
414.035	79.5
414.258	92.5
414.482	89.5
414.705	86.5
414.928	98.5
415.151	100.5
415.374	102.5
415.597	95.5
415.821	83.5
416.044	78.5
416.267	106.5
416.49	96.5
416.713	92.5
416.936	100.5
417.159	87.5
417.382	88.5
417.605	95.5
417.828	86.5
418.051	90.5
418.274	85.5
418.497	93.5
418.72	89.5
418.943	90.5
419.166	99.5
419.389	102.5
419.611	84.5
419.834	84.5
420.057	90.5
420.28	97.5
420.503	100.5
420.726	91.5
420.948	82.5
421.171	113.5
421.394	94.5
421.617	92.5
421.839	97.5
422.062	92.5
422.285	84.5
422.507	102.5
422.73	105.5
422.953	92.5
423.175	85.5
423.398	89.5
423.621	94.5
423.843	77.5
424.066	95.5
424.288	89.5
424.511	90.5
424.733	95.5
424.956	98.5
425.178	101.5
425.401	87.5
425.623	99.5
425.846	87.5
426.068	91.5
426.291	86.5
426.513	97.5
426.735	105.5
426.958	97.5
427.18	102.5
427.402	128.5
427.625	136.5
427.847	107.5
428.069	96.5
428.292	91.5
428.514	81.5
428.736	87.5
428.958	77.5
429.181	91.5
429.403	92.5
429.625	91.5
429.847	98.5
430.069	111.5
430.292	100.5
430.514	87.5
430.736	90.5
430.958	99.5
431.18	89.5
431.402	83.5
431.624	85.5
431.846	101.5
432.068	91.5
432.29	96.5
432.512	88.5
432.734	73.5
432.956	90.5
433.178	94.5
433.4	94.5
433.622	83.5
433.844	92.5
434.066	105.5
434.287	97.5
434.509	89.5
434.731	102.5
434.953	92.5
435.175	90.5
435.397	100.5
435.618	96.5
435.84	96.5
436.062	129.5
436.284	118.5
436.505	101.5
436.727	106.5
436.949	92.5
437.17	97.5
437.392	88.5
437.614	98.5
437.835	97.5
438.057	99.5
438.278	101.5
438.5	108.5
438.721	120.5
438.943	82.5
439.165	91.5
439.386	84.5
439.608	81.5
439.829	114.5
440.05	127.5
440.272	145.5
440.493	91.5
440.715	91.5
440.936	94.5
441.158	75.5
441.379	84.5
441.6	99.5
441.822	100.5
442.043	86.5
442.264	108.5
442.486	105.5
442.707	77.5
442.928	94.5
443.149	115.5
443.371	111.5
443.592	112.5
443.813	107.5
444.034	90.5
444.255	100.5
444.476	93.5
444.698	92.5
444.919	97.5
445.14	127.5
445.361	115.5
445.582	108.5
445.803	109.5
446.024	135.5
446.245	124.5
446.466	87.5
446.687	77.5
446.908	83.5
447.129	80.5
447.35	80.5
447.571	95.5
447.792	91.5
448.013	95.5
448.234	113.5
448.455	93.5
448.675	110.5
448.896	124.5
449.117	95.5
449.338	94.5
449.559	123.5
449.779	123.5
450	97.5
450.221	88.5
450.442	96.5
450.662	107.5
450.883	100.5
451.104	104.5
451.324	96.5
451.545	89.5
451.766	89.5
451.986	84.5
452.207	99.5
452.428	88.5
452.648	114.5
452.869	119.5
453.089	109.5
453.31	107.5
453.53	88.5
453.751	85.5
453.971	91.5
454.192	112.5
454.412	101.5
454.633	91.5
454.853	83.5
455.073	90.5
455.294	96.5
455.514	99.5
455.734	75.5
455.955	83.5
456.175	99.5
456.395	95.5
456.616	82.5
456.836	99.5
457.056	89.5
457.276	80.5
457.497	80.5
457.717	91.5
457.937	88.5
458.157	89.5
458.377	79.5
458.598	98.5
458.818	128.5
459.038	145.5
459.258	84.5
459.478	106.5
459.698	86.5
459.918	81.5
460.138	82.5
460.358	92.5
460.578	84.5
460.798	99.5
461.018	97.5
461.238	91.5
461.458	79.5
461.678	103.5
461.898	106.5
462.118	100.5
462.338	97.5
462.558	97.5
462.777	84.5
462.997	93.5
463.217	101.5
463.437	72.5
463.657	77.5
463.876	83.5
464.096	93.5
464.316	105.5
464.536	96.5
464.755	93.5
464.975	99.5
465.195	147.5
465.414	123.5
465.634	95.5
465.854	90.5
466.073	83.5
466.293	83.5
466.512	90.5
466.732	78.5
466.951	93.5
467.171	91.5
467.391	92.5
467.61	95.5
467.829	89.5
468.049	84.5
468.268	103.5
468.488	87.5
468.707	86.5
468.927	103.5
469.146	89.5
469.365	88.5
469.585	85.5
469.804	98.5
470.023	93.5
470.243	87.5
470.462	92.5
470.681	107.5
470.901	93.5
471.12	97.5
471.339	94.5
471.558	82.5
471.777	77.5
471.997	79.5
472.216	97.5
472.435	90.5
472.654	81.5
472.873	100.5
473.092	93.5
473.311	83.5
473.53	93.5
473.749	64.5
473.968	98.5
474.187	91.5
474.406	89.5
474.625	91.5
474.844	85.5
475.063	83.5
475.282	88.5
475.501	89.5
475.72	96.5
475.939	91.5
476.158	89.5
476.377	74.5
476.596	92.5
476.814	90.5
477.033	101.5
477.252	85.5
477.471	84.5
477.69	80.5
477.908	94.5
478.127	77.5
478.346	100.5
478.564	92.5
478.783	79.5
479.002	79.5
479.22	89.5
479.439	82.5
479.658	103.5
479.876	104.5
480.095	91.5
480.313	92.5
480.532	89.5
480.751	92.5
480.969	101.5
481.188	112.5
481.406	97.5
481.624	89.5
481.843	74.5
482.061	98.5
482.28	98.5
482.498	99.5
482.717	95.5
482.935	96.5
483.153	90.5
483.372	91.5
483.59	99.5
483.808	96.5
484.027	95.5
484.245	98.5
484.463	84.5
484.681	91.5
484.9	88.5
485.118	112.5
485.336	105.5
485.554	93.5
485.772	96.5
485.99	104.5
486.209	101.5
486.427	90.5
486.645	105.5
486.863	94.5
487.081	97.5
487.299	98.5
487.517	100.5
487.735	104.5
487.953	85.5
488.171	92.5
488.389	103.5
488.607	105.5
488.825	79.5
489.043	95.5
489.261	98.5
489.479	97.5
489.696	104.5
489.914	93.5
490.132	90.5
490.35	98.5
490.568	73.5
490.786	86.5
491.003	84.5
491.221	80.5
491.439	92.5
491.657	99.5
491.874	97.5
492.092	95.5
492.31	94.5
492.527	89.5
492.745	92.5
492.963	89.5
493.18	101.5
493.398	105.5
493.615	108.5
493.833	87.5
494.05	93.5
494.268	94.5
494.485	91.5
494.703	90.5
494.92	88.5
495.138	97.5
495.355	95.5
495.573	92.5
495.79	93.5
496.008	92.5
496.225	90.5
496.442	91.5
496.66	79.5
496.877	88.5
497.094	102.5
497.312	99.5
497.529	92.5
497.746	113.5
497.963	86.5
498.181	89.5
498.398	104.5
498.615	99.5
498.832	110.5
499.049	100.5
499.267	91.5
499.484	110.5
499.701	83.5
499.918	85.5
500.135	86.5
500.352	79.5
500.569	103.5
500.786	87.5
501.003	96.5
501.22	92.5
501.437	92.5
501.654	99.5
501.871	108.5
502.088	106.5
502.305	88.5
502.522	90.5
502.739	100.5
502.956	99.5
503.172	89.5
503.389	97.5
503.606	110.5
503.823	93.5
504.04	93.5
504.256	92.5
504.473	85.5
504.69	84.5
504.907	96.5
505.123	87.5
505.34	93.5
505.557	94.5
505.773	94.5
505.99	80.5
506.207	94.5
506.423	90.5
506.64	85.5
506.856	102.5
507.073	113.5
507.289	101.5
507.506	106.5
507.722	95.5
507.939	107.5
508.155	97.5
508.372	92.5
508.588	96.5
508.805	92.5
509.021	95.5
509.238	100.5
509.454	100.5
509.67	109.5
509.887	97.5
510.103	137.5
510.319	180.5
510.536	583.5
510.752	1759.5
510.968	507.5
511.184	143.5
511.401	97.5
511.617	92.5
511.833	80.5
512.049	97.5
512.265	98.5
512.481	83.5
512.698	92.5
512.914	83.5
513.13	86.5
513.346	92.5
513.562	100.5
513.778	92.5
513.994	99.5
514.21	100.5
514.426	114.5
514.642	97.5
514.858	130.5
515.074	153.5
515.29	351.5
515.506	1058.5
515.721	372.5
515.937	133.5
516.153	104.5
516.369	93.5
516.585	87.5
516.801	87.5
517.016	94.5
517.232	99.5
517.448	94.5
517.664	82.5
517.879	87.5
518.095	110.5
518.311	102.5
518.527	95.5
518.742	101.5
518.958	94.5
519.173	93.5
519.389	88.5
519.605	93.5
519.82	76.5
520.036	107.5
520.251	104.5
520.467	107.5
520.682	94.5
520.898	104.5
521.113	98.5
521.329	126.5
521.544	172.5
521.76	428.5
521.975	1687.5
522.19	999.5
522.406	251.5
522.621	114.5
522.836	96.5
523.052	95.5
523.267	104.5
523.482	100.5
523.698	100.5
523.913	98.5
524.128	96.5
524.343	89.5
524.559	91.5
524.774	83.5
524.989	87.5
525.204	99.5
525.419	87.5
525.634	99.5
525.849	86.5
526.064	107.5
526.28	81.5
526.495	98.5
526.71	105.5
526.925	91.5
527.14	82.5
527.355	84.5
527.57	96.5
527.785	82.5
527.999	100.5
528.214	92.5
528.429	97.5
528.644	98.5
528.859	99.5
529.074	102.5
529.289	111.5
529.503	143.5
529.718	100.5
529.933	96.5
530.148	87.5
530.363	84.5
530.577	95.5
530.792	92.5
531.007	98.5
531.221	102.5
531.436	102.5
531.651	97.5
531.865	92.5
532.08	96.5
532.295	116.5
532.509	112.5
532.724	101.5
532.938	88.5
533.153	110.5
533.367	87.5
533.582	95.5
533.796	96.5
534.011	92.5
534.225	95.5
534.44	91.5
534.654	98.5
534.868	96.5
535.083	99.5
