Data from Uncirc_1998_H10_HRD10591_00066.txt Node
Date: Wed Jan 03 11:25:38 EST 2024
User: Yrep
Spectrometer: HR+D1059
Trigger mode: 1
Integration Time (sec): 1.000000E-1
Scans to average: 1
Electric dark correction enabled: true
Nonlinearity correction enabled: false
Boxcar width: 0
XAxis mode: Wavelengths
Number of Pixels in Spectrum: 2048
>>>>>Begin Spectral Data<<<<<
223.165	-9.5
223.4	-9.5
223.635	-9.5
223.869	-8.5
224.104	-25.5
224.338	-11.5
224.573	-11.5
224.808	-11.5
225.042	-9.5
225.277	-0.5
225.511	-3.5
225.746	4.5
225.98	-2.5
226.215	12.5
226.449	0.5
226.683	25.5
226.918	21.5
227.152	29.5
227.387	23.5
227.621	50.5
227.856	41.5
228.09	39.5
228.324	45.5
228.559	72.5
228.793	61.5
229.027	53.5
229.262	59.5
229.496	68.5
229.73	88.5
229.964	82.5
230.199	67.5
230.433	84.5
230.667	79.5
230.901	70.5
231.136	72.5
231.37	75.5
231.604	65.5
231.838	64.5
232.072	87.5
232.306	57.5
232.541	82.5
232.775	81.5
233.009	75.5
233.243	67.5
233.477	80.5
233.711	87.5
233.945	93.5
234.179	91.5
234.413	77.5
234.647	73.5
234.881	81.5
235.115	88.5
235.349	69.5
235.583	80.5
235.817	55.5
236.051	74.5
236.285	67.5
236.519	78.5
236.753	67.5
236.987	60.5
237.221	76.5
237.455	76.5
237.689	70.5
237.922	69.5
238.156	75.5
238.39	75.5
238.624	75.5
238.858	80.5
239.091	66.5
239.325	69.5
239.559	76.5
239.793	76.5
240.027	69.5
240.26	76.5
240.494	77.5
240.728	71.5
240.961	73.5
241.195	80.5
241.429	75.5
241.662	57.5
241.896	78.5
242.13	69.5
242.363	77.5
242.597	82.5
242.83	71.5
243.064	70.5
243.298	74.5
243.531	73.5
243.765	78.5
243.998	68.5
244.232	77.5
244.465	83.5
244.699	80.5
244.932	72.5
245.166	64.5
245.399	84.5
245.633	61.5
245.866	82.5
246.099	75.5
246.333	66.5
246.566	95.5
246.8	82.5
247.033	76.5
247.266	82.5
247.5	72.5
247.733	75.5
247.966	62.5
248.2	73.5
248.433	72.5
248.666	90.5
248.899	60.5
249.133	94.5
249.366	79.5
249.599	84.5
249.832	81.5
250.066	86.5
250.299	86.5
250.532	81.5
250.765	90.5
250.998	71.5
251.231	72.5
251.465	73.5
251.698	67.5
251.931	89.5
252.164	82.5
252.397	67.5
252.63	80.5
252.863	75.5
253.096	72.5
253.329	78.5
253.562	73.5
253.795	77.5
254.028	78.5
254.261	78.5
254.494	78.5
254.727	87.5
254.96	70.5
255.193	67.5
255.426	88.5
255.659	82.5
255.892	77.5
256.124	78.5
256.357	69.5
256.59	73.5
256.823	84.5
257.056	69.5
257.289	62.5
257.521	69.5
257.754	74.5
257.987	91.5
258.22	84.5
258.452	70.5
258.685	85.5
258.918	70.5
259.151	76.5
259.383	74.5
259.616	65.5
259.849	56.5
260.081	72.5
260.314	91.5
260.547	82.5
260.779	82.5
261.012	87.5
261.244	82.5
261.477	77.5
261.71	99.5
261.942	97.5
262.175	92.5
262.407	88.5
262.64	94.5
262.872	91.5
263.105	66.5
263.337	78.5
263.57	81.5
263.802	78.5
264.035	85.5
264.267	79.5
264.499	82.5
264.732	74.5
264.964	76.5
265.197	74.5
265.429	81.5
265.661	78.5
265.894	72.5
266.126	66.5
266.358	75.5
266.591	78.5
266.823	86.5
267.055	73.5
267.287	76.5
267.52	65.5
267.752	78.5
267.984	77.5
268.216	89.5
268.448	81.5
268.681	81.5
268.913	79.5
269.145	82.5
269.377	78.5
269.609	75.5
269.841	89.5
270.073	92.5
270.306	79.5
270.538	81.5
270.77	88.5
271.002	79.5
271.234	75.5
271.466	85.5
271.698	80.5
271.93	78.5
272.162	80.5
272.394	87.5
272.626	78.5
272.858	101.5
273.09	83.5
273.322	73.5
273.553	61.5
273.785	88.5
274.017	76.5
274.249	88.5
274.481	82.5
274.713	80.5
274.945	87.5
275.176	71.5
275.408	86.5
275.64	55.5
275.872	88.5
276.104	82.5
276.335	80.5
276.567	80.5
276.799	94.5
277.031	86.5
277.262	69.5
277.494	70.5
277.726	83.5
277.957	75.5
278.189	78.5
278.421	72.5
278.652	62.5
278.884	80.5
279.115	89.5
279.347	78.5
279.579	87.5
279.81	78.5
280.042	68.5
280.273	77.5
280.505	84.5
280.736	75.5
280.968	77.5
281.199	76.5
281.431	82.5
281.662	72.5
281.894	90.5
282.125	93.5
282.356	103.5
282.588	101.5
282.819	95.5
283.051	88.5
283.282	87.5
283.513	69.5
283.745	81.5
283.976	74.5
284.207	99.5
284.439	93.5
284.67	91.5
284.901	91.5
285.132	86.5
285.364	86.5
285.595	86.5
285.826	73.5
286.057	72.5
286.288	77.5
286.52	81.5
286.751	99.5
286.982	73.5
287.213	90.5
287.444	88.5
287.675	85.5
287.906	75.5
288.138	95.5
288.369	83.5
288.6	89.5
288.831	75.5
289.062	82.5
289.293	84.5
289.524	84.5
289.755	82.5
289.986	86.5
290.217	81.5
290.448	87.5
290.679	92.5
290.91	83.5
291.141	97.5
291.371	85.5
291.602	81.5
291.833	85.5
292.064	78.5
292.295	79.5
292.526	82.5
292.757	71.5
292.987	84.5
293.218	90.5
293.449	76.5
293.68	98.5
293.91	77.5
294.141	82.5
294.372	76.5
294.603	89.5
294.833	79.5
295.064	89.5
295.295	83.5
295.525	70.5
295.756	103.5
295.987	99.5
296.217	122.5
296.448	134.5
296.679	83.5
296.909	80.5
297.14	89.5
297.37	85.5
297.601	90.5
297.831	99.5
298.062	97.5
298.292	79.5
298.523	92.5
298.753	89.5
298.984	86.5
299.214	90.5
299.445	84.5
299.675	80.5
299.905	97.5
300.136	83.5
300.366	87.5
300.597	80.5
300.827	81.5
301.057	81.5
301.288	101.5
301.518	93.5
301.748	89.5
301.979	106.5
302.209	90.5
302.439	75.5
302.669	90.5
302.9	89.5
303.13	93.5
303.36	94.5
303.59	93.5
303.82	66.5
304.051	70.5
304.281	70.5
304.511	95.5
304.741	77.5
304.971	91.5
305.201	84.5
305.431	82.5
305.661	88.5
305.891	87.5
306.121	97.5
306.352	92.5
306.582	86.5
306.812	85.5
307.042	75.5
307.272	80.5
307.502	94.5
307.731	75.5
307.961	76.5
308.191	73.5
308.421	74.5
308.651	94.5
308.881	80.5
309.111	89.5
309.341	89.5
309.571	74.5
309.8	98.5
310.03	89.5
310.26	81.5
310.49	94.5
310.72	101.5
310.949	99.5
311.179	98.5
311.409	94.5
311.639	79.5
311.868	92.5
312.098	95.5
312.328	90.5
312.557	89.5
312.787	95.5
313.017	100.5
313.246	93.5
313.476	93.5
313.706	83.5
313.935	81.5
314.165	82.5
314.394	106.5
314.624	97.5
314.853	98.5
315.083	80.5
315.312	88.5
315.542	96.5
315.771	86.5
316.001	78.5
316.23	87.5
316.46	82.5
316.689	103.5
316.919	106.5
317.148	100.5
317.377	100.5
317.607	81.5
317.836	75.5
318.065	93.5
318.295	89.5
318.524	85.5
318.753	95.5
318.983	97.5
319.212	94.5
319.441	99.5
319.67	103.5
319.9	90.5
320.129	87.5
320.358	88.5
320.587	93.5
320.816	90.5
321.046	100.5
321.275	85.5
321.504	97.5
321.733	97.5
321.962	89.5
322.191	87.5
322.42	85.5
322.649	102.5
322.878	92.5
323.108	117.5
323.337	117.5
323.566	109.5
323.795	141.5
324.024	190.5
324.253	357.5
324.482	722.5
324.71	1444.5
324.939	1841.5
325.168	675.5
325.397	215.5
325.626	132.5
325.855	124.5
326.084	105.5
326.313	124.5
326.542	124.5
326.77	214.5
326.999	402.5
327.228	809.5
327.457	1425.5
327.686	1113.5
327.914	323.5
328.143	181.5
328.372	121.5
328.6	122.5
328.829	110.5
329.058	107.5
329.287	121.5
329.515	119.5
329.744	99.5
329.972	99.5
330.201	96.5
330.43	98.5
330.658	115.5
330.887	132.5
331.115	102.5
331.344	93.5
331.572	95.5
331.801	91.5
332.03	97.5
332.258	94.5
332.486	94.5
332.715	100.5
332.943	84.5
333.172	103.5
333.4	110.5
333.629	103.5
333.857	108.5
334.085	102.5
334.314	101.5
334.542	102.5
334.771	96.5
334.999	89.5
335.227	92.5
335.455	82.5
335.684	82.5
335.912	98.5
336.14	99.5
336.369	98.5
336.597	89.5
336.825	93.5
337.053	100.5
337.281	89.5
337.51	76.5
337.738	106.5
337.966	88.5
338.194	91.5
338.422	98.5
338.65	91.5
338.878	87.5
339.106	97.5
339.334	91.5
339.562	103.5
339.79	78.5
340.018	89.5
340.246	87.5
340.474	81.5
340.702	95.5
340.93	91.5
341.158	90.5
341.386	92.5
341.614	80.5
341.842	78.5
342.07	83.5
342.298	89.5
342.526	90.5
342.754	91.5
342.981	81.5
343.209	81.5
343.437	104.5
343.665	83.5
343.893	84.5
344.12	95.5
344.348	98.5
344.576	95.5
344.804	88.5
345.031	95.5
345.259	80.5
345.487	101.5
345.714	84.5
345.942	84.5
346.17	92.5
346.397	79.5
346.625	93.5
346.853	92.5
347.08	94.5
347.308	100.5
347.535	87.5
347.763	94.5
347.99	89.5
348.218	94.5
348.445	99.5
348.673	86.5
348.9	92.5
349.128	99.5
349.355	101.5
349.583	99.5
349.81	94.5
350.037	98.5
350.265	81.5
350.492	84.5
350.72	107.5
350.947	99.5
351.174	106.5
351.402	105.5
351.629	77.5
351.856	87.5
352.083	95.5
352.311	114.5
352.538	100.5
352.765	106.5
352.992	101.5
353.22	104.5
353.447	113.5
353.674	105.5
353.901	82.5
354.128	86.5
354.355	89.5
354.583	102.5
354.81	91.5
355.037	104.5
355.264	81.5
355.491	91.5
355.718	89.5
355.945	95.5
356.172	86.5
356.399	83.5
356.626	89.5
356.853	89.5
357.08	91.5
357.307	103.5
357.534	91.5
357.761	101.5
357.988	94.5
358.215	86.5
358.441	92.5
358.668	85.5
358.895	68.5
359.122	88.5
359.349	99.5
359.576	79.5
359.802	90.5
360.029	105.5
360.256	111.5
360.483	88.5
360.709	78.5
360.936	81.5
361.163	91.5
361.39	94.5
361.616	87.5
361.843	85.5
362.07	90.5
362.296	83.5
362.523	80.5
362.749	94.5
362.976	88.5
363.203	89.5
363.429	80.5
363.656	81.5
363.882	90.5
364.109	93.5
364.335	84.5
364.562	86.5
364.788	94.5
365.015	78.5
365.241	82.5
365.468	98.5
365.694	79.5
365.92	92.5
366.147	90.5
366.373	82.5
366.599	93.5
366.826	90.5
367.052	95.5
367.278	87.5
367.505	90.5
367.731	101.5
367.957	95.5
368.184	87.5
368.41	99.5
368.636	106.5
368.862	114.5
369.089	83.5
369.315	85.5
369.541	78.5
369.767	88.5
369.993	92.5
370.219	95.5
370.445	73.5
370.672	86.5
370.898	80.5
371.124	92.5
371.35	75.5
371.576	82.5
371.802	78.5
372.028	84.5
372.254	101.5
372.48	82.5
372.706	81.5
372.932	77.5
373.158	91.5
373.384	90.5
373.61	70.5
373.835	77.5
374.061	88.5
374.287	83.5
374.513	78.5
374.739	84.5
374.965	87.5
375.191	89.5
375.416	89.5
375.642	93.5
375.868	85.5
376.094	84.5
376.319	71.5
376.545	84.5
376.771	76.5
376.997	83.5
377.222	88.5
377.448	87.5
377.674	94.5
377.899	84.5
378.125	91.5
378.35	103.5
378.576	81.5
378.802	89.5
379.027	84.5
379.253	90.5
379.478	89.5
379.704	89.5
379.929	98.5
380.155	81.5
380.38	86.5
380.606	91.5
380.831	94.5
381.057	92.5
381.282	86.5
381.507	81.5
381.733	105.5
381.958	94.5
382.184	83.5
382.409	91.5
382.634	99.5
382.86	101.5
383.085	100.5
383.31	94.5
383.535	85.5
383.761	99.5
383.986	95.5
384.211	79.5
384.436	98.5
384.662	87.5
384.887	99.5
385.112	104.5
385.337	81.5
385.562	91.5
385.787	94.5
386.013	113.5
386.238	108.5
386.463	99.5
386.688	99.5
386.913	110.5
387.138	98.5
387.363	102.5
387.588	82.5
387.813	102.5
388.038	103.5
388.263	106.5
388.488	102.5
388.713	87.5
388.938	89.5
389.163	94.5
389.387	103.5
389.612	92.5
389.837	90.5
390.062	78.5
390.287	80.5
390.512	86.5
390.736	92.5
390.961	87.5
391.186	67.5
391.411	86.5
391.636	86.5
391.86	77.5
392.085	85.5
392.31	78.5
392.534	84.5
392.759	85.5
392.984	83.5
393.208	76.5
393.433	93.5
393.658	75.5
393.882	92.5
394.107	71.5
394.331	87.5
394.556	92.5
394.78	99.5
395.005	94.5
395.229	74.5
395.454	79.5
395.678	84.5
395.903	78.5
396.127	87.5
396.352	79.5
396.576	85.5
396.801	85.5
397.025	90.5
397.249	84.5
397.474	77.5
397.698	84.5
397.922	71.5
398.147	86.5
398.371	92.5
398.595	77.5
398.82	79.5
399.044	76.5
399.268	77.5
399.492	79.5
399.717	88.5
399.941	87.5
400.165	90.5
400.389	90.5
400.613	83.5
400.837	76.5
401.062	73.5
401.286	83.5
401.51	89.5
401.734	74.5
401.958	106.5
402.182	108.5
402.406	138.5
402.63	113.5
402.854	86.5
403.078	87.5
403.302	95.5
403.526	92.5
403.75	90.5
403.974	75.5
404.198	75.5
404.422	83.5
404.645	67.5
404.869	71.5
405.093	82.5
405.317	81.5
405.541	95.5
405.765	91.5
405.988	106.5
406.212	153.5
406.436	197.5
406.66	126.5
406.883	105.5
407.107	78.5
407.331	97.5
407.555	89.5
407.778	87.5
408.002	82.5
408.226	84.5
408.449	75.5
408.673	91.5
408.896	98.5
409.12	85.5
409.344	87.5
409.567	95.5
409.791	90.5
410.014	85.5
410.238	77.5
410.461	98.5
410.685	77.5
410.908	94.5
411.132	102.5
411.355	90.5
411.578	84.5
411.802	73.5
412.025	92.5
412.249	93.5
412.472	83.5
412.695	90.5
412.919	109.5
413.142	88.5
413.365	90.5
413.589	86.5
413.812	89.5
414.035	86.5
414.258	85.5
414.482	83.5
414.705	85.5
414.928	97.5
415.151	80.5
415.374	89.5
415.597	82.5
415.821	90.5
416.044	91.5
416.267	74.5
416.49	88.5
416.713	92.5
416.936	83.5
417.159	73.5
417.382	95.5
417.605	90.5
417.828	93.5
418.051	101.5
418.274	77.5
418.497	89.5
418.72	75.5
418.943	80.5
419.166	86.5
419.389	98.5
419.611	87.5
419.834	79.5
420.057	90.5
420.28	90.5
420.503	79.5
420.726	86.5
420.948	84.5
421.171	90.5
421.394	82.5
421.617	97.5
421.839	78.5
422.062	94.5
422.285	88.5
422.507	106.5
422.73	113.5
422.953	85.5
423.175	73.5
423.398	77.5
423.621	74.5
423.843	84.5
424.066	86.5
424.288	86.5
424.511	84.5
424.733	85.5
424.956	91.5
425.178	98.5
425.401	101.5
425.623	92.5
425.846	94.5
426.068	92.5
426.291	80.5
426.513	90.5
426.735	88.5
426.958	83.5
427.18	97.5
427.402	136.5
427.625	150.5
427.847	113.5
428.069	98.5
428.292	74.5
428.514	91.5
428.736	74.5
428.958	84.5
429.181	85.5
429.403	89.5
429.625	89.5
429.847	93.5
430.069	91.5
430.292	91.5
430.514	85.5
430.736	72.5
430.958	70.5
431.18	91.5
431.402	86.5
431.624	79.5
431.846	85.5
432.068	81.5
432.29	85.5
432.512	68.5
432.734	79.5
432.956	84.5
433.178	100.5
433.4	93.5
433.622	99.5
433.844	93.5
434.066	89.5
434.287	81.5
434.509	100.5
434.731	82.5
434.953	82.5
435.175	85.5
435.397	90.5
435.618	81.5
435.84	95.5
436.062	97.5
436.284	92.5
436.505	105.5
436.727	88.5
436.949	98.5
437.17	85.5
437.392	73.5
437.614	90.5
437.835	103.5
438.057	102.5
438.278	102.5
438.5	98.5
438.721	109.5
438.943	106.5
439.165	85.5
439.386	81.5
439.608	87.5
439.829	85.5
440.05	93.5
440.272	125.5
440.493	83.5
440.715	83.5
440.936	72.5
441.158	82.5
441.379	82.5
441.6	93.5
441.822	94.5
442.043	89.5
442.264	104.5
442.486	89.5
442.707	89.5
442.928	93.5
443.149	115.5
443.371	119.5
443.592	112.5
443.813	107.5
444.034	101.5
444.255	104.5
444.476	77.5
444.698	94.5
444.919	107.5
445.14	133.5
445.361	118.5
445.582	116.5
445.803	127.5
446.024	131.5
446.245	118.5
446.466	105.5
446.687	106.5
446.908	86.5
447.129	91.5
447.35	86.5
447.571	76.5
447.792	99.5
448.013	85.5
448.234	102.5
448.455	95.5
448.675	104.5
448.896	113.5
449.117	98.5
449.338	109.5
449.559	104.5
449.779	113.5
450	77.5
450.221	81.5
450.442	97.5
450.662	94.5
450.883	98.5
451.104	108.5
451.324	85.5
451.545	84.5
451.766	74.5
451.986	75.5
452.207	78.5
452.428	80.5
452.648	98.5
452.869	92.5
453.089	107.5
453.31	106.5
453.53	90.5
453.751	83.5
453.971	90.5
454.192	94.5
454.412	94.5
454.633	82.5
454.853	80.5
455.073	78.5
455.294	85.5
455.514	91.5
455.734	91.5
455.955	91.5
456.175	89.5
456.395	84.5
456.616	80.5
456.836	71.5
457.056	69.5
457.276	74.5
457.497	84.5
457.717	83.5
457.937	81.5
458.157	70.5
458.377	92.5
458.598	108.5
458.818	138.5
459.038	131.5
459.258	95.5
459.478	81.5
459.698	85.5
459.918	81.5
460.138	75.5
460.358	79.5
460.578	83.5
460.798	94.5
461.018	81.5
461.238	82.5
461.458	85.5
461.678	66.5
461.898	71.5
462.118	78.5
462.338	94.5
462.558	80.5
462.777	79.5
462.997	69.5
463.217	76.5
463.437	85.5
463.657	76.5
463.876	83.5
464.096	89.5
464.316	91.5
464.536	84.5
464.755	85.5
464.975	100.5
465.195	147.5
465.414	147.5
465.634	87.5
465.854	84.5
466.073	93.5
466.293	82.5
466.512	85.5
466.732	84.5
466.951	94.5
467.171	89.5
467.391	102.5
467.61	100.5
467.829	98.5
468.049	98.5
468.268	88.5
468.488	100.5
468.707	75.5
468.927	82.5
469.146	96.5
469.365	88.5
469.585	86.5
469.804	99.5
470.023	91.5
470.243	101.5
470.462	110.5
470.681	97.5
470.901	81.5
471.12	81.5
471.339	84.5
471.558	99.5
471.777	82.5
471.997	83.5
472.216	79.5
472.435	99.5
472.654	85.5
472.873	75.5
473.092	83.5
473.311	74.5
473.53	79.5
473.749	84.5
473.968	112.5
474.187	92.5
474.406	90.5
474.625	74.5
474.844	80.5
475.063	87.5
475.282	94.5
475.501	86.5
475.72	83.5
475.939	84.5
476.158	81.5
476.377	56.5
476.596	97.5
476.814	90.5
477.033	81.5
477.252	81.5
477.471	87.5
477.69	84.5
477.908	85.5
478.127	85.5
478.346	77.5
478.564	92.5
478.783	89.5
479.002	77.5
479.22	74.5
479.439	98.5
479.658	91.5
479.876	103.5
480.095	80.5
480.313	83.5
480.532	78.5
480.751	87.5
480.969	89.5
481.188	93.5
481.406	103.5
481.624	88.5
481.843	97.5
482.061	88.5
482.28	73.5
482.498	77.5
482.717	77.5
482.935	75.5
483.153	79.5
483.372	81.5
483.59	97.5
483.808	99.5
484.027	105.5
484.245	99.5
484.463	90.5
484.681	98.5
484.9	86.5
485.118	90.5
485.336	91.5
485.554	83.5
485.772	100.5
485.99	86.5
486.209	101.5
486.427	104.5
486.645	102.5
486.863	92.5
487.081	83.5
487.299	90.5
487.517	87.5
487.735	83.5
487.953	90.5
488.171	98.5
488.389	77.5
488.607	79.5
488.825	93.5
489.043	90.5
489.261	95.5
489.479	88.5
489.696	82.5
489.914	84.5
490.132	75.5
490.35	79.5
490.568	78.5
490.786	87.5
491.003	67.5
491.221	77.5
491.439	84.5
491.657	86.5
491.874	88.5
492.092	84.5
492.31	97.5
492.527	66.5
492.745	83.5
492.963	104.5
493.18	92.5
493.398	94.5
493.615	85.5
493.833	93.5
494.05	95.5
494.268	89.5
494.485	75.5
494.703	81.5
494.92	92.5
495.138	82.5
495.355	92.5
495.573	75.5
495.79	71.5
496.008	91.5
496.225	93.5
496.442	74.5
496.66	88.5
496.877	99.5
497.094	85.5
497.312	98.5
497.529	90.5
497.746	72.5
497.963	93.5
498.181	99.5
498.398	88.5
498.615	109.5
498.832	104.5
499.049	84.5
499.267	83.5
499.484	92.5
499.701	84.5
499.918	104.5
500.135	85.5
500.352	87.5
500.569	82.5
500.786	73.5
501.003	91.5
501.22	88.5
501.437	96.5
501.654	86.5
501.871	103.5
502.088	89.5
502.305	90.5
502.522	102.5
502.739	84.5
502.956	70.5
503.172	95.5
503.389	90.5
503.606	88.5
503.823	82.5
504.04	88.5
504.256	65.5
504.473	71.5
504.69	96.5
504.907	89.5
505.123	99.5
505.34	91.5
505.557	83.5
505.773	98.5
505.99	85.5
506.207	87.5
506.423	81.5
506.64	95.5
506.856	85.5
507.073	87.5
507.289	99.5
507.506	100.5
507.722	103.5
507.939	106.5
508.155	79.5
508.372	86.5
508.588	92.5
508.805	93.5
509.021	90.5
509.238	86.5
509.454	93.5
509.67	86.5
509.887	126.5
510.103	131.5
510.319	205.5
510.536	716.5
510.752	2201.5
510.968	603.5
511.184	144.5
511.401	111.5
511.617	89.5
511.833	92.5
512.049	83.5
512.265	82.5
512.481	94.5
512.698	90.5
512.914	103.5
513.13	91.5
513.346	85.5
513.562	81.5
513.778	84.5
513.994	98.5
514.21	100.5
514.426	110.5
514.642	125.5
514.858	117.5
515.074	157.5
515.29	408.5
515.506	1316.5
515.721	479.5
515.937	135.5
516.153	82.5
516.369	88.5
516.585	86.5
516.801	85.5
517.016	80.5
517.232	94.5
517.448	91.5
517.664	88.5
517.879	93.5
518.095	75.5
518.311	85.5
518.527	85.5
518.742	99.5
518.958	102.5
519.173	89.5
519.389	94.5
519.605	100.5
519.82	85.5
520.036	84.5
520.251	114.5
520.467	104.5
520.682	99.5
520.898	99.5
521.113	100.5
521.329	120.5
521.544	190.5
521.76	506.5
521.975	2170.5
522.19	1257.5
522.406	285.5
522.621	107.5
522.836	82.5
523.052	89.5
523.267	86.5
523.482	91.5
523.698	92.5
523.913	99.5
524.128	106.5
524.343	86.5
524.559	95.5
524.774	73.5
524.989	87.5
525.204	107.5
525.419	104.5
525.634	92.5
525.849	85.5
526.064	87.5
526.28	83.5
526.495	79.5
526.71	88.5
526.925	86.5
527.14	92.5
527.355	100.5
527.57	87.5
527.785	79.5
527.999	73.5
528.214	85.5
528.429	88.5
528.644	93.5
528.859	87.5
529.074	90.5
529.289	110.5
529.503	159.5
529.718	110.5
529.933	89.5
530.148	89.5
530.363	98.5
530.577	81.5
530.792	80.5
531.007	99.5
531.221	87.5
531.436	81.5
531.651	82.5
531.865	87.5
532.08	83.5
532.295	94.5
532.509	83.5
532.724	94.5
532.938	87.5
533.153	67.5
533.367	88.5
533.582	92.5
533.796	79.5
534.011	79.5
534.225	82.5
534.44	84.5
534.654	94.5
534.868	87.5
535.083	89.5
535.297	98.5
535.511	98.5
535.726	90.5
535.94	93.5
536.154	79.5
536.369	84.5
536.583	87.5
536.797	87.5
537.011	79.5
537.225	90.5
