Data from Uncirc_1998_H10_HRD10591_00096.txt Node
Date: Wed Jan 03 11:25:44 EST 2024
User: Yrep
Spectrometer: HR+D1059
Trigger mode: 1
Integration Time (sec): 1.000000E-1
Scans to average: 1
Electric dark correction enabled: true
Nonlinearity correction enabled: false
Boxcar width: 0
XAxis mode: Wavelengths
Number of Pixels in Spectrum: 2048
>>>>>Begin Spectral Data<<<<<
223.165	-23.81
223.4	-23.81
223.635	-23.81
223.869	-25.81
224.104	-19.81
224.338	-25.81
224.573	0.19
224.808	3.19
225.042	-5.81
225.277	-7.81
225.511	-0.81
225.746	-7.81
225.98	14.19
226.215	12.19
226.449	16.19
226.683	21.19
226.918	18.19
227.152	32.19
227.387	18.19
227.621	38.19
227.856	47.19
228.09	53.19
228.324	51.19
228.559	66.19
228.793	64.19
229.027	74.19
229.262	66.19
229.496	67.19
229.73	78.19
229.964	70.19
230.199	62.19
230.433	66.19
230.667	83.19
230.901	72.19
231.136	72.19
231.37	86.19
231.604	78.19
231.838	84.19
232.072	85.19
232.306	98.19
232.541	95.19
232.775	74.19
233.009	92.19
233.243	86.19
233.477	69.19
233.711	74.19
233.945	92.19
234.179	92.19
234.413	87.19
234.647	71.19
234.881	65.19
235.115	81.19
235.349	84.19
235.583	90.19
235.817	74.19
236.051	81.19
236.285	74.19
236.519	79.19
236.753	67.19
236.987	82.19
237.221	92.19
237.455	94.19
237.689	80.19
237.922	83.19
238.156	75.19
238.39	82.19
238.624	76.19
238.858	76.19
239.091	84.19
239.325	91.19
239.559	72.19
239.793	82.19
240.027	85.19
240.26	89.19
240.494	83.19
240.728	82.19
240.961	85.19
241.195	83.19
241.429	65.19
241.662	79.19
241.896	81.19
242.13	80.19
242.363	78.19
242.597	61.19
242.83	78.19
243.064	79.19
243.298	84.19
243.531	83.19
243.765	75.19
243.998	84.19
244.232	85.19
244.465	76.19
244.699	94.19
244.932	92.19
245.166	74.19
245.399	76.19
245.633	68.19
245.866	79.19
246.099	95.19
246.333	80.19
246.566	84.19
246.8	70.19
247.033	92.19
247.266	80.19
247.5	86.19
247.733	85.19
247.966	72.19
248.2	74.19
248.433	75.19
248.666	86.19
248.899	84.19
249.133	77.19
249.366	88.19
249.599	94.19
249.832	75.19
250.066	94.19
250.299	83.19
250.532	89.19
250.765	88.19
250.998	90.19
251.231	81.19
251.465	87.19
251.698	82.19
251.931	84.19
252.164	70.19
252.397	80.19
252.63	80.19
252.863	85.19
253.096	80.19
253.329	81.19
253.562	80.19
253.795	66.19
254.028	92.19
254.261	81.19
254.494	72.19
254.727	92.19
254.96	82.19
255.193	72.19
255.426	81.19
255.659	77.19
255.892	72.19
256.124	76.19
256.357	79.19
256.59	81.19
256.823	76.19
257.056	78.19
257.289	73.19
257.521	81.19
257.754	79.19
257.987	74.19
258.22	77.19
258.452	83.19
258.685	85.19
258.918	92.19
259.151	79.19
259.383	68.19
259.616	77.19
259.849	78.19
260.081	90.19
260.314	88.19
260.547	82.19
260.779	94.19
261.012	89.19
261.244	89.19
261.477	74.19
261.71	90.19
261.942	105.19
262.175	110.19
262.407	91.19
262.64	90.19
262.872	84.19
263.105	76.19
263.337	86.19
263.57	76.19
263.802	93.19
264.035	86.19
264.267	82.19
264.499	88.19
264.732	101.19
264.964	93.19
265.197	86.19
265.429	86.19
265.661	91.19
265.894	80.19
266.126	84.19
266.358	95.19
266.591	76.19
266.823	75.19
267.055	85.19
267.287	94.19
267.52	86.19
267.752	98.19
267.984	70.19
268.216	83.19
268.448	86.19
268.681	77.19
268.913	91.19
269.145	65.19
269.377	86.19
269.609	78.19
269.841	82.19
270.073	92.19
270.306	88.19
270.538	87.19
270.77	72.19
271.002	74.19
271.234	81.19
271.466	86.19
271.698	91.19
271.93	84.19
272.162	91.19
272.394	79.19
272.626	97.19
272.858	90.19
273.09	73.19
273.322	95.19
273.553	76.19
273.785	86.19
274.017	73.19
274.249	86.19
274.481	88.19
274.713	78.19
274.945	86.19
275.176	78.19
275.408	96.19
275.64	96.19
275.872	102.19
276.104	95.19
276.335	93.19
276.567	81.19
276.799	114.19
277.031	86.19
277.262	108.19
277.494	79.19
277.726	97.19
277.957	77.19
278.189	90.19
278.421	96.19
278.652	98.19
278.884	84.19
279.115	81.19
279.347	93.19
279.579	96.19
279.81	81.19
280.042	86.19
280.273	87.19
280.505	88.19
280.736	76.19
280.968	94.19
281.199	98.19
281.431	86.19
281.662	102.19
281.894	101.19
282.125	84.19
282.356	104.19
282.588	110.19
282.819	113.19
283.051	94.19
283.282	88.19
283.513	95.19
283.745	88.19
283.976	96.19
284.207	84.19
284.439	88.19
284.67	80.19
284.901	93.19
285.132	98.19
285.364	94.19
285.595	98.19
285.826	87.19
286.057	94.19
286.288	68.19
286.52	89.19
286.751	75.19
286.982	89.19
287.213	89.19
287.444	97.19
287.675	81.19
287.906	91.19
288.138	75.19
288.369	89.19
288.6	87.19
288.831	88.19
289.062	92.19
289.293	81.19
289.524	85.19
289.755	90.19
289.986	93.19
290.217	93.19
290.448	89.19
290.679	79.19
290.91	98.19
291.141	73.19
291.371	73.19
291.602	91.19
291.833	96.19
292.064	89.19
292.295	89.19
292.526	85.19
292.757	102.19
292.987	90.19
293.218	83.19
293.449	88.19
293.68	97.19
293.91	93.19
294.141	86.19
294.372	76.19
294.603	103.19
294.833	82.19
295.064	90.19
295.295	93.19
295.525	106.19
295.756	93.19
295.987	94.19
296.217	131.19
296.448	126.19
296.679	95.19
296.909	91.19
297.14	90.19
297.37	101.19
297.601	93.19
297.831	90.19
298.062	84.19
298.292	89.19
298.523	98.19
298.753	80.19
298.984	89.19
299.214	78.19
299.445	82.19
299.675	80.19
299.905	94.19
300.136	100.19
300.366	80.19
300.597	110.19
300.827	90.19
301.057	93.19
301.288	105.19
301.518	102.19
301.748	85.19
301.979	112.19
302.209	89.19
302.439	84.19
302.669	104.19
302.9	92.19
303.13	89.19
303.36	94.19
303.59	106.19
303.82	103.19
304.051	92.19
304.281	89.19
304.511	102.19
304.741	88.19
304.971	85.19
305.201	88.19
305.431	86.19
305.661	94.19
305.891	77.19
306.121	88.19
306.352	90.19
306.582	102.19
306.812	92.19
307.042	85.19
307.272	94.19
307.502	101.19
307.731	102.19
307.961	101.19
308.191	100.19
308.421	97.19
308.651	92.19
308.881	102.19
309.111	107.19
309.341	98.19
309.571	86.19
309.8	91.19
310.03	91.19
310.26	109.19
310.49	92.19
310.72	90.19
310.949	100.19
311.179	98.19
311.409	97.19
311.639	96.19
311.868	93.19
312.098	94.19
312.328	98.19
312.557	109.19
312.787	101.19
313.017	100.19
313.246	85.19
313.476	100.19
313.706	80.19
313.935	88.19
314.165	96.19
314.394	96.19
314.624	85.19
314.853	102.19
315.083	90.19
315.312	85.19
315.542	90.19
315.771	100.19
316.001	94.19
316.23	92.19
316.46	80.19
316.689	90.19
316.919	106.19
317.148	98.19
317.377	89.19
317.607	101.19
317.836	100.19
318.065	101.19
318.295	94.19
318.524	74.19
318.753	111.19
318.983	106.19
319.212	90.19
319.441	110.19
319.67	108.19
319.9	101.19
320.129	103.19
320.358	96.19
320.587	98.19
320.816	106.19
321.046	91.19
321.275	84.19
321.504	94.19
321.733	98.19
321.962	96.19
322.191	100.19
322.42	116.19
322.649	106.19
322.878	114.19
323.108	105.19
323.337	120.19
323.566	137.19
323.795	136.19
324.024	183.19
324.253	342.19
324.482	746.19
324.71	1480.19
324.939	1948.19
325.168	702.19
325.397	228.19
325.626	140.19
325.855	127.19
326.084	121.19
326.313	130.19
326.542	160.19
326.77	214.19
326.999	423.19
327.228	827.19
327.457	1498.19
327.686	1202.19
327.914	317.19
328.143	184.19
328.372	152.19
328.6	127.19
328.829	112.19
329.058	123.19
329.287	122.19
329.515	109.19
329.744	97.19
329.972	94.19
330.201	108.19
330.43	105.19
330.658	116.19
330.887	135.19
331.115	110.19
331.344	105.19
331.572	92.19
331.801	92.19
332.03	105.19
332.258	104.19
332.486	95.19
332.715	92.19
332.943	99.19
333.172	106.19
333.4	93.19
333.629	93.19
333.857	100.19
334.085	106.19
334.314	103.19
334.542	110.19
334.771	102.19
334.999	98.19
335.227	85.19
335.455	88.19
335.684	107.19
335.912	101.19
336.14	96.19
336.369	83.19
336.597	106.19
336.825	93.19
337.053	110.19
337.281	80.19
337.51	86.19
337.738	89.19
337.966	106.19
338.194	98.19
338.422	103.19
338.65	93.19
338.878	96.19
339.106	97.19
339.334	101.19
339.562	92.19
339.79	84.19
340.018	91.19
340.246	99.19
340.474	86.19
340.702	97.19
340.93	86.19
341.158	97.19
341.386	99.19
341.614	97.19
341.842	102.19
342.07	92.19
342.298	89.19
342.526	101.19
342.754	77.19
342.981	87.19
343.209	80.19
343.437	109.19
343.665	91.19
343.893	92.19
344.12	90.19
344.348	91.19
344.576	99.19
344.804	103.19
345.031	105.19
345.259	89.19
345.487	96.19
345.714	82.19
345.942	99.19
346.17	90.19
346.397	83.19
346.625	92.19
346.853	95.19
347.08	103.19
347.308	88.19
347.535	105.19
347.763	101.19
347.99	90.19
348.218	118.19
348.445	109.19
348.673	89.19
348.9	105.19
349.128	100.19
349.355	88.19
349.583	101.19
349.81	104.19
350.037	97.19
350.265	105.19
350.492	92.19
350.72	85.19
350.947	101.19
351.174	105.19
351.402	113.19
351.629	105.19
351.856	102.19
352.083	96.19
352.311	101.19
352.538	105.19
352.765	117.19
352.992	114.19
353.22	105.19
353.447	106.19
353.674	111.19
353.901	109.19
354.128	91.19
354.355	99.19
354.583	90.19
354.81	108.19
355.037	106.19
355.264	106.19
355.491	96.19
355.718	89.19
355.945	92.19
356.172	82.19
356.399	103.19
356.626	88.19
356.853	90.19
357.08	97.19
357.307	109.19
357.534	93.19
357.761	99.19
357.988	105.19
358.215	84.19
358.441	95.19
358.668	98.19
358.895	106.19
359.122	90.19
359.349	91.19
359.576	102.19
359.802	81.19
360.029	102.19
360.256	89.19
360.483	109.19
360.709	89.19
360.936	88.19
361.163	100.19
361.39	81.19
361.616	94.19
361.843	77.19
362.07	97.19
362.296	103.19
362.523	104.19
362.749	102.19
362.976	102.19
363.203	90.19
363.429	86.19
363.656	96.19
363.882	107.19
364.109	95.19
364.335	108.19
364.562	95.19
364.788	82.19
365.015	91.19
365.241	102.19
365.468	110.19
365.694	96.19
365.92	110.19
366.147	98.19
366.373	104.19
366.599	88.19
366.826	80.19
367.052	96.19
367.278	98.19
367.505	96.19
367.731	89.19
367.957	93.19
368.184	89.19
368.41	91.19
368.636	113.19
368.862	113.19
369.089	105.19
369.315	86.19
369.541	107.19
369.767	92.19
369.993	90.19
370.219	84.19
370.445	96.19
370.672	89.19
370.898	89.19
371.124	90.19
371.35	72.19
371.576	84.19
371.802	98.19
372.028	90.19
372.254	100.19
372.48	92.19
372.706	82.19
372.932	101.19
373.158	89.19
373.384	96.19
373.61	105.19
373.835	92.19
374.061	79.19
374.287	94.19
374.513	92.19
374.739	95.19
374.965	92.19
375.191	90.19
375.416	90.19
375.642	96.19
375.868	83.19
376.094	91.19
376.319	101.19
376.545	98.19
376.771	91.19
376.997	86.19
377.222	101.19
377.448	101.19
377.674	79.19
377.899	95.19
378.125	98.19
378.35	82.19
378.576	90.19
378.802	81.19
379.027	84.19
379.253	93.19
379.478	100.19
379.704	88.19
379.929	99.19
380.155	104.19
380.38	89.19
380.606	92.19
380.831	109.19
381.057	101.19
381.282	104.19
381.507	94.19
381.733	100.19
381.958	85.19
382.184	92.19
382.409	108.19
382.634	111.19
382.86	99.19
383.085	102.19
383.31	98.19
383.535	104.19
383.761	104.19
383.986	94.19
384.211	97.19
384.436	102.19
384.662	92.19
384.887	108.19
385.112	96.19
385.337	96.19
385.562	85.19
385.787	90.19
386.013	116.19
386.238	118.19
386.463	102.19
386.688	109.19
386.913	96.19
387.138	106.19
387.363	86.19
387.588	105.19
387.813	82.19
388.038	101.19
388.263	98.19
388.488	112.19
388.713	113.19
388.938	92.19
389.163	98.19
389.387	103.19
389.612	102.19
389.837	92.19
390.062	95.19
390.287	100.19
390.512	96.19
390.736	89.19
390.961	96.19
391.186	103.19
391.411	100.19
391.636	95.19
391.86	90.19
392.085	82.19
392.31	100.19
392.534	86.19
392.759	95.19
392.984	92.19
393.208	81.19
393.433	99.19
393.658	82.19
393.882	94.19
394.107	99.19
394.331	85.19
394.556	82.19
394.78	89.19
395.005	104.19
395.229	93.19
395.454	94.19
395.678	82.19
395.903	81.19
396.127	90.19
396.352	84.19
396.576	89.19
396.801	96.19
397.025	99.19
397.249	93.19
397.474	91.19
397.698	94.19
397.922	92.19
398.147	101.19
398.371	108.19
398.595	93.19
398.82	101.19
399.044	89.19
399.268	85.19
399.492	96.19
399.717	97.19
399.941	84.19
400.165	88.19
400.389	90.19
400.613	96.19
400.837	87.19
401.062	83.19
401.286	104.19
401.51	82.19
401.734	88.19
401.958	105.19
402.182	114.19
402.406	146.19
402.63	108.19
402.854	99.19
403.078	86.19
403.302	89.19
403.526	92.19
403.75	96.19
403.974	94.19
404.198	98.19
404.422	88.19
404.645	90.19
404.869	91.19
405.093	89.19
405.317	98.19
405.541	107.19
405.765	106.19
405.988	108.19
406.212	156.19
406.436	209.19
406.66	128.19
406.883	94.19
407.107	91.19
407.331	100.19
407.555	83.19
407.778	107.19
408.002	106.19
408.226	96.19
408.449	79.19
408.673	93.19
408.896	91.19
409.12	82.19
409.344	92.19
409.567	95.19
409.791	102.19
410.014	104.19
410.238	92.19
410.461	112.19
410.685	109.19
410.908	109.19
411.132	108.19
411.355	92.19
411.578	93.19
411.802	105.19
412.025	115.19
412.249	101.19
412.472	96.19
412.695	99.19
412.919	91.19
413.142	96.19
413.365	99.19
413.589	106.19
413.812	86.19
414.035	107.19
414.258	78.19
414.482	93.19
414.705	90.19
414.928	93.19
415.151	85.19
415.374	97.19
415.597	98.19
415.821	96.19
416.044	85.19
416.267	85.19
416.49	91.19
416.713	98.19
416.936	94.19
417.159	83.19
417.382	94.19
417.605	98.19
417.828	100.19
418.051	97.19
418.274	82.19
418.497	82.19
418.72	98.19
418.943	100.19
419.166	78.19
419.389	87.19
419.611	109.19
419.834	100.19
420.057	94.19
420.28	98.19
420.503	99.19
420.726	91.19
420.948	95.19
421.171	99.19
421.394	98.19
421.617	103.19
421.839	98.19
422.062	84.19
422.285	85.19
422.507	115.19
422.73	101.19
422.953	84.19
423.175	77.19
423.398	96.19
423.621	92.19
423.843	103.19
424.066	82.19
424.288	88.19
424.511	95.19
424.733	109.19
424.956	107.19
425.178	95.19
425.401	108.19
425.623	89.19
425.846	99.19
426.068	88.19
426.291	102.19
426.513	91.19
426.735	76.19
426.958	97.19
427.18	97.19
427.402	117.19
427.625	152.19
427.847	113.19
428.069	113.19
428.292	93.19
428.514	81.19
428.736	88.19
428.958	88.19
429.181	91.19
429.403	81.19
429.625	83.19
429.847	96.19
430.069	108.19
430.292	86.19
430.514	105.19
430.736	81.19
430.958	90.19
431.18	84.19
431.402	84.19
431.624	89.19
431.846	95.19
432.068	89.19
432.29	97.19
432.512	95.19
432.734	77.19
432.956	97.19
433.178	96.19
433.4	100.19
433.622	91.19
433.844	96.19
434.066	86.19
434.287	100.19
434.509	108.19
434.731	101.19
434.953	84.19
435.175	89.19
435.397	84.19
435.618	100.19
435.84	116.19
436.062	123.19
436.284	90.19
436.505	84.19
436.727	95.19
436.949	95.19
437.17	86.19
437.392	94.19
437.614	99.19
437.835	106.19
438.057	111.19
438.278	106.19
438.5	109.19
438.721	112.19
438.943	109.19
439.165	108.19
439.386	94.19
439.608	104.19
439.829	92.19
440.05	120.19
440.272	141.19
440.493	88.19
440.715	94.19
440.936	86.19
441.158	85.19
441.379	99.19
441.6	99.19
441.822	76.19
442.043	83.19
442.264	95.19
442.486	96.19
442.707	91.19
442.928	95.19
443.149	128.19
443.371	134.19
443.592	111.19
443.813	122.19
444.034	108.19
444.255	99.19
444.476	103.19
444.698	100.19
444.919	81.19
445.14	141.19
445.361	120.19
445.582	106.19
445.803	134.19
446.024	133.19
446.245	129.19
446.466	127.19
446.687	90.19
446.908	96.19
447.129	95.19
447.35	90.19
447.571	93.19
447.792	93.19
448.013	98.19
448.234	89.19
448.455	102.19
448.675	107.19
448.896	115.19
449.117	99.19
449.338	108.19
449.559	113.19
449.779	127.19
450	95.19
450.221	91.19
450.442	91.19
450.662	94.19
450.883	114.19
451.104	105.19
451.324	89.19
451.545	91.19
451.766	80.19
451.986	80.19
452.207	95.19
452.428	100.19
452.648	104.19
452.869	97.19
453.089	106.19
453.31	115.19
453.53	89.19
453.751	108.19
453.971	94.19
454.192	110.19
454.412	87.19
454.633	85.19
454.853	103.19
455.073	79.19
455.294	92.19
455.514	90.19
455.734	78.19
455.955	95.19
456.175	79.19
456.395	82.19
456.616	91.19
456.836	82.19
457.056	90.19
457.276	79.19
457.497	73.19
457.717	89.19
457.937	91.19
458.157	99.19
458.377	84.19
458.598	116.19
458.818	144.19
459.038	162.19
459.258	130.19
459.478	86.19
459.698	84.19
459.918	88.19
460.138	81.19
460.358	104.19
460.578	85.19
460.798	92.19
461.018	93.19
461.238	94.19
461.458	81.19
461.678	92.19
461.898	96.19
462.118	91.19
462.338	82.19
462.558	96.19
462.777	92.19
462.997	96.19
463.217	84.19
463.437	91.19
463.657	92.19
463.876	95.19
464.096	89.19
464.316	84.19
464.536	96.19
464.755	98.19
464.975	99.19
465.195	154.19
465.414	150.19
465.634	94.19
465.854	87.19
466.073	97.19
466.293	86.19
466.512	98.19
466.732	79.19
466.951	103.19
467.171	90.19
467.391	96.19
467.61	107.19
467.829	98.19
468.049	82.19
468.268	96.19
468.488	89.19
468.707	94.19
468.927	71.19
469.146	77.19
469.365	97.19
469.585	98.19
469.804	103.19
470.023	99.19
470.243	106.19
470.462	104.19
470.681	111.19
470.901	100.19
471.12	85.19
471.339	101.19
471.558	89.19
471.777	82.19
471.997	90.19
472.216	97.19
472.435	108.19
472.654	97.19
472.873	86.19
473.092	79.19
473.311	87.19
473.53	94.19
473.749	92.19
473.968	102.19
474.187	117.19
474.406	92.19
474.625	92.19
474.844	88.19
475.063	83.19
475.282	93.19
475.501	97.19
475.72	97.19
475.939	90.19
476.158	88.19
476.377	97.19
476.596	100.19
476.814	102.19
477.033	90.19
477.252	100.19
477.471	86.19
477.69	85.19
477.908	92.19
478.127	95.19
478.346	97.19
478.564	85.19
478.783	85.19
479.002	97.19
479.22	105.19
479.439	112.19
479.658	100.19
479.876	91.19
480.095	90.19
480.313	88.19
480.532	92.19
480.751	92.19
480.969	107.19
481.188	109.19
481.406	113.19
481.624	96.19
481.843	89.19
482.061	100.19
482.28	89.19
482.498	79.19
482.717	91.19
482.935	87.19
483.153	83.19
483.372	94.19
483.59	110.19
483.808	93.19
484.027	96.19
484.245	86.19
484.463	104.19
484.681	104.19
484.9	93.19
485.118	94.19
485.336	101.19
485.554	94.19
485.772	107.19
485.99	115.19
486.209	104.19
486.427	99.19
486.645	112.19
486.863	112.19
487.081	91.19
487.299	91.19
487.517	92.19
487.735	91.19
487.953	102.19
488.171	89.19
488.389	89.19
488.607	117.19
488.825	89.19
489.043	98.19
489.261	97.19
489.479	108.19
489.696	101.19
489.914	89.19
490.132	100.19
490.35	85.19
490.568	85.19
490.786	97.19
491.003	88.19
491.221	88.19
491.439	87.19
491.657	96.19
491.874	85.19
492.092	98.19
492.31	93.19
492.527	85.19
492.745	93.19
492.963	97.19
493.18	95.19
493.398	99.19
493.615	99.19
493.833	85.19
494.05	113.19
494.268	86.19
494.485	88.19
494.703	88.19
494.92	81.19
495.138	84.19
495.355	79.19
495.573	98.19
495.79	96.19
496.008	105.19
496.225	90.19
496.442	92.19
496.66	96.19
496.877	89.19
497.094	98.19
497.312	97.19
497.529	92.19
497.746	85.19
497.963	101.19
498.181	99.19
498.398	85.19
498.615	118.19
498.832	98.19
499.049	91.19
499.267	95.19
499.484	97.19
499.701	88.19
499.918	92.19
500.135	97.19
500.352	88.19
500.569	85.19
500.786	106.19
501.003	86.19
501.22	88.19
501.437	91.19
501.654	99.19
501.871	99.19
502.088	102.19
502.305	82.19
502.522	87.19
502.739	96.19
502.956	100.19
503.172	89.19
503.389	98.19
503.606	94.19
503.823	96.19
504.04	78.19
504.256	98.19
504.473	101.19
504.69	100.19
504.907	98.19
505.123	97.19
505.34	83.19
505.557	80.19
505.773	105.19
505.99	91.19
506.207	99.19
506.423	91.19
506.64	91.19
506.856	89.19
507.073	95.19
507.289	99.19
507.506	98.19
507.722	99.19
507.939	101.19
508.155	98.19
508.372	102.19
508.588	106.19
508.805	91.19
509.021	94.19
509.238	96.19
509.454	101.19
509.67	93.19
509.887	117.19
510.103	133.19
510.319	201.19
510.536	703.19
510.752	2132.19
510.968	608.19
511.184	147.19
511.401	116.19
511.617	102.19
511.833	95.19
512.049	88.19
512.265	86.19
512.481	94.19
512.698	105.19
512.914	87.19
513.13	94.19
513.346	90.19
513.562	103.19
513.778	102.19
513.994	98.19
514.21	95.19
514.426	101.19
514.642	116.19
514.858	124.19
515.074	143.19
