Data from Uncirc_1998_H10_HRD10591_00088.txt Node
Date: Wed Jan 03 11:25:42 EST 2024
User: Yrep
Spectrometer: HR+D1059
Trigger mode: 1
Integration Time (sec): 1.000000E-1
Scans to average: 1
Electric dark correction enabled: true
Nonlinearity correction enabled: false
Boxcar width: 0
XAxis mode: Wavelengths
Number of Pixels in Spectrum: 2048
>>>>>Begin Spectral Data<<<<<
223.165	-20.38
223.4	-20.38
223.635	-20.38
223.869	-15.38
224.104	-16.38
224.338	-18.38
224.573	-14.38
224.808	-5.38
225.042	-4.38
225.277	-14.38
225.511	7.62
225.746	4.62
225.98	1.62
226.215	9.62
226.449	21.62
226.683	21.62
226.918	19.62
227.152	22.62
227.387	23.62
227.621	38.62
227.856	38.62
228.09	51.62
228.324	50.62
228.559	53.62
228.793	64.62
229.027	51.62
229.262	66.62
229.496	75.62
229.73	73.62
229.964	83.62
230.199	74.62
230.433	74.62
230.667	85.62
230.901	76.62
231.136	59.62
231.37	85.62
231.604	83.62
231.838	96.62
232.072	76.62
232.306	91.62
232.541	69.62
232.775	78.62
233.009	84.62
233.243	69.62
233.477	78.62
233.711	75.62
233.945	78.62
234.179	75.62
234.413	81.62
234.647	59.62
234.881	86.62
235.115	80.62
235.349	72.62
235.583	71.62
235.817	84.62
236.051	80.62
236.285	98.62
236.519	86.62
236.753	92.62
236.987	92.62
237.221	93.62
237.455	82.62
237.689	69.62
237.922	80.62
238.156	81.62
238.39	75.62
238.624	79.62
238.858	72.62
239.091	64.62
239.325	82.62
239.559	68.62
239.793	80.62
240.027	89.62
240.26	80.62
240.494	79.62
240.728	75.62
240.961	78.62
241.195	82.62
241.429	83.62
241.662	71.62
241.896	73.62
242.13	81.62
242.363	71.62
242.597	66.62
242.83	79.62
243.064	86.62
243.298	69.62
243.531	95.62
243.765	90.62
243.998	77.62
244.232	75.62
244.465	87.62
244.699	77.62
244.932	85.62
245.166	76.62
245.399	77.62
245.633	81.62
245.866	78.62
246.099	66.62
246.333	98.62
246.566	83.62
246.8	90.62
247.033	75.62
247.266	87.62
247.5	74.62
247.733	79.62
247.966	70.62
248.2	62.62
248.433	65.62
248.666	78.62
248.899	77.62
249.133	79.62
249.366	104.62
249.599	98.62
249.832	73.62
250.066	87.62
250.299	71.62
250.532	72.62
250.765	82.62
250.998	62.62
251.231	73.62
251.465	82.62
251.698	87.62
251.931	80.62
252.164	85.62
252.397	81.62
252.63	65.62
252.863	89.62
253.096	69.62
253.329	86.62
253.562	69.62
253.795	81.62
254.028	78.62
254.261	86.62
254.494	71.62
254.727	80.62
254.96	76.62
255.193	85.62
255.426	71.62
255.659	58.62
255.892	86.62
256.124	77.62
256.357	82.62
256.59	86.62
256.823	81.62
257.056	73.62
257.289	77.62
257.521	88.62
257.754	77.62
257.987	80.62
258.22	89.62
258.452	85.62
258.685	90.62
258.918	56.62
259.151	80.62
259.383	88.62
259.616	79.62
259.849	75.62
260.081	76.62
260.314	77.62
260.547	77.62
260.779	81.62
261.012	90.62
261.244	79.62
261.477	80.62
261.71	91.62
261.942	105.62
262.175	103.62
262.407	81.62
262.64	89.62
262.872	77.62
263.105	65.62
263.337	91.62
263.57	80.62
263.802	80.62
264.035	88.62
264.267	73.62
264.499	79.62
264.732	94.62
264.964	83.62
265.197	71.62
265.429	84.62
265.661	82.62
265.894	73.62
266.126	81.62
266.358	94.62
266.591	65.62
266.823	92.62
267.055	93.62
267.287	75.62
267.52	81.62
267.752	75.62
267.984	88.62
268.216	95.62
268.448	77.62
268.681	92.62
268.913	89.62
269.145	84.62
269.377	86.62
269.609	74.62
269.841	74.62
270.073	77.62
270.306	89.62
270.538	82.62
270.77	86.62
271.002	88.62
271.234	72.62
271.466	76.62
271.698	90.62
271.93	79.62
272.162	84.62
272.394	93.62
272.626	82.62
272.858	73.62
273.09	81.62
273.322	85.62
273.553	83.62
273.785	98.62
274.017	82.62
274.249	67.62
274.481	82.62
274.713	83.62
274.945	79.62
275.176	90.62
275.408	95.62
275.64	97.62
275.872	91.62
276.104	97.62
276.335	85.62
276.567	103.62
276.799	112.62
277.031	107.62
277.262	85.62
277.494	72.62
277.726	84.62
277.957	78.62
278.189	95.62
278.421	82.62
278.652	76.62
278.884	80.62
279.115	70.62
279.347	87.62
279.579	78.62
279.81	76.62
280.042	80.62
280.273	86.62
280.505	79.62
280.736	88.62
280.968	85.62
281.199	92.62
281.431	78.62
281.662	99.62
281.894	99.62
282.125	96.62
282.356	104.62
282.588	123.62
282.819	94.62
283.051	89.62
283.282	92.62
283.513	74.62
283.745	94.62
283.976	75.62
284.207	92.62
284.439	82.62
284.67	98.62
284.901	65.62
285.132	90.62
285.364	81.62
285.595	94.62
285.826	82.62
286.057	96.62
286.288	80.62
286.52	86.62
286.751	92.62
286.982	92.62
287.213	80.62
287.444	85.62
287.675	85.62
287.906	90.62
288.138	90.62
288.369	97.62
288.6	96.62
288.831	82.62
289.062	94.62
289.293	95.62
289.524	86.62
289.755	93.62
289.986	93.62
290.217	102.62
290.448	93.62
290.679	86.62
290.91	95.62
291.141	83.62
291.371	78.62
291.602	87.62
291.833	75.62
292.064	95.62
292.295	87.62
292.526	92.62
292.757	74.62
292.987	86.62
293.218	97.62
293.449	98.62
293.68	90.62
293.91	83.62
294.141	89.62
294.372	75.62
294.603	76.62
294.833	77.62
295.064	88.62
295.295	89.62
295.525	79.62
295.756	84.62
295.987	125.62
296.217	129.62
296.448	121.62
296.679	79.62
296.909	81.62
297.14	81.62
297.37	79.62
297.601	86.62
297.831	93.62
298.062	95.62
298.292	99.62
298.523	114.62
298.753	89.62
298.984	82.62
299.214	89.62
299.445	95.62
299.675	102.62
299.905	96.62
300.136	87.62
300.366	88.62
300.597	83.62
300.827	90.62
301.057	99.62
301.288	108.62
301.518	85.62
301.748	91.62
301.979	97.62
302.209	81.62
302.439	73.62
302.669	70.62
302.9	87.62
303.13	91.62
303.36	95.62
303.59	99.62
303.82	99.62
304.051	87.62
304.281	96.62
304.511	88.62
304.741	85.62
304.971	81.62
305.201	97.62
305.431	86.62
305.661	83.62
305.891	90.62
306.121	99.62
306.352	99.62
306.582	94.62
306.812	103.62
307.042	80.62
307.272	89.62
307.502	89.62
307.731	97.62
307.961	101.62
308.191	84.62
308.421	95.62
308.651	95.62
308.881	112.62
309.111	101.62
309.341	94.62
309.571	93.62
309.8	99.62
310.03	73.62
310.26	98.62
310.49	81.62
310.72	100.62
310.949	103.62
311.179	106.62
311.409	93.62
311.639	96.62
311.868	81.62
312.098	104.62
312.328	89.62
312.557	93.62
312.787	104.62
313.017	99.62
313.246	106.62
313.476	96.62
313.706	104.62
313.935	97.62
314.165	96.62
314.394	103.62
314.624	105.62
314.853	104.62
315.083	80.62
315.312	93.62
315.542	96.62
315.771	92.62
316.001	92.62
316.23	102.62
316.46	94.62
316.689	90.62
316.919	87.62
317.148	101.62
317.377	89.62
317.607	95.62
317.836	88.62
318.065	91.62
318.295	93.62
318.524	94.62
318.753	90.62
318.983	94.62
319.212	108.62
319.441	101.62
319.67	106.62
319.9	98.62
320.129	86.62
320.358	82.62
320.587	87.62
320.816	100.62
321.046	108.62
321.275	92.62
321.504	107.62
321.733	99.62
321.962	81.62
322.191	92.62
322.42	96.62
322.649	102.62
322.878	123.62
323.108	118.62
323.337	128.62
323.566	122.62
323.795	151.62
324.024	196.62
324.253	352.62
324.482	758.62
324.71	1541.62
324.939	2024.62
325.168	724.62
325.397	224.62
325.626	126.62
325.855	114.62
326.084	119.62
326.313	130.62
326.542	141.62
326.77	213.62
326.999	427.62
327.228	871.62
327.457	1558.62
327.686	1233.62
327.914	347.62
328.143	183.62
328.372	152.62
328.6	121.62
328.829	117.62
329.058	119.62
329.287	110.62
329.515	101.62
329.744	102.62
329.972	95.62
330.201	91.62
330.43	98.62
330.658	118.62
330.887	118.62
331.115	113.62
331.344	90.62
331.572	97.62
331.801	108.62
332.03	104.62
332.258	92.62
332.486	91.62
332.715	98.62
332.943	96.62
333.172	108.62
333.4	97.62
333.629	90.62
333.857	98.62
334.085	107.62
334.314	94.62
334.542	95.62
334.771	94.62
334.999	88.62
335.227	98.62
335.455	94.62
335.684	103.62
335.912	97.62
336.14	94.62
336.369	96.62
336.597	109.62
336.825	95.62
337.053	100.62
337.281	96.62
337.51	97.62
337.738	94.62
337.966	85.62
338.194	107.62
338.422	103.62
338.65	85.62
338.878	71.62
339.106	85.62
339.334	100.62
339.562	89.62
339.79	83.62
340.018	86.62
340.246	94.62
340.474	96.62
340.702	96.62
340.93	102.62
341.158	89.62
341.386	103.62
341.614	78.62
341.842	108.62
342.07	104.62
342.298	91.62
342.526	86.62
342.754	91.62
342.981	94.62
343.209	87.62
343.437	109.62
343.665	78.62
343.893	83.62
344.12	94.62
344.348	84.62
344.576	91.62
344.804	96.62
345.031	97.62
345.259	100.62
345.487	92.62
345.714	98.62
345.942	98.62
346.17	105.62
346.397	93.62
346.625	91.62
346.853	85.62
347.08	91.62
347.308	99.62
347.535	104.62
347.763	97.62
347.99	112.62
348.218	110.62
348.445	105.62
348.673	82.62
348.9	98.62
349.128	90.62
349.355	98.62
349.583	94.62
349.81	103.62
350.037	74.62
350.265	101.62
350.492	85.62
350.72	103.62
350.947	94.62
351.174	106.62
351.402	100.62
351.629	97.62
351.856	87.62
352.083	96.62
352.311	107.62
352.538	106.62
352.765	111.62
352.992	112.62
353.22	101.62
353.447	117.62
353.674	90.62
353.901	105.62
354.128	106.62
354.355	95.62
354.583	103.62
354.81	92.62
355.037	100.62
355.264	96.62
355.491	94.62
355.718	99.62
355.945	106.62
356.172	90.62
356.399	90.62
356.626	85.62
356.853	97.62
357.08	91.62
357.307	88.62
357.534	73.62
357.761	87.62
357.988	104.62
358.215	105.62
358.441	95.62
358.668	95.62
358.895	96.62
359.122	85.62
359.349	74.62
359.576	95.62
359.802	97.62
360.029	93.62
360.256	106.62
360.483	100.62
360.709	88.62
360.936	92.62
361.163	104.62
361.39	90.62
361.616	84.62
361.843	90.62
362.07	100.62
362.296	96.62
362.523	80.62
362.749	100.62
362.976	101.62
363.203	87.62
363.429	104.62
363.656	94.62
363.882	85.62
364.109	91.62
364.335	100.62
364.562	81.62
364.788	82.62
365.015	86.62
365.241	104.62
365.468	101.62
365.694	107.62
365.92	98.62
366.147	93.62
366.373	96.62
366.599	89.62
366.826	95.62
367.052	80.62
367.278	89.62
367.505	91.62
367.731	79.62
367.957	80.62
368.184	98.62
368.41	112.62
368.636	105.62
368.862	125.62
369.089	90.62
369.315	81.62
369.541	82.62
369.767	103.62
369.993	94.62
370.219	93.62
370.445	90.62
370.672	81.62
370.898	93.62
371.124	74.62
371.35	94.62
371.576	97.62
371.802	85.62
372.028	91.62
372.254	90.62
372.48	102.62
372.706	88.62
372.932	84.62
373.158	94.62
373.384	81.62
373.61	101.62
373.835	85.62
374.061	99.62
374.287	98.62
374.513	80.62
374.739	85.62
374.965	99.62
375.191	101.62
375.416	87.62
375.642	96.62
375.868	98.62
376.094	91.62
376.319	93.62
376.545	92.62
376.771	91.62
376.997	77.62
377.222	92.62
377.448	96.62
377.674	87.62
377.899	94.62
378.125	96.62
378.35	91.62
378.576	104.62
378.802	85.62
379.027	91.62
379.253	93.62
379.478	85.62
379.704	89.62
379.929	81.62
380.155	80.62
380.38	90.62
380.606	85.62
380.831	89.62
381.057	94.62
381.282	99.62
381.507	90.62
381.733	89.62
381.958	92.62
382.184	101.62
382.409	101.62
382.634	109.62
382.86	101.62
383.085	91.62
383.31	102.62
383.535	93.62
383.761	78.62
383.986	98.62
384.211	89.62
384.436	92.62
384.662	94.62
384.887	88.62
385.112	105.62
385.337	84.62
385.562	97.62
385.787	106.62
386.013	95.62
386.238	100.62
386.463	101.62
386.688	113.62
386.913	104.62
387.138	85.62
387.363	102.62
387.588	88.62
387.813	89.62
388.038	93.62
388.263	105.62
388.488	104.62
388.713	96.62
388.938	99.62
389.163	94.62
389.387	96.62
389.612	97.62
389.837	83.62
390.062	79.62
390.287	99.62
390.512	93.62
390.736	97.62
390.961	95.62
391.186	101.62
391.411	105.62
391.636	89.62
391.86	86.62
392.085	87.62
392.31	74.62
392.534	94.62
392.759	90.62
392.984	82.62
393.208	80.62
393.433	76.62
393.658	89.62
393.882	87.62
394.107	75.62
394.331	83.62
394.556	79.62
394.78	85.62
395.005	85.62
395.229	88.62
395.454	82.62
395.678	88.62
395.903	84.62
396.127	99.62
396.352	95.62
396.576	91.62
396.801	82.62
397.025	85.62
397.249	81.62
397.474	94.62
397.698	95.62
397.922	91.62
398.147	87.62
398.371	84.62
398.595	86.62
398.82	83.62
399.044	93.62
399.268	89.62
399.492	75.62
399.717	81.62
399.941	82.62
400.165	86.62
400.389	104.62
400.613	82.62
400.837	78.62
401.062	79.62
401.286	98.62
401.51	93.62
401.734	97.62
401.958	92.62
402.182	125.62
402.406	162.62
402.63	106.62
402.854	80.62
403.078	81.62
403.302	92.62
403.526	81.62
403.75	86.62
403.974	103.62
404.198	79.62
404.422	83.62
404.645	100.62
404.869	87.62
405.093	79.62
405.317	91.62
405.541	90.62
405.765	114.62
405.988	109.62
406.212	152.62
406.436	206.62
406.66	133.62
406.883	108.62
407.107	91.62
407.331	95.62
407.555	110.62
407.778	88.62
408.002	94.62
408.226	107.62
408.449	87.62
408.673	81.62
408.896	85.62
409.12	97.62
409.344	88.62
409.567	77.62
409.791	90.62
410.014	94.62
410.238	99.62
410.461	99.62
410.685	88.62
410.908	81.62
411.132	107.62
411.355	95.62
411.578	88.62
411.802	96.62
412.025	84.62
412.249	95.62
412.472	99.62
412.695	90.62
412.919	89.62
413.142	82.62
413.365	90.62
413.589	89.62
413.812	82.62
414.035	92.62
414.258	99.62
414.482	89.62
414.705	86.62
414.928	84.62
415.151	86.62
415.374	85.62
415.597	89.62
415.821	91.62
416.044	85.62
416.267	84.62
416.49	86.62
416.713	91.62
416.936	104.62
417.159	88.62
417.382	97.62
417.605	81.62
417.828	95.62
418.051	90.62
418.274	84.62
418.497	87.62
418.72	81.62
418.943	85.62
419.166	93.62
419.389	88.62
419.611	91.62
419.834	93.62
420.057	83.62
420.28	92.62
420.503	87.62
420.726	85.62
420.948	103.62
421.171	98.62
421.394	90.62
421.617	90.62
421.839	90.62
422.062	87.62
422.285	78.62
422.507	93.62
422.73	111.62
422.953	98.62
423.175	94.62
423.398	89.62
423.621	95.62
423.843	78.62
424.066	90.62
424.288	73.62
424.511	89.62
424.733	101.62
424.956	105.62
425.178	86.62
425.401	103.62
425.623	103.62
425.846	92.62
426.068	86.62
426.291	94.62
426.513	97.62
426.735	107.62
426.958	104.62
427.18	111.62
427.402	124.62
427.625	149.62
427.847	111.62
428.069	92.62
428.292	86.62
428.514	82.62
428.736	96.62
428.958	98.62
429.181	79.62
429.403	84.62
429.625	79.62
429.847	89.62
430.069	106.62
430.292	87.62
430.514	84.62
430.736	91.62
430.958	87.62
431.18	90.62
431.402	81.62
431.624	84.62
431.846	93.62
432.068	91.62
432.29	78.62
432.512	99.62
432.734	88.62
432.956	96.62
433.178	88.62
433.4	86.62
433.622	69.62
433.844	83.62
434.066	87.62
434.287	98.62
434.509	88.62
434.731	95.62
434.953	90.62
435.175	79.62
435.397	101.62
435.618	97.62
435.84	99.62
436.062	116.62
436.284	117.62
436.505	90.62
436.727	107.62
436.949	85.62
437.17	99.62
437.392	99.62
437.614	92.62
437.835	95.62
438.057	113.62
438.278	115.62
438.5	99.62
438.721	117.62
438.943	110.62
439.165	87.62
439.386	90.62
439.608	92.62
439.829	93.62
440.05	107.62
440.272	125.62
440.493	106.62
440.715	92.62
440.936	88.62
441.158	101.62
441.379	89.62
441.6	88.62
441.822	90.62
442.043	92.62
442.264	110.62
442.486	105.62
442.707	88.62
442.928	92.62
443.149	120.62
443.371	125.62
443.592	104.62
443.813	118.62
444.034	106.62
444.255	91.62
444.476	81.62
444.698	99.62
444.919	85.62
445.14	121.62
445.361	114.62
445.582	105.62
445.803	120.62
446.024	118.62
446.245	123.62
446.466	117.62
446.687	102.62
446.908	91.62
447.129	87.62
447.35	90.62
447.571	100.62
447.792	86.62
448.013	95.62
448.234	89.62
448.455	89.62
448.675	110.62
448.896	122.62
449.117	94.62
449.338	100.62
449.559	139.62
449.779	121.62
450	98.62
450.221	93.62
450.442	89.62
450.662	95.62
450.883	110.62
451.104	104.62
451.324	101.62
451.545	82.62
451.766	96.62
451.986	82.62
452.207	89.62
452.428	88.62
452.648	109.62
452.869	119.62
453.089	103.62
453.31	103.62
453.53	93.62
453.751	89.62
453.971	94.62
454.192	107.62
454.412	93.62
454.633	81.62
454.853	85.62
455.073	77.62
455.294	74.62
455.514	94.62
455.734	93.62
455.955	82.62
456.175	87.62
456.395	81.62
456.616	84.62
456.836	82.62
457.056	83.62
457.276	87.62
457.497	107.62
457.717	77.62
457.937	88.62
458.157	94.62
458.377	93.62
458.598	88.62
458.818	124.62
459.038	134.62
459.258	122.62
459.478	92.62
459.698	77.62
459.918	108.62
460.138	80.62
460.358	88.62
460.578	85.62
460.798	78.62
461.018	86.62
461.238	84.62
461.458	90.62
461.678	72.62
461.898	70.62
462.118	90.62
462.338	70.62
462.558	75.62
462.777	91.62
462.997	82.62
463.217	86.62
463.437	85.62
463.657	88.62
463.876	83.62
464.096	93.62
464.316	90.62
464.536	94.62
464.755	99.62
464.975	103.62
465.195	162.62
465.414	125.62
465.634	92.62
465.854	86.62
466.073	84.62
466.293	89.62
466.512	93.62
466.732	84.62
466.951	77.62
467.171	87.62
467.391	76.62
467.61	97.62
467.829	87.62
468.049	100.62
468.268	89.62
468.488	88.62
468.707	67.62
468.927	85.62
469.146	79.62
469.365	93.62
469.585	78.62
469.804	89.62
470.023	101.62
470.243	98.62
470.462	96.62
470.681	108.62
470.901	92.62
471.12	96.62
471.339	84.62
471.558	74.62
471.777	90.62
471.997	76.62
472.216	99.62
472.435	99.62
472.654	75.62
472.873	82.62
473.092	93.62
473.311	84.62
473.53	104.62
473.749	83.62
473.968	97.62
474.187	111.62
474.406	95.62
474.625	90.62
474.844	92.62
475.063	81.62
475.282	88.62
475.501	80.62
475.72	93.62
475.939	74.62
476.158	91.62
476.377	90.62
476.596	72.62
476.814	86.62
477.033	105.62
477.252	85.62
477.471	92.62
477.69	76.62
477.908	95.62
478.127	87.62
478.346	92.62
478.564	94.62
478.783	109.62
479.002	65.62
479.22	80.62
479.439	80.62
479.658	102.62
479.876	88.62
480.095	97.62
480.313	89.62
480.532	82.62
480.751	92.62
480.969	93.62
481.188	106.62
481.406	107.62
481.624	90.62
481.843	80.62
482.061	85.62
482.28	86.62
482.498	83.62
482.717	99.62
482.935	102.62
483.153	82.62
483.372	93.62
483.59	84.62
483.808	86.62
484.027	99.62
484.245	95.62
484.463	95.62
484.681	100.62
484.9	93.62
485.118	85.62
485.336	95.62
485.554	91.62
485.772	98.62
485.99	98.62
486.209	116.62
486.427	92.62
486.645	106.62
486.863	104.62
487.081	107.62
487.299	100.62
487.517	89.62
487.735	106.62
487.953	99.62
488.171	99.62
488.389	97.62
488.607	86.62
488.825	83.62
489.043	102.62
489.261	82.62
489.479	94.62
489.696	98.62
489.914	94.62
490.132	84.62
490.35	99.62
490.568	82.62
490.786	100.62
491.003	74.62
491.221	90.62
491.439	101.62
491.657	95.62
491.874	91.62
492.092	90.62
492.31	84.62
492.527	93.62
492.745	86.62
492.963	95.62
493.18	102.62
493.398	98.62
493.615	88.62
493.833	89.62
494.05	92.62
494.268	90.62
494.485	92.62
494.703	80.62
494.92	81.62
495.138	86.62
495.355	89.62
495.573	85.62
495.79	96.62
496.008	86.62
496.225	91.62
496.442	90.62
496.66	81.62
496.877	91.62
497.094	98.62
497.312	93.62
497.529	97.62
497.746	100.62
497.963	99.62
498.181	97.62
498.398	102.62
498.615	107.62
498.832	115.62
499.049	79.62
499.267	90.62
499.484	91.62
499.701	95.62
499.918	73.62
500.135	85.62
500.352	87.62
500.569	83.62
500.786	94.62
501.003	91.62
501.22	90.62
501.437	91.62
501.654	100.62
501.871	112.62
502.088	84.62
502.305	99.62
502.522	84.62
502.739	102.62
502.956	85.62
503.172	90.62
503.389	90.62
503.606	97.62
503.823	94.62
504.04	104.62
504.256	99.62
504.473	86.62
504.69	90.62
504.907	89.62
505.123	93.62
505.34	97.62
505.557	94.62
505.773	86.62
505.99	95.62
506.207	102.62
506.423	82.62
506.64	93.62
506.856	89.62
507.073	93.62
507.289	91.62
507.506	97.62
507.722	103.62
507.939	101.62
508.155	96.62
508.372	93.62
508.588	108.62
508.805	89.62
509.021	99.62
509.238	101.62
509.454	99.62
509.67	90.62
509.887	99.62
510.103	125.62
510.319	207.62
510.536	683.62
510.752	2051.62
510.968	563.62
511.184	149.62
511.401	109.62
511.617	77.62
511.833	102.62
512.049	95.62
512.265	88.62
512.481	81.62
512.698	94.62
512.914	98.62
513.13	103.62
513.346	96.62
513.562	101.62
513.778	91.62
513.994	99.62
514.21	95.62
514.426	122.62
514.642	129.62
514.858	118.62
515.074	162.62
515.29	374.62
515.506	1253.62
515.721	480.62
515.937	146.62
516.153	103.62
