Data from Uncirc_1998_H10_HRD10591_00081.txt Node
Date: Wed Jan 03 11:25:41 EST 2024
User: Yrep
Spectrometer: HR+D1059
Trigger mode: 1
Integration Time (sec): 1.000000E-1
Scans to average: 1
Electric dark correction enabled: true
Nonlinearity correction enabled: false
Boxcar width: 0
XAxis mode: Wavelengths
Number of Pixels in Spectrum: 2048
>>>>>Begin Spectral Data<<<<<
223.165	-11.56
223.4	-11.56
223.635	-11.56
223.869	-22.56
224.104	-21.56
224.338	-13.56
224.573	-8.56
224.808	-9.56
225.042	-5.56
225.277	-10.56
225.511	-10.56
225.746	-5.56
225.98	7.44
226.215	16.44
226.449	30.44
226.683	14.44
226.918	24.44
227.152	26.44
227.387	29.44
227.621	39.44
227.856	45.44
228.09	45.44
228.324	47.44
228.559	53.44
228.793	49.44
229.027	59.44
229.262	61.44
229.496	87.44
229.73	87.44
229.964	79.44
230.199	88.44
230.433	70.44
230.667	70.44
230.901	84.44
231.136	82.44
231.37	82.44
231.604	69.44
231.838	82.44
232.072	74.44
232.306	81.44
232.541	87.44
232.775	64.44
233.009	72.44
233.243	75.44
233.477	81.44
233.711	69.44
233.945	92.44
234.179	88.44
234.413	86.44
234.647	76.44
234.881	72.44
235.115	79.44
235.349	62.44
235.583	76.44
235.817	71.44
236.051	72.44
236.285	95.44
236.519	76.44
236.753	74.44
236.987	78.44
237.221	78.44
237.455	81.44
237.689	78.44
237.922	76.44
238.156	74.44
238.39	75.44
238.624	88.44
238.858	81.44
239.091	82.44
239.325	84.44
239.559	93.44
239.793	88.44
240.027	72.44
240.26	61.44
240.494	65.44
240.728	71.44
240.961	73.44
241.195	69.44
241.429	62.44
241.662	68.44
241.896	85.44
242.13	64.44
242.363	70.44
242.597	88.44
242.83	74.44
243.064	79.44
243.298	88.44
243.531	84.44
243.765	66.44
243.998	82.44
244.232	86.44
244.465	85.44
244.699	90.44
244.932	89.44
245.166	72.44
245.399	68.44
245.633	79.44
245.866	73.44
246.099	78.44
246.333	78.44
246.566	72.44
246.8	68.44
247.033	65.44
247.266	84.44
247.5	70.44
247.733	90.44
247.966	88.44
248.2	82.44
248.433	75.44
248.666	61.44
248.899	69.44
249.133	71.44
249.366	95.44
249.599	80.44
249.832	81.44
250.066	74.44
250.299	73.44
250.532	80.44
250.765	85.44
250.998	71.44
251.231	80.44
251.465	68.44
251.698	73.44
251.931	93.44
252.164	89.44
252.397	82.44
252.63	70.44
252.863	85.44
253.096	88.44
253.329	76.44
253.562	75.44
253.795	68.44
254.028	61.44
254.261	73.44
254.494	80.44
254.727	86.44
254.96	88.44
255.193	77.44
255.426	60.44
255.659	91.44
255.892	76.44
256.124	72.44
256.357	72.44
256.59	74.44
256.823	74.44
257.056	79.44
257.289	81.44
257.521	88.44
257.754	87.44
257.987	88.44
258.22	74.44
258.452	77.44
258.685	80.44
258.918	89.44
259.151	74.44
259.383	85.44
259.616	75.44
259.849	76.44
260.081	69.44
260.314	79.44
260.547	68.44
260.779	86.44
261.012	75.44
261.244	107.44
261.477	100.44
261.71	87.44
261.942	118.44
262.175	120.44
262.407	87.44
262.64	60.44
262.872	89.44
263.105	91.44
263.337	75.44
263.57	88.44
263.802	74.44
264.035	89.44
264.267	88.44
264.499	95.44
264.732	86.44
264.964	86.44
265.197	85.44
265.429	76.44
265.661	76.44
265.894	78.44
266.126	97.44
266.358	81.44
266.591	89.44
266.823	89.44
267.055	71.44
267.287	74.44
267.52	88.44
267.752	101.44
267.984	75.44
268.216	90.44
268.448	97.44
268.681	78.44
268.913	88.44
269.145	87.44
269.377	71.44
269.609	89.44
269.841	74.44
270.073	76.44
270.306	81.44
270.538	82.44
270.77	87.44
271.002	82.44
271.234	92.44
271.466	79.44
271.698	72.44
271.93	91.44
272.162	71.44
272.394	77.44
272.626	90.44
272.858	84.44
273.09	90.44
273.322	76.44
273.553	92.44
273.785	84.44
274.017	82.44
274.249	91.44
274.481	108.44
274.713	88.44
274.945	95.44
275.176	82.44
275.408	84.44
275.64	99.44
275.872	74.44
276.104	91.44
276.335	89.44
276.567	101.44
276.799	105.44
277.031	103.44
277.262	80.44
277.494	74.44
277.726	96.44
277.957	77.44
278.189	74.44
278.421	87.44
278.652	91.44
278.884	92.44
279.115	77.44
279.347	90.44
279.579	86.44
279.81	70.44
280.042	94.44
280.273	88.44
280.505	87.44
280.736	92.44
280.968	93.44
281.199	94.44
281.431	86.44
281.662	97.44
281.894	91.44
282.125	80.44
282.356	128.44
282.588	119.44
282.819	110.44
283.051	92.44
283.282	85.44
283.513	93.44
283.745	76.44
283.976	94.44
284.207	82.44
284.439	92.44
284.67	85.44
284.901	78.44
285.132	90.44
285.364	97.44
285.595	86.44
285.826	88.44
286.057	79.44
286.288	86.44
286.52	83.44
286.751	89.44
286.982	99.44
287.213	82.44
287.444	76.44
287.675	80.44
287.906	78.44
288.138	90.44
288.369	93.44
288.6	74.44
288.831	77.44
289.062	92.44
289.293	89.44
289.524	84.44
289.755	86.44
289.986	94.44
290.217	95.44
290.448	95.44
290.679	94.44
290.91	94.44
291.141	85.44
291.371	90.44
291.602	85.44
291.833	90.44
292.064	86.44
292.295	81.44
292.526	76.44
292.757	77.44
292.987	101.44
293.218	89.44
293.449	89.44
293.68	77.44
293.91	82.44
294.141	92.44
294.372	98.44
294.603	89.44
294.833	90.44
295.064	86.44
295.295	81.44
295.525	104.44
295.756	88.44
295.987	111.44
296.217	114.44
296.448	110.44
296.679	97.44
296.909	93.44
297.14	91.44
297.37	94.44
297.601	77.44
297.831	96.44
298.062	81.44
298.292	87.44
298.523	86.44
298.753	81.44
298.984	78.44
299.214	85.44
299.445	85.44
299.675	87.44
299.905	84.44
300.136	72.44
300.366	88.44
300.597	95.44
300.827	104.44
301.057	104.44
301.288	108.44
301.518	91.44
301.748	91.44
301.979	93.44
302.209	89.44
302.439	77.44
302.669	88.44
302.9	82.44
303.13	85.44
303.36	91.44
303.59	107.44
303.82	102.44
304.051	98.44
304.281	98.44
304.511	104.44
304.741	88.44
304.971	87.44
305.201	85.44
305.431	94.44
305.661	85.44
305.891	81.44
306.121	101.44
306.352	93.44
306.582	98.44
306.812	91.44
307.042	91.44
307.272	94.44
307.502	81.44
307.731	76.44
307.961	83.44
308.191	78.44
308.421	78.44
308.651	94.44
308.881	95.44
309.111	101.44
309.341	102.44
309.571	105.44
309.8	90.44
310.03	87.44
310.26	97.44
310.49	85.44
310.72	98.44
310.949	103.44
311.179	85.44
311.409	103.44
311.639	92.44
311.868	91.44
312.098	82.44
312.328	92.44
312.557	99.44
312.787	98.44
313.017	109.44
313.246	80.44
313.476	100.44
313.706	87.44
313.935	85.44
314.165	100.44
314.394	89.44
314.624	86.44
314.853	96.44
315.083	98.44
315.312	85.44
315.542	76.44
315.771	91.44
316.001	88.44
316.23	84.44
316.46	92.44
316.689	90.44
316.919	86.44
317.148	101.44
317.377	96.44
317.607	94.44
317.836	90.44
318.065	89.44
318.295	82.44
318.524	98.44
318.753	83.44
318.983	95.44
319.212	94.44
319.441	87.44
319.67	104.44
319.9	97.44
320.129	96.44
320.358	93.44
320.587	95.44
320.816	86.44
321.046	91.44
321.275	96.44
321.504	72.44
321.733	88.44
321.962	84.44
322.191	105.44
322.42	92.44
322.649	113.44
322.878	109.44
323.108	101.44
323.337	121.44
323.566	109.44
323.795	137.44
324.024	193.44
324.253	366.44
324.482	807.44
324.71	1596.44
324.939	2074.44
325.168	769.44
325.397	237.44
325.626	132.44
325.855	123.44
326.084	107.44
326.313	129.44
326.542	149.44
326.77	214.44
326.999	434.44
327.228	914.44
327.457	1594.44
327.686	1254.44
327.914	317.44
328.143	186.44
328.372	138.44
328.6	110.44
328.829	117.44
329.058	106.44
329.287	110.44
329.515	119.44
329.744	96.44
329.972	89.44
330.201	97.44
330.43	103.44
330.658	105.44
330.887	129.44
331.115	119.44
331.344	103.44
331.572	90.44
331.801	96.44
332.03	94.44
332.258	107.44
332.486	100.44
332.715	96.44
332.943	88.44
333.172	107.44
333.4	92.44
333.629	99.44
333.857	102.44
334.085	107.44
334.314	97.44
334.542	110.44
334.771	102.44
334.999	94.44
335.227	98.44
335.455	85.44
335.684	96.44
335.912	92.44
336.14	101.44
336.369	94.44
336.597	81.44
336.825	98.44
337.053	92.44
337.281	88.44
337.51	95.44
337.738	102.44
337.966	85.44
338.194	94.44
338.422	103.44
338.65	84.44
338.878	99.44
339.106	86.44
339.334	76.44
339.562	84.44
339.79	80.44
340.018	75.44
340.246	76.44
340.474	84.44
340.702	100.44
340.93	98.44
341.158	72.44
341.386	86.44
341.614	100.44
341.842	91.44
342.07	91.44
342.298	78.44
342.526	86.44
342.754	105.44
342.981	92.44
343.209	80.44
343.437	96.44
343.665	96.44
343.893	78.44
344.12	98.44
344.348	74.44
344.576	92.44
344.804	93.44
345.031	87.44
345.259	92.44
345.487	74.44
345.714	83.44
345.942	98.44
346.17	95.44
346.397	93.44
346.625	95.44
346.853	88.44
347.08	92.44
347.308	88.44
347.535	88.44
347.763	104.44
347.99	95.44
348.218	105.44
348.445	99.44
348.673	85.44
348.9	102.44
349.128	94.44
349.355	99.44
349.583	89.44
349.81	88.44
350.037	99.44
350.265	98.44
350.492	96.44
350.72	97.44
350.947	84.44
351.174	102.44
351.402	105.44
351.629	113.44
351.856	114.44
352.083	103.44
352.311	117.44
352.538	95.44
352.765	107.44
352.992	86.44
353.22	102.44
353.447	103.44
353.674	85.44
353.901	90.44
354.128	108.44
354.355	90.44
354.583	104.44
354.81	107.44
355.037	92.44
355.264	104.44
355.491	86.44
355.718	89.44
355.945	96.44
356.172	84.44
356.399	89.44
356.626	86.44
356.853	96.44
357.08	91.44
357.307	96.44
357.534	96.44
357.761	75.44
357.988	104.44
358.215	92.44
358.441	86.44
358.668	103.44
358.895	99.44
359.122	89.44
359.349	89.44
359.576	98.44
359.802	97.44
360.029	105.44
360.256	113.44
360.483	105.44
360.709	91.44
360.936	97.44
361.163	106.44
361.39	109.44
361.616	80.44
361.843	80.44
362.07	92.44
362.296	95.44
362.523	98.44
362.749	104.44
362.976	89.44
363.203	89.44
363.429	83.44
363.656	95.44
363.882	80.44
364.109	95.44
364.335	86.44
364.562	93.44
364.788	80.44
365.015	101.44
365.241	91.44
365.468	102.44
365.694	117.44
365.92	99.44
366.147	90.44
366.373	86.44
366.599	89.44
366.826	88.44
367.052	93.44
367.278	93.44
367.505	85.44
367.731	90.44
367.957	76.44
368.184	87.44
368.41	88.44
368.636	103.44
368.862	119.44
369.089	107.44
369.315	76.44
369.541	85.44
369.767	87.44
369.993	88.44
370.219	84.44
370.445	89.44
370.672	87.44
370.898	105.44
371.124	93.44
371.35	73.44
371.576	73.44
371.802	93.44
372.028	79.44
372.254	100.44
372.48	82.44
372.706	96.44
372.932	93.44
373.158	103.44
373.384	93.44
373.61	89.44
373.835	88.44
374.061	104.44
374.287	89.44
374.513	89.44
374.739	99.44
374.965	79.44
375.191	91.44
375.416	91.44
375.642	74.44
375.868	84.44
376.094	75.44
376.319	86.44
376.545	90.44
376.771	84.44
376.997	84.44
377.222	94.44
377.448	85.44
377.674	86.44
377.899	90.44
378.125	89.44
378.35	85.44
378.576	79.44
378.802	102.44
379.027	96.44
379.253	90.44
379.478	92.44
379.704	87.44
379.929	79.44
380.155	88.44
380.38	91.44
380.606	96.44
380.831	93.44
381.057	90.44
381.282	95.44
381.507	87.44
381.733	88.44
381.958	97.44
382.184	89.44
382.409	87.44
382.634	83.44
382.86	98.44
383.085	105.44
383.31	93.44
383.535	103.44
383.761	92.44
383.986	90.44
384.211	104.44
384.436	87.44
384.662	95.44
384.887	90.44
385.112	109.44
385.337	79.44
385.562	94.44
385.787	90.44
386.013	101.44
386.238	118.44
386.463	113.44
386.688	113.44
386.913	98.44
387.138	94.44
387.363	89.44
387.588	96.44
387.813	95.44
388.038	93.44
388.263	100.44
388.488	104.44
388.713	113.44
388.938	95.44
389.163	91.44
389.387	96.44
389.612	97.44
389.837	83.44
390.062	90.44
390.287	96.44
390.512	81.44
390.736	80.44
390.961	85.44
391.186	95.44
391.411	89.44
391.636	93.44
391.86	84.44
392.085	89.44
392.31	86.44
392.534	88.44
392.759	88.44
392.984	90.44
393.208	82.44
393.433	92.44
393.658	92.44
393.882	86.44
394.107	78.44
394.331	88.44
394.556	85.44
394.78	77.44
395.005	73.44
395.229	97.44
395.454	74.44
395.678	87.44
395.903	93.44
396.127	89.44
396.352	90.44
396.576	101.44
396.801	92.44
397.025	78.44
397.249	90.44
397.474	84.44
397.698	97.44
397.922	77.44
398.147	86.44
398.371	92.44
398.595	78.44
398.82	69.44
399.044	78.44
399.268	91.44
399.492	92.44
399.717	85.44
399.941	92.44
400.165	79.44
400.389	85.44
400.613	87.44
400.837	77.44
401.062	78.44
401.286	85.44
401.51	82.44
401.734	82.44
401.958	116.44
402.182	122.44
402.406	155.44
402.63	123.44
402.854	101.44
403.078	77.44
403.302	88.44
403.526	82.44
403.75	94.44
403.974	87.44
404.198	90.44
404.422	76.44
404.645	109.44
404.869	94.44
405.093	81.44
405.317	88.44
405.541	97.44
405.765	108.44
405.988	109.44
406.212	169.44
406.436	221.44
406.66	121.44
406.883	85.44
407.107	87.44
407.331	87.44
407.555	82.44
407.778	82.44
408.002	83.44
408.226	89.44
408.449	89.44
408.673	97.44
408.896	88.44
409.12	92.44
409.344	83.44
409.567	89.44
409.791	84.44
410.014	91.44
410.238	108.44
410.461	86.44
410.685	82.44
410.908	117.44
411.132	104.44
411.355	91.44
411.578	98.44
411.802	84.44
412.025	80.44
412.249	81.44
412.472	91.44
412.695	79.44
412.919	93.44
413.142	84.44
413.365	77.44
413.589	88.44
413.812	84.44
414.035	100.44
414.258	92.44
414.482	92.44
414.705	87.44
414.928	96.44
415.151	96.44
415.374	82.44
415.597	92.44
415.821	84.44
416.044	74.44
416.267	92.44
416.49	81.44
416.713	88.44
416.936	79.44
417.159	74.44
417.382	81.44
417.605	75.44
417.828	95.44
418.051	85.44
418.274	79.44
418.497	88.44
418.72	71.44
418.943	80.44
419.166	90.44
419.389	73.44
419.611	84.44
419.834	81.44
420.057	90.44
420.28	76.44
420.503	77.44
420.726	101.44
420.948	97.44
421.171	92.44
421.394	101.44
421.617	83.44
421.839	92.44
422.062	84.44
422.285	84.44
422.507	83.44
422.73	91.44
422.953	85.44
423.175	98.44
423.398	95.44
423.621	84.44
423.843	76.44
424.066	78.44
424.288	79.44
424.511	79.44
424.733	95.44
424.956	108.44
425.178	104.44
425.401	105.44
425.623	105.44
425.846	80.44
426.068	87.44
426.291	92.44
426.513	86.44
426.735	87.44
426.958	76.44
427.18	100.44
427.402	124.44
427.625	163.44
427.847	125.44
428.069	102.44
428.292	87.44
428.514	90.44
428.736	88.44
428.958	79.44
429.181	93.44
429.403	85.44
429.625	76.44
429.847	81.44
430.069	93.44
430.292	98.44
430.514	83.44
430.736	82.44
430.958	81.44
431.18	80.44
431.402	74.44
431.624	80.44
431.846	80.44
432.068	89.44
432.29	67.44
432.512	98.44
432.734	80.44
432.956	78.44
433.178	98.44
433.4	104.44
433.622	95.44
433.844	84.44
434.066	85.44
434.287	62.44
434.509	78.44
434.731	88.44
434.953	92.44
435.175	86.44
435.397	102.44
435.618	94.44
435.84	89.44
436.062	117.44
436.284	120.44
436.505	104.44
436.727	97.44
436.949	97.44
437.17	86.44
437.392	98.44
437.614	109.44
437.835	111.44
438.057	113.44
438.278	104.44
438.5	111.44
438.721	112.44
438.943	84.44
439.165	82.44
439.386	87.44
439.608	82.44
439.829	94.44
440.05	114.44
440.272	141.44
440.493	104.44
440.715	67.44
440.936	73.44
441.158	79.44
441.379	91.44
441.6	111.44
441.822	87.44
442.043	96.44
442.264	93.44
442.486	120.44
442.707	88.44
442.928	105.44
443.149	107.44
443.371	116.44
443.592	112.44
443.813	108.44
444.034	109.44
444.255	101.44
444.476	84.44
444.698	88.44
444.919	73.44
445.14	122.44
445.361	106.44
445.582	123.44
445.803	121.44
446.024	141.44
446.245	124.44
446.466	113.44
446.687	91.44
446.908	87.44
447.129	93.44
447.35	86.44
447.571	77.44
447.792	83.44
448.013	92.44
448.234	91.44
448.455	96.44
448.675	96.44
448.896	111.44
449.117	98.44
449.338	99.44
449.559	132.44
449.779	123.44
450	99.44
450.221	86.44
450.442	87.44
450.662	88.44
450.883	93.44
451.104	103.44
451.324	101.44
451.545	96.44
451.766	84.44
451.986	85.44
452.207	85.44
452.428	83.44
452.648	85.44
452.869	111.44
453.089	99.44
453.31	103.44
453.53	101.44
453.751	84.44
453.971	88.44
454.192	97.44
454.412	83.44
454.633	68.44
454.853	81.44
455.073	83.44
455.294	83.44
455.514	101.44
455.734	89.44
455.955	87.44
456.175	73.44
456.395	80.44
456.616	90.44
456.836	91.44
457.056	90.44
457.276	85.44
457.497	92.44
457.717	79.44
457.937	80.44
458.157	91.44
458.377	99.44
458.598	97.44
458.818	125.44
459.038	135.44
459.258	102.44
459.478	88.44
459.698	88.44
459.918	86.44
460.138	83.44
460.358	84.44
460.578	97.44
460.798	85.44
461.018	93.44
461.238	80.44
461.458	89.44
461.678	89.44
461.898	87.44
462.118	90.44
462.338	89.44
462.558	89.44
462.777	102.44
462.997	81.44
463.217	87.44
463.437	86.44
463.657	81.44
463.876	84.44
464.096	89.44
464.316	80.44
464.536	86.44
464.755	89.44
464.975	98.44
465.195	150.44
465.414	135.44
465.634	106.44
465.854	78.44
466.073	77.44
466.293	81.44
466.512	76.44
466.732	83.44
466.951	76.44
467.171	86.44
467.391	95.44
467.61	92.44
467.829	100.44
468.049	81.44
468.268	100.44
468.488	87.44
468.707	88.44
468.927	76.44
469.146	74.44
469.365	73.44
469.585	86.44
469.804	93.44
470.023	79.44
470.243	90.44
470.462	102.44
470.681	111.44
470.901	73.44
471.12	79.44
471.339	93.44
471.558	96.44
471.777	81.44
471.997	89.44
472.216	90.44
472.435	87.44
472.654	85.44
472.873	78.44
473.092	86.44
473.311	70.44
473.53	83.44
473.749	96.44
473.968	90.44
474.187	97.44
474.406	88.44
474.625	81.44
474.844	74.44
475.063	72.44
475.282	69.44
475.501	88.44
475.72	93.44
475.939	86.44
476.158	76.44
476.377	88.44
476.596	86.44
476.814	93.44
477.033	88.44
477.252	84.44
477.471	79.44
477.69	87.44
477.908	74.44
478.127	97.44
478.346	94.44
478.564	87.44
478.783	88.44
479.002	88.44
479.22	84.44
479.439	95.44
479.658	80.44
479.876	102.44
480.095	70.44
480.313	89.44
480.532	96.44
480.751	87.44
480.969	89.44
481.188	109.44
481.406	104.44
481.624	96.44
481.843	87.44
482.061	103.44
482.28	79.44
482.498	85.44
482.717	85.44
482.935	104.44
483.153	81.44
483.372	80.44
483.59	98.44
483.808	77.44
484.027	94.44
484.245	92.44
484.463	93.44
484.681	102.44
484.9	96.44
485.118	105.44
485.336	94.44
485.554	98.44
485.772	91.44
485.99	104.44
486.209	99.44
486.427	112.44
486.645	98.44
486.863	117.44
487.081	97.44
487.299	93.44
487.517	100.44
487.735	87.44
487.953	96.44
488.171	94.44
488.389	107.44
488.607	102.44
488.825	87.44
489.043	99.44
489.261	100.44
489.479	93.44
489.696	90.44
489.914	91.44
490.132	101.44
490.35	99.44
490.568	91.44
490.786	76.44
491.003	97.44
491.221	81.44
491.439	83.44
491.657	84.44
491.874	84.44
492.092	88.44
492.31	100.44
492.527	98.44
492.745	93.44
492.963	92.44
493.18	97.44
493.398	96.44
493.615	81.44
493.833	87.44
494.05	89.44
494.268	86.44
494.485	81.44
494.703	84.44
494.92	94.44
495.138	78.44
495.355	106.44
495.573	105.44
495.79	87.44
496.008	80.44
496.225	92.44
496.442	91.44
496.66	106.44
496.877	95.44
497.094	84.44
497.312	92.44
497.529	73.44
497.746	72.44
497.963	88.44
498.181	81.44
498.398	86.44
498.615	113.44
498.832	93.44
499.049	77.44
499.267	96.44
499.484	97.44
499.701	90.44
499.918	92.44
500.135	89.44
500.352	93.44
500.569	80.44
500.786	85.44
501.003	74.44
501.22	89.44
501.437	85.44
501.654	103.44
501.871	113.44
502.088	86.44
502.305	96.44
502.522	91.44
502.739	91.44
502.956	81.44
503.172	91.44
503.389	105.44
503.606	98.44
503.823	97.44
504.04	91.44
504.256	84.44
504.473	102.44
504.69	91.44
504.907	93.44
505.123	85.44
505.34	80.44
505.557	78.44
505.773	92.44
505.99	95.44
506.207	96.44
506.423	97.44
506.64	90.44
506.856	89.44
507.073	93.44
507.289	88.44
507.506	101.44
507.722	106.44
507.939	105.44
508.155	97.44
508.372	81.44
508.588	90.44
508.805	92.44
509.021	96.44
509.238	90.44
509.454	71.44
509.67	93.44
509.887	117.44
510.103	136.44
510.319	193.44
510.536	698.44
510.752	2129.44
510.968	592.44
511.184	133.44
511.401	117.44
511.617	89.44
511.833	92.44
512.049	92.44
512.265	98.44
512.481	74.44
512.698	94.44
512.914	80.44
513.13	84.44
513.346	82.44
513.562	91.44
513.778	108.44
513.994	106.44
514.21	89.44
514.426	113.44
514.642	135.44
514.858	120.44
515.074	161.44
515.29	432.44
515.506	1328.44
515.721	494.44
515.937	138.44
516.153	100.44
516.369	93.44
