Data from Uncirc_1998_H10_HRD10591_00046.txt Node
Date: Wed Jan 03 11:25:34 EST 2024
User: Yrep
Spectrometer: HR+D1059
Trigger mode: 1
Integration Time (sec): 1.000000E-1
Scans to average: 1
Electric dark correction enabled: true
Nonlinearity correction enabled: false
Boxcar width: 0
XAxis mode: Wavelengths
Number of Pixels in Spectrum: 2048
>>>>>Begin Spectral Data<<<<<
223.165	-15.06
223.4	-15.06
223.635	-15.06
223.869	-17.06
224.104	-1.06
224.338	-24.06
224.573	-18.06
224.808	-16.06
225.042	-10.06
225.277	2.94
225.511	-17.06
225.746	-10.06
225.98	0.94
226.215	12.94
226.449	19.94
226.683	21.94
226.918	35.94
227.152	33.94
227.387	38.94
227.621	54.94
227.856	61.94
228.09	46.94
228.324	47.94
228.559	51.94
228.793	53.94
229.027	59.94
229.262	69.94
229.496	73.94
229.73	83.94
229.964	88.94
230.199	70.94
230.433	76.94
230.667	88.94
230.901	72.94
231.136	64.94
231.37	75.94
231.604	75.94
231.838	77.94
232.072	79.94
232.306	85.94
232.541	73.94
232.775	73.94
233.009	79.94
233.243	93.94
233.477	67.94
233.711	74.94
233.945	63.94
234.179	85.94
234.413	88.94
234.647	62.94
234.881	84.94
235.115	69.94
235.349	93.94
235.583	76.94
235.817	72.94
236.051	76.94
236.285	86.94
236.519	78.94
236.753	56.94
236.987	87.94
237.221	71.94
237.455	92.94
237.689	79.94
237.922	66.94
238.156	71.94
238.39	69.94
238.624	78.94
238.858	77.94
239.091	73.94
239.325	88.94
239.559	80.94
239.793	72.94
240.027	87.94
240.26	61.94
240.494	70.94
240.728	66.94
240.961	95.94
241.195	77.94
241.429	78.94
241.662	65.94
241.896	93.94
242.13	79.94
242.363	79.94
242.597	85.94
242.83	71.94
243.064	81.94
243.298	75.94
243.531	77.94
243.765	86.94
243.998	77.94
244.232	64.94
244.465	76.94
244.699	81.94
244.932	91.94
245.166	72.94
245.399	85.94
245.633	72.94
245.866	81.94
246.099	65.94
246.333	85.94
246.566	76.94
246.8	71.94
247.033	66.94
247.266	80.94
247.5	79.94
247.733	93.94
247.966	67.94
248.2	66.94
248.433	63.94
248.666	71.94
248.899	71.94
249.133	93.94
249.366	83.94
249.599	80.94
249.832	70.94
250.066	71.94
250.299	81.94
250.532	80.94
250.765	85.94
250.998	79.94
251.231	87.94
251.465	81.94
251.698	84.94
251.931	71.94
252.164	82.94
252.397	69.94
252.63	71.94
252.863	78.94
253.096	89.94
253.329	69.94
253.562	77.94
253.795	87.94
254.028	81.94
254.261	66.94
254.494	74.94
254.727	81.94
254.96	79.94
255.193	87.94
255.426	88.94
255.659	78.94
255.892	83.94
256.124	79.94
256.357	73.94
256.59	86.94
256.823	80.94
257.056	73.94
257.289	88.94
257.521	86.94
257.754	83.94
257.987	85.94
258.22	84.94
258.452	75.94
258.685	89.94
258.918	82.94
259.151	78.94
259.383	65.94
259.616	78.94
259.849	67.94
260.081	89.94
260.314	91.94
260.547	85.94
260.779	79.94
261.012	69.94
261.244	89.94
261.477	81.94
261.71	87.94
261.942	106.94
262.175	105.94
262.407	93.94
262.64	85.94
262.872	78.94
263.105	93.94
263.337	71.94
263.57	81.94
263.802	77.94
264.035	78.94
264.267	87.94
264.499	83.94
264.732	91.94
264.964	90.94
265.197	94.94
265.429	91.94
265.661	84.94
265.894	80.94
266.126	87.94
266.358	71.94
266.591	76.94
266.823	92.94
267.055	82.94
267.287	87.94
267.52	78.94
267.752	80.94
267.984	87.94
268.216	79.94
268.448	74.94
268.681	96.94
268.913	85.94
269.145	82.94
269.377	78.94
269.609	89.94
269.841	66.94
270.073	85.94
270.306	82.94
270.538	93.94
270.77	83.94
271.002	90.94
271.234	82.94
271.466	81.94
271.698	81.94
271.93	89.94
272.162	91.94
272.394	79.94
272.626	80.94
272.858	84.94
273.09	90.94
273.322	85.94
273.553	96.94
273.785	97.94
274.017	94.94
274.249	96.94
274.481	80.94
274.713	88.94
274.945	85.94
275.176	71.94
275.408	80.94
275.64	91.94
275.872	77.94
276.104	70.94
276.335	77.94
276.567	85.94
276.799	94.94
277.031	93.94
277.262	82.94
277.494	80.94
277.726	78.94
277.957	80.94
278.189	78.94
278.421	94.94
278.652	96.94
278.884	84.94
279.115	92.94
279.347	93.94
279.579	73.94
279.81	90.94
280.042	75.94
280.273	86.94
280.505	87.94
280.736	86.94
280.968	82.94
281.199	88.94
281.431	87.94
281.662	67.94
281.894	88.94
282.125	99.94
282.356	120.94
282.588	119.94
282.819	99.94
283.051	79.94
283.282	92.94
283.513	99.94
283.745	87.94
283.976	94.94
284.207	87.94
284.439	95.94
284.67	90.94
284.901	95.94
285.132	92.94
285.364	82.94
285.595	98.94
285.826	74.94
286.057	97.94
286.288	80.94
286.52	93.94
286.751	78.94
286.982	85.94
287.213	62.94
287.444	82.94
287.675	84.94
287.906	92.94
288.138	94.94
288.369	97.94
288.6	89.94
288.831	87.94
289.062	94.94
289.293	80.94
289.524	95.94
289.755	88.94
289.986	92.94
290.217	75.94
290.448	73.94
290.679	89.94
290.91	85.94
291.141	99.94
291.371	94.94
291.602	96.94
291.833	88.94
292.064	76.94
292.295	88.94
292.526	99.94
292.757	80.94
292.987	75.94
293.218	82.94
293.449	82.94
293.68	89.94
293.91	105.94
294.141	85.94
294.372	94.94
294.603	90.94
294.833	90.94
295.064	98.94
295.295	80.94
295.525	102.94
295.756	103.94
295.987	106.94
296.217	126.94
296.448	115.94
296.679	92.94
296.909	98.94
297.14	99.94
297.37	92.94
297.601	95.94
297.831	75.94
298.062	95.94
298.292	88.94
298.523	86.94
298.753	87.94
298.984	91.94
299.214	74.94
299.445	78.94
299.675	95.94
299.905	93.94
300.136	74.94
300.366	93.94
300.597	99.94
300.827	96.94
301.057	100.94
301.288	101.94
301.518	101.94
301.748	85.94
301.979	95.94
302.209	68.94
302.439	90.94
302.669	93.94
302.9	91.94
303.13	93.94
303.36	104.94
303.59	80.94
303.82	103.94
304.051	93.94
304.281	104.94
304.511	89.94
304.741	70.94
304.971	79.94
305.201	96.94
305.431	73.94
305.661	87.94
305.891	73.94
306.121	95.94
306.352	96.94
306.582	103.94
306.812	89.94
307.042	88.94
307.272	85.94
307.502	102.94
307.731	92.94
307.961	92.94
308.191	92.94
308.421	78.94
308.651	82.94
308.881	89.94
309.111	85.94
309.341	96.94
309.571	115.94
309.8	105.94
310.03	90.94
310.26	92.94
310.49	85.94
310.72	100.94
310.949	99.94
311.179	95.94
311.409	110.94
311.639	77.94
311.868	94.94
312.098	91.94
312.328	111.94
312.557	104.94
312.787	98.94
313.017	81.94
313.246	89.94
313.476	94.94
313.706	83.94
313.935	94.94
314.165	83.94
314.394	97.94
314.624	91.94
314.853	95.94
315.083	97.94
315.312	101.94
315.542	94.94
315.771	104.94
316.001	85.94
316.23	88.94
316.46	107.94
316.689	106.94
316.919	93.94
317.148	97.94
317.377	87.94
317.607	85.94
317.836	88.94
318.065	95.94
318.295	82.94
318.524	90.94
318.753	84.94
318.983	90.94
319.212	97.94
319.441	101.94
319.67	96.94
319.9	105.94
320.129	96.94
320.358	89.94
320.587	79.94
320.816	93.94
321.046	104.94
321.275	90.94
321.504	97.94
321.733	88.94
321.962	94.94
322.191	87.94
322.42	93.94
322.649	97.94
322.878	119.94
323.108	93.94
323.337	101.94
323.566	118.94
323.795	135.94
324.024	181.94
324.253	361.94
324.482	698.94
324.71	1397.94
324.939	1829.94
325.168	678.94
325.397	223.94
325.626	128.94
325.855	129.94
326.084	121.94
326.313	121.94
326.542	148.94
326.77	213.94
326.999	389.94
327.228	782.94
327.457	1430.94
327.686	1131.94
327.914	335.94
328.143	186.94
328.372	137.94
328.6	112.94
328.829	114.94
329.058	113.94
329.287	117.94
329.515	98.94
329.744	96.94
329.972	103.94
330.201	85.94
330.43	107.94
330.658	122.94
330.887	145.94
331.115	106.94
331.344	113.94
331.572	91.94
331.801	94.94
332.03	85.94
332.258	103.94
332.486	104.94
332.715	91.94
332.943	93.94
333.172	86.94
333.4	89.94
333.629	109.94
333.857	111.94
334.085	99.94
334.314	105.94
334.542	100.94
334.771	104.94
334.999	93.94
335.227	93.94
335.455	96.94
335.684	102.94
335.912	92.94
336.14	97.94
336.369	107.94
336.597	100.94
336.825	96.94
337.053	106.94
337.281	89.94
337.51	93.94
337.738	92.94
337.966	99.94
338.194	88.94
338.422	92.94
338.65	103.94
338.878	82.94
339.106	85.94
339.334	100.94
339.562	95.94
339.79	93.94
340.018	77.94
340.246	85.94
340.474	92.94
340.702	89.94
340.93	99.94
341.158	85.94
341.386	93.94
341.614	90.94
341.842	86.94
342.07	96.94
342.298	83.94
342.526	90.94
342.754	75.94
342.981	94.94
343.209	74.94
343.437	94.94
343.665	82.94
343.893	97.94
344.12	88.94
344.348	94.94
344.576	89.94
344.804	85.94
345.031	98.94
345.259	102.94
345.487	93.94
345.714	88.94
345.942	89.94
346.17	88.94
346.397	101.94
346.625	82.94
346.853	89.94
347.08	107.94
347.308	101.94
347.535	108.94
347.763	100.94
347.99	95.94
348.218	111.94
348.445	103.94
348.673	85.94
348.9	95.94
349.128	83.94
349.355	114.94
349.583	93.94
349.81	105.94
350.037	97.94
350.265	95.94
350.492	81.94
350.72	103.94
350.947	98.94
351.174	102.94
351.402	98.94
351.629	110.94
351.856	91.94
352.083	107.94
352.311	108.94
352.538	102.94
352.765	106.94
352.992	110.94
353.22	117.94
353.447	108.94
353.674	116.94
353.901	107.94
354.128	82.94
354.355	88.94
354.583	92.94
354.81	105.94
355.037	96.94
355.264	81.94
355.491	102.94
355.718	86.94
355.945	92.94
356.172	87.94
356.399	82.94
356.626	89.94
356.853	88.94
357.08	85.94
357.307	106.94
357.534	86.94
357.761	77.94
357.988	85.94
358.215	89.94
358.441	89.94
358.668	92.94
358.895	84.94
359.122	92.94
359.349	89.94
359.576	99.94
359.802	95.94
360.029	97.94
360.256	106.94
360.483	88.94
360.709	86.94
360.936	97.94
361.163	91.94
361.39	95.94
361.616	84.94
361.843	95.94
362.07	98.94
362.296	98.94
362.523	78.94
362.749	99.94
362.976	101.94
363.203	87.94
363.429	95.94
363.656	83.94
363.882	96.94
364.109	85.94
364.335	87.94
364.562	94.94
364.788	86.94
365.015	111.94
365.241	103.94
365.468	118.94
365.694	112.94
365.92	96.94
366.147	83.94
366.373	78.94
366.599	86.94
366.826	101.94
367.052	86.94
367.278	86.94
367.505	99.94
367.731	87.94
367.957	79.94
368.184	92.94
368.41	112.94
368.636	109.94
368.862	107.94
369.089	111.94
369.315	85.94
369.541	99.94
369.767	72.94
369.993	79.94
370.219	81.94
370.445	94.94
370.672	81.94
370.898	86.94
371.124	91.94
371.35	93.94
371.576	75.94
371.802	85.94
372.028	87.94
372.254	91.94
372.48	104.94
372.706	95.94
372.932	87.94
373.158	90.94
373.384	82.94
373.61	83.94
373.835	92.94
374.061	90.94
374.287	81.94
374.513	95.94
374.739	90.94
374.965	94.94
375.191	81.94
375.416	86.94
375.642	102.94
375.868	82.94
376.094	98.94
376.319	96.94
376.545	94.94
376.771	90.94
376.997	85.94
377.222	85.94
377.448	85.94
377.674	89.94
377.899	90.94
378.125	81.94
378.35	95.94
378.576	87.94
378.802	96.94
379.027	91.94
379.253	83.94
379.478	98.94
379.704	86.94
379.929	88.94
380.155	90.94
380.38	87.94
380.606	95.94
380.831	104.94
381.057	100.94
381.282	87.94
381.507	95.94
381.733	100.94
381.958	94.94
382.184	104.94
382.409	100.94
382.634	82.94
382.86	93.94
383.085	82.94
383.31	89.94
383.535	101.94
383.761	95.94
383.986	80.94
384.211	88.94
384.436	88.94
384.662	103.94
384.887	91.94
385.112	86.94
385.337	95.94
385.562	97.94
385.787	106.94
386.013	110.94
386.238	106.94
386.463	95.94
386.688	102.94
386.913	91.94
387.138	99.94
387.363	101.94
387.588	103.94
387.813	97.94
388.038	109.94
388.263	121.94
388.488	107.94
388.713	90.94
388.938	95.94
389.163	94.94
389.387	104.94
389.612	96.94
389.837	81.94
390.062	89.94
390.287	91.94
390.512	87.94
390.736	97.94
390.961	99.94
391.186	98.94
391.411	102.94
391.636	93.94
391.86	103.94
392.085	89.94
392.31	83.94
392.534	105.94
392.759	85.94
392.984	90.94
393.208	97.94
393.433	80.94
393.658	79.94
393.882	77.94
394.107	98.94
394.331	91.94
394.556	92.94
394.78	84.94
395.005	99.94
395.229	94.94
395.454	94.94
395.678	103.94
395.903	100.94
396.127	93.94
396.352	80.94
396.576	88.94
396.801	88.94
397.025	72.94
397.249	93.94
397.474	83.94
397.698	82.94
397.922	87.94
398.147	86.94
398.371	88.94
398.595	107.94
398.82	87.94
399.044	95.94
399.268	93.94
399.492	94.94
399.717	90.94
399.941	75.94
400.165	97.94
400.389	93.94
400.613	102.94
400.837	87.94
401.062	98.94
401.286	95.94
401.51	79.94
401.734	94.94
401.958	97.94
402.182	121.94
402.406	143.94
402.63	109.94
402.854	98.94
403.078	98.94
403.302	78.94
403.526	94.94
403.75	92.94
403.974	95.94
404.198	91.94
404.422	94.94
404.645	92.94
404.869	96.94
405.093	78.94
405.317	82.94
405.541	103.94
405.765	95.94
405.988	98.94
406.212	151.94
406.436	195.94
406.66	138.94
406.883	112.94
407.107	108.94
407.331	99.94
407.555	100.94
407.778	94.94
408.002	83.94
408.226	95.94
408.449	94.94
408.673	82.94
408.896	82.94
409.12	96.94
409.344	87.94
409.567	99.94
409.791	94.94
410.014	86.94
410.238	94.94
410.461	98.94
410.685	112.94
410.908	105.94
411.132	111.94
411.355	94.94
411.578	97.94
411.802	98.94
412.025	96.94
412.249	82.94
412.472	93.94
412.695	95.94
412.919	95.94
413.142	96.94
413.365	83.94
413.589	78.94
413.812	85.94
414.035	86.94
414.258	78.94
414.482	83.94
414.705	81.94
414.928	77.94
415.151	95.94
415.374	83.94
415.597	81.94
415.821	94.94
416.044	86.94
416.267	89.94
416.49	80.94
416.713	90.94
416.936	85.94
417.159	94.94
417.382	87.94
417.605	88.94
417.828	97.94
418.051	82.94
418.274	88.94
418.497	81.94
418.72	93.94
418.943	84.94
419.166	72.94
419.389	78.94
419.611	92.94
419.834	94.94
420.057	73.94
420.28	90.94
420.503	98.94
420.726	86.94
420.948	90.94
421.171	105.94
421.394	97.94
421.617	77.94
421.839	78.94
422.062	88.94
422.285	97.94
422.507	103.94
422.73	103.94
422.953	95.94
423.175	95.94
423.398	96.94
423.621	60.94
423.843	82.94
424.066	103.94
424.288	97.94
424.511	89.94
424.733	89.94
424.956	92.94
425.178	85.94
425.401	102.94
425.623	96.94
425.846	88.94
426.068	93.94
426.291	94.94
426.513	90.94
426.735	91.94
426.958	96.94
427.18	97.94
427.402	136.94
427.625	158.94
427.847	115.94
428.069	107.94
428.292	95.94
428.514	88.94
428.736	85.94
428.958	92.94
429.181	84.94
429.403	69.94
429.625	85.94
429.847	95.94
430.069	95.94
430.292	96.94
430.514	91.94
430.736	82.94
430.958	94.94
431.18	79.94
431.402	76.94
431.624	82.94
431.846	82.94
432.068	90.94
432.29	97.94
432.512	79.94
432.734	103.94
432.956	95.94
433.178	85.94
433.4	99.94
433.622	93.94
433.844	85.94
434.066	96.94
434.287	96.94
434.509	90.94
434.731	93.94
434.953	97.94
435.175	73.94
435.397	73.94
435.618	80.94
435.84	89.94
436.062	123.94
436.284	105.94
436.505	101.94
436.727	91.94
436.949	96.94
437.17	88.94
437.392	76.94
437.614	87.94
437.835	104.94
438.057	96.94
438.278	116.94
438.5	103.94
438.721	110.94
438.943	92.94
439.165	98.94
439.386	101.94
439.608	96.94
439.829	98.94
440.05	114.94
440.272	131.94
440.493	99.94
440.715	81.94
440.936	91.94
441.158	88.94
441.379	91.94
441.6	111.94
441.822	95.94
442.043	83.94
442.264	105.94
442.486	97.94
442.707	86.94
442.928	113.94
443.149	111.94
443.371	110.94
443.592	102.94
443.813	110.94
444.034	102.94
444.255	86.94
444.476	94.94
444.698	86.94
444.919	92.94
445.14	117.94
445.361	110.94
445.582	121.94
445.803	133.94
446.024	122.94
446.245	143.94
446.466	91.94
446.687	89.94
446.908	98.94
447.129	90.94
447.35	89.94
447.571	111.94
447.792	98.94
448.013	96.94
448.234	98.94
448.455	95.94
448.675	105.94
448.896	107.94
449.117	106.94
449.338	103.94
449.559	129.94
449.779	117.94
450	85.94
450.221	93.94
450.442	86.94
450.662	81.94
450.883	96.94
451.104	106.94
451.324	90.94
451.545	89.94
451.766	94.94
451.986	86.94
452.207	81.94
452.428	88.94
452.648	78.94
452.869	105.94
453.089	101.94
453.31	103.94
453.53	90.94
453.751	92.94
453.971	114.94
454.192	95.94
454.412	86.94
454.633	80.94
454.853	90.94
455.073	94.94
455.294	91.94
455.514	101.94
455.734	83.94
455.955	89.94
456.175	93.94
456.395	79.94
456.616	84.94
456.836	85.94
457.056	78.94
457.276	83.94
457.497	93.94
457.717	87.94
457.937	93.94
458.157	79.94
458.377	104.94
458.598	88.94
458.818	124.94
459.038	146.94
459.258	108.94
459.478	85.94
459.698	80.94
459.918	83.94
460.138	86.94
460.358	73.94
460.578	85.94
460.798	75.94
461.018	85.94
461.238	77.94
461.458	86.94
461.678	75.94
461.898	85.94
462.118	83.94
462.338	84.94
462.558	79.94
462.777	83.94
462.997	94.94
463.217	71.94
463.437	67.94
463.657	81.94
463.876	75.94
464.096	86.94
464.316	90.94
464.536	89.94
464.755	81.94
464.975	106.94
465.195	146.94
465.414	119.94
465.634	101.94
465.854	84.94
466.073	94.94
466.293	71.94
466.512	82.94
466.732	79.94
466.951	99.94
467.171	92.94
467.391	85.94
467.61	99.94
467.829	91.94
468.049	89.94
468.268	89.94
468.488	73.94
468.707	90.94
468.927	94.94
469.146	85.94
469.365	89.94
469.585	75.94
469.804	84.94
470.023	89.94
470.243	97.94
470.462	91.94
470.681	114.94
470.901	87.94
471.12	91.94
471.339	81.94
471.558	77.94
471.777	88.94
471.997	85.94
472.216	85.94
472.435	103.94
472.654	92.94
472.873	85.94
473.092	93.94
473.311	73.94
473.53	73.94
473.749	94.94
473.968	73.94
474.187	92.94
474.406	98.94
474.625	70.94
474.844	95.94
475.063	91.94
475.282	87.94
475.501	93.94
475.72	94.94
475.939	78.94
476.158	95.94
476.377	82.94
476.596	91.94
476.814	96.94
477.033	94.94
477.252	84.94
477.471	96.94
477.69	83.94
477.908	97.94
478.127	94.94
478.346	78.94
478.564	86.94
478.783	94.94
479.002	87.94
479.22	78.94
479.439	90.94
479.658	98.94
479.876	96.94
480.095	93.94
480.313	97.94
480.532	100.94
480.751	79.94
480.969	106.94
481.188	99.94
481.406	102.94
481.624	84.94
481.843	84.94
482.061	86.94
482.28	77.94
482.498	93.94
482.717	82.94
482.935	86.94
483.153	85.94
483.372	85.94
483.59	94.94
483.808	79.94
484.027	87.94
484.245	91.94
484.463	87.94
484.681	90.94
484.9	98.94
485.118	91.94
485.336	93.94
485.554	100.94
485.772	81.94
485.99	105.94
486.209	98.94
486.427	97.94
486.645	100.94
486.863	124.94
487.081	101.94
487.299	86.94
487.517	83.94
487.735	93.94
487.953	90.94
488.171	103.94
488.389	101.94
488.607	98.94
488.825	98.94
489.043	94.94
489.261	92.94
489.479	104.94
489.696	82.94
489.914	78.94
490.132	89.94
490.35	102.94
490.568	88.94
490.786	88.94
491.003	80.94
491.221	85.94
491.439	78.94
491.657	95.94
491.874	99.94
492.092	97.94
492.31	89.94
492.527	88.94
492.745	76.94
492.963	98.94
493.18	85.94
493.398	89.94
493.615	105.94
493.833	89.94
494.05	88.94
494.268	98.94
494.485	89.94
494.703	74.94
494.92	84.94
495.138	81.94
495.355	78.94
495.573	99.94
495.79	93.94
496.008	93.94
496.225	88.94
496.442	79.94
496.66	96.94
496.877	98.94
497.094	89.94
497.312	110.94
497.529	84.94
497.746	91.94
497.963	82.94
498.181	90.94
498.398	101.94
498.615	87.94
498.832	78.94
499.049	72.94
499.267	95.94
499.484	91.94
499.701	101.94
499.918	86.94
500.135	83.94
500.352	105.94
500.569	84.94
500.786	84.94
501.003	91.94
501.22	88.94
501.437	87.94
501.654	86.94
501.871	94.94
502.088	97.94
502.305	91.94
502.522	99.94
502.739	85.94
502.956	89.94
503.172	88.94
503.389	92.94
503.606	111.94
503.823	109.94
504.04	89.94
504.256	98.94
504.473	87.94
504.69	82.94
504.907	86.94
505.123	96.94
505.34	92.94
505.557	100.94
505.773	93.94
505.99	73.94
506.207	82.94
506.423	100.94
506.64	85.94
506.856	88.94
507.073	83.94
507.289	90.94
507.506	92.94
507.722	98.94
507.939	104.94
508.155	105.94
508.372	96.94
508.588	83.94
508.805	103.94
509.021	89.94
509.238	98.94
509.454	89.94
509.67	107.94
509.887	89.94
510.103	119.94
510.319	177.94
510.536	665.94
510.752	2050.94
510.968	565.94
511.184	133.94
511.401	107.94
511.617	90.94
511.833	95.94
512.049	81.94
512.265	96.94
512.481	75.94
512.698	86.94
512.914	96.94
513.13	106.94
513.346	87.94
513.562	89.94
513.778	94.94
513.994	106.94
514.21	97.94
514.426	100.94
514.642	117.94
514.858	110.94
515.074	147.94
515.29	399.94
515.506	1213.94
515.721	457.94
515.937	145.94
516.153	114.94
516.369	104.94
