Data from Uncirc_1998_H10_HRD10591_00074.txt Node
Date: Wed Jan 03 11:25:39 EST 2024
User: Yrep
Spectrometer: HR+D1059
Trigger mode: 1
Integration Time (sec): 1.000000E-1
Scans to average: 1
Electric dark correction enabled: true
Nonlinearity correction enabled: false
Boxcar width: 0
XAxis mode: Wavelengths
Number of Pixels in Spectrum: 2048
>>>>>Begin Spectral Data<<<<<
223.165	-21.25
223.4	-21.25
223.635	-21.25
223.869	-14.25
224.104	-29.25
224.338	-27.25
224.573	-9.25
224.808	-18.25
225.042	-11.25
225.277	-3.25
225.511	-5.25
225.746	6.75
225.98	7.75
226.215	24.75
226.449	23.75
226.683	9.75
226.918	39.75
227.152	26.75
227.387	35.75
227.621	37.75
227.856	42.75
228.09	34.75
228.324	54.75
228.559	62.75
228.793	55.75
229.027	64.75
229.262	46.75
229.496	71.75
229.73	82.75
229.964	81.75
230.199	63.75
230.433	69.75
230.667	69.75
230.901	81.75
231.136	74.75
231.37	78.75
231.604	87.75
231.838	84.75
232.072	87.75
232.306	74.75
232.541	73.75
232.775	83.75
233.009	89.75
233.243	92.75
233.477	79.75
233.711	75.75
233.945	85.75
234.179	81.75
234.413	80.75
234.647	82.75
234.881	71.75
235.115	71.75
235.349	73.75
235.583	69.75
235.817	65.75
236.051	81.75
236.285	63.75
236.519	69.75
236.753	75.75
236.987	71.75
237.221	82.75
237.455	76.75
237.689	77.75
237.922	81.75
238.156	84.75
238.39	74.75
238.624	77.75
238.858	71.75
239.091	73.75
239.325	67.75
239.559	81.75
239.793	78.75
240.027	88.75
240.26	91.75
240.494	72.75
240.728	61.75
240.961	78.75
241.195	67.75
241.429	79.75
241.662	65.75
241.896	75.75
242.13	70.75
242.363	75.75
242.597	68.75
242.83	75.75
243.064	74.75
243.298	68.75
243.531	66.75
243.765	64.75
243.998	73.75
244.232	81.75
244.465	81.75
244.699	72.75
244.932	71.75
245.166	78.75
245.399	84.75
245.633	70.75
245.866	68.75
246.099	60.75
246.333	77.75
246.566	83.75
246.8	91.75
247.033	79.75
247.266	76.75
247.5	67.75
247.733	81.75
247.966	60.75
248.2	80.75
248.433	71.75
248.666	75.75
248.899	77.75
249.133	76.75
249.366	84.75
249.599	96.75
249.832	69.75
250.066	68.75
250.299	73.75
250.532	79.75
250.765	65.75
250.998	75.75
251.231	62.75
251.465	81.75
251.698	67.75
251.931	69.75
252.164	69.75
252.397	86.75
252.63	89.75
252.863	79.75
253.096	81.75
253.329	77.75
253.562	74.75
253.795	79.75
254.028	67.75
254.261	72.75
254.494	71.75
254.727	71.75
254.96	70.75
255.193	79.75
255.426	87.75
255.659	75.75
255.892	81.75
256.124	88.75
256.357	80.75
256.59	81.75
256.823	77.75
257.056	75.75
257.289	86.75
257.521	75.75
257.754	70.75
257.987	67.75
258.22	81.75
258.452	90.75
258.685	77.75
258.918	60.75
259.151	74.75
259.383	69.75
259.616	77.75
259.849	58.75
260.081	86.75
260.314	79.75
260.547	77.75
260.779	68.75
261.012	86.75
261.244	76.75
261.477	83.75
261.71	87.75
261.942	101.75
262.175	114.75
262.407	90.75
262.64	82.75
262.872	72.75
263.105	71.75
263.337	72.75
263.57	66.75
263.802	87.75
264.035	76.75
264.267	81.75
264.499	96.75
264.732	87.75
264.964	76.75
265.197	77.75
265.429	65.75
265.661	70.75
265.894	76.75
266.126	73.75
266.358	82.75
266.591	83.75
266.823	77.75
267.055	77.75
267.287	86.75
267.52	75.75
267.752	77.75
267.984	79.75
268.216	81.75
268.448	82.75
268.681	71.75
268.913	86.75
269.145	75.75
269.377	71.75
269.609	69.75
269.841	68.75
270.073	85.75
270.306	84.75
270.538	75.75
270.77	84.75
271.002	81.75
271.234	77.75
271.466	77.75
271.698	75.75
271.93	67.75
272.162	84.75
272.394	82.75
272.626	73.75
272.858	97.75
273.09	83.75
273.322	84.75
273.553	66.75
273.785	97.75
274.017	84.75
274.249	82.75
274.481	78.75
274.713	67.75
274.945	75.75
275.176	83.75
275.408	79.75
275.64	85.75
275.872	83.75
276.104	92.75
276.335	89.75
276.567	102.75
276.799	92.75
277.031	95.75
277.262	97.75
277.494	76.75
277.726	82.75
277.957	89.75
278.189	89.75
278.421	90.75
278.652	77.75
278.884	92.75
279.115	91.75
279.347	88.75
279.579	76.75
279.81	87.75
280.042	94.75
280.273	81.75
280.505	79.75
280.736	80.75
280.968	89.75
281.199	91.75
281.431	73.75
281.662	84.75
281.894	81.75
282.125	88.75
282.356	109.75
282.588	119.75
282.819	102.75
283.051	87.75
283.282	68.75
283.513	90.75
283.745	71.75
283.976	83.75
284.207	86.75
284.439	76.75
284.67	95.75
284.901	68.75
285.132	82.75
285.364	82.75
285.595	85.75
285.826	94.75
286.057	60.75
286.288	81.75
286.52	77.75
286.751	71.75
286.982	70.75
287.213	84.75
287.444	90.75
287.675	81.75
287.906	96.75
288.138	85.75
288.369	87.75
288.6	90.75
288.831	99.75
289.062	88.75
289.293	99.75
289.524	77.75
289.755	74.75
289.986	80.75
290.217	100.75
290.448	83.75
290.679	71.75
290.91	88.75
291.141	86.75
291.371	61.75
291.602	78.75
291.833	85.75
292.064	84.75
292.295	89.75
292.526	85.75
292.757	82.75
292.987	75.75
293.218	87.75
293.449	93.75
293.68	85.75
293.91	88.75
294.141	86.75
294.372	74.75
294.603	74.75
294.833	82.75
295.064	82.75
295.295	82.75
295.525	95.75
295.756	90.75
295.987	115.75
296.217	128.75
296.448	121.75
296.679	77.75
296.909	85.75
297.14	96.75
297.37	94.75
297.601	93.75
297.831	83.75
298.062	84.75
298.292	98.75
298.523	79.75
298.753	78.75
298.984	81.75
299.214	85.75
299.445	83.75
299.675	84.75
299.905	77.75
300.136	89.75
300.366	85.75
300.597	93.75
300.827	92.75
301.057	89.75
301.288	108.75
301.518	81.75
301.748	77.75
301.979	104.75
302.209	81.75
302.439	87.75
302.669	86.75
302.9	79.75
303.13	79.75
303.36	96.75
303.59	96.75
303.82	91.75
304.051	86.75
304.281	87.75
304.511	82.75
304.741	93.75
304.971	84.75
305.201	97.75
305.431	82.75
305.661	96.75
305.891	83.75
306.121	102.75
306.352	97.75
306.582	95.75
306.812	97.75
307.042	94.75
307.272	97.75
307.502	89.75
307.731	80.75
307.961	92.75
308.191	86.75
308.421	85.75
308.651	100.75
308.881	95.75
309.111	95.75
309.341	91.75
309.571	95.75
309.8	86.75
310.03	92.75
310.26	91.75
310.49	87.75
310.72	94.75
310.949	88.75
311.179	86.75
311.409	78.75
311.639	102.75
311.868	82.75
312.098	94.75
312.328	94.75
312.557	94.75
312.787	109.75
313.017	93.75
313.246	80.75
313.476	88.75
313.706	90.75
313.935	93.75
314.165	74.75
314.394	80.75
314.624	85.75
314.853	102.75
315.083	99.75
315.312	89.75
315.542	81.75
315.771	93.75
316.001	87.75
316.23	76.75
316.46	82.75
316.689	81.75
316.919	89.75
317.148	107.75
317.377	86.75
317.607	97.75
317.836	101.75
318.065	98.75
318.295	93.75
318.524	82.75
318.753	98.75
318.983	94.75
319.212	103.75
319.441	101.75
319.67	94.75
319.9	95.75
320.129	84.75
320.358	94.75
320.587	92.75
320.816	108.75
321.046	106.75
321.275	90.75
321.504	92.75
321.733	80.75
321.962	92.75
322.191	98.75
322.42	108.75
322.649	111.75
322.878	108.75
323.108	117.75
323.337	116.75
323.566	116.75
323.795	137.75
324.024	179.75
324.253	398.75
324.482	797.75
324.71	1669.75
324.939	2146.75
325.168	754.75
325.397	228.75
325.626	147.75
325.855	131.75
326.084	121.75
326.313	147.75
326.542	141.75
326.77	229.75
326.999	446.75
327.228	931.75
327.457	1693.75
327.686	1312.75
327.914	362.75
328.143	190.75
328.372	158.75
328.6	116.75
328.829	98.75
329.058	123.75
329.287	114.75
329.515	106.75
329.744	107.75
329.972	107.75
330.201	89.75
330.43	86.75
330.658	113.75
330.887	135.75
331.115	115.75
331.344	101.75
331.572	100.75
331.801	90.75
332.03	98.75
332.258	72.75
332.486	69.75
332.715	89.75
332.943	98.75
333.172	77.75
333.4	89.75
333.629	99.75
333.857	102.75
334.085	104.75
334.314	100.75
334.542	100.75
334.771	108.75
334.999	90.75
335.227	95.75
335.455	95.75
335.684	93.75
335.912	98.75
336.14	84.75
336.369	95.75
336.597	91.75
336.825	101.75
337.053	85.75
337.281	73.75
337.51	82.75
337.738	91.75
337.966	83.75
338.194	99.75
338.422	104.75
338.65	101.75
338.878	87.75
339.106	80.75
339.334	94.75
339.562	91.75
339.79	87.75
340.018	94.75
340.246	99.75
340.474	94.75
340.702	94.75
340.93	95.75
341.158	86.75
341.386	99.75
341.614	100.75
341.842	99.75
342.07	78.75
342.298	93.75
342.526	88.75
342.754	69.75
342.981	79.75
343.209	89.75
343.437	99.75
343.665	79.75
343.893	79.75
344.12	82.75
344.348	92.75
344.576	101.75
344.804	86.75
345.031	90.75
345.259	92.75
345.487	89.75
345.714	86.75
345.942	79.75
346.17	89.75
346.397	90.75
346.625	77.75
346.853	64.75
347.08	66.75
347.308	101.75
347.535	99.75
347.763	88.75
347.99	97.75
348.218	80.75
348.445	93.75
348.673	98.75
348.9	81.75
349.128	75.75
349.355	82.75
349.583	91.75
349.81	101.75
350.037	87.75
350.265	89.75
350.492	92.75
350.72	101.75
350.947	93.75
351.174	103.75
351.402	94.75
351.629	103.75
351.856	100.75
352.083	90.75
352.311	104.75
352.538	87.75
352.765	104.75
352.992	116.75
353.22	110.75
353.447	103.75
353.674	91.75
353.901	91.75
354.128	98.75
354.355	92.75
354.583	97.75
354.81	101.75
355.037	83.75
355.264	71.75
355.491	85.75
355.718	96.75
355.945	91.75
356.172	93.75
356.399	90.75
356.626	89.75
356.853	100.75
357.08	90.75
357.307	95.75
357.534	91.75
357.761	79.75
357.988	83.75
358.215	100.75
358.441	90.75
358.668	90.75
358.895	86.75
359.122	82.75
359.349	90.75
359.576	84.75
359.802	94.75
360.029	101.75
360.256	95.75
360.483	84.75
360.709	78.75
360.936	90.75
361.163	85.75
361.39	85.75
361.616	83.75
361.843	85.75
362.07	87.75
362.296	85.75
362.523	84.75
362.749	86.75
362.976	79.75
363.203	94.75
363.429	92.75
363.656	89.75
363.882	81.75
364.109	75.75
364.335	95.75
364.562	78.75
364.788	85.75
365.015	95.75
365.241	93.75
365.468	106.75
365.694	97.75
365.92	87.75
366.147	79.75
366.373	79.75
366.599	91.75
366.826	81.75
367.052	74.75
367.278	90.75
367.505	98.75
367.731	77.75
367.957	92.75
368.184	94.75
368.41	99.75
368.636	106.75
368.862	110.75
369.089	101.75
369.315	85.75
369.541	75.75
369.767	70.75
369.993	87.75
370.219	86.75
370.445	88.75
370.672	91.75
370.898	86.75
371.124	92.75
371.35	82.75
371.576	92.75
371.802	80.75
372.028	88.75
372.254	100.75
372.48	83.75
372.706	91.75
372.932	89.75
373.158	79.75
373.384	91.75
373.61	83.75
373.835	73.75
374.061	98.75
374.287	84.75
374.513	85.75
374.739	86.75
374.965	85.75
375.191	78.75
375.416	93.75
375.642	85.75
375.868	76.75
376.094	85.75
376.319	82.75
376.545	82.75
376.771	69.75
376.997	100.75
377.222	93.75
377.448	90.75
377.674	89.75
377.899	76.75
378.125	85.75
378.35	74.75
378.576	84.75
378.802	87.75
379.027	99.75
379.253	83.75
379.478	85.75
379.704	75.75
379.929	92.75
380.155	80.75
380.38	79.75
380.606	89.75
380.831	82.75
381.057	88.75
381.282	82.75
381.507	72.75
381.733	95.75
381.958	96.75
382.184	83.75
382.409	105.75
382.634	99.75
382.86	87.75
383.085	90.75
383.31	94.75
383.535	82.75
383.761	84.75
383.986	85.75
384.211	106.75
384.436	88.75
384.662	88.75
384.887	97.75
385.112	100.75
385.337	92.75
385.562	96.75
385.787	96.75
386.013	110.75
386.238	122.75
386.463	103.75
386.688	103.75
386.913	74.75
387.138	98.75
387.363	113.75
387.588	77.75
387.813	103.75
388.038	83.75
388.263	104.75
388.488	101.75
388.713	89.75
388.938	83.75
389.163	86.75
389.387	89.75
389.612	94.75
389.837	87.75
390.062	86.75
390.287	90.75
390.512	93.75
390.736	94.75
390.961	89.75
391.186	94.75
391.411	103.75
391.636	82.75
391.86	94.75
392.085	89.75
392.31	82.75
392.534	80.75
392.759	111.75
392.984	87.75
393.208	75.75
393.433	86.75
393.658	81.75
393.882	72.75
394.107	80.75
394.331	81.75
394.556	82.75
394.78	93.75
395.005	84.75
395.229	77.75
395.454	89.75
395.678	76.75
395.903	77.75
396.127	85.75
396.352	93.75
396.576	93.75
396.801	100.75
397.025	82.75
397.249	72.75
397.474	87.75
397.698	92.75
397.922	89.75
398.147	66.75
398.371	78.75
398.595	92.75
398.82	93.75
399.044	81.75
399.268	85.75
399.492	84.75
399.717	103.75
399.941	77.75
400.165	76.75
400.389	98.75
400.613	76.75
400.837	84.75
401.062	85.75
401.286	85.75
401.51	85.75
401.734	91.75
401.958	104.75
402.182	110.75
402.406	142.75
402.63	113.75
402.854	94.75
403.078	84.75
403.302	97.75
403.526	73.75
403.75	92.75
403.974	79.75
404.198	85.75
404.422	83.75
404.645	82.75
404.869	90.75
405.093	100.75
405.317	93.75
405.541	88.75
405.765	90.75
405.988	110.75
406.212	156.75
406.436	215.75
406.66	132.75
406.883	105.75
407.107	109.75
407.331	91.75
407.555	94.75
407.778	91.75
408.002	72.75
408.226	85.75
408.449	106.75
408.673	84.75
408.896	86.75
409.12	90.75
409.344	79.75
409.567	84.75
409.791	81.75
410.014	88.75
410.238	96.75
410.461	86.75
410.685	87.75
410.908	102.75
411.132	100.75
411.355	86.75
411.578	92.75
411.802	89.75
412.025	80.75
412.249	85.75
412.472	79.75
412.695	88.75
412.919	81.75
413.142	86.75
413.365	88.75
413.589	77.75
413.812	80.75
414.035	89.75
414.258	86.75
414.482	86.75
414.705	81.75
414.928	88.75
415.151	83.75
415.374	93.75
415.597	100.75
415.821	81.75
416.044	110.75
416.267	79.75
416.49	89.75
416.713	88.75
416.936	92.75
417.159	83.75
417.382	85.75
417.605	88.75
417.828	85.75
418.051	81.75
418.274	88.75
418.497	82.75
418.72	82.75
418.943	82.75
419.166	94.75
419.389	67.75
419.611	91.75
419.834	93.75
420.057	90.75
420.28	68.75
420.503	80.75
420.726	89.75
420.948	84.75
421.171	84.75
421.394	81.75
421.617	86.75
421.839	85.75
422.062	84.75
422.285	97.75
422.507	107.75
422.73	92.75
422.953	94.75
423.175	88.75
423.398	86.75
423.621	91.75
423.843	89.75
424.066	76.75
424.288	74.75
424.511	80.75
424.733	86.75
424.956	101.75
425.178	99.75
425.401	91.75
425.623	98.75
425.846	97.75
426.068	85.75
426.291	79.75
426.513	83.75
426.735	85.75
426.958	114.75
427.18	96.75
427.402	142.75
427.625	153.75
427.847	121.75
428.069	103.75
428.292	79.75
428.514	66.75
428.736	72.75
428.958	70.75
429.181	93.75
429.403	83.75
429.625	97.75
429.847	90.75
430.069	86.75
430.292	80.75
430.514	80.75
430.736	76.75
430.958	88.75
431.18	91.75
431.402	99.75
431.624	80.75
431.846	80.75
432.068	79.75
432.29	70.75
432.512	83.75
432.734	81.75
432.956	84.75
433.178	102.75
433.4	104.75
433.622	95.75
433.844	68.75
434.066	88.75
434.287	80.75
434.509	87.75
434.731	82.75
434.953	89.75
435.175	72.75
435.397	86.75
435.618	80.75
435.84	100.75
436.062	122.75
436.284	107.75
436.505	99.75
436.727	99.75
436.949	90.75
437.17	87.75
437.392	102.75
437.614	89.75
437.835	99.75
438.057	124.75
438.278	113.75
438.5	95.75
438.721	122.75
438.943	95.75
439.165	83.75
439.386	93.75
439.608	95.75
439.829	116.75
440.05	124.75
440.272	123.75
440.493	98.75
440.715	90.75
440.936	73.75
441.158	86.75
441.379	97.75
441.6	87.75
441.822	78.75
442.043	74.75
442.264	107.75
442.486	97.75
442.707	89.75
442.928	105.75
443.149	123.75
443.371	114.75
443.592	111.75
443.813	107.75
444.034	106.75
444.255	84.75
444.476	75.75
444.698	86.75
444.919	95.75
445.14	125.75
445.361	120.75
445.582	104.75
445.803	140.75
446.024	131.75
446.245	131.75
446.466	105.75
446.687	73.75
446.908	86.75
447.129	78.75
447.35	73.75
447.571	75.75
447.792	78.75
448.013	83.75
448.234	87.75
448.455	82.75
448.675	110.75
448.896	115.75
449.117	102.75
449.338	99.75
449.559	143.75
449.779	142.75
450	102.75
450.221	86.75
450.442	82.75
450.662	77.75
450.883	112.75
451.104	113.75
451.324	110.75
451.545	77.75
451.766	87.75
451.986	80.75
452.207	90.75
452.428	81.75
452.648	89.75
452.869	90.75
453.089	104.75
453.31	118.75
453.53	91.75
453.751	77.75
453.971	103.75
454.192	109.75
454.412	96.75
454.633	88.75
454.853	86.75
455.073	80.75
455.294	71.75
455.514	86.75
455.734	83.75
455.955	78.75
456.175	81.75
456.395	96.75
456.616	84.75
456.836	65.75
457.056	82.75
457.276	61.75
457.497	81.75
457.717	81.75
457.937	87.75
458.157	86.75
458.377	87.75
458.598	95.75
458.818	143.75
459.038	148.75
459.258	103.75
459.478	71.75
459.698	81.75
459.918	85.75
460.138	95.75
460.358	67.75
460.578	74.75
460.798	90.75
461.018	99.75
461.238	90.75
461.458	67.75
461.678	90.75
461.898	89.75
462.118	83.75
462.338	85.75
462.558	93.75
462.777	81.75
462.997	87.75
463.217	90.75
463.437	87.75
463.657	68.75
463.876	64.75
464.096	93.75
464.316	95.75
464.536	95.75
464.755	98.75
464.975	114.75
465.195	154.75
465.414	137.75
465.634	89.75
465.854	93.75
466.073	94.75
466.293	90.75
466.512	83.75
466.732	86.75
466.951	74.75
467.171	73.75
467.391	89.75
467.61	86.75
467.829	75.75
468.049	84.75
468.268	86.75
468.488	93.75
468.707	75.75
468.927	70.75
469.146	76.75
469.365	75.75
469.585	86.75
469.804	97.75
470.023	91.75
470.243	100.75
470.462	89.75
470.681	99.75
470.901	87.75
471.12	89.75
471.339	94.75
471.558	82.75
471.777	83.75
471.997	98.75
472.216	106.75
472.435	80.75
472.654	78.75
472.873	78.75
473.092	73.75
473.311	82.75
473.53	75.75
473.749	87.75
473.968	86.75
474.187	98.75
474.406	91.75
474.625	86.75
474.844	93.75
475.063	77.75
475.282	82.75
475.501	101.75
475.72	94.75
475.939	85.75
476.158	102.75
476.377	92.75
476.596	84.75
476.814	90.75
477.033	88.75
477.252	84.75
477.471	83.75
477.69	85.75
477.908	72.75
478.127	85.75
478.346	99.75
478.564	101.75
478.783	102.75
479.002	84.75
479.22	95.75
479.439	91.75
479.658	90.75
479.876	104.75
480.095	81.75
480.313	92.75
480.532	76.75
480.751	91.75
480.969	88.75
481.188	103.75
481.406	99.75
481.624	90.75
481.843	83.75
482.061	88.75
482.28	86.75
482.498	89.75
482.717	81.75
482.935	81.75
483.153	83.75
483.372	81.75
483.59	88.75
483.808	89.75
484.027	96.75
484.245	83.75
484.463	78.75
484.681	89.75
484.9	92.75
485.118	99.75
485.336	89.75
485.554	90.75
485.772	87.75
485.99	90.75
486.209	78.75
486.427	103.75
486.645	99.75
486.863	94.75
487.081	106.75
487.299	101.75
487.517	105.75
487.735	98.75
487.953	77.75
488.171	95.75
488.389	95.75
488.607	105.75
488.825	95.75
489.043	84.75
489.261	91.75
489.479	87.75
489.696	86.75
489.914	79.75
490.132	88.75
490.35	87.75
490.568	75.75
490.786	71.75
491.003	81.75
491.221	79.75
491.439	82.75
491.657	87.75
491.874	84.75
492.092	83.75
492.31	86.75
492.527	86.75
492.745	85.75
492.963	88.75
493.18	97.75
493.398	95.75
493.615	103.75
493.833	78.75
494.05	88.75
494.268	80.75
494.485	96.75
494.703	81.75
494.92	77.75
495.138	78.75
495.355	86.75
495.573	95.75
495.79	65.75
496.008	81.75
496.225	92.75
496.442	94.75
496.66	85.75
496.877	89.75
497.094	89.75
497.312	83.75
497.529	82.75
497.746	85.75
497.963	84.75
498.181	86.75
498.398	91.75
498.615	119.75
498.832	104.75
499.049	91.75
499.267	90.75
499.484	62.75
499.701	94.75
499.918	88.75
500.135	75.75
500.352	85.75
500.569	76.75
500.786	78.75
501.003	75.75
501.22	89.75
501.437	85.75
501.654	90.75
501.871	95.75
502.088	98.75
502.305	89.75
502.522	83.75
502.739	84.75
502.956	83.75
503.172	81.75
503.389	76.75
503.606	101.75
503.823	90.75
504.04	92.75
504.256	94.75
504.473	92.75
504.69	95.75
504.907	101.75
505.123	85.75
505.34	76.75
505.557	96.75
505.773	87.75
505.99	79.75
506.207	73.75
506.423	91.75
506.64	93.75
506.856	83.75
507.073	83.75
507.289	91.75
507.506	74.75
507.722	98.75
507.939	89.75
508.155	93.75
508.372	97.75
508.588	95.75
508.805	95.75
509.021	73.75
509.238	86.75
509.454	102.75
509.67	101.75
509.887	100.75
510.103	118.75
510.319	207.75
510.536	729.75
510.752	2211.75
510.968	618.75
511.184	143.75
511.401	107.75
511.617	107.75
511.833	105.75
512.049	89.75
512.265	92.75
512.481	78.75
512.698	84.75
512.914	90.75
513.13	91.75
513.346	80.75
513.562	84.75
513.778	84.75
513.994	94.75
514.21	85.75
514.426	109.75
514.642	133.75
514.858	123.75
515.074	167.75
515.29	419.75
515.506	1421.75
515.721	505.75
515.937	133.75
516.153	93.75
516.369	83.75
516.585	85.75
516.801	90.75
517.016	95.75
