Data from Uncirc_1998_H10_HRD10591_00052.txt Node
Date: Wed Jan 03 11:25:35 EST 2024
User: Yrep
Spectrometer: HR+D1059
Trigger mode: 1
Integration Time (sec): 1.000000E-1
Scans to average: 1
Electric dark correction enabled: true
Nonlinearity correction enabled: false
Boxcar width: 0
XAxis mode: Wavelengths
Number of Pixels in Spectrum: 2048
>>>>>Begin Spectral Data<<<<<
223.165	-14.06
223.4	-14.06
223.635	-14.06
223.869	-15.06
224.104	-28.06
224.338	-14.06
224.573	-25.06
224.808	-6.06
225.042	-11.06
225.277	-19.06
225.511	-3.06
225.746	25.94
225.98	0.94
226.215	3.94
226.449	23.94
226.683	17.94
226.918	41.94
227.152	20.94
227.387	35.94
227.621	35.94
227.856	37.94
228.09	44.94
228.324	43.94
228.559	61.94
228.793	49.94
229.027	76.94
229.262	53.94
229.496	63.94
229.73	65.94
229.964	87.94
230.199	65.94
230.433	67.94
230.667	69.94
230.901	72.94
231.136	91.94
231.37	77.94
231.604	76.94
231.838	81.94
232.072	71.94
232.306	67.94
232.541	80.94
232.775	80.94
233.009	64.94
233.243	71.94
233.477	82.94
233.711	73.94
233.945	80.94
234.179	72.94
234.413	74.94
234.647	75.94
234.881	70.94
235.115	78.94
235.349	64.94
235.583	83.94
235.817	63.94
236.051	68.94
236.285	67.94
236.519	86.94
236.753	80.94
236.987	76.94
237.221	93.94
237.455	90.94
237.689	77.94
237.922	81.94
238.156	65.94
238.39	77.94
238.624	64.94
238.858	63.94
239.091	65.94
239.325	72.94
239.559	69.94
239.793	75.94
240.027	60.94
240.26	93.94
240.494	72.94
240.728	82.94
240.961	83.94
241.195	78.94
241.429	67.94
241.662	77.94
241.896	81.94
242.13	87.94
242.363	79.94
242.597	74.94
242.83	71.94
243.064	72.94
243.298	75.94
243.531	73.94
243.765	70.94
243.998	75.94
244.232	75.94
244.465	84.94
244.699	93.94
244.932	79.94
245.166	86.94
245.399	85.94
245.633	73.94
245.866	82.94
246.099	71.94
246.333	81.94
246.566	62.94
246.8	63.94
247.033	78.94
247.266	75.94
247.5	78.94
247.733	77.94
247.966	67.94
248.2	75.94
248.433	64.94
248.666	74.94
248.899	86.94
249.133	84.94
249.366	113.94
249.599	103.94
249.832	72.94
250.066	63.94
250.299	73.94
250.532	97.94
250.765	83.94
250.998	79.94
251.231	72.94
251.465	71.94
251.698	83.94
251.931	72.94
252.164	98.94
252.397	81.94
252.63	69.94
252.863	75.94
253.096	79.94
253.329	81.94
253.562	73.94
253.795	86.94
254.028	79.94
254.261	83.94
254.494	84.94
254.727	90.94
254.96	75.94
255.193	74.94
255.426	88.94
255.659	73.94
255.892	88.94
256.124	76.94
256.357	76.94
256.59	63.94
256.823	86.94
257.056	65.94
257.289	84.94
257.521	76.94
257.754	70.94
257.987	75.94
258.22	73.94
258.452	68.94
258.685	79.94
258.918	90.94
259.151	73.94
259.383	68.94
259.616	82.94
259.849	78.94
260.081	80.94
260.314	78.94
260.547	76.94
260.779	73.94
261.012	82.94
261.244	75.94
261.477	91.94
261.71	96.94
261.942	88.94
262.175	100.94
262.407	81.94
262.64	79.94
262.872	75.94
263.105	84.94
263.337	96.94
263.57	81.94
263.802	89.94
264.035	84.94
264.267	61.94
264.499	81.94
264.732	84.94
264.964	85.94
265.197	81.94
265.429	75.94
265.661	88.94
265.894	75.94
266.126	80.94
266.358	70.94
266.591	85.94
266.823	71.94
267.055	85.94
267.287	83.94
267.52	88.94
267.752	79.94
267.984	95.94
268.216	80.94
268.448	80.94
268.681	83.94
268.913	90.94
269.145	73.94
269.377	77.94
269.609	81.94
269.841	87.94
270.073	83.94
270.306	78.94
270.538	71.94
270.77	90.94
271.002	78.94
271.234	77.94
271.466	89.94
271.698	84.94
271.93	78.94
272.162	83.94
272.394	81.94
272.626	92.94
272.858	92.94
273.09	88.94
273.322	92.94
273.553	87.94
273.785	74.94
274.017	74.94
274.249	79.94
274.481	64.94
274.713	86.94
274.945	81.94
275.176	96.94
275.408	88.94
275.64	77.94
275.872	88.94
276.104	83.94
276.335	68.94
276.567	94.94
276.799	116.94
277.031	85.94
277.262	85.94
277.494	80.94
277.726	89.94
277.957	74.94
278.189	82.94
278.421	89.94
278.652	83.94
278.884	97.94
279.115	90.94
279.347	103.94
279.579	95.94
279.81	75.94
280.042	87.94
280.273	81.94
280.505	90.94
280.736	93.94
280.968	83.94
281.199	95.94
281.431	96.94
281.662	82.94
281.894	78.94
282.125	95.94
282.356	108.94
282.588	110.94
282.819	120.94
283.051	100.94
283.282	82.94
283.513	93.94
283.745	73.94
283.976	76.94
284.207	91.94
284.439	86.94
284.67	80.94
284.901	76.94
285.132	83.94
285.364	89.94
285.595	85.94
285.826	88.94
286.057	86.94
286.288	79.94
286.52	82.94
286.751	91.94
286.982	100.94
287.213	87.94
287.444	89.94
287.675	76.94
287.906	74.94
288.138	74.94
288.369	92.94
288.6	84.94
288.831	81.94
289.062	101.94
289.293	93.94
289.524	78.94
289.755	72.94
289.986	70.94
290.217	73.94
290.448	88.94
290.679	79.94
290.91	97.94
291.141	91.94
291.371	90.94
291.602	87.94
291.833	90.94
292.064	95.94
292.295	72.94
292.526	85.94
292.757	93.94
292.987	76.94
293.218	90.94
293.449	88.94
293.68	89.94
293.91	91.94
294.141	81.94
294.372	93.94
294.603	103.94
294.833	86.94
295.064	87.94
295.295	99.94
295.525	98.94
295.756	95.94
295.987	105.94
296.217	124.94
296.448	115.94
296.679	81.94
296.909	79.94
297.14	84.94
297.37	67.94
297.601	85.94
297.831	89.94
298.062	81.94
298.292	83.94
298.523	90.94
298.753	78.94
298.984	91.94
299.214	74.94
299.445	81.94
299.675	87.94
299.905	98.94
300.136	81.94
300.366	89.94
300.597	83.94
300.827	102.94
301.057	103.94
301.288	100.94
301.518	81.94
301.748	99.94
301.979	87.94
302.209	80.94
302.439	89.94
302.669	97.94
302.9	92.94
303.13	90.94
303.36	89.94
303.59	104.94
303.82	102.94
304.051	87.94
304.281	76.94
304.511	97.94
304.741	87.94
304.971	91.94
305.201	107.94
305.431	93.94
305.661	95.94
305.891	92.94
306.121	87.94
306.352	92.94
306.582	91.94
306.812	106.94
307.042	86.94
307.272	90.94
307.502	104.94
307.731	96.94
307.961	98.94
308.191	93.94
308.421	89.94
308.651	86.94
308.881	90.94
309.111	88.94
309.341	77.94
309.571	97.94
309.8	97.94
310.03	104.94
310.26	85.94
310.49	108.94
310.72	102.94
310.949	107.94
311.179	94.94
311.409	80.94
311.639	99.94
311.868	97.94
312.098	88.94
312.328	90.94
312.557	93.94
312.787	86.94
313.017	110.94
313.246	97.94
313.476	80.94
313.706	93.94
313.935	103.94
314.165	83.94
314.394	98.94
314.624	100.94
314.853	95.94
315.083	91.94
315.312	87.94
315.542	93.94
315.771	80.94
316.001	97.94
316.23	83.94
316.46	88.94
316.689	83.94
316.919	98.94
317.148	85.94
317.377	91.94
317.607	83.94
317.836	103.94
318.065	89.94
318.295	90.94
318.524	92.94
318.753	95.94
318.983	95.94
319.212	99.94
319.441	109.94
319.67	98.94
319.9	101.94
320.129	92.94
320.358	77.94
320.587	104.94
320.816	97.94
321.046	96.94
321.275	88.94
321.504	93.94
321.733	84.94
321.962	91.94
322.191	86.94
322.42	106.94
322.649	105.94
322.878	103.94
323.108	103.94
323.337	122.94
323.566	122.94
323.795	128.94
324.024	176.94
324.253	337.94
324.482	720.94
324.71	1438.94
324.939	1929.94
325.168	709.94
325.397	220.94
325.626	126.94
325.855	126.94
326.084	124.94
326.313	121.94
326.542	139.94
326.77	207.94
326.999	394.94
327.228	803.94
327.457	1500.94
327.686	1225.94
327.914	344.94
328.143	183.94
328.372	136.94
328.6	103.94
328.829	100.94
329.058	108.94
329.287	118.94
329.515	93.94
329.744	98.94
329.972	93.94
330.201	97.94
330.43	113.94
330.658	99.94
330.887	126.94
331.115	105.94
331.344	92.94
331.572	90.94
331.801	104.94
332.03	104.94
332.258	97.94
332.486	89.94
332.715	89.94
332.943	95.94
333.172	99.94
333.4	96.94
333.629	102.94
333.857	109.94
334.085	85.94
334.314	92.94
334.542	93.94
334.771	98.94
334.999	103.94
335.227	102.94
335.455	96.94
335.684	77.94
335.912	87.94
336.14	88.94
336.369	105.94
336.597	93.94
336.825	93.94
337.053	95.94
337.281	95.94
337.51	94.94
337.738	89.94
337.966	96.94
338.194	102.94
338.422	83.94
338.65	93.94
338.878	99.94
339.106	82.94
339.334	97.94
339.562	92.94
339.79	93.94
340.018	94.94
340.246	86.94
340.474	99.94
340.702	82.94
340.93	91.94
341.158	86.94
341.386	91.94
341.614	104.94
341.842	113.94
342.07	94.94
342.298	95.94
342.526	93.94
342.754	95.94
342.981	88.94
343.209	88.94
343.437	109.94
343.665	80.94
343.893	84.94
344.12	81.94
344.348	80.94
344.576	95.94
344.804	81.94
345.031	97.94
345.259	101.94
345.487	88.94
345.714	107.94
345.942	95.94
346.17	86.94
346.397	90.94
346.625	102.94
346.853	76.94
347.08	102.94
347.308	115.94
347.535	96.94
347.763	104.94
347.99	103.94
348.218	97.94
348.445	107.94
348.673	93.94
348.9	99.94
349.128	105.94
349.355	97.94
349.583	83.94
349.81	91.94
350.037	88.94
350.265	88.94
350.492	93.94
350.72	91.94
350.947	101.94
351.174	107.94
351.402	106.94
351.629	119.94
351.856	102.94
352.083	92.94
352.311	92.94
352.538	94.94
352.765	97.94
352.992	106.94
353.22	96.94
353.447	99.94
353.674	99.94
353.901	105.94
354.128	103.94
354.355	92.94
354.583	99.94
354.81	93.94
355.037	75.94
355.264	96.94
355.491	92.94
355.718	85.94
355.945	88.94
356.172	107.94
356.399	102.94
356.626	105.94
356.853	85.94
357.08	83.94
357.307	100.94
357.534	86.94
357.761	79.94
357.988	92.94
358.215	81.94
358.441	95.94
358.668	87.94
358.895	102.94
359.122	89.94
359.349	95.94
359.576	108.94
359.802	94.94
360.029	102.94
360.256	104.94
360.483	92.94
360.709	107.94
360.936	95.94
361.163	80.94
361.39	96.94
361.616	88.94
361.843	87.94
362.07	97.94
362.296	95.94
362.523	81.94
362.749	92.94
362.976	89.94
363.203	93.94
363.429	84.94
363.656	83.94
363.882	85.94
364.109	91.94
364.335	91.94
364.562	91.94
364.788	100.94
365.015	87.94
365.241	102.94
365.468	101.94
365.694	107.94
365.92	87.94
366.147	77.94
366.373	85.94
366.599	106.94
366.826	91.94
367.052	93.94
367.278	96.94
367.505	92.94
367.731	87.94
367.957	81.94
368.184	91.94
368.41	97.94
368.636	96.94
368.862	97.94
369.089	103.94
369.315	81.94
369.541	104.94
369.767	89.94
369.993	91.94
370.219	96.94
370.445	79.94
370.672	100.94
370.898	86.94
371.124	91.94
371.35	80.94
371.576	86.94
371.802	80.94
372.028	88.94
372.254	85.94
372.48	92.94
372.706	78.94
372.932	80.94
373.158	94.94
373.384	87.94
373.61	77.94
373.835	96.94
374.061	89.94
374.287	75.94
374.513	87.94
374.739	90.94
374.965	83.94
375.191	85.94
375.416	103.94
375.642	87.94
375.868	85.94
376.094	76.94
376.319	82.94
376.545	81.94
376.771	91.94
376.997	98.94
377.222	85.94
377.448	84.94
377.674	95.94
377.899	69.94
378.125	79.94
378.35	90.94
378.576	86.94
378.802	86.94
379.027	88.94
379.253	85.94
379.478	83.94
379.704	88.94
379.929	84.94
380.155	94.94
380.38	101.94
380.606	97.94
380.831	96.94
381.057	91.94
381.282	93.94
381.507	82.94
381.733	96.94
381.958	95.94
382.184	83.94
382.409	78.94
382.634	97.94
382.86	85.94
383.085	89.94
383.31	88.94
383.535	97.94
383.761	93.94
383.986	100.94
384.211	89.94
384.436	102.94
384.662	106.94
384.887	104.94
385.112	94.94
385.337	99.94
385.562	93.94
385.787	88.94
386.013	100.94
386.238	101.94
386.463	100.94
386.688	109.94
386.913	103.94
387.138	104.94
387.363	101.94
387.588	82.94
387.813	97.94
388.038	88.94
388.263	113.94
388.488	100.94
388.713	103.94
388.938	108.94
389.163	112.94
389.387	76.94
389.612	89.94
389.837	92.94
390.062	92.94
390.287	96.94
390.512	83.94
390.736	96.94
390.961	79.94
391.186	87.94
391.411	107.94
391.636	76.94
391.86	72.94
392.085	94.94
392.31	85.94
392.534	89.94
392.759	95.94
392.984	88.94
393.208	88.94
393.433	78.94
393.658	71.94
393.882	90.94
394.107	89.94
394.331	89.94
394.556	94.94
394.78	91.94
395.005	87.94
395.229	79.94
395.454	70.94
395.678	94.94
395.903	102.94
396.127	85.94
396.352	86.94
396.576	76.94
396.801	93.94
397.025	79.94
397.249	79.94
397.474	103.94
397.698	82.94
397.922	93.94
398.147	93.94
398.371	76.94
398.595	92.94
398.82	91.94
399.044	86.94
399.268	93.94
399.492	94.94
399.717	84.94
399.941	80.94
400.165	99.94
400.389	94.94
400.613	99.94
400.837	84.94
401.062	91.94
401.286	80.94
401.51	67.94
401.734	82.94
401.958	96.94
402.182	115.94
402.406	145.94
402.63	108.94
402.854	94.94
403.078	91.94
403.302	94.94
403.526	77.94
403.75	96.94
403.974	72.94
404.198	89.94
404.422	88.94
404.645	93.94
404.869	97.94
405.093	87.94
405.317	97.94
405.541	101.94
405.765	102.94
405.988	115.94
406.212	147.94
406.436	203.94
406.66	131.94
406.883	102.94
407.107	91.94
407.331	72.94
407.555	101.94
407.778	88.94
408.002	88.94
408.226	86.94
408.449	91.94
408.673	84.94
408.896	94.94
409.12	94.94
409.344	91.94
409.567	89.94
409.791	92.94
410.014	87.94
410.238	94.94
410.461	95.94
410.685	95.94
410.908	113.94
411.132	102.94
411.355	106.94
411.578	97.94
411.802	86.94
412.025	99.94
412.249	79.94
412.472	93.94
412.695	92.94
412.919	96.94
413.142	88.94
413.365	100.94
413.589	90.94
413.812	100.94
414.035	93.94
414.258	98.94
414.482	87.94
414.705	82.94
414.928	94.94
415.151	79.94
415.374	73.94
415.597	71.94
415.821	85.94
416.044	91.94
416.267	89.94
416.49	79.94
416.713	91.94
416.936	92.94
417.159	89.94
417.382	77.94
417.605	85.94
417.828	92.94
418.051	87.94
418.274	82.94
418.497	85.94
418.72	100.94
418.943	80.94
419.166	76.94
419.389	89.94
419.611	83.94
419.834	90.94
420.057	94.94
420.28	101.94
420.503	91.94
420.726	95.94
420.948	82.94
421.171	82.94
421.394	85.94
421.617	91.94
421.839	80.94
422.062	86.94
422.285	90.94
422.507	92.94
422.73	100.94
422.953	88.94
423.175	97.94
423.398	91.94
423.621	86.94
423.843	78.94
424.066	83.94
424.288	95.94
424.511	73.94
424.733	63.94
424.956	83.94
425.178	100.94
425.401	106.94
425.623	103.94
425.846	99.94
426.068	82.94
426.291	88.94
426.513	88.94
426.735	96.94
426.958	101.94
427.18	90.94
427.402	116.94
427.625	158.94
427.847	116.94
428.069	107.94
428.292	85.94
428.514	102.94
428.736	69.94
428.958	82.94
429.181	78.94
429.403	73.94
429.625	78.94
429.847	71.94
430.069	87.94
430.292	82.94
430.514	81.94
430.736	80.94
430.958	81.94
431.18	91.94
431.402	91.94
431.624	81.94
431.846	85.94
432.068	88.94
432.29	84.94
432.512	90.94
432.734	85.94
432.956	76.94
433.178	89.94
433.4	103.94
433.622	93.94
433.844	83.94
434.066	78.94
434.287	91.94
434.509	86.94
434.731	102.94
434.953	78.94
435.175	82.94
435.397	96.94
435.618	86.94
435.84	95.94
436.062	124.94
436.284	91.94
436.505	79.94
436.727	88.94
436.949	91.94
437.17	86.94
437.392	83.94
437.614	99.94
437.835	96.94
438.057	102.94
438.278	111.94
438.5	105.94
438.721	132.94
438.943	92.94
439.165	81.94
439.386	78.94
439.608	91.94
439.829	74.94
440.05	106.94
440.272	126.94
440.493	91.94
440.715	88.94
440.936	83.94
441.158	83.94
441.379	91.94
441.6	84.94
441.822	97.94
442.043	86.94
442.264	105.94
442.486	84.94
442.707	101.94
442.928	106.94
443.149	106.94
443.371	111.94
443.592	97.94
443.813	87.94
444.034	102.94
444.255	98.94
444.476	99.94
444.698	96.94
444.919	95.94
445.14	131.94
445.361	105.94
445.582	119.94
445.803	124.94
446.024	112.94
446.245	116.94
446.466	94.94
446.687	90.94
446.908	92.94
447.129	87.94
447.35	90.94
447.571	89.94
447.792	90.94
448.013	79.94
448.234	101.94
448.455	97.94
448.675	100.94
448.896	107.94
449.117	87.94
449.338	104.94
449.559	119.94
449.779	129.94
450	91.94
450.221	87.94
450.442	78.94
450.662	84.94
450.883	101.94
451.104	115.94
451.324	89.94
451.545	86.94
451.766	102.94
451.986	85.94
452.207	81.94
452.428	99.94
452.648	93.94
452.869	111.94
453.089	90.94
453.31	101.94
453.53	95.94
453.751	85.94
453.971	100.94
454.192	101.94
454.412	95.94
454.633	83.94
454.853	91.94
455.073	93.94
455.294	84.94
455.514	90.94
455.734	83.94
455.955	80.94
456.175	84.94
456.395	80.94
456.616	73.94
456.836	77.94
457.056	98.94
457.276	72.94
457.497	99.94
457.717	71.94
457.937	77.94
458.157	84.94
458.377	95.94
458.598	95.94
458.818	130.94
459.038	135.94
459.258	104.94
459.478	83.94
459.698	81.94
459.918	72.94
460.138	91.94
460.358	77.94
460.578	87.94
460.798	83.94
461.018	95.94
461.238	75.94
461.458	76.94
461.678	73.94
461.898	84.94
462.118	98.94
462.338	84.94
462.558	81.94
462.777	83.94
462.997	87.94
463.217	74.94
463.437	77.94
463.657	87.94
463.876	88.94
464.096	88.94
464.316	96.94
464.536	92.94
464.755	89.94
464.975	119.94
465.195	136.94
465.414	108.94
465.634	102.94
465.854	92.94
466.073	87.94
466.293	89.94
466.512	80.94
466.732	84.94
466.951	92.94
467.171	90.94
467.391	96.94
467.61	85.94
467.829	94.94
468.049	96.94
468.268	84.94
468.488	76.94
468.707	67.94
468.927	90.94
469.146	85.94
469.365	83.94
469.585	89.94
469.804	86.94
470.023	94.94
470.243	85.94
470.462	114.94
470.681	99.94
470.901	86.94
471.12	99.94
471.339	80.94
471.558	83.94
471.777	80.94
471.997	103.94
472.216	102.94
472.435	95.94
472.654	83.94
472.873	72.94
473.092	82.94
473.311	93.94
473.53	85.94
473.749	73.94
473.968	85.94
474.187	100.94
474.406	101.94
474.625	89.94
474.844	77.94
475.063	94.94
475.282	83.94
475.501	79.94
475.72	85.94
475.939	83.94
476.158	90.94
476.377	93.94
476.596	90.94
476.814	86.94
477.033	97.94
477.252	91.94
477.471	89.94
477.69	87.94
477.908	81.94
478.127	97.94
478.346	73.94
478.564	93.94
478.783	82.94
479.002	101.94
479.22	83.94
479.439	97.94
479.658	94.94
479.876	89.94
480.095	91.94
480.313	105.94
480.532	91.94
480.751	83.94
480.969	91.94
481.188	100.94
481.406	85.94
481.624	70.94
481.843	96.94
482.061	82.94
482.28	84.94
482.498	98.94
482.717	80.94
482.935	78.94
483.153	82.94
483.372	85.94
483.59	86.94
483.808	105.94
484.027	93.94
484.245	96.94
484.463	78.94
484.681	85.94
484.9	87.94
485.118	90.94
485.336	95.94
485.554	93.94
485.772	102.94
485.99	95.94
486.209	90.94
486.427	100.94
486.645	104.94
486.863	106.94
487.081	89.94
487.299	93.94
487.517	94.94
487.735	85.94
487.953	92.94
488.171	85.94
488.389	85.94
488.607	90.94
488.825	89.94
489.043	84.94
489.261	80.94
489.479	92.94
489.696	108.94
489.914	101.94
490.132	98.94
490.35	95.94
490.568	84.94
490.786	85.94
491.003	77.94
491.221	90.94
491.439	87.94
491.657	88.94
491.874	92.94
492.092	75.94
492.31	80.94
492.527	74.94
492.745	84.94
492.963	93.94
493.18	84.94
493.398	83.94
493.615	85.94
493.833	97.94
494.05	91.94
494.268	83.94
494.485	92.94
494.703	87.94
494.92	87.94
495.138	80.94
495.355	83.94
495.573	101.94
495.79	90.94
496.008	83.94
496.225	91.94
496.442	80.94
496.66	91.94
496.877	76.94
497.094	90.94
497.312	102.94
497.529	103.94
497.746	100.94
497.963	89.94
498.181	85.94
498.398	92.94
498.615	89.94
498.832	95.94
499.049	105.94
499.267	93.94
499.484	89.94
499.701	97.94
499.918	91.94
500.135	96.94
500.352	83.94
500.569	73.94
500.786	85.94
501.003	89.94
501.22	85.94
501.437	86.94
501.654	78.94
501.871	101.94
502.088	103.94
502.305	90.94
502.522	96.94
502.739	80.94
502.956	84.94
503.172	92.94
503.389	92.94
503.606	89.94
503.823	78.94
504.04	76.94
504.256	81.94
504.473	71.94
504.69	68.94
504.907	77.94
505.123	84.94
505.34	83.94
505.557	89.94
505.773	77.94
505.99	90.94
506.207	92.94
506.423	83.94
506.64	73.94
506.856	83.94
507.073	82.94
507.289	78.94
507.506	99.94
507.722	109.94
507.939	101.94
508.155	91.94
508.372	101.94
508.588	84.94
508.805	79.94
509.021	89.94
509.238	95.94
509.454	83.94
509.67	100.94
509.887	116.94
510.103	134.94
510.319	187.94
510.536	624.94
510.752	1857.94
510.968	533.94
511.184	128.94
511.401	101.94
511.617	90.94
511.833	94.94
512.049	73.94
512.265	90.94
512.481	97.94
512.698	86.94
512.914	86.94
513.13	73.94
513.346	100.94
513.562	88.94
513.778	96.94
513.994	87.94
514.21	96.94
514.426	91.94
514.642	112.94
514.858	115.94
515.074	131.94
515.29	365.94
515.506	1099.94
515.721	418.94
515.937	129.94
516.153	99.94
516.369	92.94
516.585	97.94
