Data from Uncirc_1998_H10_HRD10591_00073.txt Node
Date: Wed Jan 03 11:25:39 EST 2024
User: Yrep
Spectrometer: HR+D1059
Trigger mode: 1
Integration Time (sec): 1.000000E-1
Scans to average: 1
Electric dark correction enabled: true
Nonlinearity correction enabled: false
Boxcar width: 0
XAxis mode: Wavelengths
Number of Pixels in Spectrum: 2048
>>>>>Begin Spectral Data<<<<<
223.165	-21.31
223.4	-21.31
223.635	-21.31
223.869	-19.31
224.104	-33.31
224.338	-13.31
224.573	-14.31
224.808	-16.31
225.042	-1.31
225.277	-8.31
225.511	-8.31
225.746	14.69
225.98	13.69
226.215	9.69
226.449	13.69
226.683	26.69
226.918	30.69
227.152	26.69
227.387	22.69
227.621	32.69
227.856	42.69
228.09	46.69
228.324	55.69
228.559	49.69
228.793	50.69
229.027	65.69
229.262	63.69
229.496	65.69
229.73	81.69
229.964	64.69
230.199	64.69
230.433	62.69
230.667	77.69
230.901	82.69
231.136	83.69
231.37	89.69
231.604	69.69
231.838	84.69
232.072	62.69
232.306	65.69
232.541	71.69
232.775	81.69
233.009	76.69
233.243	79.69
233.477	85.69
233.711	86.69
233.945	75.69
234.179	80.69
234.413	84.69
234.647	83.69
234.881	73.69
235.115	80.69
235.349	73.69
235.583	80.69
235.817	76.69
236.051	76.69
236.285	78.69
236.519	70.69
236.753	84.69
236.987	79.69
237.221	72.69
237.455	71.69
237.689	77.69
237.922	69.69
238.156	73.69
238.39	61.69
238.624	80.69
238.858	68.69
239.091	80.69
239.325	72.69
239.559	70.69
239.793	93.69
240.027	97.69
240.26	81.69
240.494	73.69
240.728	66.69
240.961	68.69
241.195	86.69
241.429	82.69
241.662	88.69
241.896	84.69
242.13	84.69
242.363	66.69
242.597	78.69
242.83	70.69
243.064	89.69
243.298	59.69
243.531	76.69
243.765	85.69
243.998	84.69
244.232	74.69
244.465	84.69
244.699	86.69
244.932	74.69
245.166	67.69
245.399	74.69
245.633	71.69
245.866	61.69
246.099	74.69
246.333	66.69
246.566	79.69
246.8	66.69
247.033	75.69
247.266	86.69
247.5	73.69
247.733	76.69
247.966	97.69
248.2	65.69
248.433	81.69
248.666	64.69
248.899	84.69
249.133	73.69
249.366	85.69
249.599	86.69
249.832	82.69
250.066	78.69
250.299	70.69
250.532	83.69
250.765	78.69
250.998	74.69
251.231	74.69
251.465	72.69
251.698	80.69
251.931	72.69
252.164	76.69
252.397	79.69
252.63	73.69
252.863	60.69
253.096	89.69
253.329	92.69
253.562	76.69
253.795	97.69
254.028	95.69
254.261	65.69
254.494	71.69
254.727	74.69
254.96	76.69
255.193	74.69
255.426	84.69
255.659	84.69
255.892	82.69
256.124	69.69
256.357	84.69
256.59	76.69
256.823	77.69
257.056	74.69
257.289	85.69
257.521	82.69
257.754	73.69
257.987	104.69
258.22	87.69
258.452	73.69
258.685	78.69
258.918	88.69
259.151	84.69
259.383	71.69
259.616	88.69
259.849	89.69
260.081	85.69
260.314	88.69
260.547	66.69
260.779	76.69
261.012	95.69
261.244	88.69
261.477	99.69
261.71	86.69
261.942	108.69
262.175	103.69
262.407	94.69
262.64	87.69
262.872	72.69
263.105	93.69
263.337	95.69
263.57	86.69
263.802	80.69
264.035	92.69
264.267	65.69
264.499	80.69
264.732	91.69
264.964	65.69
265.197	78.69
265.429	81.69
265.661	80.69
265.894	92.69
266.126	100.69
266.358	77.69
266.591	90.69
266.823	80.69
267.055	83.69
267.287	76.69
267.52	82.69
267.752	80.69
267.984	79.69
268.216	91.69
268.448	97.69
268.681	89.69
268.913	75.69
269.145	103.69
269.377	81.69
269.609	74.69
269.841	73.69
270.073	80.69
270.306	86.69
270.538	83.69
270.77	84.69
271.002	76.69
271.234	90.69
271.466	92.69
271.698	88.69
271.93	94.69
272.162	82.69
272.394	85.69
272.626	90.69
272.858	80.69
273.09	76.69
273.322	95.69
273.553	79.69
273.785	89.69
274.017	90.69
274.249	85.69
274.481	72.69
274.713	74.69
274.945	91.69
275.176	74.69
275.408	99.69
275.64	79.69
275.872	81.69
276.104	94.69
276.335	87.69
276.567	92.69
276.799	92.69
277.031	89.69
277.262	76.69
277.494	89.69
277.726	84.69
277.957	92.69
278.189	89.69
278.421	92.69
278.652	72.69
278.884	94.69
279.115	85.69
279.347	74.69
279.579	94.69
279.81	85.69
280.042	79.69
280.273	72.69
280.505	78.69
280.736	87.69
280.968	77.69
281.199	97.69
281.431	70.69
281.662	82.69
281.894	82.69
282.125	94.69
282.356	95.69
282.588	126.69
282.819	110.69
283.051	79.69
283.282	84.69
283.513	82.69
283.745	80.69
283.976	94.69
284.207	91.69
284.439	83.69
284.67	85.69
284.901	91.69
285.132	87.69
285.364	90.69
285.595	97.69
285.826	89.69
286.057	95.69
286.288	90.69
286.52	78.69
286.751	92.69
286.982	81.69
287.213	76.69
287.444	72.69
287.675	79.69
287.906	88.69
288.138	85.69
288.369	77.69
288.6	90.69
288.831	78.69
289.062	92.69
289.293	77.69
289.524	80.69
289.755	69.69
289.986	91.69
290.217	86.69
290.448	91.69
290.679	90.69
290.91	92.69
291.141	91.69
291.371	83.69
291.602	81.69
291.833	75.69
292.064	84.69
292.295	89.69
292.526	94.69
292.757	81.69
292.987	93.69
293.218	87.69
293.449	91.69
293.68	78.69
293.91	85.69
294.141	80.69
294.372	94.69
294.603	96.69
294.833	79.69
295.064	79.69
295.295	86.69
295.525	70.69
295.756	98.69
295.987	104.69
296.217	120.69
296.448	104.69
296.679	101.69
296.909	86.69
297.14	64.69
297.37	88.69
297.601	78.69
297.831	80.69
298.062	88.69
298.292	89.69
298.523	80.69
298.753	78.69
298.984	102.69
299.214	94.69
299.445	87.69
299.675	76.69
299.905	81.69
300.136	91.69
300.366	81.69
300.597	95.69
300.827	109.69
301.057	81.69
301.288	93.69
301.518	85.69
301.748	77.69
301.979	101.69
302.209	74.69
302.439	78.69
302.669	102.69
302.9	106.69
303.13	90.69
303.36	87.69
303.59	93.69
303.82	87.69
304.051	88.69
304.281	88.69
304.511	92.69
304.741	91.69
304.971	76.69
305.201	92.69
305.431	84.69
305.661	99.69
305.891	90.69
306.121	91.69
306.352	92.69
306.582	89.69
306.812	89.69
307.042	93.69
307.272	96.69
307.502	101.69
307.731	90.69
307.961	84.69
308.191	88.69
308.421	84.69
308.651	85.69
308.881	94.69
309.111	100.69
309.341	104.69
309.571	96.69
309.8	82.69
310.03	91.69
310.26	99.69
310.49	88.69
310.72	96.69
310.949	108.69
311.179	100.69
311.409	94.69
311.639	89.69
311.868	110.69
312.098	97.69
312.328	101.69
312.557	102.69
312.787	99.69
313.017	105.69
313.246	89.69
313.476	104.69
313.706	94.69
313.935	91.69
314.165	84.69
314.394	98.69
314.624	102.69
314.853	109.69
315.083	77.69
315.312	86.69
315.542	88.69
315.771	88.69
316.001	89.69
316.23	93.69
316.46	90.69
316.689	87.69
316.919	102.69
317.148	101.69
317.377	87.69
317.607	81.69
317.836	81.69
318.065	75.69
318.295	92.69
318.524	86.69
318.753	82.69
318.983	106.69
319.212	104.69
319.441	102.69
319.67	90.69
319.9	92.69
320.129	78.69
320.358	109.69
320.587	91.69
320.816	102.69
321.046	90.69
321.275	86.69
321.504	102.69
321.733	96.69
321.962	104.69
322.191	91.69
322.42	97.69
322.649	99.69
322.878	118.69
323.108	105.69
323.337	102.69
323.566	101.69
323.795	140.69
324.024	185.69
324.253	338.69
324.482	690.69
324.71	1443.69
324.939	1832.69
325.168	710.69
325.397	218.69
325.626	139.69
325.855	134.69
326.084	114.69
326.313	113.69
326.542	137.69
326.77	225.69
326.999	407.69
327.228	833.69
327.457	1504.69
327.686	1149.69
327.914	337.69
328.143	178.69
328.372	134.69
328.6	112.69
328.829	122.69
329.058	109.69
329.287	117.69
329.515	104.69
329.744	97.69
329.972	101.69
330.201	96.69
330.43	111.69
330.658	98.69
330.887	122.69
331.115	116.69
331.344	97.69
331.572	108.69
331.801	91.69
332.03	89.69
332.258	93.69
332.486	95.69
332.715	94.69
332.943	103.69
333.172	88.69
333.4	103.69
333.629	102.69
333.857	88.69
334.085	108.69
334.314	102.69
334.542	90.69
334.771	102.69
334.999	103.69
335.227	86.69
335.455	88.69
335.684	95.69
335.912	90.69
336.14	93.69
336.369	89.69
336.597	97.69
336.825	80.69
337.053	97.69
337.281	82.69
337.51	69.69
337.738	86.69
337.966	87.69
338.194	97.69
338.422	91.69
338.65	78.69
338.878	104.69
339.106	91.69
339.334	86.69
339.562	84.69
339.79	102.69
340.018	97.69
340.246	96.69
340.474	79.69
340.702	96.69
340.93	82.69
341.158	79.69
341.386	93.69
341.614	92.69
341.842	86.69
342.07	99.69
342.298	91.69
342.526	90.69
342.754	85.69
342.981	81.69
343.209	75.69
343.437	85.69
343.665	88.69
343.893	96.69
344.12	77.69
344.348	89.69
344.576	89.69
344.804	91.69
345.031	104.69
345.259	92.69
345.487	91.69
345.714	90.69
345.942	87.69
346.17	95.69
346.397	83.69
346.625	94.69
346.853	88.69
347.08	93.69
347.308	95.69
347.535	88.69
347.763	100.69
347.99	91.69
348.218	88.69
348.445	96.69
348.673	82.69
348.9	92.69
349.128	97.69
349.355	89.69
349.583	93.69
349.81	95.69
350.037	97.69
350.265	87.69
350.492	101.69
350.72	87.69
350.947	96.69
351.174	89.69
351.402	96.69
351.629	105.69
351.856	111.69
352.083	96.69
352.311	104.69
352.538	88.69
352.765	106.69
352.992	107.69
353.22	106.69
353.447	107.69
353.674	101.69
353.901	88.69
354.128	108.69
354.355	84.69
354.583	93.69
354.81	100.69
355.037	91.69
355.264	92.69
355.491	88.69
355.718	107.69
355.945	98.69
356.172	97.69
356.399	98.69
356.626	95.69
356.853	86.69
357.08	97.69
357.307	86.69
357.534	96.69
357.761	79.69
357.988	80.69
358.215	94.69
358.441	78.69
358.668	87.69
358.895	82.69
359.122	72.69
359.349	81.69
359.576	94.69
359.802	84.69
360.029	93.69
360.256	99.69
360.483	97.69
360.709	104.69
360.936	96.69
361.163	94.69
361.39	88.69
361.616	98.69
361.843	89.69
362.07	90.69
362.296	87.69
362.523	100.69
362.749	102.69
362.976	90.69
363.203	100.69
363.429	86.69
363.656	84.69
363.882	87.69
364.109	101.69
364.335	108.69
364.562	83.69
364.788	82.69
365.015	97.69
365.241	85.69
365.468	92.69
365.694	96.69
365.92	93.69
366.147	85.69
366.373	76.69
366.599	86.69
366.826	82.69
367.052	82.69
367.278	83.69
367.505	89.69
367.731	91.69
367.957	96.69
368.184	85.69
368.41	98.69
368.636	93.69
368.862	112.69
369.089	95.69
369.315	98.69
369.541	84.69
369.767	92.69
369.993	89.69
370.219	84.69
370.445	93.69
370.672	90.69
370.898	85.69
371.124	79.69
371.35	83.69
371.576	97.69
371.802	75.69
372.028	88.69
372.254	83.69
372.48	95.69
372.706	93.69
372.932	84.69
373.158	84.69
373.384	97.69
373.61	87.69
373.835	87.69
374.061	96.69
374.287	100.69
374.513	75.69
374.739	88.69
374.965	79.69
375.191	70.69
375.416	93.69
375.642	88.69
375.868	90.69
376.094	90.69
376.319	78.69
376.545	87.69
376.771	80.69
376.997	92.69
377.222	82.69
377.448	91.69
377.674	120.69
377.899	87.69
378.125	86.69
378.35	79.69
378.576	94.69
378.802	82.69
379.027	74.69
379.253	80.69
379.478	89.69
379.704	96.69
379.929	86.69
380.155	71.69
380.38	74.69
380.606	90.69
380.831	88.69
381.057	88.69
381.282	83.69
381.507	100.69
381.733	94.69
381.958	82.69
382.184	100.69
382.409	98.69
382.634	94.69
382.86	106.69
383.085	87.69
383.31	105.69
383.535	103.69
383.761	113.69
383.986	95.69
384.211	95.69
384.436	88.69
384.662	108.69
384.887	105.69
385.112	88.69
385.337	94.69
385.562	93.69
385.787	89.69
386.013	93.69
386.238	105.69
386.463	93.69
386.688	97.69
386.913	85.69
387.138	100.69
387.363	90.69
387.588	90.69
387.813	85.69
388.038	96.69
388.263	115.69
388.488	92.69
388.713	78.69
388.938	93.69
389.163	109.69
389.387	91.69
389.612	84.69
389.837	98.69
390.062	99.69
390.287	93.69
390.512	94.69
390.736	85.69
390.961	80.69
391.186	80.69
391.411	86.69
391.636	98.69
391.86	84.69
392.085	75.69
392.31	99.69
392.534	90.69
392.759	91.69
392.984	74.69
393.208	80.69
393.433	90.69
393.658	86.69
393.882	91.69
394.107	89.69
394.331	86.69
394.556	89.69
394.78	85.69
395.005	102.69
395.229	73.69
395.454	83.69
395.678	76.69
395.903	69.69
396.127	87.69
396.352	86.69
396.576	90.69
396.801	66.69
397.025	79.69
397.249	93.69
397.474	81.69
397.698	81.69
397.922	98.69
398.147	82.69
398.371	87.69
398.595	93.69
398.82	70.69
399.044	99.69
399.268	84.69
399.492	82.69
399.717	91.69
399.941	92.69
400.165	94.69
400.389	90.69
400.613	84.69
400.837	95.69
401.062	79.69
401.286	98.69
401.51	81.69
401.734	90.69
401.958	97.69
402.182	103.69
402.406	128.69
402.63	102.69
402.854	90.69
403.078	99.69
403.302	84.69
403.526	88.69
403.75	69.69
403.974	81.69
404.198	88.69
404.422	80.69
404.645	85.69
404.869	85.69
405.093	79.69
405.317	94.69
405.541	95.69
405.765	80.69
405.988	96.69
406.212	137.69
406.436	174.69
406.66	122.69
406.883	96.69
407.107	87.69
407.331	96.69
407.555	67.69
407.778	89.69
408.002	93.69
408.226	92.69
408.449	93.69
408.673	95.69
408.896	83.69
409.12	96.69
409.344	93.69
409.567	88.69
409.791	83.69
410.014	75.69
410.238	97.69
410.461	93.69
410.685	81.69
410.908	90.69
411.132	101.69
411.355	104.69
411.578	90.69
411.802	76.69
412.025	96.69
412.249	89.69
412.472	79.69
412.695	94.69
412.919	78.69
413.142	90.69
413.365	80.69
413.589	83.69
413.812	91.69
414.035	92.69
414.258	87.69
414.482	85.69
414.705	88.69
414.928	91.69
415.151	94.69
415.374	103.69
415.597	101.69
415.821	79.69
416.044	105.69
416.267	88.69
416.49	88.69
416.713	80.69
416.936	84.69
417.159	84.69
417.382	81.69
417.605	98.69
417.828	79.69
418.051	97.69
418.274	97.69
418.497	78.69
418.72	82.69
418.943	84.69
419.166	86.69
419.389	81.69
419.611	93.69
419.834	83.69
420.057	76.69
420.28	91.69
420.503	83.69
420.726	88.69
420.948	91.69
421.171	94.69
421.394	89.69
421.617	86.69
421.839	72.69
422.062	88.69
422.285	90.69
422.507	100.69
422.73	92.69
422.953	88.69
423.175	81.69
423.398	86.69
423.621	86.69
423.843	98.69
424.066	70.69
424.288	90.69
424.511	85.69
424.733	103.69
424.956	103.69
425.178	90.69
425.401	102.69
425.623	106.69
425.846	88.69
426.068	90.69
426.291	89.69
426.513	109.69
426.735	93.69
426.958	88.69
427.18	95.69
427.402	119.69
427.625	149.69
427.847	127.69
428.069	91.69
428.292	81.69
428.514	85.69
428.736	76.69
428.958	78.69
429.181	97.69
429.403	75.69
429.625	80.69
429.847	89.69
430.069	92.69
430.292	91.69
430.514	81.69
430.736	73.69
430.958	88.69
431.18	77.69
431.402	76.69
431.624	76.69
431.846	85.69
432.068	91.69
432.29	74.69
432.512	73.69
432.734	86.69
432.956	91.69
433.178	111.69
433.4	109.69
433.622	78.69
433.844	84.69
434.066	83.69
434.287	88.69
434.509	89.69
434.731	98.69
434.953	94.69
435.175	83.69
435.397	85.69
435.618	84.69
435.84	106.69
436.062	113.69
436.284	116.69
436.505	116.69
436.727	96.69
436.949	94.69
437.17	92.69
437.392	78.69
437.614	77.69
437.835	95.69
438.057	85.69
438.278	92.69
438.5	98.69
438.721	105.69
438.943	101.69
439.165	90.69
439.386	107.69
439.608	92.69
439.829	90.69
440.05	104.69
440.272	105.69
440.493	95.69
440.715	79.69
440.936	79.69
441.158	93.69
441.379	93.69
441.6	90.69
441.822	86.69
442.043	97.69
442.264	84.69
442.486	80.69
442.707	99.69
442.928	99.69
443.149	108.69
443.371	103.69
443.592	100.69
443.813	110.69
444.034	115.69
444.255	91.69
444.476	102.69
444.698	88.69
444.919	92.69
445.14	137.69
445.361	124.69
445.582	106.69
445.803	128.69
446.024	117.69
446.245	117.69
446.466	113.69
446.687	93.69
446.908	102.69
447.129	101.69
447.35	89.69
447.571	98.69
447.792	89.69
448.013	103.69
448.234	103.69
448.455	98.69
448.675	104.69
448.896	107.69
449.117	93.69
449.338	107.69
449.559	126.69
449.779	109.69
450	96.69
450.221	88.69
450.442	87.69
450.662	92.69
450.883	88.69
451.104	95.69
451.324	94.69
451.545	82.69
451.766	81.69
451.986	70.69
452.207	88.69
452.428	79.69
452.648	100.69
452.869	100.69
453.089	111.69
453.31	98.69
453.53	94.69
453.751	98.69
453.971	99.69
454.192	99.69
454.412	88.69
454.633	94.69
454.853	92.69
455.073	78.69
455.294	100.69
455.514	101.69
455.734	93.69
455.955	81.69
456.175	75.69
456.395	89.69
456.616	94.69
456.836	90.69
457.056	79.69
457.276	80.69
457.497	84.69
457.717	86.69
457.937	80.69
458.157	93.69
458.377	91.69
458.598	111.69
458.818	117.69
459.038	142.69
459.258	116.69
459.478	93.69
459.698	92.69
459.918	108.69
460.138	85.69
460.358	88.69
460.578	88.69
460.798	86.69
461.018	72.69
461.238	88.69
461.458	78.69
461.678	93.69
461.898	86.69
462.118	94.69
462.338	85.69
462.558	79.69
462.777	86.69
462.997	83.69
463.217	79.69
463.437	77.69
463.657	79.69
463.876	86.69
464.096	78.69
464.316	103.69
464.536	85.69
464.755	81.69
464.975	86.69
465.195	139.69
465.414	151.69
465.634	96.69
465.854	75.69
466.073	88.69
466.293	82.69
466.512	93.69
466.732	94.69
466.951	83.69
467.171	91.69
467.391	87.69
467.61	90.69
467.829	92.69
468.049	92.69
468.268	86.69
468.488	81.69
468.707	89.69
468.927	84.69
469.146	86.69
469.365	81.69
469.585	96.69
469.804	96.69
470.023	101.69
470.243	87.69
470.462	76.69
470.681	99.69
470.901	108.69
471.12	81.69
471.339	81.69
471.558	90.69
471.777	88.69
471.997	77.69
472.216	86.69
472.435	84.69
472.654	83.69
472.873	95.69
473.092	77.69
473.311	85.69
473.53	92.69
473.749	98.69
473.968	90.69
474.187	89.69
474.406	90.69
474.625	85.69
474.844	91.69
475.063	76.69
475.282	84.69
475.501	80.69
475.72	83.69
475.939	81.69
476.158	96.69
476.377	87.69
476.596	89.69
476.814	101.69
477.033	79.69
477.252	85.69
477.471	82.69
477.69	80.69
477.908	88.69
478.127	81.69
478.346	81.69
478.564	87.69
478.783	79.69
479.002	82.69
479.22	92.69
479.439	90.69
479.658	95.69
479.876	110.69
480.095	93.69
480.313	102.69
480.532	92.69
480.751	107.69
480.969	98.69
481.188	95.69
481.406	95.69
481.624	93.69
481.843	96.69
482.061	86.69
482.28	100.69
482.498	96.69
482.717	83.69
482.935	92.69
483.153	87.69
483.372	93.69
483.59	86.69
483.808	88.69
484.027	103.69
484.245	86.69
484.463	94.69
484.681	98.69
484.9	93.69
485.118	88.69
485.336	86.69
485.554	93.69
485.772	81.69
485.99	88.69
486.209	104.69
486.427	109.69
486.645	103.69
486.863	100.69
487.081	103.69
487.299	103.69
487.517	106.69
487.735	92.69
487.953	92.69
488.171	97.69
488.389	104.69
488.607	84.69
488.825	92.69
489.043	90.69
489.261	83.69
489.479	87.69
489.696	91.69
489.914	87.69
490.132	84.69
490.35	85.69
490.568	88.69
490.786	113.69
491.003	80.69
491.221	87.69
491.439	86.69
491.657	93.69
491.874	83.69
492.092	102.69
492.31	84.69
492.527	80.69
492.745	85.69
492.963	89.69
493.18	82.69
493.398	104.69
493.615	91.69
493.833	79.69
494.05	93.69
494.268	95.69
494.485	96.69
494.703	96.69
494.92	103.69
495.138	82.69
495.355	96.69
495.573	92.69
495.79	95.69
496.008	89.69
496.225	98.69
496.442	92.69
496.66	80.69
496.877	88.69
497.094	90.69
497.312	105.69
497.529	84.69
497.746	76.69
497.963	94.69
498.181	100.69
498.398	85.69
498.615	100.69
498.832	101.69
499.049	78.69
499.267	83.69
499.484	88.69
499.701	101.69
499.918	88.69
500.135	93.69
500.352	88.69
500.569	99.69
500.786	88.69
501.003	92.69
501.22	99.69
501.437	98.69
501.654	86.69
501.871	97.69
502.088	92.69
502.305	82.69
502.522	72.69
502.739	83.69
502.956	84.69
503.172	89.69
503.389	106.69
503.606	89.69
503.823	88.69
504.04	87.69
504.256	92.69
504.473	76.69
504.69	93.69
504.907	81.69
505.123	90.69
505.34	81.69
505.557	96.69
505.773	75.69
505.99	97.69
506.207	92.69
506.423	85.69
506.64	86.69
506.856	90.69
507.073	99.69
507.289	88.69
507.506	107.69
507.722	102.69
507.939	101.69
508.155	73.69
508.372	80.69
508.588	98.69
508.805	103.69
509.021	75.69
509.238	84.69
509.454	96.69
509.67	81.69
509.887	102.69
510.103	119.69
510.319	190.69
510.536	608.69
510.752	1820.69
510.968	505.69
511.184	135.69
511.401	105.69
511.617	104.69
511.833	103.69
512.049	78.69
512.265	84.69
512.481	86.69
512.698	91.69
512.914	90.69
513.13	102.69
513.346	97.69
513.562	93.69
513.778	92.69
513.994	93.69
514.21	91.69
514.426	106.69
514.642	128.69
514.858	100.69
515.074	138.69
515.29	340.69
515.506	1054.69
515.721	411.69
515.937	128.69
516.153	104.69
516.369	102.69
516.585	95.69
516.801	87.69
