Data from Uncirc_1998_H10_HRD10591_00072.txt Node
Date: Wed Jan 03 11:25:39 EST 2024
User: Yrep
Spectrometer: HR+D1059
Trigger mode: 1
Integration Time (sec): 1.000000E-1
Scans to average: 1
Electric dark correction enabled: true
Nonlinearity correction enabled: false
Boxcar width: 0
XAxis mode: Wavelengths
Number of Pixels in Spectrum: 2048
>>>>>Begin Spectral Data<<<<<
223.165	-33.69
223.4	-33.69
223.635	-33.69
223.869	-7.69
224.104	-9.69
224.338	-26.69
224.573	-20.69
224.808	-10.69
225.042	-1.69
225.277	-10.69
225.511	-1.69
225.746	-2.69
225.98	6.31
226.215	13.31
226.449	19.31
226.683	27.31
226.918	26.31
227.152	33.31
227.387	29.31
227.621	30.31
227.856	34.31
228.09	36.31
228.324	49.31
228.559	55.31
228.793	61.31
229.027	46.31
229.262	61.31
229.496	53.31
229.73	92.31
229.964	73.31
230.199	58.31
230.433	78.31
230.667	77.31
230.901	84.31
231.136	70.31
231.37	79.31
231.604	67.31
231.838	85.31
232.072	75.31
232.306	80.31
232.541	75.31
232.775	81.31
233.009	58.31
233.243	81.31
233.477	76.31
233.711	70.31
233.945	66.31
234.179	69.31
234.413	65.31
234.647	78.31
234.881	85.31
235.115	63.31
235.349	72.31
235.583	79.31
235.817	73.31
236.051	78.31
236.285	67.31
236.519	68.31
236.753	68.31
236.987	79.31
237.221	56.31
237.455	90.31
237.689	70.31
237.922	85.31
238.156	78.31
238.39	73.31
238.624	58.31
238.858	65.31
239.091	69.31
239.325	69.31
239.559	75.31
239.793	97.31
240.027	73.31
240.26	70.31
240.494	60.31
240.728	76.31
240.961	76.31
241.195	71.31
241.429	75.31
241.662	68.31
241.896	60.31
242.13	67.31
242.363	73.31
242.597	59.31
242.83	67.31
243.064	75.31
243.298	77.31
243.531	71.31
243.765	71.31
243.998	74.31
244.232	72.31
244.465	81.31
244.699	85.31
244.932	61.31
245.166	77.31
245.399	88.31
245.633	78.31
245.866	67.31
246.099	73.31
246.333	89.31
246.566	74.31
246.8	87.31
247.033	95.31
247.266	70.31
247.5	73.31
247.733	84.31
247.966	68.31
248.2	66.31
248.433	72.31
248.666	93.31
248.899	74.31
249.133	81.31
249.366	90.31
249.599	96.31
249.832	83.31
250.066	68.31
250.299	64.31
250.532	75.31
250.765	61.31
250.998	75.31
251.231	81.31
251.465	81.31
251.698	75.31
251.931	78.31
252.164	58.31
252.397	73.31
252.63	71.31
252.863	73.31
253.096	69.31
253.329	80.31
253.562	64.31
253.795	83.31
254.028	75.31
254.261	68.31
254.494	79.31
254.727	84.31
254.96	79.31
255.193	74.31
255.426	72.31
255.659	72.31
255.892	70.31
256.124	81.31
256.357	79.31
256.59	81.31
256.823	82.31
257.056	55.31
257.289	79.31
257.521	90.31
257.754	90.31
257.987	82.31
258.22	89.31
258.452	70.31
258.685	82.31
258.918	93.31
259.151	71.31
259.383	81.31
259.616	71.31
259.849	82.31
260.081	69.31
260.314	85.31
260.547	69.31
260.779	99.31
261.012	100.31
261.244	75.31
261.477	76.31
261.71	83.31
261.942	101.31
262.175	102.31
262.407	93.31
262.64	67.31
262.872	83.31
263.105	66.31
263.337	69.31
263.57	83.31
263.802	88.31
264.035	82.31
264.267	73.31
264.499	77.31
264.732	75.31
264.964	75.31
265.197	79.31
265.429	82.31
265.661	71.31
265.894	83.31
266.126	82.31
266.358	77.31
266.591	59.31
266.823	62.31
267.055	86.31
267.287	92.31
267.52	84.31
267.752	80.31
267.984	87.31
268.216	79.31
268.448	71.31
268.681	82.31
268.913	77.31
269.145	76.31
269.377	85.31
269.609	78.31
269.841	72.31
270.073	76.31
270.306	71.31
270.538	77.31
270.77	75.31
271.002	78.31
271.234	78.31
271.466	86.31
271.698	85.31
271.93	90.31
272.162	85.31
272.394	79.31
272.626	86.31
272.858	86.31
273.09	86.31
273.322	71.31
273.553	75.31
273.785	91.31
274.017	90.31
274.249	76.31
274.481	79.31
274.713	72.31
274.945	67.31
275.176	81.31
275.408	81.31
275.64	94.31
275.872	72.31
276.104	80.31
276.335	91.31
276.567	77.31
276.799	108.31
277.031	90.31
277.262	77.31
277.494	74.31
277.726	78.31
277.957	86.31
278.189	93.31
278.421	58.31
278.652	88.31
278.884	74.31
279.115	83.31
279.347	87.31
279.579	81.31
279.81	72.31
280.042	83.31
280.273	82.31
280.505	82.31
280.736	73.31
280.968	83.31
281.199	88.31
281.431	74.31
281.662	84.31
281.894	86.31
282.125	94.31
282.356	102.31
282.588	124.31
282.819	124.31
283.051	81.31
283.282	81.31
283.513	82.31
283.745	82.31
283.976	92.31
284.207	89.31
284.439	79.31
284.67	78.31
284.901	78.31
285.132	72.31
285.364	91.31
285.595	78.31
285.826	101.31
286.057	73.31
286.288	90.31
286.52	83.31
286.751	85.31
286.982	79.31
287.213	65.31
287.444	78.31
287.675	93.31
287.906	103.31
288.138	78.31
288.369	85.31
288.6	83.31
288.831	82.31
289.062	104.31
289.293	84.31
289.524	86.31
289.755	85.31
289.986	85.31
290.217	79.31
290.448	84.31
290.679	84.31
290.91	83.31
291.141	86.31
291.371	90.31
291.602	81.31
291.833	63.31
292.064	77.31
292.295	98.31
292.526	73.31
292.757	94.31
292.987	85.31
293.218	94.31
293.449	83.31
293.68	83.31
293.91	82.31
294.141	55.31
294.372	92.31
294.603	83.31
294.833	93.31
295.064	90.31
295.295	68.31
295.525	87.31
295.756	86.31
295.987	110.31
296.217	124.31
296.448	117.31
296.679	86.31
296.909	94.31
297.14	86.31
297.37	90.31
297.601	86.31
297.831	87.31
298.062	94.31
298.292	97.31
298.523	81.31
298.753	78.31
298.984	78.31
299.214	78.31
299.445	94.31
299.675	86.31
299.905	90.31
300.136	86.31
300.366	89.31
300.597	85.31
300.827	85.31
301.057	76.31
301.288	85.31
301.518	83.31
301.748	101.31
301.979	102.31
302.209	84.31
302.439	87.31
302.669	82.31
302.9	83.31
303.13	93.31
303.36	94.31
303.59	89.31
303.82	93.31
304.051	103.31
304.281	86.31
304.511	94.31
304.741	70.31
304.971	83.31
305.201	99.31
305.431	87.31
305.661	91.31
305.891	82.31
306.121	90.31
306.352	98.31
306.582	89.31
306.812	92.31
307.042	81.31
307.272	73.31
307.502	103.31
307.731	89.31
307.961	82.31
308.191	90.31
308.421	77.31
308.651	73.31
308.881	92.31
309.111	100.31
309.341	97.31
309.571	91.31
309.8	90.31
310.03	101.31
310.26	99.31
310.49	96.31
310.72	78.31
310.949	86.31
311.179	95.31
311.409	90.31
311.639	90.31
311.868	91.31
312.098	99.31
312.328	87.31
312.557	95.31
312.787	86.31
313.017	103.31
313.246	91.31
313.476	88.31
313.706	71.31
313.935	91.31
314.165	93.31
314.394	108.31
314.624	89.31
314.853	83.31
315.083	97.31
315.312	84.31
315.542	91.31
315.771	91.31
316.001	82.31
316.23	100.31
316.46	97.31
316.689	86.31
316.919	101.31
317.148	94.31
317.377	92.31
317.607	90.31
317.836	95.31
318.065	88.31
318.295	103.31
318.524	81.31
318.753	87.31
318.983	89.31
319.212	79.31
319.441	114.31
319.67	90.31
319.9	96.31
320.129	93.31
320.358	94.31
320.587	88.31
320.816	89.31
321.046	92.31
321.275	81.31
321.504	92.31
321.733	91.31
321.962	95.31
322.191	99.31
322.42	98.31
322.649	96.31
322.878	107.31
323.108	111.31
323.337	128.31
323.566	110.31
323.795	132.31
324.024	180.31
324.253	370.31
324.482	745.31
324.71	1513.31
324.939	1971.31
325.168	718.31
325.397	241.31
325.626	151.31
325.855	130.31
326.084	118.31
326.313	113.31
326.542	150.31
326.77	217.31
326.999	433.31
327.228	887.31
327.457	1537.31
327.686	1240.31
327.914	325.31
328.143	183.31
328.372	151.31
328.6	109.31
328.829	101.31
329.058	124.31
329.287	106.31
329.515	111.31
329.744	99.31
329.972	90.31
330.201	83.31
330.43	90.31
330.658	119.31
330.887	123.31
331.115	108.31
331.344	94.31
331.572	102.31
331.801	107.31
332.03	107.31
332.258	84.31
332.486	73.31
332.715	98.31
332.943	83.31
333.172	88.31
333.4	108.31
333.629	116.31
333.857	92.31
334.085	90.31
334.314	78.31
334.542	84.31
334.771	99.31
334.999	83.31
335.227	79.31
335.455	94.31
335.684	95.31
335.912	95.31
336.14	93.31
336.369	98.31
336.597	93.31
336.825	84.31
337.053	79.31
337.281	72.31
337.51	91.31
337.738	91.31
337.966	88.31
338.194	93.31
338.422	111.31
338.65	93.31
338.878	87.31
339.106	89.31
339.334	99.31
339.562	95.31
339.79	75.31
340.018	75.31
340.246	90.31
340.474	85.31
340.702	73.31
340.93	90.31
341.158	79.31
341.386	89.31
341.614	92.31
341.842	92.31
342.07	93.31
342.298	95.31
342.526	81.31
342.754	63.31
342.981	71.31
343.209	90.31
343.437	99.31
343.665	82.31
343.893	89.31
344.12	91.31
344.348	84.31
344.576	77.31
344.804	90.31
345.031	92.31
345.259	82.31
345.487	89.31
345.714	78.31
345.942	85.31
346.17	87.31
346.397	82.31
346.625	74.31
346.853	98.31
347.08	105.31
347.308	82.31
347.535	86.31
347.763	89.31
347.99	95.31
348.218	94.31
348.445	95.31
348.673	91.31
348.9	91.31
349.128	93.31
349.355	101.31
349.583	91.31
349.81	94.31
350.037	95.31
350.265	85.31
350.492	95.31
350.72	92.31
350.947	84.31
351.174	103.31
351.402	117.31
351.629	95.31
351.856	109.31
352.083	90.31
352.311	91.31
352.538	95.31
352.765	109.31
352.992	113.31
353.22	101.31
353.447	94.31
353.674	101.31
353.901	82.31
354.128	87.31
354.355	94.31
354.583	94.31
354.81	88.31
355.037	89.31
355.264	84.31
355.491	91.31
355.718	82.31
355.945	77.31
356.172	93.31
356.399	90.31
356.626	77.31
356.853	99.31
357.08	79.31
357.307	94.31
357.534	89.31
357.761	100.31
357.988	81.31
358.215	90.31
358.441	80.31
358.668	94.31
358.895	89.31
359.122	85.31
359.349	78.31
359.576	79.31
359.802	95.31
360.029	94.31
360.256	99.31
360.483	94.31
360.709	92.31
360.936	87.31
361.163	94.31
361.39	83.31
361.616	101.31
361.843	93.31
362.07	94.31
362.296	87.31
362.523	93.31
362.749	79.31
362.976	86.31
363.203	84.31
363.429	80.31
363.656	95.31
363.882	83.31
364.109	86.31
364.335	75.31
364.562	85.31
364.788	75.31
365.015	81.31
365.241	100.31
365.468	95.31
365.694	93.31
365.92	93.31
366.147	88.31
366.373	69.31
366.599	89.31
366.826	79.31
367.052	93.31
367.278	107.31
367.505	79.31
367.731	91.31
367.957	90.31
368.184	89.31
368.41	86.31
368.636	88.31
368.862	99.31
369.089	99.31
369.315	104.31
369.541	94.31
369.767	95.31
369.993	86.31
370.219	85.31
370.445	73.31
370.672	78.31
370.898	82.31
371.124	80.31
371.35	79.31
371.576	82.31
371.802	63.31
372.028	79.31
372.254	81.31
372.48	89.31
372.706	89.31
372.932	84.31
373.158	85.31
373.384	87.31
373.61	98.31
373.835	81.31
374.061	73.31
374.287	89.31
374.513	77.31
374.739	91.31
374.965	67.31
375.191	80.31
375.416	78.31
375.642	77.31
375.868	74.31
376.094	91.31
376.319	81.31
376.545	84.31
376.771	89.31
376.997	78.31
377.222	89.31
377.448	85.31
377.674	88.31
377.899	85.31
378.125	81.31
378.35	72.31
378.576	92.31
378.802	98.31
379.027	73.31
379.253	85.31
379.478	73.31
379.704	89.31
379.929	93.31
380.155	78.31
380.38	84.31
380.606	79.31
380.831	80.31
381.057	95.31
381.282	83.31
381.507	84.31
381.733	82.31
381.958	94.31
382.184	94.31
382.409	93.31
382.634	103.31
382.86	108.31
383.085	82.31
383.31	99.31
383.535	85.31
383.761	92.31
383.986	101.31
384.211	67.31
384.436	98.31
384.662	88.31
384.887	88.31
385.112	92.31
385.337	95.31
385.562	98.31
385.787	93.31
386.013	105.31
386.238	94.31
386.463	101.31
386.688	111.31
386.913	95.31
387.138	93.31
387.363	87.31
387.588	79.31
387.813	94.31
388.038	100.31
388.263	95.31
388.488	85.31
388.713	91.31
388.938	88.31
389.163	97.31
389.387	87.31
389.612	94.31
389.837	72.31
390.062	78.31
390.287	73.31
390.512	73.31
390.736	81.31
390.961	83.31
391.186	82.31
391.411	87.31
391.636	89.31
391.86	75.31
392.085	93.31
392.31	76.31
392.534	90.31
392.759	62.31
392.984	79.31
393.208	71.31
393.433	80.31
393.658	87.31
393.882	91.31
394.107	86.31
394.331	85.31
394.556	97.31
394.78	77.31
395.005	82.31
395.229	77.31
395.454	105.31
395.678	86.31
395.903	92.31
396.127	90.31
396.352	74.31
396.576	87.31
396.801	99.31
397.025	88.31
397.249	78.31
397.474	77.31
397.698	79.31
397.922	83.31
398.147	84.31
398.371	69.31
398.595	102.31
398.82	81.31
399.044	79.31
399.268	77.31
399.492	98.31
399.717	87.31
399.941	89.31
400.165	95.31
400.389	92.31
400.613	75.31
400.837	70.31
401.062	78.31
401.286	77.31
401.51	84.31
401.734	74.31
401.958	78.31
402.182	103.31
402.406	147.31
402.63	108.31
402.854	88.31
403.078	93.31
403.302	80.31
403.526	75.31
403.75	95.31
403.974	77.31
404.198	82.31
404.422	73.31
404.645	93.31
404.869	80.31
405.093	87.31
405.317	96.31
405.541	97.31
405.765	97.31
405.988	114.31
406.212	153.31
406.436	189.31
406.66	125.31
406.883	82.31
407.107	90.31
407.331	89.31
407.555	83.31
407.778	103.31
408.002	82.31
408.226	87.31
408.449	81.31
408.673	93.31
408.896	78.31
409.12	94.31
409.344	73.31
409.567	90.31
409.791	93.31
410.014	79.31
410.238	81.31
410.461	88.31
410.685	108.31
410.908	89.31
411.132	81.31
411.355	97.31
411.578	63.31
411.802	78.31
412.025	84.31
412.249	84.31
412.472	91.31
412.695	92.31
412.919	91.31
413.142	74.31
413.365	85.31
413.589	91.31
413.812	93.31
414.035	89.31
414.258	84.31
414.482	81.31
414.705	84.31
414.928	78.31
415.151	75.31
415.374	78.31
415.597	59.31
415.821	85.31
416.044	76.31
416.267	89.31
416.49	82.31
416.713	76.31
416.936	86.31
417.159	89.31
417.382	100.31
417.605	79.31
417.828	83.31
418.051	92.31
418.274	78.31
418.497	83.31
418.72	89.31
418.943	82.31
419.166	77.31
419.389	87.31
419.611	89.31
419.834	81.31
420.057	67.31
420.28	90.31
420.503	67.31
420.726	87.31
420.948	80.31
421.171	89.31
421.394	83.31
421.617	79.31
421.839	89.31
422.062	100.31
422.285	86.31
422.507	101.31
422.73	81.31
422.953	91.31
423.175	80.31
423.398	86.31
423.621	77.31
423.843	85.31
424.066	86.31
424.288	83.31
424.511	91.31
424.733	91.31
424.956	98.31
425.178	87.31
425.401	91.31
425.623	85.31
425.846	83.31
426.068	76.31
426.291	95.31
426.513	79.31
426.735	82.31
426.958	87.31
427.18	111.31
427.402	112.31
427.625	153.31
427.847	120.31
428.069	99.31
428.292	90.31
428.514	79.31
428.736	83.31
428.958	85.31
429.181	62.31
429.403	81.31
429.625	71.31
429.847	86.31
430.069	102.31
430.292	85.31
430.514	84.31
430.736	81.31
430.958	88.31
431.18	82.31
431.402	73.31
431.624	80.31
431.846	73.31
432.068	77.31
432.29	86.31
432.512	81.31
432.734	94.31
432.956	81.31
433.178	77.31
433.4	93.31
433.622	88.31
433.844	95.31
434.066	78.31
434.287	94.31
434.509	82.31
434.731	72.31
434.953	77.31
435.175	83.31
435.397	87.31
435.618	76.31
435.84	92.31
436.062	99.31
436.284	111.31
436.505	93.31
436.727	89.31
436.949	102.31
437.17	86.31
437.392	78.31
437.614	102.31
437.835	93.31
438.057	102.31
438.278	105.31
438.5	100.31
438.721	114.31
438.943	88.31
439.165	74.31
439.386	93.31
439.608	76.31
439.829	81.31
440.05	103.31
440.272	138.31
440.493	101.31
440.715	72.31
440.936	67.31
441.158	83.31
441.379	83.31
441.6	84.31
441.822	86.31
442.043	86.31
442.264	104.31
442.486	98.31
442.707	83.31
442.928	103.31
443.149	109.31
443.371	111.31
443.592	98.31
443.813	97.31
444.034	109.31
444.255	93.31
444.476	83.31
444.698	74.31
444.919	77.31
445.14	129.31
445.361	111.31
445.582	107.31
445.803	130.31
446.024	124.31
446.245	118.31
446.466	114.31
446.687	84.31
446.908	89.31
447.129	87.31
447.35	91.31
447.571	88.31
447.792	81.31
448.013	102.31
448.234	96.31
448.455	98.31
448.675	103.31
448.896	123.31
449.117	98.31
449.338	101.31
449.559	120.31
449.779	121.31
450	99.31
450.221	83.31
450.442	87.31
450.662	96.31
450.883	99.31
451.104	100.31
451.324	90.31
451.545	82.31
451.766	90.31
451.986	63.31
452.207	83.31
452.428	76.31
452.648	92.31
452.869	87.31
453.089	89.31
453.31	108.31
453.53	68.31
453.751	101.31
453.971	93.31
454.192	88.31
454.412	90.31
454.633	85.31
454.853	83.31
455.073	88.31
455.294	76.31
455.514	90.31
455.734	82.31
455.955	72.31
456.175	77.31
456.395	82.31
456.616	63.31
456.836	81.31
457.056	85.31
457.276	86.31
457.497	74.31
457.717	79.31
457.937	89.31
458.157	74.31
458.377	74.31
458.598	100.31
458.818	145.31
459.038	151.31
459.258	101.31
459.478	85.31
459.698	66.31
459.918	89.31
460.138	85.31
460.358	82.31
460.578	75.31
460.798	89.31
461.018	76.31
461.238	76.31
461.458	62.31
461.678	75.31
461.898	80.31
462.118	77.31
462.338	91.31
462.558	87.31
462.777	78.31
462.997	86.31
463.217	90.31
463.437	86.31
463.657	73.31
463.876	80.31
464.096	92.31
464.316	91.31
464.536	83.31
464.755	90.31
464.975	104.31
465.195	147.31
465.414	128.31
465.634	86.31
465.854	75.31
466.073	79.31
466.293	81.31
466.512	81.31
466.732	79.31
466.951	76.31
467.171	101.31
467.391	90.31
467.61	79.31
467.829	88.31
468.049	64.31
468.268	82.31
468.488	82.31
468.707	86.31
468.927	81.31
469.146	85.31
469.365	93.31
469.585	81.31
469.804	82.31
470.023	86.31
470.243	90.31
470.462	81.31
470.681	101.31
470.901	71.31
471.12	86.31
471.339	85.31
471.558	79.31
471.777	71.31
471.997	79.31
472.216	93.31
472.435	99.31
472.654	82.31
472.873	83.31
473.092	87.31
473.311	88.31
473.53	75.31
473.749	74.31
473.968	81.31
474.187	107.31
474.406	97.31
474.625	72.31
474.844	84.31
475.063	82.31
475.282	65.31
475.501	78.31
475.72	86.31
475.939	85.31
476.158	75.31
476.377	82.31
476.596	88.31
476.814	86.31
477.033	75.31
477.252	90.31
477.471	87.31
477.69	95.31
477.908	90.31
478.127	85.31
478.346	83.31
478.564	90.31
478.783	87.31
479.002	98.31
479.22	86.31
479.439	91.31
479.658	103.31
479.876	93.31
480.095	81.31
480.313	82.31
480.532	81.31
480.751	85.31
480.969	93.31
481.188	109.31
481.406	106.31
481.624	86.31
481.843	77.31
482.061	86.31
482.28	73.31
482.498	94.31
482.717	100.31
482.935	77.31
483.153	94.31
483.372	94.31
483.59	84.31
483.808	86.31
484.027	88.31
484.245	74.31
484.463	85.31
484.681	93.31
484.9	98.31
485.118	102.31
485.336	81.31
485.554	79.31
485.772	98.31
485.99	91.31
486.209	89.31
486.427	90.31
486.645	94.31
486.863	97.31
487.081	87.31
487.299	99.31
487.517	104.31
487.735	100.31
487.953	91.31
488.171	85.31
488.389	86.31
488.607	105.31
488.825	90.31
489.043	89.31
489.261	93.31
489.479	79.31
489.696	85.31
489.914	93.31
490.132	89.31
490.35	73.31
490.568	75.31
490.786	89.31
491.003	85.31
491.221	90.31
491.439	92.31
491.657	83.31
491.874	91.31
492.092	83.31
492.31	91.31
492.527	97.31
492.745	85.31
492.963	84.31
493.18	82.31
493.398	90.31
493.615	89.31
493.833	95.31
494.05	89.31
494.268	82.31
494.485	88.31
494.703	86.31
494.92	81.31
495.138	70.31
495.355	69.31
495.573	91.31
495.79	76.31
496.008	97.31
496.225	75.31
496.442	73.31
496.66	89.31
496.877	85.31
497.094	80.31
497.312	82.31
497.529	93.31
497.746	77.31
497.963	92.31
498.181	73.31
498.398	89.31
498.615	102.31
498.832	83.31
499.049	90.31
499.267	69.31
499.484	86.31
499.701	94.31
499.918	75.31
500.135	81.31
500.352	85.31
500.569	73.31
500.786	82.31
501.003	93.31
501.22	77.31
501.437	90.31
501.654	95.31
501.871	102.31
502.088	93.31
502.305	92.31
502.522	88.31
502.739	76.31
502.956	83.31
503.172	95.31
503.389	86.31
503.606	84.31
503.823	90.31
504.04	79.31
504.256	70.31
504.473	94.31
504.69	85.31
504.907	99.31
505.123	88.31
505.34	81.31
505.557	85.31
505.773	90.31
505.99	85.31
506.207	85.31
506.423	86.31
506.64	83.31
506.856	86.31
507.073	86.31
507.289	95.31
507.506	92.31
507.722	93.31
507.939	113.31
508.155	107.31
508.372	90.31
508.588	88.31
508.805	81.31
509.021	93.31
509.238	102.31
509.454	88.31
509.67	94.31
509.887	99.31
510.103	120.31
510.319	199.31
510.536	678.31
510.752	2030.31
510.968	554.31
511.184	144.31
511.401	109.31
511.617	85.31
511.833	76.31
512.049	83.31
512.265	93.31
512.481	75.31
512.698	91.31
512.914	94.31
513.13	87.31
513.346	80.31
513.562	87.31
513.778	90.31
513.994	85.31
514.21	93.31
514.426	111.31
514.642	113.31
514.858	136.31
515.074	149.31
515.29	394.31
515.506	1218.31
515.721	447.31
515.937	128.31
516.153	110.31
516.369	94.31
516.585	108.31
516.801	75.31
517.016	97.31
517.232	80.31
517.448	78.31
517.664	81.31
