Data from Uncirc_1998_H10_HRD10591_00041.txt Node
Date: Wed Jan 03 11:25:33 EST 2024
User: Yrep
Spectrometer: HR+D1059
Trigger mode: 1
Integration Time (sec): 1.000000E-1
Scans to average: 1
Electric dark correction enabled: true
Nonlinearity correction enabled: false
Boxcar width: 0
XAxis mode: Wavelengths
Number of Pixels in Spectrum: 2048
>>>>>Begin Spectral Data<<<<<
223.165	-14.38
223.4	-14.38
223.635	-14.38
223.869	-5.38
224.104	-17.38
224.338	-14.38
224.573	-22.38
224.808	-21.38
225.042	-7.38
225.277	7.62
225.511	-10.38
225.746	16.62
225.98	4.62
226.215	6.62
226.449	13.62
226.683	18.62
226.918	20.62
227.152	24.62
227.387	41.62
227.621	59.62
227.856	39.62
228.09	58.62
228.324	53.62
228.559	54.62
228.793	64.62
229.027	58.62
229.262	69.62
229.496	69.62
229.73	77.62
229.964	85.62
230.199	83.62
230.433	73.62
230.667	84.62
230.901	90.62
231.136	82.62
231.37	75.62
231.604	81.62
231.838	76.62
232.072	83.62
232.306	80.62
232.541	83.62
232.775	82.62
233.009	73.62
233.243	72.62
233.477	89.62
233.711	85.62
233.945	83.62
234.179	77.62
234.413	60.62
234.647	81.62
234.881	82.62
235.115	77.62
235.349	89.62
235.583	100.62
235.817	88.62
236.051	74.62
236.285	62.62
236.519	73.62
236.753	83.62
236.987	85.62
237.221	99.62
237.455	87.62
237.689	79.62
237.922	75.62
238.156	97.62
238.39	80.62
238.624	75.62
238.858	72.62
239.091	82.62
239.325	83.62
239.559	85.62
239.793	70.62
240.027	80.62
240.26	77.62
240.494	85.62
240.728	84.62
240.961	81.62
241.195	81.62
241.429	74.62
241.662	65.62
241.896	86.62
242.13	88.62
242.363	77.62
242.597	86.62
242.83	75.62
243.064	66.62
243.298	88.62
243.531	80.62
243.765	83.62
243.998	80.62
244.232	95.62
244.465	68.62
244.699	73.62
244.932	92.62
245.166	79.62
245.399	94.62
245.633	87.62
245.866	83.62
246.099	73.62
246.333	81.62
246.566	86.62
246.8	77.62
247.033	84.62
247.266	75.62
247.5	69.62
247.733	73.62
247.966	79.62
248.2	73.62
248.433	86.62
248.666	86.62
248.899	78.62
249.133	110.62
249.366	110.62
249.599	91.62
249.832	76.62
250.066	84.62
250.299	92.62
250.532	75.62
250.765	83.62
250.998	80.62
251.231	77.62
251.465	86.62
251.698	89.62
251.931	99.62
252.164	86.62
252.397	90.62
252.63	83.62
252.863	80.62
253.096	80.62
253.329	78.62
253.562	87.62
253.795	89.62
254.028	75.62
254.261	93.62
254.494	91.62
254.727	80.62
254.96	83.62
255.193	75.62
255.426	91.62
255.659	73.62
255.892	81.62
256.124	74.62
256.357	83.62
256.59	72.62
256.823	78.62
257.056	79.62
257.289	76.62
257.521	80.62
257.754	73.62
257.987	86.62
258.22	83.62
258.452	94.62
258.685	90.62
258.918	85.62
259.151	90.62
259.383	98.62
259.616	81.62
259.849	81.62
260.081	91.62
260.314	67.62
260.547	86.62
260.779	89.62
261.012	96.62
261.244	92.62
261.477	91.62
261.71	100.62
261.942	90.62
262.175	106.62
262.407	93.62
262.64	88.62
262.872	84.62
263.105	84.62
263.337	91.62
263.57	103.62
263.802	87.62
264.035	90.62
264.267	98.62
264.499	72.62
264.732	95.62
264.964	97.62
265.197	95.62
265.429	78.62
265.661	101.62
265.894	82.62
266.126	94.62
266.358	92.62
266.591	79.62
266.823	94.62
267.055	82.62
267.287	99.62
267.52	83.62
267.752	83.62
267.984	100.62
268.216	81.62
268.448	82.62
268.681	85.62
268.913	82.62
269.145	93.62
269.377	97.62
269.609	107.62
269.841	92.62
270.073	92.62
270.306	84.62
270.538	97.62
270.77	94.62
271.002	95.62
271.234	84.62
271.466	92.62
271.698	106.62
271.93	88.62
272.162	90.62
272.394	94.62
272.626	88.62
272.858	98.62
273.09	81.62
273.322	80.62
273.553	96.62
273.785	92.62
274.017	88.62
274.249	93.62
274.481	78.62
274.713	80.62
274.945	92.62
275.176	75.62
275.408	105.62
275.64	90.62
275.872	87.62
276.104	99.62
276.335	81.62
276.567	102.62
276.799	99.62
277.031	91.62
277.262	86.62
277.494	81.62
277.726	77.62
277.957	94.62
278.189	79.62
278.421	92.62
278.652	84.62
278.884	104.62
279.115	90.62
279.347	79.62
279.579	88.62
279.81	90.62
280.042	75.62
280.273	96.62
280.505	88.62
280.736	95.62
280.968	91.62
281.199	90.62
281.431	81.62
281.662	83.62
281.894	96.62
282.125	92.62
282.356	104.62
282.588	122.62
282.819	95.62
283.051	93.62
283.282	97.62
283.513	96.62
283.745	80.62
283.976	95.62
284.207	72.62
284.439	87.62
284.67	82.62
284.901	99.62
285.132	81.62
285.364	82.62
285.595	77.62
285.826	104.62
286.057	82.62
286.288	101.62
286.52	90.62
286.751	88.62
286.982	82.62
287.213	78.62
287.444	95.62
287.675	86.62
287.906	79.62
288.138	99.62
288.369	101.62
288.6	83.62
288.831	80.62
289.062	92.62
289.293	96.62
289.524	94.62
289.755	84.62
289.986	93.62
290.217	89.62
290.448	88.62
290.679	86.62
290.91	92.62
291.141	84.62
291.371	86.62
291.602	94.62
291.833	86.62
292.064	92.62
292.295	83.62
292.526	102.62
292.757	94.62
292.987	90.62
293.218	84.62
293.449	95.62
293.68	102.62
293.91	102.62
294.141	100.62
294.372	105.62
294.603	92.62
294.833	79.62
295.064	98.62
295.295	92.62
295.525	93.62
295.756	109.62
295.987	107.62
296.217	133.62
296.448	102.62
296.679	110.62
296.909	106.62
297.14	98.62
297.37	102.62
297.601	102.62
297.831	85.62
298.062	96.62
298.292	91.62
298.523	86.62
298.753	97.62
298.984	93.62
299.214	89.62
299.445	81.62
299.675	74.62
299.905	92.62
300.136	98.62
300.366	82.62
300.597	100.62
300.827	76.62
301.057	95.62
301.288	117.62
301.518	89.62
301.748	95.62
301.979	113.62
302.209	86.62
302.439	81.62
302.669	98.62
302.9	80.62
303.13	97.62
303.36	101.62
303.59	107.62
303.82	92.62
304.051	86.62
304.281	95.62
304.511	93.62
304.741	69.62
304.971	96.62
305.201	103.62
305.431	97.62
305.661	75.62
305.891	82.62
306.121	94.62
306.352	111.62
306.582	97.62
306.812	100.62
307.042	90.62
307.272	100.62
307.502	95.62
307.731	95.62
307.961	89.62
308.191	98.62
308.421	102.62
308.651	93.62
308.881	91.62
309.111	103.62
309.341	88.62
309.571	99.62
309.8	97.62
310.03	91.62
310.26	107.62
310.49	82.62
310.72	99.62
310.949	90.62
311.179	94.62
311.409	100.62
311.639	88.62
311.868	91.62
312.098	93.62
312.328	105.62
312.557	88.62
312.787	103.62
313.017	99.62
313.246	110.62
313.476	96.62
313.706	85.62
313.935	95.62
314.165	94.62
314.394	89.62
314.624	107.62
314.853	90.62
315.083	93.62
315.312	94.62
315.542	96.62
315.771	90.62
316.001	97.62
316.23	89.62
316.46	100.62
316.689	87.62
316.919	104.62
317.148	103.62
317.377	103.62
317.607	102.62
317.836	96.62
318.065	89.62
318.295	104.62
318.524	96.62
318.753	92.62
318.983	101.62
319.212	103.62
319.441	98.62
319.67	113.62
319.9	89.62
320.129	108.62
320.358	119.62
320.587	96.62
320.816	90.62
321.046	81.62
321.275	109.62
321.504	90.62
321.733	92.62
321.962	101.62
322.191	109.62
322.42	104.62
322.649	119.62
322.878	113.62
323.108	105.62
323.337	113.62
323.566	113.62
323.795	138.62
324.024	187.62
324.253	346.62
324.482	710.62
324.71	1410.62
324.939	1848.62
325.168	661.62
325.397	224.62
325.626	140.62
325.855	122.62
326.084	137.62
326.313	126.62
326.542	152.62
326.77	218.62
326.999	418.62
327.228	810.62
327.457	1454.62
327.686	1163.62
327.914	316.62
328.143	172.62
328.372	136.62
328.6	123.62
328.829	115.62
329.058	117.62
329.287	128.62
329.515	116.62
329.744	112.62
329.972	110.62
330.201	116.62
330.43	116.62
330.658	121.62
330.887	127.62
331.115	113.62
331.344	100.62
331.572	99.62
331.801	101.62
332.03	110.62
332.258	86.62
332.486	101.62
332.715	97.62
332.943	97.62
333.172	95.62
333.4	100.62
333.629	93.62
333.857	106.62
334.085	105.62
334.314	109.62
334.542	104.62
334.771	105.62
334.999	102.62
335.227	96.62
335.455	102.62
335.684	98.62
335.912	96.62
336.14	114.62
336.369	109.62
336.597	99.62
336.825	108.62
337.053	101.62
337.281	91.62
337.51	77.62
337.738	110.62
337.966	89.62
338.194	117.62
338.422	104.62
338.65	99.62
338.878	81.62
339.106	93.62
339.334	95.62
339.562	100.62
339.79	105.62
340.018	91.62
340.246	87.62
340.474	102.62
340.702	104.62
340.93	90.62
341.158	93.62
341.386	92.62
341.614	101.62
341.842	110.62
342.07	84.62
342.298	104.62
342.526	98.62
342.754	89.62
342.981	79.62
343.209	88.62
343.437	91.62
343.665	86.62
343.893	86.62
344.12	93.62
344.348	92.62
344.576	94.62
344.804	98.62
345.031	101.62
345.259	91.62
345.487	85.62
345.714	85.62
345.942	98.62
346.17	92.62
346.397	106.62
346.625	107.62
346.853	107.62
347.08	97.62
347.308	90.62
347.535	105.62
347.763	99.62
347.99	109.62
348.218	95.62
348.445	102.62
348.673	101.62
348.9	96.62
349.128	95.62
349.355	93.62
349.583	102.62
349.81	81.62
350.037	84.62
350.265	96.62
350.492	98.62
350.72	102.62
350.947	102.62
351.174	97.62
351.402	106.62
351.629	109.62
351.856	102.62
352.083	99.62
352.311	103.62
352.538	112.62
352.765	106.62
352.992	106.62
353.22	103.62
353.447	109.62
353.674	105.62
353.901	92.62
354.128	106.62
354.355	88.62
354.583	103.62
354.81	106.62
355.037	105.62
355.264	97.62
355.491	96.62
355.718	100.62
355.945	86.62
356.172	109.62
356.399	92.62
356.626	109.62
356.853	90.62
357.08	100.62
357.307	105.62
357.534	91.62
357.761	75.62
357.988	94.62
358.215	99.62
358.441	99.62
358.668	94.62
358.895	79.62
359.122	94.62
359.349	93.62
359.576	98.62
359.802	99.62
360.029	98.62
360.256	105.62
360.483	99.62
360.709	101.62
360.936	99.62
361.163	84.62
361.39	97.62
361.616	101.62
361.843	96.62
362.07	101.62
362.296	98.62
362.523	88.62
362.749	102.62
362.976	95.62
363.203	108.62
363.429	93.62
363.656	94.62
363.882	96.62
364.109	93.62
364.335	88.62
364.562	96.62
364.788	98.62
365.015	94.62
365.241	103.62
365.468	105.62
365.694	105.62
365.92	91.62
366.147	100.62
366.373	102.62
366.599	96.62
366.826	96.62
367.052	74.62
367.278	97.62
367.505	104.62
367.731	100.62
367.957	101.62
368.184	102.62
368.41	96.62
368.636	115.62
368.862	117.62
369.089	107.62
369.315	101.62
369.541	105.62
369.767	92.62
369.993	101.62
370.219	88.62
370.445	88.62
370.672	86.62
370.898	101.62
371.124	89.62
371.35	100.62
371.576	84.62
371.802	96.62
372.028	97.62
372.254	99.62
372.48	81.62
372.706	98.62
372.932	80.62
373.158	96.62
373.384	90.62
373.61	99.62
373.835	100.62
374.061	91.62
374.287	95.62
374.513	92.62
374.739	83.62
374.965	89.62
375.191	94.62
375.416	78.62
375.642	84.62
375.868	83.62
376.094	90.62
376.319	78.62
376.545	96.62
376.771	89.62
376.997	96.62
377.222	86.62
377.448	102.62
377.674	93.62
377.899	93.62
378.125	104.62
378.35	98.62
378.576	84.62
378.802	88.62
379.027	91.62
379.253	98.62
379.478	78.62
379.704	87.62
379.929	99.62
380.155	101.62
380.38	94.62
380.606	86.62
380.831	92.62
381.057	105.62
381.282	86.62
381.507	85.62
381.733	94.62
381.958	95.62
382.184	112.62
382.409	97.62
382.634	112.62
382.86	103.62
383.085	101.62
383.31	110.62
383.535	86.62
383.761	108.62
383.986	93.62
384.211	112.62
384.436	106.62
384.662	103.62
384.887	95.62
385.112	109.62
385.337	106.62
385.562	103.62
385.787	99.62
386.013	109.62
386.238	123.62
386.463	96.62
386.688	106.62
386.913	110.62
387.138	101.62
387.363	108.62
387.588	97.62
387.813	88.62
388.038	105.62
388.263	116.62
388.488	94.62
388.713	89.62
388.938	97.62
389.163	80.62
389.387	98.62
389.612	106.62
389.837	98.62
390.062	101.62
390.287	91.62
390.512	94.62
390.736	69.62
390.961	77.62
391.186	90.62
391.411	110.62
391.636	101.62
391.86	106.62
392.085	92.62
392.31	89.62
392.534	86.62
392.759	66.62
392.984	100.62
393.208	78.62
393.433	83.62
393.658	90.62
393.882	81.62
394.107	75.62
394.331	92.62
394.556	90.62
394.78	73.62
395.005	80.62
395.229	96.62
395.454	90.62
395.678	82.62
395.903	79.62
396.127	98.62
396.352	100.62
396.576	86.62
396.801	99.62
397.025	92.62
397.249	69.62
397.474	88.62
397.698	95.62
397.922	97.62
398.147	104.62
398.371	93.62
398.595	98.62
398.82	92.62
399.044	89.62
399.268	90.62
399.492	80.62
399.717	94.62
399.941	100.62
400.165	86.62
400.389	85.62
400.613	81.62
400.837	77.62
401.062	85.62
401.286	89.62
401.51	92.62
401.734	98.62
401.958	95.62
402.182	120.62
402.406	153.62
402.63	102.62
402.854	93.62
403.078	82.62
403.302	86.62
403.526	80.62
403.75	84.62
403.974	83.62
404.198	94.62
404.422	100.62
404.645	92.62
404.869	77.62
405.093	83.62
405.317	87.62
405.541	88.62
405.765	103.62
405.988	115.62
406.212	164.62
406.436	189.62
406.66	134.62
406.883	96.62
407.107	95.62
407.331	95.62
407.555	93.62
407.778	89.62
408.002	91.62
408.226	92.62
408.449	78.62
408.673	73.62
408.896	101.62
409.12	91.62
409.344	99.62
409.567	94.62
409.791	94.62
410.014	101.62
410.238	89.62
410.461	77.62
410.685	86.62
410.908	97.62
411.132	89.62
411.355	105.62
411.578	99.62
411.802	96.62
412.025	101.62
412.249	94.62
412.472	93.62
412.695	82.62
412.919	101.62
413.142	95.62
413.365	104.62
413.589	80.62
413.812	102.62
414.035	92.62
414.258	98.62
414.482	86.62
414.705	80.62
414.928	90.62
415.151	99.62
415.374	89.62
415.597	88.62
415.821	108.62
416.044	93.62
416.267	92.62
416.49	88.62
416.713	77.62
416.936	96.62
417.159	91.62
417.382	81.62
417.605	90.62
417.828	99.62
418.051	93.62
418.274	98.62
418.497	89.62
418.72	94.62
418.943	87.62
419.166	107.62
419.389	86.62
419.611	106.62
419.834	87.62
420.057	92.62
420.28	96.62
420.503	101.62
420.726	97.62
420.948	89.62
421.171	108.62
421.394	92.62
421.617	87.62
421.839	91.62
422.062	101.62
422.285	90.62
422.507	91.62
422.73	90.62
422.953	92.62
423.175	89.62
423.398	90.62
423.621	93.62
423.843	86.62
424.066	88.62
424.288	83.62
424.511	84.62
424.733	95.62
424.956	100.62
425.178	92.62
425.401	109.62
425.623	97.62
425.846	91.62
426.068	93.62
426.291	96.62
426.513	93.62
426.735	87.62
426.958	93.62
427.18	106.62
427.402	123.62
427.625	133.62
427.847	106.62
428.069	78.62
428.292	80.62
428.514	78.62
428.736	103.62
428.958	96.62
429.181	100.62
429.403	91.62
429.625	90.62
429.847	102.62
430.069	92.62
430.292	75.62
430.514	85.62
430.736	77.62
430.958	81.62
431.18	82.62
431.402	87.62
431.624	98.62
431.846	92.62
432.068	73.62
432.29	94.62
432.512	81.62
432.734	94.62
432.956	94.62
433.178	106.62
433.4	104.62
433.622	109.62
433.844	94.62
434.066	90.62
434.287	101.62
434.509	89.62
434.731	84.62
434.953	88.62
435.175	87.62
435.397	84.62
435.618	83.62
435.84	108.62
436.062	110.62
436.284	112.62
436.505	105.62
436.727	105.62
436.949	100.62
437.17	92.62
437.392	82.62
437.614	79.62
437.835	101.62
438.057	109.62
438.278	93.62
438.5	109.62
438.721	120.62
438.943	112.62
439.165	95.62
439.386	99.62
439.608	92.62
439.829	104.62
440.05	102.62
440.272	131.62
440.493	103.62
440.715	90.62
440.936	92.62
441.158	89.62
441.379	98.62
441.6	91.62
441.822	93.62
442.043	86.62
442.264	103.62
442.486	101.62
442.707	106.62
442.928	80.62
443.149	122.62
443.371	119.62
443.592	118.62
443.813	100.62
444.034	118.62
444.255	107.62
444.476	94.62
444.698	96.62
444.919	89.62
445.14	142.62
445.361	132.62
445.582	100.62
445.803	113.62
446.024	123.62
446.245	121.62
446.466	104.62
446.687	93.62
446.908	85.62
447.129	96.62
447.35	92.62
447.571	114.62
447.792	101.62
448.013	88.62
448.234	101.62
448.455	108.62
448.675	121.62
448.896	116.62
449.117	92.62
449.338	105.62
449.559	125.62
449.779	121.62
450	95.62
450.221	102.62
450.442	88.62
450.662	82.62
450.883	92.62
451.104	104.62
451.324	106.62
451.545	92.62
451.766	83.62
451.986	98.62
452.207	88.62
452.428	79.62
452.648	102.62
452.869	111.62
453.089	116.62
453.31	114.62
453.53	86.62
453.751	94.62
453.971	92.62
454.192	110.62
454.412	91.62
454.633	91.62
454.853	94.62
455.073	96.62
455.294	90.62
455.514	92.62
455.734	89.62
455.955	88.62
456.175	78.62
456.395	96.62
456.616	109.62
456.836	85.62
457.056	88.62
457.276	82.62
457.497	98.62
457.717	96.62
457.937	88.62
458.157	94.62
458.377	83.62
458.598	114.62
458.818	139.62
459.038	133.62
459.258	113.62
459.478	93.62
459.698	85.62
459.918	88.62
460.138	92.62
460.358	96.62
460.578	77.62
460.798	89.62
461.018	96.62
461.238	91.62
461.458	84.62
461.678	79.62
461.898	93.62
462.118	90.62
462.338	85.62
462.558	76.62
462.777	92.62
462.997	83.62
463.217	86.62
463.437	88.62
463.657	74.62
463.876	89.62
464.096	90.62
464.316	100.62
464.536	103.62
464.755	92.62
464.975	100.62
465.195	140.62
465.414	127.62
465.634	110.62
465.854	93.62
466.073	90.62
466.293	89.62
466.512	93.62
466.732	89.62
466.951	96.62
467.171	83.62
467.391	102.62
467.61	90.62
467.829	79.62
468.049	102.62
468.268	99.62
468.488	87.62
468.707	85.62
468.927	87.62
469.146	76.62
469.365	92.62
469.585	104.62
469.804	99.62
470.023	102.62
470.243	87.62
470.462	97.62
470.681	101.62
470.901	86.62
471.12	93.62
471.339	102.62
471.558	88.62
471.777	86.62
471.997	93.62
472.216	99.62
472.435	107.62
472.654	95.62
472.873	96.62
473.092	84.62
473.311	98.62
473.53	94.62
473.749	82.62
473.968	95.62
474.187	91.62
474.406	91.62
474.625	87.62
474.844	94.62
475.063	83.62
475.282	95.62
475.501	88.62
475.72	96.62
475.939	80.62
476.158	75.62
476.377	94.62
476.596	84.62
476.814	81.62
477.033	97.62
477.252	95.62
477.471	84.62
477.69	94.62
477.908	90.62
478.127	80.62
478.346	96.62
478.564	97.62
478.783	106.62
479.002	95.62
479.22	76.62
479.439	110.62
479.658	101.62
479.876	94.62
480.095	89.62
480.313	104.62
480.532	97.62
480.751	75.62
480.969	94.62
481.188	100.62
481.406	96.62
481.624	91.62
481.843	100.62
482.061	82.62
482.28	97.62
482.498	86.62
482.717	104.62
482.935	86.62
483.153	76.62
483.372	104.62
483.59	97.62
483.808	90.62
484.027	107.62
484.245	100.62
484.463	96.62
484.681	101.62
484.9	103.62
485.118	100.62
485.336	100.62
485.554	89.62
485.772	85.62
485.99	94.62
486.209	106.62
486.427	100.62
486.645	105.62
486.863	110.62
487.081	100.62
487.299	94.62
487.517	90.62
487.735	97.62
487.953	96.62
488.171	101.62
488.389	85.62
488.607	99.62
488.825	105.62
489.043	96.62
489.261	86.62
489.479	93.62
489.696	89.62
489.914	98.62
490.132	96.62
490.35	82.62
490.568	97.62
490.786	89.62
491.003	93.62
491.221	97.62
491.439	97.62
491.657	92.62
491.874	81.62
492.092	93.62
492.31	93.62
492.527	86.62
492.745	93.62
492.963	91.62
493.18	83.62
493.398	101.62
493.615	100.62
493.833	89.62
494.05	89.62
494.268	101.62
494.485	115.62
494.703	88.62
494.92	94.62
495.138	81.62
495.355	102.62
495.573	92.62
495.79	101.62
496.008	88.62
496.225	91.62
496.442	112.62
496.66	90.62
496.877	91.62
497.094	102.62
497.312	95.62
497.529	88.62
497.746	79.62
497.963	99.62
498.181	90.62
498.398	106.62
498.615	108.62
498.832	101.62
499.049	86.62
499.267	88.62
499.484	90.62
499.701	95.62
499.918	100.62
500.135	93.62
500.352	105.62
500.569	87.62
500.786	101.62
501.003	98.62
501.22	87.62
501.437	84.62
501.654	88.62
501.871	90.62
502.088	97.62
502.305	93.62
502.522	85.62
502.739	99.62
502.956	84.62
503.172	100.62
503.389	93.62
503.606	97.62
503.823	88.62
504.04	92.62
504.256	86.62
504.473	96.62
504.69	89.62
504.907	92.62
505.123	77.62
505.34	110.62
505.557	104.62
505.773	91.62
505.99	98.62
506.207	90.62
506.423	90.62
506.64	109.62
506.856	89.62
507.073	88.62
507.289	92.62
507.506	109.62
507.722	105.62
507.939	101.62
508.155	82.62
508.372	92.62
508.588	88.62
508.805	89.62
509.021	88.62
509.238	101.62
509.454	99.62
509.67	82.62
509.887	116.62
510.103	121.62
510.319	200.62
510.536	624.62
510.752	1852.62
510.968	544.62
511.184	152.62
511.401	104.62
511.617	88.62
511.833	95.62
512.049	83.62
512.265	94.62
512.481	88.62
512.698	91.62
512.914	97.62
513.13	101.62
513.346	82.62
513.562	102.62
513.778	97.62
513.994	102.62
514.21	104.62
514.426	120.62
514.642	120.62
