Data from Uncirc_1998_H10_HRD10591_00023.txt Node
Date: Wed Jan 03 11:25:29 EST 2024
User: Yrep
Spectrometer: HR+D1059
Trigger mode: 1
Integration Time (sec): 1.000000E-1
Scans to average: 1
Electric dark correction enabled: true
Nonlinearity correction enabled: false
Boxcar width: 0
XAxis mode: Wavelengths
Number of Pixels in Spectrum: 2048
>>>>>Begin Spectral Data<<<<<
223.165	-7.44
223.4	-7.44
223.635	-7.44
223.869	-15.44
224.104	-37.44
224.338	-16.44
224.573	-24.44
224.808	-14.44
225.042	-10.44
225.277	-1.44
225.511	7.56
225.746	1.56
225.98	17.56
226.215	13.56
226.449	16.56
226.683	15.56
226.918	29.56
227.152	25.56
227.387	16.56
227.621	41.56
227.856	44.56
228.09	57.56
228.324	55.56
228.559	49.56
228.793	64.56
229.027	50.56
229.262	60.56
229.496	79.56
229.73	89.56
229.964	86.56
230.199	66.56
230.433	58.56
230.667	75.56
230.901	68.56
231.136	85.56
231.37	77.56
231.604	90.56
231.838	87.56
232.072	85.56
232.306	74.56
232.541	65.56
232.775	82.56
233.009	73.56
233.243	89.56
233.477	86.56
233.711	85.56
233.945	87.56
234.179	77.56
234.413	69.56
234.647	73.56
234.881	80.56
235.115	71.56
235.349	74.56
235.583	76.56
235.817	72.56
236.051	73.56
236.285	72.56
236.519	77.56
236.753	73.56
236.987	82.56
237.221	96.56
237.455	72.56
237.689	86.56
237.922	80.56
238.156	67.56
238.39	64.56
238.624	62.56
238.858	65.56
239.091	81.56
239.325	70.56
239.559	86.56
239.793	70.56
240.027	78.56
240.26	70.56
240.494	75.56
240.728	68.56
240.961	80.56
241.195	70.56
241.429	61.56
241.662	56.56
241.896	69.56
242.13	78.56
242.363	63.56
242.597	80.56
242.83	73.56
243.064	93.56
243.298	79.56
243.531	90.56
243.765	83.56
243.998	73.56
244.232	81.56
244.465	63.56
244.699	81.56
244.932	78.56
245.166	79.56
245.399	85.56
245.633	87.56
245.866	81.56
246.099	75.56
246.333	75.56
246.566	78.56
246.8	81.56
247.033	69.56
247.266	89.56
247.5	80.56
247.733	86.56
247.966	86.56
248.2	77.56
248.433	69.56
248.666	77.56
248.899	86.56
249.133	75.56
249.366	79.56
249.599	75.56
249.832	63.56
250.066	85.56
250.299	93.56
250.532	79.56
250.765	72.56
250.998	66.56
251.231	69.56
251.465	74.56
251.698	84.56
251.931	80.56
252.164	89.56
252.397	82.56
252.63	74.56
252.863	78.56
253.096	82.56
253.329	90.56
253.562	69.56
253.795	76.56
254.028	74.56
254.261	87.56
254.494	76.56
254.727	94.56
254.96	91.56
255.193	86.56
255.426	67.56
255.659	73.56
255.892	89.56
256.124	72.56
256.357	81.56
256.59	73.56
256.823	74.56
257.056	76.56
257.289	89.56
257.521	81.56
257.754	60.56
257.987	64.56
258.22	80.56
258.452	83.56
258.685	73.56
258.918	72.56
259.151	86.56
259.383	81.56
259.616	84.56
259.849	81.56
260.081	89.56
260.314	86.56
260.547	85.56
260.779	87.56
261.012	78.56
261.244	83.56
261.477	96.56
261.71	110.56
261.942	115.56
262.175	108.56
262.407	83.56
262.64	88.56
262.872	92.56
263.105	86.56
263.337	89.56
263.57	97.56
263.802	77.56
264.035	86.56
264.267	80.56
264.499	75.56
264.732	91.56
264.964	81.56
265.197	78.56
265.429	82.56
265.661	84.56
265.894	85.56
266.126	91.56
266.358	90.56
266.591	82.56
266.823	65.56
267.055	61.56
267.287	78.56
267.52	83.56
267.752	85.56
267.984	77.56
268.216	64.56
268.448	78.56
268.681	69.56
268.913	89.56
269.145	87.56
269.377	98.56
269.609	84.56
269.841	79.56
270.073	91.56
270.306	97.56
270.538	86.56
270.77	78.56
271.002	82.56
271.234	86.56
271.466	95.56
271.698	93.56
271.93	91.56
272.162	94.56
272.394	86.56
272.626	96.56
272.858	87.56
273.09	81.56
273.322	80.56
273.553	89.56
273.785	83.56
274.017	93.56
274.249	69.56
274.481	84.56
274.713	74.56
274.945	76.56
275.176	84.56
275.408	85.56
275.64	93.56
275.872	78.56
276.104	90.56
276.335	84.56
276.567	108.56
276.799	93.56
277.031	91.56
277.262	83.56
277.494	87.56
277.726	69.56
277.957	83.56
278.189	69.56
278.421	93.56
278.652	85.56
278.884	75.56
279.115	81.56
279.347	89.56
279.579	82.56
279.81	93.56
280.042	89.56
280.273	93.56
280.505	79.56
280.736	87.56
280.968	82.56
281.199	81.56
281.431	79.56
281.662	80.56
281.894	100.56
282.125	93.56
282.356	125.56
282.588	121.56
282.819	107.56
283.051	92.56
283.282	87.56
283.513	97.56
283.745	87.56
283.976	80.56
284.207	85.56
284.439	92.56
284.67	92.56
284.901	78.56
285.132	102.56
285.364	82.56
285.595	65.56
285.826	97.56
286.057	81.56
286.288	89.56
286.52	73.56
286.751	93.56
286.982	91.56
287.213	92.56
287.444	82.56
287.675	86.56
287.906	64.56
288.138	89.56
288.369	90.56
288.6	96.56
288.831	85.56
289.062	84.56
289.293	84.56
289.524	88.56
289.755	96.56
289.986	84.56
290.217	81.56
290.448	86.56
290.679	74.56
290.91	103.56
291.141	90.56
291.371	98.56
291.602	91.56
291.833	96.56
292.064	105.56
292.295	72.56
292.526	89.56
292.757	79.56
292.987	99.56
293.218	85.56
293.449	94.56
293.68	82.56
293.91	93.56
294.141	74.56
294.372	86.56
294.603	95.56
294.833	82.56
295.064	80.56
295.295	95.56
295.525	94.56
295.756	109.56
295.987	121.56
296.217	137.56
296.448	110.56
296.679	100.56
296.909	84.56
297.14	91.56
297.37	82.56
297.601	91.56
297.831	81.56
298.062	91.56
298.292	95.56
298.523	96.56
298.753	99.56
298.984	82.56
299.214	67.56
299.445	89.56
299.675	89.56
299.905	88.56
300.136	97.56
300.366	85.56
300.597	91.56
300.827	94.56
301.057	99.56
301.288	88.56
301.518	101.56
301.748	88.56
301.979	99.56
302.209	91.56
302.439	87.56
302.669	83.56
302.9	92.56
303.13	81.56
303.36	96.56
303.59	97.56
303.82	103.56
304.051	89.56
304.281	96.56
304.511	93.56
304.741	73.56
304.971	91.56
305.201	78.56
305.431	90.56
305.661	76.56
305.891	81.56
306.121	98.56
306.352	91.56
306.582	92.56
306.812	85.56
307.042	110.56
307.272	99.56
307.502	95.56
307.731	83.56
307.961	105.56
308.191	86.56
308.421	83.56
308.651	93.56
308.881	95.56
309.111	79.56
309.341	94.56
309.571	96.56
309.8	86.56
310.03	113.56
310.26	82.56
310.49	93.56
310.72	90.56
310.949	94.56
311.179	92.56
311.409	107.56
311.639	109.56
311.868	77.56
312.098	102.56
312.328	82.56
312.557	104.56
312.787	95.56
313.017	85.56
313.246	86.56
313.476	95.56
313.706	108.56
313.935	103.56
314.165	96.56
314.394	89.56
314.624	86.56
314.853	91.56
315.083	93.56
315.312	91.56
315.542	97.56
315.771	101.56
316.001	86.56
316.23	82.56
316.46	96.56
316.689	92.56
316.919	84.56
317.148	95.56
317.377	99.56
317.607	74.56
317.836	82.56
318.065	82.56
318.295	98.56
318.524	89.56
318.753	97.56
318.983	97.56
319.212	95.56
319.441	104.56
319.67	89.56
319.9	105.56
320.129	95.56
320.358	76.56
320.587	104.56
320.816	109.56
321.046	113.56
321.275	109.56
321.504	93.56
321.733	94.56
321.962	104.56
322.191	99.56
322.42	106.56
322.649	111.56
322.878	113.56
323.108	107.56
323.337	106.56
323.566	118.56
323.795	146.56
324.024	213.56
324.253	371.56
324.482	797.56
324.71	1634.56
324.939	2156.56
325.168	830.56
325.397	248.56
325.626	156.56
325.855	115.56
326.084	123.56
326.313	145.56
326.542	165.56
326.77	218.56
326.999	442.56
327.228	953.56
327.457	1704.56
327.686	1335.56
327.914	367.56
328.143	210.56
328.372	154.56
328.6	124.56
328.829	96.56
329.058	108.56
329.287	133.56
329.515	106.56
329.744	106.56
329.972	99.56
330.201	97.56
330.43	114.56
330.658	118.56
330.887	114.56
331.115	120.56
331.344	86.56
331.572	99.56
331.801	100.56
332.03	99.56
332.258	102.56
332.486	86.56
332.715	88.56
332.943	78.56
333.172	99.56
333.4	91.56
333.629	84.56
333.857	86.56
334.085	92.56
334.314	87.56
334.542	103.56
334.771	90.56
334.999	91.56
335.227	95.56
335.455	98.56
335.684	94.56
335.912	89.56
336.14	98.56
336.369	104.56
336.597	97.56
336.825	101.56
337.053	89.56
337.281	82.56
337.51	80.56
337.738	95.56
337.966	97.56
338.194	97.56
338.422	106.56
338.65	103.56
338.878	87.56
339.106	81.56
339.334	84.56
339.562	95.56
339.79	93.56
340.018	96.56
340.246	80.56
340.474	90.56
340.702	96.56
340.93	89.56
341.158	87.56
341.386	94.56
341.614	103.56
341.842	85.56
342.07	98.56
342.298	101.56
342.526	85.56
342.754	97.56
342.981	85.56
343.209	78.56
343.437	103.56
343.665	95.56
343.893	82.56
344.12	97.56
344.348	100.56
344.576	107.56
344.804	92.56
345.031	85.56
345.259	96.56
345.487	85.56
345.714	94.56
345.942	98.56
346.17	100.56
346.397	88.56
346.625	85.56
346.853	95.56
347.08	90.56
347.308	108.56
347.535	94.56
347.763	102.56
347.99	101.56
348.218	93.56
348.445	95.56
348.673	89.56
348.9	95.56
349.128	97.56
349.355	99.56
349.583	102.56
349.81	98.56
350.037	78.56
350.265	84.56
350.492	85.56
350.72	93.56
350.947	88.56
351.174	93.56
351.402	94.56
351.629	93.56
351.856	98.56
352.083	99.56
352.311	95.56
352.538	107.56
352.765	99.56
352.992	105.56
353.22	106.56
353.447	107.56
353.674	109.56
353.901	106.56
354.128	85.56
354.355	95.56
354.583	109.56
354.81	92.56
355.037	73.56
355.264	82.56
355.491	88.56
355.718	99.56
355.945	88.56
356.172	99.56
356.399	99.56
356.626	91.56
356.853	89.56
357.08	87.56
357.307	95.56
357.534	90.56
357.761	88.56
357.988	91.56
358.215	105.56
358.441	80.56
358.668	81.56
358.895	88.56
359.122	82.56
359.349	86.56
359.576	92.56
359.802	100.56
360.029	118.56
360.256	119.56
360.483	98.56
360.709	93.56
360.936	93.56
361.163	93.56
361.39	97.56
361.616	93.56
361.843	86.56
362.07	89.56
362.296	84.56
362.523	89.56
362.749	91.56
362.976	96.56
363.203	91.56
363.429	83.56
363.656	91.56
363.882	102.56
364.109	78.56
364.335	94.56
364.562	97.56
364.788	89.56
365.015	104.56
365.241	102.56
365.468	103.56
365.694	112.56
365.92	91.56
366.147	89.56
366.373	73.56
366.599	87.56
366.826	106.56
367.052	92.56
367.278	87.56
367.505	89.56
367.731	91.56
367.957	93.56
368.184	94.56
368.41	97.56
368.636	105.56
368.862	111.56
369.089	101.56
369.315	106.56
369.541	92.56
369.767	102.56
369.993	92.56
370.219	92.56
370.445	92.56
370.672	72.56
370.898	85.56
371.124	81.56
371.35	90.56
371.576	90.56
371.802	85.56
372.028	87.56
372.254	79.56
372.48	94.56
372.706	85.56
372.932	85.56
373.158	83.56
373.384	81.56
373.61	100.56
373.835	92.56
374.061	84.56
374.287	91.56
374.513	108.56
374.739	71.56
374.965	78.56
375.191	88.56
375.416	98.56
375.642	91.56
375.868	95.56
376.094	91.56
376.319	84.56
376.545	85.56
376.771	82.56
376.997	73.56
377.222	99.56
377.448	90.56
377.674	81.56
377.899	83.56
378.125	91.56
378.35	102.56
378.576	105.56
378.802	90.56
379.027	103.56
379.253	94.56
379.478	87.56
379.704	91.56
379.929	91.56
380.155	93.56
380.38	88.56
380.606	97.56
380.831	93.56
381.057	88.56
381.282	94.56
381.507	102.56
381.733	103.56
381.958	103.56
382.184	91.56
382.409	97.56
382.634	95.56
382.86	98.56
383.085	102.56
383.31	103.56
383.535	99.56
383.761	104.56
383.986	81.56
384.211	89.56
384.436	84.56
384.662	117.56
384.887	120.56
385.112	105.56
385.337	95.56
385.562	99.56
385.787	112.56
386.013	102.56
386.238	98.56
386.463	97.56
386.688	101.56
386.913	107.56
387.138	110.56
387.363	105.56
387.588	103.56
387.813	105.56
388.038	97.56
388.263	112.56
388.488	118.56
388.713	97.56
388.938	102.56
389.163	99.56
389.387	94.56
389.612	99.56
389.837	83.56
390.062	96.56
390.287	90.56
390.512	95.56
390.736	94.56
390.961	99.56
391.186	106.56
391.411	101.56
391.636	92.56
391.86	89.56
392.085	90.56
392.31	93.56
392.534	95.56
392.759	88.56
392.984	88.56
393.208	77.56
393.433	95.56
393.658	91.56
393.882	86.56
394.107	90.56
394.331	82.56
394.556	99.56
394.78	89.56
395.005	93.56
395.229	100.56
395.454	83.56
395.678	87.56
395.903	95.56
396.127	72.56
396.352	94.56
396.576	89.56
396.801	82.56
397.025	82.56
397.249	85.56
397.474	97.56
397.698	88.56
397.922	94.56
398.147	85.56
398.371	82.56
398.595	97.56
398.82	98.56
399.044	75.56
399.268	95.56
399.492	96.56
399.717	89.56
399.941	87.56
400.165	86.56
400.389	89.56
400.613	78.56
400.837	102.56
401.062	84.56
401.286	91.56
401.51	87.56
401.734	80.56
401.958	96.56
402.182	111.56
402.406	149.56
402.63	132.56
402.854	96.56
403.078	85.56
403.302	92.56
403.526	99.56
403.75	91.56
403.974	73.56
404.198	95.56
404.422	94.56
404.645	97.56
404.869	81.56
405.093	89.56
405.317	79.56
405.541	105.56
405.765	101.56
405.988	123.56
406.212	153.56
406.436	206.56
406.66	123.56
406.883	98.56
407.107	87.56
407.331	83.56
407.555	89.56
407.778	92.56
408.002	85.56
408.226	89.56
408.449	88.56
408.673	88.56
408.896	89.56
409.12	97.56
409.344	103.56
409.567	90.56
409.791	83.56
410.014	93.56
410.238	88.56
410.461	96.56
410.685	95.56
410.908	100.56
411.132	106.56
411.355	95.56
411.578	96.56
411.802	93.56
412.025	79.56
412.249	79.56
412.472	82.56
412.695	90.56
412.919	93.56
413.142	88.56
413.365	87.56
413.589	89.56
413.812	86.56
414.035	86.56
414.258	87.56
414.482	81.56
414.705	93.56
414.928	90.56
415.151	86.56
415.374	90.56
415.597	97.56
415.821	81.56
416.044	99.56
416.267	87.56
416.49	100.56
416.713	75.56
416.936	77.56
417.159	86.56
417.382	91.56
417.605	84.56
417.828	105.56
418.051	96.56
418.274	79.56
418.497	83.56
418.72	88.56
418.943	94.56
419.166	108.56
419.389	77.56
419.611	78.56
419.834	90.56
420.057	90.56
420.28	91.56
420.503	78.56
420.726	88.56
420.948	88.56
421.171	94.56
421.394	92.56
421.617	79.56
421.839	89.56
422.062	86.56
422.285	86.56
422.507	103.56
422.73	116.56
422.953	103.56
423.175	100.56
423.398	83.56
423.621	90.56
423.843	89.56
424.066	82.56
424.288	91.56
424.511	96.56
424.733	90.56
424.956	92.56
425.178	84.56
425.401	93.56
425.623	89.56
425.846	84.56
426.068	98.56
426.291	77.56
426.513	100.56
426.735	77.56
426.958	98.56
427.18	107.56
427.402	126.56
427.625	129.56
427.847	107.56
428.069	98.56
428.292	76.56
428.514	81.56
428.736	81.56
428.958	88.56
429.181	93.56
429.403	88.56
429.625	82.56
429.847	96.56
430.069	91.56
430.292	96.56
430.514	79.56
430.736	79.56
430.958	86.56
431.18	81.56
431.402	75.56
431.624	95.56
431.846	91.56
432.068	87.56
432.29	87.56
432.512	91.56
432.734	87.56
432.956	99.56
433.178	103.56
433.4	108.56
433.622	87.56
433.844	86.56
434.066	96.56
434.287	104.56
434.509	95.56
434.731	88.56
434.953	82.56
435.175	98.56
435.397	99.56
435.618	89.56
435.84	95.56
436.062	123.56
436.284	110.56
436.505	93.56
436.727	113.56
436.949	97.56
437.17	77.56
437.392	85.56
437.614	84.56
437.835	106.56
438.057	121.56
438.278	96.56
438.5	106.56
438.721	116.56
438.943	91.56
439.165	95.56
439.386	93.56
439.608	81.56
439.829	91.56
440.05	121.56
440.272	133.56
440.493	110.56
440.715	92.56
440.936	95.56
441.158	66.56
441.379	84.56
441.6	71.56
441.822	95.56
442.043	109.56
442.264	90.56
442.486	95.56
442.707	92.56
442.928	106.56
443.149	126.56
443.371	136.56
443.592	122.56
443.813	107.56
444.034	103.56
444.255	99.56
444.476	91.56
444.698	82.56
444.919	90.56
445.14	138.56
445.361	136.56
445.582	114.56
445.803	119.56
446.024	131.56
446.245	131.56
446.466	99.56
446.687	100.56
446.908	80.56
447.129	99.56
447.35	87.56
447.571	79.56
447.792	79.56
448.013	94.56
448.234	102.56
448.455	94.56
448.675	102.56
448.896	107.56
449.117	99.56
449.338	97.56
449.559	127.56
449.779	140.56
450	105.56
450.221	93.56
450.442	86.56
450.662	85.56
450.883	91.56
451.104	97.56
451.324	98.56
451.545	100.56
451.766	89.56
451.986	82.56
452.207	87.56
452.428	96.56
452.648	95.56
452.869	99.56
453.089	104.56
453.31	95.56
453.53	96.56
453.751	91.56
453.971	92.56
454.192	99.56
454.412	99.56
454.633	59.56
454.853	90.56
455.073	79.56
455.294	86.56
455.514	102.56
455.734	101.56
455.955	79.56
456.175	86.56
456.395	83.56
456.616	85.56
456.836	74.56
457.056	78.56
457.276	79.56
457.497	80.56
457.717	85.56
457.937	85.56
458.157	76.56
458.377	80.56
458.598	109.56
458.818	137.56
459.038	126.56
459.258	100.56
459.478	95.56
459.698	93.56
459.918	86.56
460.138	83.56
460.358	88.56
460.578	81.56
460.798	83.56
461.018	90.56
461.238	91.56
461.458	99.56
461.678	79.56
461.898	105.56
462.118	96.56
462.338	89.56
462.558	90.56
462.777	79.56
462.997	79.56
463.217	90.56
463.437	96.56
463.657	91.56
463.876	89.56
464.096	79.56
464.316	90.56
464.536	88.56
464.755	83.56
464.975	110.56
465.195	163.56
465.414	139.56
465.634	88.56
465.854	87.56
466.073	93.56
466.293	82.56
466.512	88.56
466.732	93.56
466.951	94.56
467.171	92.56
467.391	92.56
467.61	91.56
467.829	99.56
468.049	95.56
468.268	97.56
468.488	95.56
468.707	104.56
468.927	89.56
469.146	82.56
469.365	90.56
469.585	89.56
469.804	87.56
470.023	93.56
470.243	100.56
470.462	94.56
470.681	92.56
470.901	84.56
471.12	90.56
471.339	86.56
471.558	78.56
471.777	87.56
471.997	90.56
472.216	90.56
472.435	94.56
472.654	83.56
472.873	83.56
473.092	83.56
473.311	98.56
473.53	94.56
473.749	108.56
473.968	76.56
474.187	93.56
474.406	98.56
474.625	85.56
474.844	91.56
475.063	84.56
475.282	85.56
475.501	86.56
475.72	86.56
475.939	91.56
476.158	81.56
476.377	85.56
476.596	82.56
476.814	96.56
477.033	90.56
477.252	90.56
477.471	82.56
477.69	82.56
477.908	76.56
478.127	88.56
478.346	89.56
478.564	90.56
478.783	88.56
479.002	90.56
479.22	91.56
479.439	109.56
479.658	102.56
479.876	80.56
480.095	93.56
480.313	83.56
480.532	83.56
480.751	94.56
480.969	80.56
481.188	91.56
481.406	93.56
481.624	82.56
481.843	89.56
482.061	88.56
482.28	93.56
482.498	88.56
482.717	89.56
482.935	87.56
483.153	96.56
483.372	81.56
483.59	96.56
483.808	71.56
484.027	94.56
484.245	82.56
484.463	105.56
484.681	80.56
484.9	109.56
485.118	97.56
485.336	91.56
485.554	111.56
485.772	93.56
485.99	101.56
486.209	105.56
486.427	118.56
486.645	100.56
486.863	94.56
487.081	93.56
487.299	88.56
487.517	99.56
487.735	101.56
487.953	77.56
488.171	86.56
488.389	83.56
488.607	85.56
488.825	83.56
489.043	87.56
489.261	88.56
489.479	96.56
489.696	87.56
489.914	101.56
490.132	79.56
490.35	89.56
490.568	80.56
490.786	87.56
491.003	82.56
491.221	93.56
491.439	80.56
491.657	99.56
491.874	103.56
492.092	85.56
492.31	93.56
492.527	78.56
492.745	78.56
492.963	87.56
493.18	89.56
493.398	101.56
493.615	94.56
493.833	93.56
494.05	83.56
494.268	100.56
494.485	80.56
494.703	79.56
494.92	93.56
495.138	76.56
495.355	90.56
495.573	101.56
495.79	108.56
496.008	97.56
496.225	89.56
496.442	97.56
496.66	79.56
496.877	94.56
497.094	98.56
497.312	87.56
497.529	83.56
497.746	91.56
497.963	89.56
498.181	92.56
498.398	80.56
498.615	90.56
498.832	90.56
499.049	84.56
499.267	93.56
499.484	96.56
499.701	81.56
499.918	86.56
500.135	87.56
500.352	98.56
500.569	84.56
500.786	92.56
501.003	87.56
501.22	97.56
501.437	91.56
501.654	98.56
501.871	109.56
502.088	93.56
502.305	72.56
502.522	90.56
502.739	98.56
502.956	92.56
503.172	78.56
503.389	94.56
503.606	106.56
503.823	106.56
504.04	90.56
504.256	92.56
504.473	91.56
504.69	87.56
504.907	94.56
505.123	93.56
505.34	89.56
505.557	87.56
505.773	82.56
505.99	86.56
506.207	90.56
506.423	86.56
506.64	86.56
506.856	91.56
507.073	102.56
507.289	96.56
507.506	94.56
507.722	105.56
507.939	109.56
508.155	97.56
508.372	86.56
508.588	98.56
508.805	80.56
509.021	80.56
509.238	112.56
509.454	99.56
509.67	105.56
509.887	106.56
510.103	122.56
510.319	200.56
510.536	690.56
510.752	2091.56
510.968	594.56
511.184	140.56
511.401	115.56
511.617	102.56
511.833	77.56
512.049	87.56
512.265	106.56
512.481	88.56
512.698	87.56
512.914	89.56
513.13	93.56
513.346	81.56
513.562	94.56
513.778	96.56
513.994	81.56
514.21	90.56
514.426	106.56
514.642	122.56
514.858	118.56
515.074	162.56
515.29	404.56
515.506	1265.56
515.721	478.56
515.937	143.56
516.153	98.56
516.369	93.56
