Data from Uncirc_1998_H10_HRD10591_00034.txt Node
Date: Wed Jan 03 11:25:31 EST 2024
User: Yrep
Spectrometer: HR+D1059
Trigger mode: 1
Integration Time (sec): 1.000000E-1
Scans to average: 1
Electric dark correction enabled: true
Nonlinearity correction enabled: false
Boxcar width: 0
XAxis mode: Wavelengths
Number of Pixels in Spectrum: 2048
>>>>>Begin Spectral Data<<<<<
223.165	-18.75
223.4	-18.75
223.635	-18.75
223.869	-11.75
224.104	-22.75
224.338	-22.75
224.573	-3.75
224.808	-13.75
225.042	0.25
225.277	-3.75
225.511	-1.75
225.746	13.25
225.98	4.25
226.215	11.25
226.449	17.25
226.683	20.25
226.918	16.25
227.152	16.25
227.387	35.25
227.621	42.25
227.856	44.25
228.09	41.25
228.324	54.25
228.559	49.25
228.793	61.25
229.027	65.25
229.262	57.25
229.496	81.25
229.73	92.25
229.964	76.25
230.199	86.25
230.433	77.25
230.667	62.25
230.901	74.25
231.136	79.25
231.37	70.25
231.604	77.25
231.838	72.25
232.072	82.25
232.306	87.25
232.541	74.25
232.775	62.25
233.009	76.25
233.243	79.25
233.477	68.25
233.711	87.25
233.945	84.25
234.179	78.25
234.413	79.25
234.647	78.25
234.881	80.25
235.115	74.25
235.349	72.25
235.583	74.25
235.817	75.25
236.051	77.25
236.285	60.25
236.519	74.25
236.753	89.25
236.987	84.25
237.221	85.25
237.455	78.25
237.689	77.25
237.922	70.25
238.156	71.25
238.39	60.25
238.624	84.25
238.858	61.25
239.091	53.25
239.325	74.25
239.559	82.25
239.793	75.25
240.027	73.25
240.26	84.25
240.494	90.25
240.728	79.25
240.961	84.25
241.195	85.25
241.429	74.25
241.662	70.25
241.896	80.25
242.13	77.25
242.363	75.25
242.597	68.25
242.83	70.25
243.064	88.25
243.298	85.25
243.531	91.25
243.765	84.25
243.998	66.25
244.232	83.25
244.465	76.25
244.699	71.25
244.932	92.25
245.166	77.25
245.399	83.25
245.633	71.25
245.866	80.25
246.099	83.25
246.333	70.25
246.566	77.25
246.8	86.25
247.033	91.25
247.266	72.25
247.5	69.25
247.733	62.25
247.966	74.25
248.2	87.25
248.433	82.25
248.666	63.25
248.899	81.25
249.133	73.25
249.366	99.25
249.599	77.25
249.832	76.25
250.066	81.25
250.299	84.25
250.532	77.25
250.765	84.25
250.998	96.25
251.231	74.25
251.465	78.25
251.698	86.25
251.931	73.25
252.164	86.25
252.397	76.25
252.63	84.25
252.863	82.25
253.096	73.25
253.329	90.25
253.562	77.25
253.795	93.25
254.028	69.25
254.261	78.25
254.494	76.25
254.727	74.25
254.96	80.25
255.193	76.25
255.426	85.25
255.659	87.25
255.892	77.25
256.124	84.25
256.357	75.25
256.59	74.25
256.823	76.25
257.056	82.25
257.289	72.25
257.521	90.25
257.754	79.25
257.987	94.25
258.22	88.25
258.452	90.25
258.685	79.25
258.918	79.25
259.151	66.25
259.383	80.25
259.616	70.25
259.849	88.25
260.081	82.25
260.314	85.25
260.547	78.25
260.779	77.25
261.012	78.25
261.244	90.25
261.477	89.25
261.71	97.25
261.942	109.25
262.175	101.25
262.407	98.25
262.64	85.25
262.872	65.25
263.105	77.25
263.337	75.25
263.57	96.25
263.802	60.25
264.035	72.25
264.267	90.25
264.499	84.25
264.732	77.25
264.964	81.25
265.197	75.25
265.429	89.25
265.661	86.25
265.894	88.25
266.126	86.25
266.358	75.25
266.591	88.25
266.823	80.25
267.055	85.25
267.287	80.25
267.52	84.25
267.752	76.25
267.984	71.25
268.216	78.25
268.448	86.25
268.681	89.25
268.913	74.25
269.145	64.25
269.377	96.25
269.609	89.25
269.841	82.25
270.073	85.25
270.306	89.25
270.538	91.25
270.77	87.25
271.002	90.25
271.234	83.25
271.466	89.25
271.698	96.25
271.93	76.25
272.162	82.25
272.394	86.25
272.626	76.25
272.858	81.25
273.09	81.25
273.322	79.25
273.553	89.25
273.785	84.25
274.017	87.25
274.249	75.25
274.481	94.25
274.713	88.25
274.945	85.25
275.176	87.25
275.408	81.25
275.64	85.25
275.872	82.25
276.104	78.25
276.335	89.25
276.567	86.25
276.799	101.25
277.031	88.25
277.262	86.25
277.494	77.25
277.726	84.25
277.957	84.25
278.189	80.25
278.421	85.25
278.652	89.25
278.884	82.25
279.115	79.25
279.347	80.25
279.579	68.25
279.81	91.25
280.042	80.25
280.273	86.25
280.505	81.25
280.736	90.25
280.968	74.25
281.199	81.25
281.431	80.25
281.662	78.25
281.894	85.25
282.125	89.25
282.356	112.25
282.588	118.25
282.819	101.25
283.051	81.25
283.282	87.25
283.513	103.25
283.745	79.25
283.976	88.25
284.207	95.25
284.439	95.25
284.67	96.25
284.901	86.25
285.132	89.25
285.364	84.25
285.595	96.25
285.826	76.25
286.057	92.25
286.288	90.25
286.52	77.25
286.751	86.25
286.982	89.25
287.213	93.25
287.444	81.25
287.675	83.25
287.906	85.25
288.138	83.25
288.369	92.25
288.6	92.25
288.831	89.25
289.062	86.25
289.293	94.25
289.524	90.25
289.755	85.25
289.986	93.25
290.217	86.25
290.448	87.25
290.679	95.25
290.91	80.25
291.141	84.25
291.371	85.25
291.602	71.25
291.833	90.25
292.064	77.25
292.295	86.25
292.526	98.25
292.757	93.25
292.987	95.25
293.218	86.25
293.449	74.25
293.68	98.25
293.91	77.25
294.141	92.25
294.372	80.25
294.603	78.25
294.833	81.25
295.064	90.25
295.295	79.25
295.525	87.25
295.756	93.25
295.987	111.25
296.217	127.25
296.448	103.25
296.679	89.25
296.909	90.25
297.14	81.25
297.37	80.25
297.601	97.25
297.831	78.25
298.062	90.25
298.292	82.25
298.523	80.25
298.753	71.25
298.984	88.25
299.214	86.25
299.445	93.25
299.675	88.25
299.905	83.25
300.136	99.25
300.366	73.25
300.597	89.25
300.827	86.25
301.057	97.25
301.288	105.25
301.518	85.25
301.748	82.25
301.979	91.25
302.209	96.25
302.439	95.25
302.669	95.25
302.9	73.25
303.13	91.25
303.36	93.25
303.59	94.25
303.82	84.25
304.051	98.25
304.281	94.25
304.511	95.25
304.741	83.25
304.971	89.25
305.201	94.25
305.431	85.25
305.661	73.25
305.891	80.25
306.121	77.25
306.352	90.25
306.582	101.25
306.812	103.25
307.042	85.25
307.272	97.25
307.502	88.25
307.731	81.25
307.961	93.25
308.191	76.25
308.421	82.25
308.651	92.25
308.881	82.25
309.111	79.25
309.341	81.25
309.571	97.25
309.8	87.25
310.03	91.25
310.26	86.25
310.49	109.25
310.72	94.25
310.949	88.25
311.179	89.25
311.409	89.25
311.639	82.25
311.868	79.25
312.098	88.25
312.328	84.25
312.557	87.25
312.787	91.25
313.017	98.25
313.246	86.25
313.476	90.25
313.706	94.25
313.935	87.25
314.165	84.25
314.394	116.25
314.624	87.25
314.853	79.25
315.083	102.25
315.312	97.25
315.542	84.25
315.771	92.25
316.001	89.25
316.23	97.25
316.46	73.25
316.689	92.25
316.919	81.25
317.148	96.25
317.377	72.25
317.607	87.25
317.836	80.25
318.065	89.25
318.295	88.25
318.524	81.25
318.753	97.25
318.983	91.25
319.212	84.25
319.441	95.25
319.67	95.25
319.9	96.25
320.129	84.25
320.358	92.25
320.587	89.25
320.816	90.25
321.046	85.25
321.275	84.25
321.504	92.25
321.733	94.25
321.962	100.25
322.191	104.25
322.42	95.25
322.649	98.25
322.878	100.25
323.108	104.25
323.337	117.25
323.566	114.25
323.795	129.25
324.024	175.25
324.253	333.25
324.482	696.25
324.71	1390.25
324.939	1775.25
325.168	661.25
325.397	217.25
325.626	146.25
325.855	121.25
326.084	127.25
326.313	124.25
326.542	119.25
326.77	190.25
326.999	385.25
327.228	787.25
327.457	1397.25
327.686	1109.25
327.914	317.25
328.143	178.25
328.372	128.25
328.6	109.25
328.829	108.25
329.058	113.25
329.287	98.25
329.515	100.25
329.744	95.25
329.972	105.25
330.201	107.25
330.43	94.25
330.658	107.25
330.887	117.25
331.115	118.25
331.344	106.25
331.572	93.25
331.801	94.25
332.03	81.25
332.258	98.25
332.486	107.25
332.715	83.25
332.943	81.25
333.172	89.25
333.4	93.25
333.629	97.25
333.857	97.25
334.085	89.25
334.314	107.25
334.542	101.25
334.771	99.25
334.999	99.25
335.227	92.25
335.455	86.25
335.684	80.25
335.912	89.25
336.14	80.25
336.369	91.25
336.597	85.25
336.825	105.25
337.053	95.25
337.281	84.25
337.51	88.25
337.738	91.25
337.966	77.25
338.194	86.25
338.422	110.25
338.65	95.25
338.878	88.25
339.106	81.25
339.334	96.25
339.562	92.25
339.79	82.25
340.018	84.25
340.246	92.25
340.474	92.25
340.702	92.25
340.93	87.25
341.158	77.25
341.386	82.25
341.614	89.25
341.842	90.25
342.07	92.25
342.298	74.25
342.526	84.25
342.754	86.25
342.981	74.25
343.209	85.25
343.437	89.25
343.665	85.25
343.893	94.25
344.12	97.25
344.348	88.25
344.576	86.25
344.804	96.25
345.031	87.25
345.259	91.25
345.487	82.25
345.714	85.25
345.942	95.25
346.17	86.25
346.397	88.25
346.625	85.25
346.853	89.25
347.08	92.25
347.308	82.25
347.535	89.25
347.763	93.25
347.99	97.25
348.218	92.25
348.445	103.25
348.673	84.25
348.9	101.25
349.128	96.25
349.355	84.25
349.583	90.25
349.81	90.25
350.037	94.25
350.265	97.25
350.492	87.25
350.72	97.25
350.947	103.25
351.174	104.25
351.402	103.25
351.629	96.25
351.856	93.25
352.083	97.25
352.311	94.25
352.538	89.25
352.765	87.25
352.992	96.25
353.22	95.25
353.447	96.25
353.674	106.25
353.901	108.25
354.128	94.25
354.355	85.25
354.583	89.25
354.81	90.25
355.037	97.25
355.264	87.25
355.491	96.25
355.718	83.25
355.945	80.25
356.172	99.25
356.399	102.25
356.626	103.25
356.853	93.25
357.08	91.25
357.307	92.25
357.534	80.25
357.761	97.25
357.988	86.25
358.215	99.25
358.441	84.25
358.668	72.25
358.895	93.25
359.122	87.25
359.349	73.25
359.576	88.25
359.802	103.25
360.029	108.25
360.256	114.25
360.483	85.25
360.709	94.25
360.936	78.25
361.163	88.25
361.39	89.25
361.616	76.25
361.843	76.25
362.07	89.25
362.296	97.25
362.523	94.25
362.749	87.25
362.976	82.25
363.203	87.25
363.429	87.25
363.656	97.25
363.882	94.25
364.109	98.25
364.335	104.25
364.562	106.25
364.788	79.25
365.015	88.25
365.241	93.25
365.468	95.25
365.694	96.25
365.92	81.25
366.147	84.25
366.373	98.25
366.599	98.25
366.826	83.25
367.052	90.25
367.278	85.25
367.505	84.25
367.731	90.25
367.957	91.25
368.184	80.25
368.41	83.25
368.636	101.25
368.862	100.25
369.089	94.25
369.315	93.25
369.541	86.25
369.767	96.25
369.993	79.25
370.219	86.25
370.445	83.25
370.672	91.25
370.898	86.25
371.124	70.25
371.35	74.25
371.576	88.25
371.802	71.25
372.028	89.25
372.254	88.25
372.48	79.25
372.706	78.25
372.932	86.25
373.158	90.25
373.384	86.25
373.61	97.25
373.835	93.25
374.061	76.25
374.287	86.25
374.513	89.25
374.739	86.25
374.965	76.25
375.191	85.25
375.416	70.25
375.642	75.25
375.868	89.25
376.094	95.25
376.319	87.25
376.545	77.25
376.771	77.25
376.997	70.25
377.222	94.25
377.448	80.25
377.674	80.25
377.899	92.25
378.125	81.25
378.35	95.25
378.576	82.25
378.802	83.25
379.027	102.25
379.253	88.25
379.478	91.25
379.704	91.25
379.929	96.25
380.155	95.25
380.38	81.25
380.606	76.25
380.831	87.25
381.057	108.25
381.282	99.25
381.507	97.25
381.733	94.25
381.958	98.25
382.184	98.25
382.409	97.25
382.634	92.25
382.86	79.25
383.085	92.25
383.31	97.25
383.535	91.25
383.761	100.25
383.986	83.25
384.211	103.25
384.436	98.25
384.662	90.25
384.887	90.25
385.112	105.25
385.337	96.25
385.562	110.25
385.787	90.25
386.013	109.25
386.238	96.25
386.463	109.25
386.688	104.25
386.913	96.25
387.138	110.25
387.363	101.25
387.588	100.25
387.813	102.25
388.038	96.25
388.263	110.25
388.488	97.25
388.713	84.25
388.938	94.25
389.163	80.25
389.387	98.25
389.612	95.25
389.837	95.25
390.062	87.25
390.287	87.25
390.512	101.25
390.736	82.25
390.961	92.25
391.186	85.25
391.411	95.25
391.636	82.25
391.86	85.25
392.085	88.25
392.31	73.25
392.534	70.25
392.759	64.25
392.984	86.25
393.208	88.25
393.433	86.25
393.658	94.25
393.882	79.25
394.107	89.25
394.331	93.25
394.556	76.25
394.78	89.25
395.005	102.25
395.229	73.25
395.454	98.25
395.678	73.25
395.903	94.25
396.127	88.25
396.352	87.25
396.576	93.25
396.801	92.25
397.025	76.25
397.249	84.25
397.474	92.25
397.698	86.25
397.922	81.25
398.147	90.25
398.371	73.25
398.595	89.25
398.82	96.25
399.044	93.25
399.268	89.25
399.492	74.25
399.717	88.25
399.941	77.25
400.165	87.25
400.389	93.25
400.613	92.25
400.837	86.25
401.062	84.25
401.286	77.25
401.51	86.25
401.734	86.25
401.958	101.25
402.182	119.25
402.406	132.25
402.63	113.25
402.854	103.25
403.078	73.25
403.302	84.25
403.526	76.25
403.75	74.25
403.974	83.25
404.198	91.25
404.422	92.25
404.645	97.25
404.869	95.25
405.093	90.25
405.317	74.25
405.541	100.25
405.765	97.25
405.988	104.25
406.212	151.25
406.436	191.25
406.66	129.25
406.883	85.25
407.107	100.25
407.331	97.25
407.555	102.25
407.778	94.25
408.002	89.25
408.226	88.25
408.449	89.25
408.673	81.25
408.896	77.25
409.12	92.25
409.344	88.25
409.567	87.25
409.791	95.25
410.014	80.25
410.238	92.25
410.461	90.25
410.685	87.25
410.908	105.25
411.132	91.25
411.355	103.25
411.578	102.25
411.802	85.25
412.025	79.25
412.249	83.25
412.472	78.25
412.695	82.25
412.919	96.25
413.142	86.25
413.365	83.25
413.589	87.25
413.812	93.25
414.035	94.25
414.258	88.25
414.482	86.25
414.705	85.25
414.928	70.25
415.151	88.25
415.374	97.25
415.597	78.25
415.821	96.25
416.044	78.25
416.267	85.25
416.49	75.25
416.713	97.25
416.936	89.25
417.159	79.25
417.382	100.25
417.605	97.25
417.828	88.25
418.051	80.25
418.274	97.25
418.497	76.25
418.72	84.25
418.943	87.25
419.166	82.25
419.389	93.25
419.611	82.25
419.834	93.25
420.057	89.25
420.28	60.25
420.503	86.25
420.726	80.25
420.948	87.25
421.171	81.25
421.394	104.25
421.617	106.25
421.839	93.25
422.062	85.25
422.285	81.25
422.507	87.25
422.73	114.25
422.953	81.25
423.175	85.25
423.398	89.25
423.621	102.25
423.843	78.25
424.066	79.25
424.288	75.25
424.511	81.25
424.733	102.25
424.956	98.25
425.178	92.25
425.401	89.25
425.623	88.25
425.846	97.25
426.068	97.25
426.291	92.25
426.513	91.25
426.735	90.25
426.958	98.25
427.18	104.25
427.402	132.25
427.625	161.25
427.847	114.25
428.069	100.25
428.292	85.25
428.514	80.25
428.736	85.25
428.958	84.25
429.181	91.25
429.403	91.25
429.625	93.25
429.847	97.25
430.069	104.25
430.292	84.25
430.514	83.25
430.736	89.25
430.958	90.25
431.18	76.25
431.402	88.25
431.624	89.25
431.846	94.25
432.068	90.25
432.29	80.25
432.512	86.25
432.734	83.25
432.956	91.25
433.178	89.25
433.4	91.25
433.622	78.25
433.844	77.25
434.066	92.25
434.287	80.25
434.509	78.25
434.731	92.25
434.953	89.25
435.175	84.25
435.397	92.25
435.618	85.25
435.84	99.25
436.062	109.25
436.284	117.25
436.505	102.25
436.727	102.25
436.949	90.25
437.17	93.25
437.392	93.25
437.614	92.25
437.835	100.25
438.057	110.25
438.278	92.25
438.5	105.25
438.721	115.25
438.943	110.25
439.165	77.25
439.386	84.25
439.608	88.25
439.829	80.25
440.05	118.25
440.272	118.25
440.493	91.25
440.715	85.25
440.936	92.25
441.158	84.25
441.379	83.25
441.6	95.25
441.822	78.25
442.043	96.25
442.264	121.25
442.486	103.25
442.707	90.25
442.928	102.25
443.149	109.25
443.371	116.25
443.592	113.25
443.813	120.25
444.034	100.25
444.255	82.25
444.476	74.25
444.698	79.25
444.919	95.25
445.14	132.25
445.361	100.25
445.582	100.25
445.803	123.25
446.024	119.25
446.245	119.25
446.466	113.25
446.687	94.25
446.908	84.25
447.129	99.25
447.35	94.25
447.571	98.25
447.792	78.25
448.013	74.25
448.234	97.25
448.455	108.25
448.675	91.25
448.896	106.25
449.117	97.25
449.338	92.25
449.559	118.25
449.779	110.25
450	82.25
450.221	96.25
450.442	76.25
450.662	82.25
450.883	98.25
451.104	93.25
451.324	78.25
451.545	81.25
451.766	74.25
451.986	96.25
452.207	78.25
452.428	87.25
452.648	82.25
452.869	87.25
453.089	86.25
453.31	91.25
453.53	88.25
453.751	90.25
453.971	97.25
454.192	90.25
454.412	97.25
454.633	84.25
454.853	100.25
455.073	95.25
455.294	89.25
455.514	90.25
455.734	77.25
455.955	95.25
456.175	80.25
456.395	89.25
456.616	102.25
456.836	92.25
457.056	97.25
457.276	71.25
457.497	79.25
457.717	88.25
457.937	78.25
458.157	82.25
458.377	87.25
458.598	102.25
458.818	120.25
459.038	130.25
459.258	93.25
459.478	84.25
459.698	88.25
459.918	81.25
460.138	93.25
460.358	77.25
460.578	89.25
460.798	101.25
461.018	90.25
461.238	89.25
461.458	87.25
461.678	89.25
461.898	81.25
462.118	88.25
462.338	74.25
462.558	88.25
462.777	93.25
462.997	73.25
463.217	96.25
463.437	95.25
463.657	72.25
463.876	87.25
464.096	78.25
464.316	98.25
464.536	95.25
464.755	77.25
464.975	104.25
465.195	140.25
465.414	149.25
465.634	92.25
465.854	100.25
466.073	99.25
466.293	86.25
466.512	99.25
466.732	95.25
466.951	81.25
467.171	85.25
467.391	83.25
467.61	92.25
467.829	104.25
468.049	98.25
468.268	90.25
468.488	80.25
468.707	73.25
468.927	82.25
469.146	87.25
469.365	77.25
469.585	64.25
469.804	94.25
470.023	93.25
470.243	92.25
470.462	94.25
470.681	95.25
470.901	81.25
471.12	76.25
471.339	89.25
471.558	93.25
471.777	92.25
471.997	104.25
472.216	79.25
472.435	100.25
472.654	78.25
472.873	83.25
473.092	93.25
473.311	92.25
473.53	84.25
473.749	77.25
473.968	91.25
474.187	100.25
474.406	95.25
474.625	81.25
474.844	80.25
475.063	84.25
475.282	83.25
475.501	86.25
475.72	105.25
475.939	82.25
476.158	80.25
476.377	96.25
476.596	93.25
476.814	79.25
477.033	100.25
477.252	85.25
477.471	91.25
477.69	99.25
477.908	91.25
478.127	97.25
478.346	80.25
478.564	85.25
478.783	88.25
479.002	100.25
479.22	105.25
479.439	92.25
479.658	88.25
479.876	94.25
480.095	93.25
480.313	88.25
480.532	78.25
480.751	93.25
480.969	100.25
481.188	104.25
481.406	93.25
481.624	78.25
481.843	82.25
482.061	59.25
482.28	76.25
482.498	91.25
482.717	74.25
482.935	82.25
483.153	87.25
483.372	88.25
483.59	83.25
483.808	84.25
484.027	94.25
484.245	75.25
484.463	87.25
484.681	85.25
484.9	96.25
485.118	88.25
485.336	100.25
485.554	104.25
485.772	96.25
485.99	99.25
486.209	107.25
486.427	95.25
486.645	106.25
486.863	87.25
487.081	95.25
487.299	107.25
487.517	97.25
487.735	93.25
487.953	87.25
488.171	106.25
488.389	93.25
488.607	86.25
488.825	84.25
489.043	94.25
489.261	85.25
489.479	78.25
489.696	86.25
489.914	91.25
490.132	74.25
490.35	86.25
490.568	83.25
490.786	86.25
491.003	75.25
491.221	86.25
491.439	95.25
491.657	100.25
491.874	85.25
492.092	91.25
492.31	84.25
492.527	86.25
492.745	79.25
492.963	98.25
493.18	86.25
493.398	88.25
493.615	90.25
493.833	107.25
494.05	85.25
494.268	88.25
494.485	100.25
494.703	89.25
494.92	101.25
495.138	96.25
495.355	72.25
495.573	95.25
495.79	92.25
496.008	79.25
496.225	93.25
496.442	96.25
496.66	93.25
496.877	82.25
497.094	96.25
497.312	85.25
497.529	86.25
497.746	100.25
497.963	93.25
498.181	97.25
498.398	91.25
498.615	108.25
498.832	100.25
499.049	89.25
499.267	90.25
499.484	92.25
499.701	81.25
499.918	98.25
500.135	91.25
500.352	84.25
500.569	92.25
500.786	83.25
501.003	77.25
501.22	84.25
501.437	94.25
501.654	94.25
501.871	90.25
502.088	92.25
502.305	97.25
502.522	94.25
502.739	85.25
502.956	91.25
503.172	84.25
503.389	94.25
503.606	97.25
503.823	104.25
504.04	98.25
504.256	91.25
504.473	73.25
504.69	80.25
504.907	94.25
505.123	97.25
505.34	88.25
505.557	79.25
505.773	88.25
505.99	89.25
506.207	92.25
506.423	76.25
506.64	87.25
506.856	85.25
507.073	88.25
507.289	94.25
507.506	96.25
507.722	101.25
507.939	79.25
508.155	102.25
508.372	108.25
508.588	84.25
508.805	93.25
509.021	88.25
509.238	105.25
509.454	89.25
509.67	90.25
509.887	106.25
510.103	128.25
510.319	187.25
510.536	609.25
510.752	1938.25
510.968	532.25
511.184	134.25
511.401	91.25
511.617	90.25
511.833	95.25
512.049	88.25
512.265	102.25
512.481	77.25
512.698	91.25
512.914	103.25
513.13	94.25
513.346	90.25
513.562	90.25
513.778	99.25
513.994	87.25
514.21	90.25
514.426	104.25
514.642	108.25
514.858	121.25
515.074	148.25
515.29	360.25
515.506	1119.25
515.721	415.25
515.937	139.25
516.153	111.25
516.369	90.25
516.585	93.25
516.801	88.25
517.016	96.25
517.232	102.25
