Data from Uncirc_1998_H10_HRD10591_00032.txt Node
Date: Wed Jan 03 11:25:31 EST 2024
User: Yrep
Spectrometer: HR+D1059
Trigger mode: 1
Integration Time (sec): 1.000000E-1
Scans to average: 1
Electric dark correction enabled: true
Nonlinearity correction enabled: false
Boxcar width: 0
XAxis mode: Wavelengths
Number of Pixels in Spectrum: 2048
>>>>>Begin Spectral Data<<<<<
223.165	-2
223.4	-2
223.635	-2
223.869	-18
224.104	-14
224.338	-13
224.573	-17
224.808	-16
225.042	2
225.277	-4
225.511	-10
225.746	3
225.98	7
226.215	12
226.449	15
226.683	10
226.918	19
227.152	26
227.387	42
227.621	51
227.856	52
228.09	51
228.324	68
228.559	61
228.793	52
229.027	74
229.262	69
229.496	75
229.73	90
229.964	65
230.199	67
230.433	75
230.667	81
230.901	71
231.136	83
231.37	74
231.604	88
231.838	91
232.072	85
232.306	88
232.541	94
232.775	85
233.009	67
233.243	76
233.477	83
233.711	68
233.945	79
234.179	83
234.413	61
234.647	75
234.881	88
235.115	83
235.349	66
235.583	94
235.817	89
236.051	70
236.285	76
236.519	68
236.753	87
236.987	94
237.221	78
237.455	84
237.689	81
237.922	84
238.156	74
238.39	76
238.624	74
238.858	67
239.091	78
239.325	84
239.559	81
239.793	80
240.027	84
240.26	81
240.494	96
240.728	67
240.961	76
241.195	83
241.429	75
241.662	64
241.896	74
242.13	92
242.363	76
242.597	70
242.83	84
243.064	78
243.298	81
243.531	82
243.765	64
243.998	79
244.232	76
244.465	100
244.699	78
244.932	88
245.166	78
245.399	74
245.633	74
245.866	83
246.099	91
246.333	95
246.566	93
246.8	89
247.033	85
247.266	71
247.5	83
247.733	88
247.966	74
248.2	71
248.433	83
248.666	64
248.899	84
249.133	85
249.366	91
249.599	90
249.832	75
250.066	82
250.299	73
250.532	74
250.765	73
250.998	83
251.231	75
251.465	87
251.698	84
251.931	77
252.164	77
252.397	83
252.63	81
252.863	82
253.096	80
253.329	86
253.562	75
253.795	84
254.028	78
254.261	74
254.494	81
254.727	74
254.96	83
255.193	71
255.426	75
255.659	94
255.892	84
256.124	82
256.357	88
256.59	81
256.823	81
257.056	83
257.289	61
257.521	78
257.754	80
257.987	82
258.22	76
258.452	69
258.685	78
258.918	91
259.151	82
259.383	83
259.616	77
259.849	85
260.081	96
260.314	91
260.547	84
260.779	76
261.012	77
261.244	98
261.477	85
261.71	100
261.942	107
262.175	104
262.407	76
262.64	82
262.872	79
263.105	84
263.337	79
263.57	84
263.802	86
264.035	87
264.267	82
264.499	76
264.732	71
264.964	79
265.197	75
265.429	93
265.661	78
265.894	77
266.126	103
266.358	73
266.591	88
266.823	75
267.055	90
267.287	86
267.52	80
267.752	79
267.984	87
268.216	74
268.448	74
268.681	81
268.913	91
269.145	84
269.377	79
269.609	75
269.841	81
270.073	92
270.306	86
270.538	84
270.77	79
271.002	83
271.234	85
271.466	105
271.698	100
271.93	75
272.162	92
272.394	86
272.626	84
272.858	79
273.09	85
273.322	84
273.553	74
273.785	82
274.017	83
274.249	88
274.481	87
274.713	81
274.945	97
275.176	80
275.408	76
275.64	86
275.872	83
276.104	96
276.335	80
276.567	92
276.799	102
277.031	98
277.262	79
277.494	79
277.726	88
277.957	83
278.189	98
278.421	91
278.652	76
278.884	83
279.115	96
279.347	85
279.579	84
279.81	72
280.042	83
280.273	87
280.505	82
280.736	70
280.968	93
281.199	81
281.431	85
281.662	90
281.894	83
282.125	106
282.356	119
282.588	131
282.819	106
283.051	92
283.282	83
283.513	97
283.745	81
283.976	82
284.207	89
284.439	86
284.67	92
284.901	76
285.132	84
285.364	87
285.595	80
285.826	102
286.057	88
286.288	91
286.52	80
286.751	92
286.982	80
287.213	93
287.444	92
287.675	96
287.906	80
288.138	91
288.369	87
288.6	90
288.831	82
289.062	96
289.293	88
289.524	82
289.755	87
289.986	88
290.217	92
290.448	94
290.679	88
290.91	94
291.141	110
291.371	95
291.602	94
291.833	81
292.064	91
292.295	88
292.526	95
292.757	94
292.987	80
293.218	88
293.449	90
293.68	76
293.91	86
294.141	89
294.372	92
294.603	104
294.833	90
295.064	91
295.295	90
295.525	89
295.756	99
295.987	101
296.217	132
296.448	106
296.679	87
296.909	95
297.14	72
297.37	92
297.601	83
297.831	99
298.062	90
298.292	78
298.523	87
298.753	79
298.984	82
299.214	91
299.445	73
299.675	95
299.905	92
300.136	98
300.366	93
300.597	81
300.827	83
301.057	92
301.288	91
301.518	94
301.748	79
301.979	96
302.209	91
302.439	92
302.669	99
302.9	106
303.13	84
303.36	86
303.59	98
303.82	94
304.051	103
304.281	92
304.511	111
304.741	98
304.971	88
305.201	83
305.431	87
305.661	88
305.891	90
306.121	90
306.352	102
306.582	92
306.812	83
307.042	93
307.272	91
307.502	96
307.731	84
307.961	88
308.191	94
308.421	81
308.651	101
308.881	86
309.111	89
309.341	98
309.571	92
309.8	95
310.03	92
310.26	91
310.49	102
310.72	104
310.949	105
311.179	98
311.409	98
311.639	87
311.868	90
312.098	83
312.328	92
312.557	92
312.787	103
313.017	96
313.246	96
313.476	94
313.706	97
313.935	91
314.165	97
314.394	84
314.624	102
314.853	74
315.083	90
315.312	92
315.542	81
315.771	88
316.001	94
316.23	88
316.46	92
316.689	90
316.919	107
317.148	98
317.377	91
317.607	93
317.836	82
318.065	86
318.295	95
318.524	92
318.753	90
318.983	111
319.212	100
319.441	102
319.67	106
319.9	95
320.129	97
320.358	97
320.587	93
320.816	102
321.046	98
321.275	105
321.504	95
321.733	90
321.962	95
322.191	98
322.42	118
322.649	103
322.878	109
323.108	115
323.337	123
323.566	114
323.795	148
324.024	184
324.253	346
324.482	687
324.71	1357
324.939	1782
325.168	662
325.397	220
325.626	134
325.855	121
326.084	105
326.313	132
326.542	139
326.77	192
326.999	388
327.228	787
327.457	1434
327.686	1101
327.914	323
328.143	172
328.372	136
328.6	111
328.829	102
329.058	103
329.287	127
329.515	106
329.744	103
329.972	102
330.201	91
330.43	99
330.658	116
330.887	126
331.115	111
331.344	97
331.572	86
331.801	92
332.03	99
332.258	90
332.486	101
332.715	86
332.943	101
333.172	97
333.4	83
333.629	83
333.857	105
334.085	99
334.314	95
334.542	105
334.771	107
334.999	97
335.227	96
335.455	103
335.684	95
335.912	87
336.14	108
336.369	102
336.597	98
336.825	99
337.053	99
337.281	106
337.51	93
337.738	92
337.966	97
338.194	101
338.422	110
338.65	93
338.878	89
339.106	93
339.334	95
339.562	89
339.79	98
340.018	87
340.246	78
340.474	88
340.702	94
340.93	95
341.158	86
341.386	82
341.614	96
341.842	83
342.07	82
342.298	102
342.526	91
342.754	106
342.981	86
343.209	82
343.437	88
343.665	102
343.893	96
344.12	80
344.348	101
344.576	98
344.804	90
345.031	99
345.259	104
345.487	92
345.714	87
345.942	95
346.17	90
346.397	97
346.625	84
346.853	98
347.08	92
347.308	106
347.535	88
347.763	109
347.99	100
348.218	111
348.445	94
348.673	90
348.9	95
349.128	97
349.355	105
349.583	81
349.81	85
350.037	104
350.265	84
350.492	91
350.72	94
350.947	106
351.174	98
351.402	106
351.629	100
351.856	88
352.083	99
352.311	98
352.538	97
352.765	104
352.992	102
353.22	105
353.447	110
353.674	107
353.901	90
354.128	88
354.355	92
354.583	104
354.81	90
355.037	100
355.264	91
355.491	96
355.718	88
355.945	91
356.172	92
356.399	78
356.626	82
356.853	83
357.08	96
357.307	80
357.534	103
357.761	99
357.988	82
358.215	118
358.441	91
358.668	91
358.895	83
359.122	91
359.349	86
359.576	102
359.802	101
360.029	106
360.256	93
360.483	84
360.709	95
360.936	88
361.163	92
361.39	108
361.616	98
361.843	102
362.07	76
362.296	94
362.523	84
362.749	80
362.976	96
363.203	96
363.429	86
363.656	70
363.882	79
364.109	82
364.335	98
364.562	98
364.788	96
365.015	84
365.241	86
365.468	105
365.694	106
365.92	100
366.147	88
366.373	92
366.599	106
366.826	91
367.052	103
367.278	107
367.505	85
367.731	70
367.957	90
368.184	91
368.41	94
368.636	117
368.862	119
369.089	101
369.315	90
369.541	88
369.767	80
369.993	93
370.219	78
370.445	86
370.672	77
370.898	91
371.124	87
371.35	88
371.576	79
371.802	86
372.028	98
372.254	99
372.48	94
372.706	82
372.932	79
373.158	82
373.384	93
373.61	97
373.835	94
374.061	96
374.287	90
374.513	80
374.739	92
374.965	91
375.191	78
375.416	78
375.642	84
375.868	92
376.094	95
376.319	80
376.545	81
376.771	96
376.997	94
377.222	91
377.448	87
377.674	91
377.899	82
378.125	93
378.35	93
378.576	86
378.802	92
379.027	111
379.253	84
379.478	83
379.704	97
379.929	95
380.155	96
380.38	98
380.606	105
380.831	86
381.057	103
381.282	86
381.507	90
381.733	102
381.958	84
382.184	104
382.409	102
382.634	99
382.86	99
383.085	87
383.31	105
383.535	95
383.761	90
383.986	99
384.211	95
384.436	109
384.662	111
384.887	99
385.112	90
385.337	105
385.562	104
385.787	100
386.013	124
386.238	104
386.463	117
386.688	111
386.913	93
387.138	99
387.363	92
387.588	91
387.813	84
388.038	112
388.263	113
388.488	102
388.713	101
388.938	100
389.163	88
389.387	79
389.612	92
389.837	93
390.062	99
390.287	106
390.512	98
390.736	90
390.961	81
391.186	94
391.411	86
391.636	103
391.86	105
392.085	88
392.31	88
392.534	80
392.759	96
392.984	94
393.208	102
393.433	83
393.658	87
393.882	90
394.107	89
394.331	95
394.556	96
394.78	87
395.005	107
395.229	82
395.454	97
395.678	80
395.903	94
396.127	82
396.352	79
396.576	91
396.801	86
397.025	86
397.249	93
397.474	87
397.698	93
397.922	82
398.147	76
398.371	86
398.595	93
398.82	92
399.044	94
399.268	71
399.492	84
399.717	105
399.941	86
400.165	88
400.389	100
400.613	87
400.837	83
401.062	89
401.286	95
401.51	85
401.734	87
401.958	102
402.182	119
402.406	142
402.63	115
402.854	100
403.078	91
403.302	87
403.526	95
403.75	90
403.974	79
404.198	88
404.422	82
404.645	89
404.869	80
405.093	78
405.317	96
405.541	107
405.765	100
405.988	103
406.212	153
406.436	200
406.66	139
406.883	91
407.107	91
407.331	92
407.555	94
407.778	97
408.002	86
408.226	101
408.449	97
408.673	84
408.896	89
409.12	101
409.344	83
409.567	84
409.791	92
410.014	98
410.238	93
410.461	113
410.685	96
410.908	88
411.132	99
411.355	79
411.578	107
411.802	80
412.025	94
412.249	86
412.472	91
412.695	80
412.919	83
413.142	98
413.365	70
413.589	95
413.812	90
414.035	99
414.258	95
414.482	96
414.705	89
414.928	94
415.151	92
415.374	92
415.597	97
415.821	84
416.044	107
416.267	100
416.49	86
416.713	90
416.936	98
417.159	72
417.382	88
417.605	78
417.828	83
418.051	78
418.274	94
418.497	81
418.72	79
418.943	86
419.166	89
419.389	81
419.611	78
419.834	96
420.057	90
420.28	89
420.503	88
420.726	92
420.948	98
421.171	83
421.394	91
421.617	102
421.839	94
422.062	98
422.285	94
422.507	98
422.73	102
422.953	74
423.175	84
423.398	96
423.621	89
423.843	93
424.066	90
424.288	100
424.511	102
424.733	100
424.956	89
425.178	92
425.401	103
425.623	94
425.846	88
426.068	82
426.291	95
426.513	70
426.735	93
426.958	84
427.18	110
427.402	134
427.625	147
427.847	127
428.069	95
428.292	97
428.514	85
428.736	83
428.958	87
429.181	81
429.403	78
429.625	87
429.847	92
430.069	80
430.292	83
430.514	94
430.736	89
430.958	77
431.18	99
431.402	87
431.624	89
431.846	87
432.068	102
432.29	85
432.512	90
432.734	80
432.956	104
433.178	84
433.4	89
433.622	95
433.844	87
434.066	92
434.287	97
434.509	90
434.731	102
434.953	78
435.175	96
435.397	91
435.618	102
435.84	98
436.062	120
436.284	114
436.505	105
436.727	105
436.949	87
437.17	90
437.392	90
437.614	91
437.835	104
438.057	100
438.278	103
438.5	103
438.721	97
438.943	96
439.165	89
439.386	92
439.608	74
439.829	87
440.05	108
440.272	114
440.493	82
440.715	92
440.936	86
441.158	88
441.379	79
441.6	98
441.822	94
442.043	83
442.264	98
442.486	102
442.707	93
442.928	96
443.149	105
443.371	119
443.592	100
443.813	100
444.034	94
444.255	100
444.476	90
444.698	84
444.919	96
445.14	144
445.361	123
445.582	112
445.803	131
446.024	124
446.245	116
446.466	113
446.687	98
446.908	98
447.129	84
447.35	80
447.571	81
447.792	97
448.013	100
448.234	96
448.455	75
448.675	106
448.896	115
449.117	105
449.338	95
449.559	119
449.779	124
450	83
450.221	95
450.442	96
450.662	94
450.883	82
451.104	98
451.324	92
451.545	90
451.766	99
451.986	86
452.207	86
452.428	92
452.648	99
452.869	103
453.089	118
453.31	98
453.53	94
453.751	91
453.971	96
454.192	107
454.412	87
454.633	98
454.853	93
455.073	85
455.294	75
455.514	91
455.734	90
455.955	91
456.175	80
456.395	90
456.616	77
456.836	92
457.056	95
457.276	95
457.497	74
457.717	79
457.937	102
458.157	105
458.377	81
458.598	105
458.818	125
459.038	139
459.258	90
459.478	80
459.698	82
459.918	93
460.138	82
460.358	96
460.578	88
460.798	101
461.018	71
461.238	90
461.458	95
461.678	74
461.898	80
462.118	91
462.338	96
462.558	82
462.777	86
462.997	84
463.217	78
463.437	63
463.657	94
463.876	97
464.096	97
464.316	97
464.536	100
464.755	89
464.975	97
465.195	144
465.414	134
465.634	92
465.854	94
466.073	97
466.293	85
466.512	85
466.732	84
466.951	89
467.171	99
467.391	95
467.61	103
467.829	105
468.049	96
468.268	83
468.488	90
468.707	89
468.927	76
469.146	81
469.365	83
469.585	90
469.804	92
470.023	97
470.243	74
470.462	89
470.681	104
470.901	76
471.12	84
471.339	72
471.558	103
471.777	81
471.997	92
472.216	76
472.435	83
472.654	96
472.873	93
473.092	81
473.311	100
473.53	77
473.749	86
473.968	106
474.187	112
474.406	104
474.625	97
474.844	91
475.063	78
475.282	102
475.501	88
475.72	94
475.939	91
476.158	82
476.377	80
476.596	97
476.814	79
477.033	85
477.252	91
477.471	92
477.69	86
477.908	95
478.127	90
478.346	81
478.564	81
478.783	86
479.002	97
479.22	91
479.439	87
479.658	92
479.876	88
480.095	90
480.313	89
480.532	97
480.751	84
480.969	84
481.188	111
481.406	110
481.624	95
481.843	97
482.061	89
482.28	76
482.498	101
482.717	113
482.935	68
483.153	83
483.372	95
483.59	97
483.808	83
484.027	85
484.245	90
484.463	98
484.681	99
484.9	95
485.118	100
485.336	81
485.554	100
485.772	96
485.99	105
486.209	93
486.427	111
486.645	116
486.863	106
487.081	89
487.299	88
487.517	111
487.735	97
487.953	95
488.171	85
488.389	87
488.607	106
488.825	102
489.043	100
489.261	90
489.479	82
489.696	88
489.914	86
490.132	103
490.35	91
490.568	95
490.786	92
491.003	74
491.221	102
491.439	86
491.657	93
491.874	96
492.092	86
492.31	100
492.527	87
492.745	96
492.963	89
493.18	84
493.398	71
493.615	93
493.833	103
494.05	99
494.268	96
494.485	90
494.703	93
494.92	76
495.138	88
495.355	89
495.573	94
495.79	103
496.008	100
496.225	90
496.442	95
496.66	88
496.877	81
497.094	100
497.312	100
497.529	79
497.746	93
497.963	84
498.181	90
498.398	95
498.615	88
498.832	110
499.049	95
499.267	87
499.484	102
499.701	92
499.918	89
500.135	86
500.352	77
500.569	91
500.786	94
501.003	96
501.22	82
501.437	82
501.654	82
501.871	90
502.088	84
502.305	89
502.522	90
502.739	84
502.956	75
503.172	89
503.389	97
503.606	101
503.823	102
504.04	82
504.256	90
504.473	76
504.69	78
504.907	102
505.123	93
505.34	93
505.557	78
505.773	87
505.99	88
506.207	87
506.423	82
506.64	101
506.856	97
507.073	97
507.289	88
507.506	91
507.722	104
507.939	113
508.155	82
508.372	95
508.588	99
508.805	92
509.021	91
509.238	88
509.454	110
509.67	98
509.887	115
510.103	129
510.319	202
510.536	611
510.752	1850
510.968	526
511.184	137
511.401	97
511.617	105
511.833	83
512.049	88
512.265	90
512.481	97
512.698	96
512.914	103
513.13	90
513.346	88
513.562	99
513.778	107
513.994	99
514.21	91
514.426	111
514.642	101
514.858	115
515.074	146
515.29	351
515.506	1103
515.721	424
515.937	142
516.153	110
516.369	101
516.585	88
516.801	96
517.016	78
517.232	92
517.448	98
517.664	91
517.879	94
518.095	101
518.311	72
518.527	90
518.742	91
518.958	102
519.173	94
519.389	79
519.605	98
519.82	89
520.036	90
520.251	111
520.467	98
520.682	84
520.898	112
521.113	113
521.329	126
521.544	187
521.76	435
521.975	1826
522.19	1088
522.406	246
522.621	112
522.836	94
523.052	104
523.267	107
523.482	77
523.698	105
523.913	102
524.128	90
524.343	100
524.559	90
524.774	103
524.989	89
525.204	93
525.419	100
525.634	100
525.849	88
526.064	87
526.28	78
526.495	90
526.71	91
526.925	89
527.14	94
527.355	89
527.57	91
527.785	79
527.999	79
528.214	88
528.429	86
528.644	98
528.859	91
529.074	102
529.289	107
529.503	150
529.718	101
529.933	95
530.148	79
530.363	91
530.577	85
530.792	97
531.007	94
531.221	94
531.436	95
531.651	83
531.865	97
532.08	91
532.295	90
532.509	98
532.724	81
532.938	105
533.153	97
533.367	89
533.582	85
533.796	90
534.011	88
534.225	91
534.44	87
534.654	96
534.868	97
535.083	78
535.297	98
535.511	99
535.726	108
535.94	77
536.154	90
536.369	93
536.583	88
536.797	102
537.011	79
537.225	93
537.44	93
537.654	92
537.868	102
538.082	81
538.296	87
538.51	91
538.724	87
538.938	86
539.153	91
539.367	113
539.581	103
539.795	86
540.009	108
540.222	91
540.436	97
540.65	97
540.864	87
541.078	108
541.292	96
541.506	92
541.72	92
541.934	83
542.147	79
542.361	90
542.575	111
542.789	91
543.002	95
543.216	92
543.43	89
543.644	92
543.857	82
544.071	105
544.285	96
544.498	88
544.712	105
544.925	92
545.139	83
545.352	90
545.566	97
545.779	90
545.993	107
546.206	93
546.42	99
546.633	83
546.847	96
547.06	89
547.274	80
547.487	111
547.7	110
547.914	89
548.127	92
548.34	86
548.554	89
548.767	90
548.98	90
549.193	104
549.407	84
549.62	80
549.833	102
550.046	92
550.259	88
550.473	94
550.686	84
550.899	93
551.112	88
551.325	90
551.538	89
551.751	98
551.964	91
552.177	80
552.39	86
552.603	86
552.816	101
553.029	97
553.242	76
553.455	107
553.667	92
553.88	98
554.093	87
554.306	89
554.519	84
554.732	88
554.944	88
555.157	86
555.37	79
555.583	100
555.795	88
556.008	93
556.221	96
556.433	99
556.646	93
556.859	83
557.071	84
557.284	97
557.496	98
557.709	92
557.921	94
558.134	89
558.346	95
558.559	96
558.771	95
558.984	85
559.196	94
559.409	81
559.621	86
559.833	74
560.046	97
560.258	82
560.47	91
560.683	95
560.895	83
561.107	96
561.32	86
561.532	90
561.744	84
561.956	90
562.168	88
562.381	100
562.593	82
562.805	93
563.017	99
563.229	104
563.441	71
563.653	96
563.865	113
564.077	98
564.289	76
564.501	96
564.713	94
564.925	90
565.137	101
565.349	94
565.561	95
565.773	80
565.985	85
566.197	94
566.408	101
566.62	91
566.832	89
567.044	99
567.255	87
567.467	95
567.679	84
567.891	94
568.102	88
568.314	99
568.526	96
568.737	102
568.949	92
569.161	84
569.372	100
569.584	86
569.795	88
570.007	122
570.218	206
570.43	124
570.641	82
570.853	92
571.064	92
571.276	86
571.487	92
571.698	90
571.91	89
572.121	91
572.333	79
572.544	83
572.755	83
572.966	94
573.178	86
573.389	88
573.6	88
573.811	97
574.023	86
574.234	101
574.445	89
574.656	94
574.867	80
575.078	95
575.289	85
575.501	83
575.712	90
575.923	96
576.134	88
576.345	98
576.556	92
576.767	88
576.978	82
577.188	90
577.399	101
577.61	88
577.821	93
578.032	112
578.243	253
578.454	646
578.665	185
578.875	93
579.086	90
579.297	86
579.508	91
579.718	72
579.929	80
580.14	99
580.35	85
580.561	95
580.772	96
580.982	75
581.193	73
581.403	94
581.614	74
581.825	84
582.035	93
582.246	89
582.456	90
582.667	90
582.877	85
583.087	84
583.298	86
583.508	91
583.719	90
583.929	86
584.139	90
584.35	97
584.56	96
584.77	83
584.981	91
