Data from Uncirc_1998_H10_HRD10591_00011.txt Node
Date: Wed Jan 03 11:25:27 EST 2024
User: Yrep
Spectrometer: HR+D1059
Trigger mode: 1
Integration Time (sec): 1.000000E-1
Scans to average: 1
Electric dark correction enabled: true
Nonlinearity correction enabled: false
Boxcar width: 0
XAxis mode: Wavelengths
Number of Pixels in Spectrum: 2048
>>>>>Begin Spectral Data<<<<<
223.165	-10.88
223.4	-10.88
223.635	-10.88
223.869	-14.88
224.104	-29.88
224.338	-18.88
224.573	-4.88
224.808	-1.88
225.042	-7.88
225.277	-7.88
225.511	-17.88
225.746	3.12
225.98	7.12
226.215	7.12
226.449	16.12
226.683	19.12
226.918	31.12
227.152	31.12
227.387	37.12
227.621	55.12
227.856	55.12
228.09	55.12
228.324	65.12
228.559	46.12
228.793	56.12
229.027	75.12
229.262	73.12
229.496	69.12
229.73	63.12
229.964	74.12
230.199	68.12
230.433	79.12
230.667	79.12
230.901	77.12
231.136	93.12
231.37	83.12
231.604	84.12
231.838	83.12
232.072	91.12
232.306	89.12
232.541	81.12
232.775	86.12
233.009	68.12
233.243	80.12
233.477	75.12
233.711	87.12
233.945	84.12
234.179	74.12
234.413	89.12
234.647	87.12
234.881	89.12
235.115	85.12
235.349	59.12
235.583	74.12
235.817	76.12
236.051	74.12
236.285	72.12
236.519	71.12
236.753	84.12
236.987	80.12
237.221	72.12
237.455	85.12
237.689	77.12
237.922	73.12
238.156	83.12
238.39	90.12
238.624	80.12
238.858	81.12
239.091	77.12
239.325	67.12
239.559	74.12
239.793	82.12
240.027	97.12
240.26	74.12
240.494	79.12
240.728	89.12
240.961	81.12
241.195	74.12
241.429	66.12
241.662	75.12
241.896	81.12
242.13	81.12
242.363	74.12
242.597	81.12
242.83	65.12
243.064	81.12
243.298	74.12
243.531	89.12
243.765	70.12
243.998	55.12
244.232	69.12
244.465	81.12
244.699	76.12
244.932	88.12
245.166	93.12
245.399	56.12
245.633	71.12
245.866	80.12
246.099	81.12
246.333	84.12
246.566	85.12
246.8	80.12
247.033	107.12
247.266	98.12
247.5	77.12
247.733	92.12
247.966	101.12
248.2	92.12
248.433	85.12
248.666	87.12
248.899	96.12
249.133	94.12
249.366	98.12
249.599	88.12
249.832	79.12
250.066	89.12
250.299	87.12
250.532	76.12
250.765	96.12
250.998	82.12
251.231	81.12
251.465	85.12
251.698	84.12
251.931	87.12
252.164	89.12
252.397	78.12
252.63	87.12
252.863	85.12
253.096	104.12
253.329	92.12
253.562	87.12
253.795	79.12
254.028	76.12
254.261	84.12
254.494	76.12
254.727	86.12
254.96	93.12
255.193	92.12
255.426	84.12
255.659	80.12
255.892	81.12
256.124	75.12
256.357	67.12
256.59	74.12
256.823	90.12
257.056	80.12
257.289	89.12
257.521	85.12
257.754	87.12
257.987	88.12
258.22	92.12
258.452	75.12
258.685	89.12
258.918	95.12
259.151	83.12
259.383	78.12
259.616	94.12
259.849	72.12
260.081	75.12
260.314	86.12
260.547	83.12
260.779	79.12
261.012	79.12
261.244	81.12
261.477	93.12
261.71	99.12
261.942	107.12
262.175	99.12
262.407	88.12
262.64	88.12
262.872	86.12
263.105	89.12
263.337	81.12
263.57	92.12
263.802	97.12
264.035	86.12
264.267	80.12
264.499	85.12
264.732	77.12
264.964	79.12
265.197	74.12
265.429	86.12
265.661	77.12
265.894	73.12
266.126	88.12
266.358	78.12
266.591	89.12
266.823	88.12
267.055	96.12
267.287	87.12
267.52	76.12
267.752	89.12
267.984	91.12
268.216	91.12
268.448	81.12
268.681	85.12
268.913	82.12
269.145	76.12
269.377	78.12
269.609	80.12
269.841	90.12
270.073	96.12
270.306	79.12
270.538	87.12
270.77	76.12
271.002	88.12
271.234	80.12
271.466	86.12
271.698	88.12
271.93	88.12
272.162	84.12
272.394	82.12
272.626	89.12
272.858	87.12
273.09	89.12
273.322	87.12
273.553	94.12
273.785	88.12
274.017	73.12
274.249	95.12
274.481	89.12
274.713	90.12
274.945	100.12
275.176	81.12
275.408	88.12
275.64	93.12
275.872	108.12
276.104	96.12
276.335	102.12
276.567	103.12
276.799	110.12
277.031	103.12
277.262	88.12
277.494	83.12
277.726	108.12
277.957	99.12
278.189	80.12
278.421	87.12
278.652	88.12
278.884	81.12
279.115	90.12
279.347	95.12
279.579	100.12
279.81	98.12
280.042	85.12
280.273	89.12
280.505	92.12
280.736	83.12
280.968	84.12
281.199	90.12
281.431	99.12
281.662	91.12
281.894	95.12
282.125	108.12
282.356	117.12
282.588	130.12
282.819	108.12
283.051	82.12
283.282	81.12
283.513	88.12
283.745	84.12
283.976	88.12
284.207	91.12
284.439	81.12
284.67	81.12
284.901	85.12
285.132	84.12
285.364	94.12
285.595	79.12
285.826	85.12
286.057	97.12
286.288	100.12
286.52	88.12
286.751	91.12
286.982	87.12
287.213	74.12
287.444	81.12
287.675	82.12
287.906	96.12
288.138	101.12
288.369	86.12
288.6	81.12
288.831	83.12
289.062	88.12
289.293	85.12
289.524	96.12
289.755	80.12
289.986	86.12
290.217	93.12
290.448	83.12
290.679	92.12
290.91	94.12
291.141	96.12
291.371	88.12
291.602	82.12
291.833	90.12
292.064	99.12
292.295	87.12
292.526	99.12
292.757	80.12
292.987	96.12
293.218	93.12
293.449	97.12
293.68	89.12
293.91	77.12
294.141	87.12
294.372	77.12
294.603	91.12
294.833	91.12
295.064	83.12
295.295	97.12
295.525	80.12
295.756	96.12
295.987	94.12
296.217	114.12
296.448	106.12
296.679	103.12
296.909	98.12
297.14	108.12
297.37	89.12
297.601	103.12
297.831	89.12
298.062	100.12
298.292	96.12
298.523	94.12
298.753	104.12
298.984	98.12
299.214	70.12
299.445	96.12
299.675	75.12
299.905	89.12
300.136	87.12
300.366	83.12
300.597	80.12
300.827	82.12
301.057	91.12
301.288	97.12
301.518	92.12
301.748	97.12
301.979	99.12
302.209	95.12
302.439	95.12
302.669	95.12
302.9	92.12
303.13	94.12
303.36	95.12
303.59	82.12
303.82	105.12
304.051	93.12
304.281	89.12
304.511	104.12
304.741	82.12
304.971	86.12
305.201	94.12
305.431	101.12
305.661	84.12
305.891	107.12
306.121	94.12
306.352	93.12
306.582	107.12
306.812	83.12
307.042	97.12
307.272	91.12
307.502	95.12
307.731	86.12
307.961	94.12
308.191	96.12
308.421	94.12
308.651	82.12
308.881	97.12
309.111	88.12
309.341	82.12
309.571	93.12
309.8	95.12
310.03	83.12
310.26	88.12
310.49	96.12
310.72	96.12
310.949	98.12
311.179	101.12
311.409	109.12
311.639	95.12
311.868	85.12
312.098	96.12
312.328	93.12
312.557	94.12
312.787	105.12
313.017	100.12
313.246	107.12
313.476	107.12
313.706	106.12
313.935	109.12
314.165	104.12
314.394	99.12
314.624	81.12
314.853	99.12
315.083	97.12
315.312	71.12
315.542	112.12
315.771	97.12
316.001	96.12
316.23	95.12
316.46	92.12
316.689	100.12
316.919	79.12
317.148	95.12
317.377	89.12
317.607	87.12
317.836	101.12
318.065	88.12
318.295	100.12
318.524	86.12
318.753	87.12
318.983	101.12
319.212	106.12
319.441	109.12
319.67	107.12
319.9	103.12
320.129	93.12
320.358	98.12
320.587	99.12
320.816	104.12
321.046	100.12
321.275	96.12
321.504	99.12
321.733	99.12
321.962	94.12
322.191	99.12
322.42	91.12
322.649	96.12
322.878	90.12
323.108	109.12
323.337	115.12
323.566	132.12
323.795	135.12
324.024	173.12
324.253	333.12
324.482	669.12
324.71	1329.12
324.939	1740.12
325.168	647.12
325.397	222.12
325.626	130.12
325.855	115.12
326.084	119.12
326.313	109.12
326.542	129.12
326.77	205.12
326.999	386.12
327.228	763.12
327.457	1410.12
327.686	1098.12
327.914	333.12
328.143	185.12
328.372	137.12
328.6	125.12
328.829	127.12
329.058	107.12
329.287	110.12
329.515	99.12
329.744	103.12
329.972	89.12
330.201	99.12
330.43	98.12
330.658	96.12
330.887	115.12
331.115	100.12
331.344	98.12
331.572	104.12
331.801	110.12
332.03	105.12
332.258	95.12
332.486	96.12
332.715	82.12
332.943	91.12
333.172	108.12
333.4	93.12
333.629	101.12
333.857	104.12
334.085	88.12
334.314	95.12
334.542	108.12
334.771	88.12
334.999	92.12
335.227	96.12
335.455	99.12
335.684	92.12
335.912	89.12
336.14	98.12
336.369	94.12
336.597	100.12
336.825	92.12
337.053	100.12
337.281	95.12
337.51	91.12
337.738	97.12
337.966	109.12
338.194	102.12
338.422	100.12
338.65	93.12
338.878	86.12
339.106	91.12
339.334	91.12
339.562	95.12
339.79	81.12
340.018	87.12
340.246	83.12
340.474	87.12
340.702	97.12
340.93	84.12
341.158	88.12
341.386	93.12
341.614	98.12
341.842	98.12
342.07	94.12
342.298	94.12
342.526	96.12
342.754	87.12
342.981	73.12
343.209	75.12
343.437	106.12
343.665	106.12
343.893	93.12
344.12	107.12
344.348	90.12
344.576	97.12
344.804	100.12
345.031	103.12
345.259	92.12
345.487	95.12
345.714	94.12
345.942	89.12
346.17	85.12
346.397	81.12
346.625	94.12
346.853	86.12
347.08	87.12
347.308	92.12
347.535	93.12
347.763	80.12
347.99	100.12
348.218	109.12
348.445	92.12
348.673	91.12
348.9	104.12
349.128	88.12
349.355	98.12
349.583	87.12
349.81	92.12
350.037	103.12
350.265	96.12
350.492	87.12
350.72	76.12
350.947	82.12
351.174	106.12
351.402	104.12
351.629	96.12
351.856	105.12
352.083	101.12
352.311	101.12
352.538	104.12
352.765	101.12
352.992	109.12
353.22	105.12
353.447	99.12
353.674	95.12
353.901	96.12
354.128	101.12
354.355	98.12
354.583	98.12
354.81	97.12
355.037	108.12
355.264	77.12
355.491	92.12
355.718	104.12
355.945	95.12
356.172	100.12
356.399	83.12
356.626	92.12
356.853	93.12
357.08	100.12
357.307	95.12
357.534	83.12
357.761	83.12
357.988	90.12
358.215	109.12
358.441	101.12
358.668	98.12
358.895	93.12
359.122	90.12
359.349	99.12
359.576	99.12
359.802	96.12
360.029	95.12
360.256	101.12
360.483	101.12
360.709	81.12
360.936	78.12
361.163	98.12
361.39	101.12
361.616	88.12
361.843	84.12
362.07	91.12
362.296	99.12
362.523	98.12
362.749	90.12
362.976	97.12
363.203	97.12
363.429	100.12
363.656	97.12
363.882	101.12
364.109	84.12
364.335	97.12
364.562	82.12
364.788	92.12
365.015	90.12
365.241	109.12
365.468	104.12
365.694	96.12
365.92	92.12
366.147	80.12
366.373	85.12
366.599	87.12
366.826	85.12
367.052	89.12
367.278	95.12
367.505	82.12
367.731	87.12
367.957	87.12
368.184	102.12
368.41	99.12
368.636	113.12
368.862	115.12
369.089	100.12
369.315	107.12
369.541	96.12
369.767	102.12
369.993	89.12
370.219	106.12
370.445	98.12
370.672	88.12
370.898	77.12
371.124	84.12
371.35	92.12
371.576	79.12
371.802	81.12
372.028	95.12
372.254	73.12
372.48	74.12
372.706	88.12
372.932	99.12
373.158	91.12
373.384	83.12
373.61	95.12
373.835	93.12
374.061	100.12
374.287	93.12
374.513	84.12
374.739	92.12
374.965	82.12
375.191	77.12
375.416	92.12
375.642	92.12
375.868	81.12
376.094	96.12
376.319	93.12
376.545	95.12
376.771	84.12
376.997	83.12
377.222	93.12
377.448	95.12
377.674	93.12
377.899	94.12
378.125	97.12
378.35	101.12
378.576	93.12
378.802	95.12
379.027	90.12
379.253	101.12
379.478	95.12
379.704	98.12
379.929	89.12
380.155	96.12
380.38	90.12
380.606	93.12
380.831	103.12
381.057	93.12
381.282	100.12
381.507	109.12
381.733	99.12
381.958	114.12
382.184	90.12
382.409	92.12
382.634	98.12
382.86	103.12
383.085	112.12
383.31	104.12
383.535	98.12
383.761	111.12
383.986	106.12
384.211	102.12
384.436	99.12
384.662	92.12
384.887	105.12
385.112	113.12
385.337	114.12
385.562	107.12
385.787	99.12
386.013	105.12
386.238	122.12
386.463	85.12
386.688	90.12
386.913	99.12
387.138	108.12
387.363	101.12
387.588	93.12
387.813	97.12
388.038	103.12
388.263	115.12
388.488	96.12
388.713	87.12
388.938	88.12
389.163	87.12
389.387	101.12
389.612	100.12
389.837	84.12
390.062	99.12
390.287	99.12
390.512	101.12
390.736	99.12
390.961	90.12
391.186	95.12
391.411	103.12
391.636	93.12
391.86	87.12
392.085	78.12
392.31	79.12
392.534	82.12
392.759	106.12
392.984	90.12
393.208	79.12
393.433	93.12
393.658	85.12
393.882	95.12
394.107	91.12
394.331	94.12
394.556	93.12
394.78	93.12
395.005	84.12
395.229	77.12
395.454	84.12
395.678	89.12
395.903	94.12
396.127	81.12
396.352	95.12
396.576	93.12
396.801	91.12
397.025	98.12
397.249	99.12
397.474	86.12
397.698	72.12
397.922	93.12
398.147	86.12
398.371	92.12
398.595	85.12
398.82	86.12
399.044	88.12
399.268	77.12
399.492	77.12
399.717	90.12
399.941	84.12
400.165	98.12
400.389	96.12
400.613	85.12
400.837	79.12
401.062	88.12
401.286	81.12
401.51	98.12
401.734	92.12
401.958	91.12
402.182	108.12
402.406	143.12
402.63	106.12
402.854	95.12
403.078	87.12
403.302	76.12
403.526	86.12
403.75	87.12
403.974	76.12
404.198	90.12
404.422	82.12
404.645	93.12
404.869	98.12
405.093	94.12
405.317	98.12
405.541	96.12
405.765	91.12
405.988	121.12
406.212	152.12
406.436	177.12
406.66	134.12
406.883	96.12
407.107	88.12
407.331	91.12
407.555	95.12
407.778	72.12
408.002	97.12
408.226	96.12
408.449	93.12
408.673	87.12
408.896	97.12
409.12	98.12
409.344	92.12
409.567	81.12
409.791	91.12
410.014	97.12
410.238	103.12
410.461	81.12
410.685	84.12
410.908	101.12
411.132	98.12
411.355	85.12
411.578	88.12
411.802	101.12
412.025	100.12
412.249	85.12
412.472	81.12
412.695	97.12
412.919	94.12
413.142	88.12
413.365	86.12
413.589	100.12
413.812	86.12
414.035	90.12
414.258	82.12
414.482	88.12
414.705	87.12
414.928	95.12
415.151	103.12
415.374	85.12
415.597	89.12
415.821	91.12
416.044	90.12
416.267	84.12
416.49	92.12
416.713	100.12
416.936	99.12
417.159	95.12
417.382	97.12
417.605	81.12
417.828	80.12
418.051	90.12
418.274	94.12
418.497	93.12
418.72	96.12
418.943	104.12
419.166	100.12
419.389	100.12
419.611	99.12
419.834	92.12
420.057	87.12
420.28	83.12
420.503	97.12
420.726	84.12
420.948	95.12
421.171	82.12
421.394	90.12
421.617	90.12
421.839	91.12
422.062	98.12
422.285	95.12
422.507	100.12
422.73	89.12
422.953	84.12
423.175	78.12
423.398	84.12
423.621	84.12
423.843	96.12
424.066	91.12
424.288	93.12
424.511	93.12
424.733	100.12
424.956	107.12
425.178	87.12
425.401	111.12
425.623	105.12
425.846	94.12
426.068	80.12
426.291	88.12
426.513	96.12
426.735	88.12
426.958	94.12
427.18	99.12
427.402	122.12
427.625	157.12
427.847	123.12
428.069	96.12
428.292	77.12
428.514	82.12
428.736	83.12
428.958	76.12
429.181	88.12
429.403	89.12
429.625	87.12
429.847	96.12
430.069	101.12
430.292	95.12
430.514	68.12
430.736	93.12
430.958	86.12
431.18	83.12
431.402	93.12
431.624	92.12
431.846	95.12
432.068	94.12
432.29	93.12
432.512	89.12
432.734	73.12
432.956	84.12
433.178	97.12
433.4	88.12
433.622	107.12
433.844	90.12
434.066	92.12
434.287	97.12
434.509	94.12
434.731	91.12
434.953	94.12
435.175	89.12
435.397	92.12
435.618	106.12
435.84	101.12
436.062	114.12
436.284	123.12
436.505	114.12
436.727	90.12
436.949	84.12
437.17	79.12
437.392	74.12
437.614	83.12
437.835	94.12
438.057	120.12
438.278	91.12
438.5	102.12
438.721	107.12
438.943	96.12
439.165	91.12
439.386	88.12
439.608	99.12
439.829	105.12
440.05	102.12
440.272	119.12
440.493	88.12
440.715	87.12
440.936	84.12
441.158	98.12
441.379	88.12
441.6	92.12
441.822	86.12
442.043	98.12
442.264	81.12
442.486	98.12
442.707	97.12
442.928	92.12
443.149	105.12
443.371	119.12
443.592	114.12
443.813	98.12
444.034	111.12
444.255	87.12
444.476	95.12
444.698	96.12
444.919	90.12
445.14	139.12
445.361	135.12
445.582	102.12
445.803	117.12
446.024	111.12
446.245	131.12
446.466	97.12
446.687	89.12
446.908	93.12
447.129	99.12
447.35	92.12
447.571	95.12
447.792	87.12
448.013	88.12
448.234	91.12
448.455	101.12
448.675	100.12
448.896	107.12
449.117	96.12
449.338	96.12
449.559	122.12
449.779	116.12
450	91.12
450.221	79.12
450.442	99.12
450.662	83.12
450.883	94.12
451.104	108.12
451.324	92.12
451.545	93.12
451.766	94.12
451.986	87.12
452.207	114.12
452.428	90.12
452.648	101.12
452.869	99.12
453.089	103.12
453.31	116.12
453.53	111.12
453.751	95.12
453.971	98.12
454.192	104.12
454.412	74.12
454.633	88.12
454.853	94.12
455.073	87.12
455.294	90.12
455.514	89.12
455.734	93.12
455.955	91.12
456.175	84.12
456.395	93.12
456.616	93.12
456.836	94.12
457.056	77.12
457.276	84.12
457.497	107.12
457.717	82.12
457.937	83.12
458.157	82.12
458.377	93.12
458.598	106.12
458.818	120.12
459.038	122.12
459.258	94.12
459.478	89.12
459.698	98.12
459.918	90.12
460.138	87.12
460.358	79.12
460.578	89.12
460.798	85.12
461.018	94.12
461.238	89.12
461.458	82.12
461.678	86.12
461.898	93.12
462.118	95.12
462.338	88.12
462.558	89.12
462.777	95.12
462.997	95.12
463.217	87.12
463.437	80.12
463.657	83.12
463.876	99.12
464.096	86.12
464.316	95.12
464.536	88.12
464.755	101.12
464.975	106.12
465.195	134.12
465.414	139.12
465.634	90.12
465.854	75.12
466.073	83.12
466.293	85.12
466.512	98.12
466.732	94.12
466.951	105.12
467.171	98.12
467.391	94.12
467.61	102.12
467.829	81.12
468.049	87.12
468.268	93.12
468.488	81.12
468.707	97.12
468.927	84.12
469.146	73.12
469.365	91.12
469.585	92.12
469.804	84.12
470.023	101.12
470.243	84.12
470.462	101.12
470.681	96.12
470.901	101.12
471.12	97.12
471.339	95.12
471.558	90.12
471.777	77.12
471.997	88.12
472.216	106.12
472.435	90.12
472.654	100.12
472.873	95.12
473.092	67.12
473.311	88.12
473.53	90.12
473.749	90.12
473.968	92.12
474.187	98.12
474.406	88.12
474.625	91.12
474.844	87.12
475.063	77.12
475.282	88.12
475.501	94.12
475.72	84.12
475.939	95.12
476.158	74.12
476.377	98.12
476.596	92.12
476.814	89.12
477.033	105.12
477.252	79.12
477.471	95.12
477.69	89.12
477.908	93.12
478.127	100.12
478.346	93.12
478.564	87.12
478.783	96.12
479.002	88.12
479.22	89.12
479.439	108.12
479.658	94.12
479.876	89.12
480.095	90.12
480.313	94.12
480.532	73.12
480.751	93.12
480.969	87.12
481.188	97.12
481.406	101.12
481.624	87.12
481.843	87.12
482.061	102.12
482.28	99.12
482.498	81.12
482.717	86.12
482.935	98.12
483.153	91.12
483.372	85.12
483.59	92.12
483.808	91.12
484.027	97.12
484.245	91.12
484.463	95.12
484.681	93.12
484.9	88.12
485.118	105.12
485.336	108.12
485.554	99.12
485.772	106.12
485.99	93.12
486.209	100.12
486.427	99.12
486.645	98.12
486.863	105.12
487.081	101.12
487.299	107.12
487.517	101.12
487.735	92.12
487.953	102.12
488.171	99.12
488.389	108.12
488.607	91.12
488.825	92.12
489.043	108.12
489.261	91.12
489.479	92.12
489.696	110.12
489.914	90.12
490.132	88.12
490.35	92.12
490.568	76.12
490.786	83.12
491.003	78.12
491.221	83.12
491.439	92.12
491.657	95.12
491.874	94.12
492.092	90.12
492.31	85.12
492.527	88.12
492.745	86.12
492.963	90.12
493.18	83.12
493.398	96.12
493.615	102.12
493.833	117.12
494.05	87.12
494.268	94.12
494.485	99.12
494.703	73.12
494.92	82.12
495.138	88.12
495.355	99.12
495.573	90.12
495.79	81.12
496.008	91.12
496.225	98.12
496.442	79.12
496.66	96.12
496.877	106.12
497.094	97.12
497.312	98.12
497.529	105.12
497.746	103.12
497.963	92.12
498.181	98.12
498.398	100.12
498.615	115.12
498.832	108.12
499.049	101.12
499.267	97.12
499.484	93.12
499.701	90.12
499.918	104.12
500.135	102.12
500.352	81.12
500.569	97.12
500.786	96.12
501.003	88.12
501.22	92.12
501.437	92.12
501.654	98.12
501.871	86.12
502.088	93.12
502.305	82.12
502.522	87.12
502.739	101.12
502.956	87.12
503.172	89.12
503.389	100.12
503.606	98.12
503.823	104.12
504.04	106.12
504.256	100.12
504.473	94.12
504.69	88.12
504.907	94.12
505.123	82.12
505.34	89.12
505.557	89.12
505.773	102.12
505.99	88.12
506.207	100.12
506.423	85.12
506.64	97.12
506.856	94.12
507.073	91.12
507.289	108.12
507.506	99.12
507.722	98.12
507.939	111.12
508.155	92.12
508.372	81.12
508.588	92.12
508.805	99.12
509.021	116.12
509.238	109.12
509.454	87.12
509.67	110.12
509.887	110.12
510.103	130.12
510.319	197.12
510.536	602.12
510.752	1753.12
510.968	524.12
511.184	147.12
511.401	95.12
511.617	92.12
511.833	95.12
512.049	94.12
512.265	105.12
512.481	105.12
512.698	105.12
512.914	98.12
513.13	101.12
513.346	83.12
513.562	99.12
513.778	93.12
513.994	100.12
514.21	95.12
514.426	117.12
514.642	126.12
514.858	123.12
515.074	140.12
515.29	357.12
515.506	1055.12
515.721	420.12
515.937	148.12
