Data from Uncirc_1998_H10_HRD10591_00038.txt Node
Date: Wed Jan 03 11:25:32 EST 2024
User: Yrep
Spectrometer: HR+D1059
Trigger mode: 1
Integration Time (sec): 1.000000E-1
Scans to average: 1
Electric dark correction enabled: true
Nonlinearity correction enabled: false
Boxcar width: 0
XAxis mode: Wavelengths
Number of Pixels in Spectrum: 2048
>>>>>Begin Spectral Data<<<<<
223.165	-25.69
223.4	-25.69
223.635	-25.69
223.869	-18.69
224.104	-14.69
224.338	-5.69
224.573	-9.69
224.808	-25.69
225.042	-20.69
225.277	-5.69
225.511	-3.69
225.746	-3.69
225.98	13.31
226.215	14.31
226.449	22.31
226.683	22.31
226.918	28.31
227.152	33.31
227.387	36.31
227.621	42.31
227.856	56.31
228.09	56.31
228.324	50.31
228.559	68.31
228.793	50.31
229.027	72.31
229.262	58.31
229.496	76.31
229.73	70.31
229.964	76.31
230.199	70.31
230.433	68.31
230.667	79.31
230.901	74.31
231.136	77.31
231.37	77.31
231.604	84.31
231.838	92.31
232.072	85.31
232.306	84.31
232.541	84.31
232.775	74.31
233.009	77.31
233.243	83.31
233.477	83.31
233.711	74.31
233.945	84.31
234.179	71.31
234.413	86.31
234.647	72.31
234.881	77.31
235.115	76.31
235.349	85.31
235.583	74.31
235.817	92.31
236.051	79.31
236.285	74.31
236.519	81.31
236.753	81.31
236.987	77.31
237.221	83.31
237.455	85.31
237.689	73.31
237.922	72.31
238.156	75.31
238.39	68.31
238.624	85.31
238.858	68.31
239.091	63.31
239.325	78.31
239.559	75.31
239.793	84.31
240.027	66.31
240.26	74.31
240.494	69.31
240.728	61.31
240.961	84.31
241.195	78.31
241.429	84.31
241.662	80.31
241.896	64.31
242.13	75.31
242.363	79.31
242.597	73.31
242.83	73.31
243.064	86.31
243.298	63.31
243.531	71.31
243.765	61.31
243.998	82.31
244.232	82.31
244.465	80.31
244.699	77.31
244.932	66.31
245.166	70.31
245.399	78.31
245.633	78.31
245.866	86.31
246.099	78.31
246.333	71.31
246.566	70.31
246.8	61.31
247.033	65.31
247.266	84.31
247.5	77.31
247.733	87.31
247.966	85.31
248.2	61.31
248.433	70.31
248.666	80.31
248.899	81.31
249.133	87.31
249.366	89.31
249.599	92.31
249.832	62.31
250.066	78.31
250.299	72.31
250.532	81.31
250.765	79.31
250.998	81.31
251.231	79.31
251.465	68.31
251.698	74.31
251.931	84.31
252.164	75.31
252.397	74.31
252.63	72.31
252.863	76.31
253.096	79.31
253.329	78.31
253.562	83.31
253.795	91.31
254.028	75.31
254.261	85.31
254.494	91.31
254.727	70.31
254.96	82.31
255.193	69.31
255.426	72.31
255.659	80.31
255.892	75.31
256.124	76.31
256.357	94.31
256.59	84.31
256.823	78.31
257.056	82.31
257.289	79.31
257.521	78.31
257.754	82.31
257.987	82.31
258.22	76.31
258.452	86.31
258.685	91.31
258.918	90.31
259.151	81.31
259.383	91.31
259.616	101.31
259.849	94.31
260.081	81.31
260.314	78.31
260.547	85.31
260.779	82.31
261.012	71.31
261.244	85.31
261.477	100.31
261.71	84.31
261.942	102.31
262.175	99.31
262.407	80.31
262.64	88.31
262.872	78.31
263.105	91.31
263.337	80.31
263.57	90.31
263.802	92.31
264.035	82.31
264.267	86.31
264.499	73.31
264.732	94.31
264.964	85.31
265.197	71.31
265.429	75.31
265.661	78.31
265.894	90.31
266.126	92.31
266.358	90.31
266.591	70.31
266.823	68.31
267.055	69.31
267.287	76.31
267.52	70.31
267.752	97.31
267.984	80.31
268.216	86.31
268.448	85.31
268.681	77.31
268.913	81.31
269.145	73.31
269.377	78.31
269.609	86.31
269.841	85.31
270.073	79.31
270.306	79.31
270.538	93.31
270.77	73.31
271.002	82.31
271.234	73.31
271.466	84.31
271.698	74.31
271.93	87.31
272.162	91.31
272.394	80.31
272.626	76.31
272.858	98.31
273.09	81.31
273.322	87.31
273.553	81.31
273.785	77.31
274.017	93.31
274.249	96.31
274.481	65.31
274.713	85.31
274.945	92.31
275.176	84.31
275.408	74.31
275.64	80.31
275.872	80.31
276.104	95.31
276.335	92.31
276.567	96.31
276.799	93.31
277.031	100.31
277.262	98.31
277.494	98.31
277.726	75.31
277.957	64.31
278.189	80.31
278.421	81.31
278.652	88.31
278.884	95.31
279.115	74.31
279.347	83.31
279.579	84.31
279.81	71.31
280.042	99.31
280.273	89.31
280.505	70.31
280.736	76.31
280.968	95.31
281.199	81.31
281.431	99.31
281.662	97.31
281.894	83.31
282.125	90.31
282.356	116.31
282.588	122.31
282.819	117.31
283.051	88.31
283.282	69.31
283.513	93.31
283.745	86.31
283.976	83.31
284.207	82.31
284.439	89.31
284.67	83.31
284.901	101.31
285.132	78.31
285.364	78.31
285.595	90.31
285.826	76.31
286.057	89.31
286.288	84.31
286.52	78.31
286.751	80.31
286.982	84.31
287.213	96.31
287.444	80.31
287.675	74.31
287.906	91.31
288.138	92.31
288.369	77.31
288.6	83.31
288.831	105.31
289.062	94.31
289.293	86.31
289.524	82.31
289.755	77.31
289.986	83.31
290.217	92.31
290.448	86.31
290.679	81.31
290.91	88.31
291.141	88.31
291.371	89.31
291.602	72.31
291.833	80.31
292.064	84.31
292.295	78.31
292.526	90.31
292.757	72.31
292.987	86.31
293.218	84.31
293.449	89.31
293.68	78.31
293.91	65.31
294.141	74.31
294.372	88.31
294.603	101.31
294.833	97.31
295.064	72.31
295.295	89.31
295.525	81.31
295.756	101.31
295.987	105.31
296.217	122.31
296.448	115.31
296.679	81.31
296.909	85.31
297.14	89.31
297.37	89.31
297.601	89.31
297.831	99.31
298.062	102.31
298.292	82.31
298.523	88.31
298.753	91.31
298.984	89.31
299.214	73.31
299.445	82.31
299.675	82.31
299.905	101.31
300.136	92.31
300.366	79.31
300.597	76.31
300.827	91.31
301.057	96.31
301.288	101.31
301.518	92.31
301.748	80.31
301.979	106.31
302.209	90.31
302.439	81.31
302.669	96.31
302.9	96.31
303.13	96.31
303.36	78.31
303.59	99.31
303.82	107.31
304.051	89.31
304.281	95.31
304.511	84.31
304.741	93.31
304.971	81.31
305.201	88.31
305.431	91.31
305.661	80.31
305.891	85.31
306.121	110.31
306.352	111.31
306.582	101.31
306.812	108.31
307.042	94.31
307.272	87.31
307.502	82.31
307.731	93.31
307.961	83.31
308.191	75.31
308.421	92.31
308.651	92.31
308.881	85.31
309.111	88.31
309.341	97.31
309.571	96.31
309.8	84.31
310.03	97.31
310.26	97.31
310.49	82.31
310.72	102.31
310.949	102.31
311.179	84.31
311.409	80.31
311.639	92.31
311.868	87.31
312.098	98.31
312.328	95.31
312.557	85.31
312.787	98.31
313.017	96.31
313.246	71.31
313.476	94.31
313.706	97.31
313.935	74.31
314.165	93.31
314.394	95.31
314.624	89.31
314.853	94.31
315.083	93.31
315.312	102.31
315.542	103.31
315.771	83.31
316.001	80.31
316.23	85.31
316.46	75.31
316.689	85.31
316.919	84.31
317.148	97.31
317.377	97.31
317.607	92.31
317.836	81.31
318.065	76.31
318.295	102.31
318.524	91.31
318.753	78.31
318.983	90.31
319.212	101.31
319.441	98.31
319.67	104.31
319.9	84.31
320.129	89.31
320.358	104.31
320.587	92.31
320.816	91.31
321.046	91.31
321.275	94.31
321.504	96.31
321.733	89.31
321.962	91.31
322.191	84.31
322.42	108.31
322.649	100.31
322.878	105.31
323.108	90.31
323.337	105.31
323.566	116.31
323.795	141.31
324.024	199.31
324.253	329.31
324.482	689.31
324.71	1417.31
324.939	1843.31
325.168	671.31
325.397	217.31
325.626	152.31
325.855	108.31
326.084	129.31
326.313	117.31
326.542	151.31
326.77	204.31
326.999	396.31
327.228	783.31
327.457	1445.31
327.686	1142.31
327.914	306.31
328.143	176.31
328.372	129.31
328.6	126.31
328.829	114.31
329.058	115.31
329.287	113.31
329.515	96.31
329.744	105.31
329.972	100.31
330.201	102.31
330.43	101.31
330.658	113.31
330.887	119.31
331.115	109.31
331.344	102.31
331.572	93.31
331.801	90.31
332.03	103.31
332.258	88.31
332.486	88.31
332.715	80.31
332.943	85.31
333.172	86.31
333.4	87.31
333.629	100.31
333.857	97.31
334.085	97.31
334.314	89.31
334.542	102.31
334.771	93.31
334.999	96.31
335.227	91.31
335.455	87.31
335.684	96.31
335.912	101.31
336.14	95.31
336.369	92.31
336.597	88.31
336.825	90.31
337.053	82.31
337.281	82.31
337.51	89.31
337.738	97.31
337.966	89.31
338.194	113.31
338.422	100.31
338.65	69.31
338.878	98.31
339.106	89.31
339.334	98.31
339.562	90.31
339.79	76.31
340.018	91.31
340.246	86.31
340.474	94.31
340.702	101.31
340.93	75.31
341.158	91.31
341.386	88.31
341.614	107.31
341.842	103.31
342.07	86.31
342.298	86.31
342.526	88.31
342.754	87.31
342.981	88.31
343.209	90.31
343.437	91.31
343.665	76.31
343.893	98.31
344.12	85.31
344.348	71.31
344.576	88.31
344.804	94.31
345.031	93.31
345.259	92.31
345.487	92.31
345.714	92.31
345.942	96.31
346.17	92.31
346.397	87.31
346.625	75.31
346.853	94.31
347.08	82.31
347.308	88.31
347.535	94.31
347.763	103.31
347.99	96.31
348.218	93.31
348.445	100.31
348.673	105.31
348.9	98.31
349.128	96.31
349.355	95.31
349.583	80.31
349.81	97.31
350.037	91.31
350.265	96.31
350.492	100.31
350.72	102.31
350.947	93.31
351.174	82.31
351.402	110.31
351.629	97.31
351.856	90.31
352.083	89.31
352.311	92.31
352.538	106.31
352.765	105.31
352.992	102.31
353.22	114.31
353.447	103.31
353.674	93.31
353.901	83.31
354.128	92.31
354.355	93.31
354.583	90.31
354.81	85.31
355.037	95.31
355.264	77.31
355.491	92.31
355.718	92.31
355.945	81.31
356.172	89.31
356.399	103.31
356.626	92.31
356.853	102.31
357.08	95.31
357.307	92.31
357.534	76.31
357.761	96.31
357.988	91.31
358.215	86.31
358.441	98.31
358.668	87.31
358.895	87.31
359.122	88.31
359.349	95.31
359.576	89.31
359.802	81.31
360.029	96.31
360.256	101.31
360.483	101.31
360.709	88.31
360.936	94.31
361.163	93.31
361.39	99.31
361.616	87.31
361.843	90.31
362.07	79.31
362.296	86.31
362.523	85.31
362.749	87.31
362.976	78.31
363.203	103.31
363.429	93.31
363.656	102.31
363.882	89.31
364.109	77.31
364.335	82.31
364.562	84.31
364.788	74.31
365.015	88.31
365.241	102.31
365.468	101.31
365.694	93.31
365.92	101.31
366.147	82.31
366.373	84.31
366.599	76.31
366.826	93.31
367.052	95.31
367.278	107.31
367.505	77.31
367.731	94.31
367.957	99.31
368.184	91.31
368.41	102.31
368.636	101.31
368.862	112.31
369.089	90.31
369.315	90.31
369.541	80.31
369.767	68.31
369.993	84.31
370.219	85.31
370.445	95.31
370.672	68.31
370.898	83.31
371.124	79.31
371.35	83.31
371.576	82.31
371.802	84.31
372.028	85.31
372.254	86.31
372.48	103.31
372.706	90.31
372.932	96.31
373.158	89.31
373.384	71.31
373.61	88.31
373.835	86.31
374.061	88.31
374.287	89.31
374.513	87.31
374.739	85.31
374.965	86.31
375.191	84.31
375.416	79.31
375.642	88.31
375.868	83.31
376.094	95.31
376.319	95.31
376.545	82.31
376.771	98.31
376.997	85.31
377.222	83.31
377.448	76.31
377.674	93.31
377.899	79.31
378.125	95.31
378.35	101.31
378.576	78.31
378.802	92.31
379.027	92.31
379.253	78.31
379.478	101.31
379.704	93.31
379.929	84.31
380.155	90.31
380.38	86.31
380.606	92.31
380.831	100.31
381.057	98.31
381.282	95.31
381.507	82.31
381.733	94.31
381.958	85.31
382.184	81.31
382.409	94.31
382.634	97.31
382.86	102.31
383.085	101.31
383.31	99.31
383.535	109.31
383.761	105.31
383.986	94.31
384.211	103.31
384.436	84.31
384.662	109.31
384.887	98.31
385.112	102.31
385.337	107.31
385.562	105.31
385.787	111.31
386.013	98.31
386.238	109.31
386.463	105.31
386.688	94.31
386.913	98.31
387.138	102.31
387.363	96.31
387.588	100.31
387.813	98.31
388.038	92.31
388.263	92.31
388.488	109.31
388.713	94.31
388.938	92.31
389.163	101.31
389.387	81.31
389.612	90.31
389.837	88.31
390.062	93.31
390.287	106.31
390.512	97.31
390.736	88.31
390.961	80.31
391.186	94.31
391.411	94.31
391.636	98.31
391.86	87.31
392.085	82.31
392.31	77.31
392.534	93.31
392.759	86.31
392.984	95.31
393.208	92.31
393.433	87.31
393.658	90.31
393.882	83.31
394.107	91.31
394.331	87.31
394.556	95.31
394.78	80.31
395.005	82.31
395.229	88.31
395.454	76.31
395.678	84.31
395.903	78.31
396.127	97.31
396.352	87.31
396.576	81.31
396.801	79.31
397.025	82.31
397.249	92.31
397.474	92.31
397.698	93.31
397.922	89.31
398.147	100.31
398.371	84.31
398.595	85.31
398.82	81.31
399.044	88.31
399.268	85.31
399.492	91.31
399.717	92.31
399.941	88.31
400.165	91.31
400.389	87.31
400.613	88.31
400.837	85.31
401.062	79.31
401.286	86.31
401.51	81.31
401.734	101.31
401.958	95.31
402.182	117.31
402.406	138.31
402.63	103.31
402.854	94.31
403.078	94.31
403.302	78.31
403.526	92.31
403.75	90.31
403.974	84.31
404.198	95.31
404.422	93.31
404.645	88.31
404.869	78.31
405.093	98.31
405.317	86.31
405.541	98.31
405.765	90.31
405.988	114.31
406.212	150.31
406.436	204.31
406.66	119.31
406.883	94.31
407.107	93.31
407.331	97.31
407.555	104.31
407.778	96.31
408.002	87.31
408.226	78.31
408.449	90.31
408.673	94.31
408.896	85.31
409.12	88.31
409.344	100.31
409.567	87.31
409.791	101.31
410.014	76.31
410.238	98.31
410.461	84.31
410.685	89.31
410.908	83.31
411.132	100.31
411.355	103.31
411.578	88.31
411.802	83.31
412.025	93.31
412.249	109.31
412.472	102.31
412.695	80.31
412.919	84.31
413.142	89.31
413.365	92.31
413.589	84.31
413.812	79.31
414.035	93.31
414.258	98.31
414.482	79.31
414.705	80.31
414.928	89.31
415.151	93.31
415.374	86.31
415.597	75.31
415.821	92.31
416.044	96.31
416.267	94.31
416.49	87.31
416.713	82.31
416.936	89.31
417.159	101.31
417.382	107.31
417.605	91.31
417.828	99.31
418.051	96.31
418.274	69.31
418.497	81.31
418.72	76.31
418.943	101.31
419.166	93.31
419.389	79.31
419.611	80.31
419.834	90.31
420.057	97.31
420.28	91.31
420.503	98.31
420.726	83.31
420.948	87.31
421.171	102.31
421.394	91.31
421.617	96.31
421.839	90.31
422.062	98.31
422.285	92.31
422.507	86.31
422.73	85.31
422.953	86.31
423.175	92.31
423.398	83.31
423.621	85.31
423.843	94.31
424.066	93.31
424.288	97.31
424.511	93.31
424.733	85.31
424.956	102.31
425.178	91.31
425.401	87.31
425.623	111.31
425.846	82.31
426.068	99.31
426.291	70.31
426.513	92.31
426.735	88.31
426.958	93.31
427.18	94.31
427.402	126.31
427.625	146.31
427.847	117.31
428.069	101.31
428.292	87.31
428.514	80.31
428.736	88.31
428.958	82.31
429.181	88.31
429.403	88.31
429.625	75.31
429.847	68.31
430.069	88.31
430.292	91.31
430.514	77.31
430.736	98.31
430.958	81.31
431.18	94.31
431.402	73.31
431.624	84.31
431.846	101.31
432.068	97.31
432.29	76.31
432.512	75.31
432.734	85.31
432.956	95.31
433.178	93.31
433.4	96.31
433.622	92.31
433.844	79.31
434.066	98.31
434.287	87.31
434.509	90.31
434.731	102.31
434.953	78.31
435.175	70.31
435.397	85.31
435.618	87.31
435.84	99.31
436.062	106.31
436.284	106.31
436.505	92.31
436.727	93.31
436.949	104.31
437.17	82.31
437.392	79.31
437.614	68.31
437.835	94.31
438.057	96.31
438.278	103.31
438.5	99.31
438.721	110.31
438.943	92.31
439.165	81.31
439.386	96.31
439.608	79.31
439.829	103.31
440.05	97.31
440.272	125.31
440.493	92.31
440.715	87.31
440.936	91.31
441.158	78.31
441.379	92.31
441.6	96.31
441.822	88.31
442.043	93.31
442.264	100.31
442.486	89.31
442.707	89.31
442.928	100.31
443.149	117.31
443.371	111.31
443.592	91.31
443.813	116.31
444.034	113.31
444.255	95.31
444.476	75.31
444.698	84.31
444.919	93.31
445.14	109.31
445.361	124.31
445.582	120.31
445.803	125.31
446.024	104.31
446.245	124.31
446.466	109.31
446.687	79.31
446.908	78.31
447.129	96.31
447.35	94.31
447.571	97.31
447.792	98.31
448.013	83.31
448.234	90.31
448.455	103.31
448.675	98.31
448.896	108.31
449.117	89.31
449.338	96.31
449.559	131.31
449.779	132.31
450	99.31
450.221	81.31
450.442	92.31
450.662	81.31
450.883	95.31
451.104	102.31
451.324	90.31
451.545	87.31
451.766	80.31
451.986	92.31
452.207	91.31
452.428	88.31
452.648	94.31
452.869	105.31
453.089	96.31
453.31	90.31
453.53	101.31
453.751	94.31
453.971	104.31
454.192	96.31
454.412	102.31
454.633	85.31
454.853	82.31
455.073	93.31
455.294	94.31
455.514	89.31
455.734	94.31
455.955	80.31
456.175	92.31
456.395	106.31
456.616	92.31
456.836	77.31
457.056	80.31
457.276	83.31
457.497	90.31
457.717	94.31
457.937	82.31
458.157	68.31
458.377	96.31
458.598	113.31
458.818	143.31
459.038	145.31
459.258	104.31
459.478	87.31
459.698	97.31
459.918	82.31
460.138	71.31
460.358	92.31
460.578	93.31
460.798	92.31
461.018	88.31
461.238	79.31
461.458	82.31
461.678	84.31
461.898	80.31
462.118	84.31
462.338	81.31
462.558	75.31
462.777	83.31
462.997	90.31
463.217	90.31
463.437	89.31
463.657	81.31
463.876	83.31
464.096	86.31
464.316	92.31
464.536	85.31
464.755	97.31
464.975	87.31
465.195	137.31
465.414	138.31
465.634	88.31
465.854	84.31
466.073	93.31
466.293	90.31
466.512	82.31
466.732	84.31
466.951	92.31
467.171	103.31
467.391	96.31
467.61	87.31
467.829	85.31
468.049	86.31
468.268	93.31
468.488	93.31
468.707	103.31
468.927	85.31
469.146	78.31
469.365	87.31
469.585	84.31
469.804	98.31
470.023	95.31
470.243	83.31
470.462	90.31
470.681	97.31
470.901	89.31
471.12	97.31
471.339	81.31
471.558	91.31
471.777	90.31
471.997	76.31
472.216	92.31
472.435	89.31
472.654	87.31
472.873	89.31
473.092	87.31
473.311	93.31
473.53	78.31
473.749	88.31
473.968	87.31
474.187	101.31
474.406	96.31
474.625	91.31
474.844	90.31
475.063	94.31
475.282	86.31
475.501	91.31
475.72	85.31
475.939	77.31
476.158	91.31
476.377	86.31
476.596	75.31
476.814	82.31
477.033	78.31
477.252	94.31
477.471	87.31
477.69	101.31
477.908	88.31
478.127	72.31
478.346	79.31
478.564	88.31
478.783	82.31
479.002	97.31
479.22	98.31
479.439	97.31
479.658	97.31
479.876	90.31
480.095	86.31
480.313	94.31
480.532	92.31
480.751	91.31
480.969	77.31
481.188	112.31
481.406	101.31
481.624	95.31
481.843	92.31
482.061	85.31
482.28	89.31
482.498	97.31
482.717	84.31
482.935	91.31
483.153	81.31
483.372	96.31
483.59	93.31
483.808	72.31
484.027	88.31
484.245	87.31
484.463	77.31
484.681	84.31
484.9	99.31
485.118	102.31
485.336	88.31
485.554	90.31
485.772	104.31
485.99	100.31
486.209	107.31
486.427	110.31
486.645	112.31
486.863	100.31
487.081	98.31
487.299	102.31
487.517	85.31
487.735	83.31
487.953	91.31
488.171	91.31
488.389	94.31
488.607	93.31
488.825	105.31
489.043	91.31
489.261	88.31
489.479	89.31
489.696	86.31
489.914	82.31
490.132	87.31
490.35	92.31
490.568	78.31
490.786	102.31
491.003	88.31
491.221	81.31
491.439	90.31
491.657	86.31
491.874	95.31
492.092	96.31
492.31	90.31
492.527	98.31
492.745	95.31
492.963	97.31
493.18	86.31
493.398	79.31
493.615	89.31
493.833	87.31
494.05	93.31
494.268	94.31
494.485	81.31
494.703	84.31
494.92	77.31
495.138	86.31
495.355	87.31
495.573	94.31
495.79	91.31
496.008	93.31
496.225	96.31
496.442	102.31
496.66	96.31
496.877	92.31
497.094	96.31
497.312	89.31
497.529	91.31
497.746	94.31
497.963	95.31
498.181	100.31
498.398	97.31
498.615	91.31
498.832	112.31
499.049	97.31
499.267	93.31
499.484	79.31
499.701	83.31
499.918	93.31
500.135	89.31
500.352	89.31
500.569	90.31
500.786	90.31
501.003	82.31
501.22	91.31
501.437	72.31
501.654	96.31
501.871	94.31
502.088	92.31
502.305	92.31
502.522	85.31
502.739	89.31
502.956	88.31
503.172	78.31
503.389	93.31
503.606	106.31
503.823	94.31
504.04	93.31
504.256	100.31
504.473	87.31
504.69	88.31
504.907	88.31
505.123	89.31
505.34	89.31
505.557	90.31
505.773	85.31
505.99	88.31
506.207	93.31
506.423	83.31
506.64	92.31
506.856	88.31
507.073	98.31
507.289	109.31
507.506	102.31
507.722	102.31
507.939	109.31
508.155	95.31
508.372	87.31
508.588	90.31
508.805	100.31
509.021	82.31
509.238	95.31
509.454	84.31
509.67	107.31
509.887	103.31
510.103	129.31
510.319	200.31
510.536	631.31
510.752	2001.31
510.968	544.31
511.184	143.31
511.401	101.31
511.617	95.31
511.833	97.31
512.049	91.31
512.265	95.31
512.481	80.31
512.698	93.31
512.914	91.31
513.13	97.31
513.346	100.31
513.562	94.31
513.778	96.31
513.994	92.31
514.21	95.31
514.426	122.31
514.642	117.31
514.858	113.31
515.074	129.31
515.29	376.31
515.506	1177.31
515.721	452.31
515.937	136.31
516.153	95.31
516.369	99.31
516.585	105.31
516.801	89.31
