Data from Uncirc_1998_H10_HRD10591_00055.txt Node
Date: Wed Jan 03 11:25:35 EST 2024
User: Yrep
Spectrometer: HR+D1059
Trigger mode: 1
Integration Time (sec): 1.000000E-1
Scans to average: 1
Electric dark correction enabled: true
Nonlinearity correction enabled: false
Boxcar width: 0
XAxis mode: Wavelengths
Number of Pixels in Spectrum: 2048
>>>>>Begin Spectral Data<<<<<
223.165	-22.25
223.4	-22.25
223.635	-22.25
223.869	-13.25
224.104	-26.25
224.338	-19.25
224.573	-11.25
224.808	-3.25
225.042	-0.25
225.277	-1.25
225.511	-6.25
225.746	-8.25
225.98	6.75
226.215	16.75
226.449	18.75
226.683	20.75
226.918	13.75
227.152	34.75
227.387	44.75
227.621	39.75
227.856	40.75
228.09	42.75
228.324	57.75
228.559	47.75
228.793	72.75
229.027	66.75
229.262	74.75
229.496	72.75
229.73	58.75
229.964	74.75
230.199	70.75
230.433	71.75
230.667	78.75
230.901	69.75
231.136	51.75
231.37	84.75
231.604	59.75
231.838	80.75
232.072	62.75
232.306	74.75
232.541	84.75
232.775	78.75
233.009	79.75
233.243	86.75
233.477	74.75
233.711	69.75
233.945	84.75
234.179	84.75
234.413	60.75
234.647	85.75
234.881	83.75
235.115	96.75
235.349	87.75
235.583	83.75
235.817	63.75
236.051	83.75
236.285	81.75
236.519	84.75
236.753	66.75
236.987	75.75
237.221	70.75
237.455	85.75
237.689	81.75
237.922	91.75
238.156	73.75
238.39	68.75
238.624	67.75
238.858	69.75
239.091	77.75
239.325	74.75
239.559	85.75
239.793	61.75
240.027	72.75
240.26	70.75
240.494	89.75
240.728	71.75
240.961	69.75
241.195	70.75
241.429	76.75
241.662	71.75
241.896	81.75
242.13	71.75
242.363	82.75
242.597	88.75
242.83	66.75
243.064	81.75
243.298	77.75
243.531	69.75
243.765	79.75
243.998	79.75
244.232	75.75
244.465	78.75
244.699	93.75
244.932	83.75
245.166	90.75
245.399	74.75
245.633	87.75
245.866	68.75
246.099	71.75
246.333	86.75
246.566	73.75
246.8	70.75
247.033	78.75
247.266	71.75
247.5	77.75
247.733	69.75
247.966	86.75
248.2	88.75
248.433	92.75
248.666	76.75
248.899	78.75
249.133	90.75
249.366	88.75
249.599	91.75
249.832	77.75
250.066	99.75
250.299	87.75
250.532	63.75
250.765	71.75
250.998	76.75
251.231	55.75
251.465	82.75
251.698	60.75
251.931	73.75
252.164	87.75
252.397	76.75
252.63	79.75
252.863	74.75
253.096	82.75
253.329	73.75
253.562	84.75
253.795	74.75
254.028	74.75
254.261	85.75
254.494	89.75
254.727	87.75
254.96	89.75
255.193	80.75
255.426	77.75
255.659	76.75
255.892	76.75
256.124	95.75
256.357	87.75
256.59	92.75
256.823	96.75
257.056	88.75
257.289	78.75
257.521	81.75
257.754	88.75
257.987	88.75
258.22	70.75
258.452	78.75
258.685	73.75
258.918	78.75
259.151	76.75
259.383	82.75
259.616	88.75
259.849	88.75
260.081	77.75
260.314	74.75
260.547	82.75
260.779	88.75
261.012	80.75
261.244	77.75
261.477	82.75
261.71	93.75
261.942	94.75
262.175	98.75
262.407	87.75
262.64	83.75
262.872	73.75
263.105	77.75
263.337	81.75
263.57	84.75
263.802	79.75
264.035	86.75
264.267	84.75
264.499	88.75
264.732	86.75
264.964	77.75
265.197	78.75
265.429	78.75
265.661	71.75
265.894	72.75
266.126	88.75
266.358	92.75
266.591	83.75
266.823	80.75
267.055	87.75
267.287	87.75
267.52	68.75
267.752	73.75
267.984	83.75
268.216	84.75
268.448	75.75
268.681	75.75
268.913	73.75
269.145	81.75
269.377	82.75
269.609	79.75
269.841	85.75
270.073	84.75
270.306	82.75
270.538	93.75
270.77	85.75
271.002	85.75
271.234	82.75
271.466	83.75
271.698	90.75
271.93	89.75
272.162	77.75
272.394	83.75
272.626	89.75
272.858	76.75
273.09	81.75
273.322	76.75
273.553	80.75
273.785	88.75
274.017	91.75
274.249	84.75
274.481	71.75
274.713	80.75
274.945	85.75
275.176	75.75
275.408	82.75
275.64	77.75
275.872	71.75
276.104	90.75
276.335	86.75
276.567	95.75
276.799	100.75
277.031	90.75
277.262	88.75
277.494	93.75
277.726	82.75
277.957	72.75
278.189	84.75
278.421	75.75
278.652	79.75
278.884	83.75
279.115	80.75
279.347	82.75
279.579	74.75
279.81	86.75
280.042	82.75
280.273	94.75
280.505	86.75
280.736	94.75
280.968	88.75
281.199	86.75
281.431	77.75
281.662	71.75
281.894	88.75
282.125	89.75
282.356	103.75
282.588	112.75
282.819	112.75
283.051	84.75
283.282	86.75
283.513	88.75
283.745	81.75
283.976	81.75
284.207	76.75
284.439	85.75
284.67	91.75
284.901	87.75
285.132	88.75
285.364	75.75
285.595	93.75
285.826	73.75
286.057	76.75
286.288	74.75
286.52	80.75
286.751	93.75
286.982	82.75
287.213	61.75
287.444	92.75
287.675	82.75
287.906	81.75
288.138	89.75
288.369	70.75
288.6	90.75
288.831	88.75
289.062	94.75
289.293	76.75
289.524	82.75
289.755	87.75
289.986	88.75
290.217	76.75
290.448	73.75
290.679	74.75
290.91	94.75
291.141	98.75
291.371	86.75
291.602	85.75
291.833	97.75
292.064	94.75
292.295	96.75
292.526	80.75
292.757	88.75
292.987	98.75
293.218	88.75
293.449	85.75
293.68	79.75
293.91	81.75
294.141	93.75
294.372	85.75
294.603	98.75
294.833	80.75
295.064	85.75
295.295	78.75
295.525	79.75
295.756	85.75
295.987	113.75
296.217	126.75
296.448	112.75
296.679	87.75
296.909	80.75
297.14	105.75
297.37	86.75
297.601	100.75
297.831	86.75
298.062	98.75
298.292	89.75
298.523	97.75
298.753	77.75
298.984	93.75
299.214	84.75
299.445	93.75
299.675	92.75
299.905	93.75
300.136	94.75
300.366	95.75
300.597	88.75
300.827	82.75
301.057	86.75
301.288	96.75
301.518	94.75
301.748	87.75
301.979	83.75
302.209	70.75
302.439	85.75
302.669	74.75
302.9	91.75
303.13	86.75
303.36	88.75
303.59	105.75
303.82	114.75
304.051	97.75
304.281	88.75
304.511	75.75
304.741	93.75
304.971	103.75
305.201	93.75
305.431	71.75
305.661	83.75
305.891	88.75
306.121	93.75
306.352	105.75
306.582	100.75
306.812	105.75
307.042	99.75
307.272	83.75
307.502	90.75
307.731	85.75
307.961	99.75
308.191	91.75
308.421	96.75
308.651	93.75
308.881	86.75
309.111	92.75
309.341	86.75
309.571	97.75
309.8	97.75
310.03	106.75
310.26	78.75
310.49	89.75
310.72	102.75
310.949	104.75
311.179	87.75
311.409	88.75
311.639	82.75
311.868	92.75
312.098	79.75
312.328	86.75
312.557	96.75
312.787	90.75
313.017	97.75
313.246	98.75
313.476	80.75
313.706	78.75
313.935	88.75
314.165	94.75
314.394	84.75
314.624	89.75
314.853	92.75
315.083	85.75
315.312	85.75
315.542	83.75
315.771	98.75
316.001	92.75
316.23	92.75
316.46	84.75
316.689	79.75
316.919	87.75
317.148	95.75
317.377	103.75
317.607	103.75
317.836	94.75
318.065	85.75
318.295	81.75
318.524	82.75
318.753	92.75
318.983	88.75
319.212	92.75
319.441	101.75
319.67	112.75
319.9	101.75
320.129	91.75
320.358	100.75
320.587	90.75
320.816	92.75
321.046	92.75
321.275	96.75
321.504	93.75
321.733	82.75
321.962	87.75
322.191	104.75
322.42	98.75
322.649	109.75
322.878	94.75
323.108	108.75
323.337	115.75
323.566	122.75
323.795	127.75
324.024	181.75
324.253	339.75
324.482	675.75
324.71	1361.75
324.939	1771.75
325.168	653.75
325.397	210.75
325.626	128.75
325.855	120.75
326.084	121.75
326.313	112.75
326.542	130.75
326.77	211.75
326.999	400.75
327.228	791.75
327.457	1390.75
327.686	1124.75
327.914	335.75
328.143	179.75
328.372	122.75
328.6	121.75
328.829	107.75
329.058	115.75
329.287	126.75
329.515	117.75
329.744	101.75
329.972	94.75
330.201	114.75
330.43	113.75
330.658	105.75
330.887	132.75
331.115	109.75
331.344	92.75
331.572	91.75
331.801	86.75
332.03	103.75
332.258	103.75
332.486	90.75
332.715	100.75
332.943	98.75
333.172	94.75
333.4	96.75
333.629	95.75
333.857	90.75
334.085	96.75
334.314	106.75
334.542	95.75
334.771	97.75
334.999	97.75
335.227	91.75
335.455	93.75
335.684	94.75
335.912	94.75
336.14	94.75
336.369	81.75
336.597	93.75
336.825	96.75
337.053	81.75
337.281	99.75
337.51	84.75
337.738	93.75
337.966	95.75
338.194	93.75
338.422	97.75
338.65	94.75
338.878	87.75
339.106	96.75
339.334	102.75
339.562	86.75
339.79	94.75
340.018	104.75
340.246	80.75
340.474	85.75
340.702	88.75
340.93	99.75
341.158	95.75
341.386	100.75
341.614	101.75
341.842	102.75
342.07	92.75
342.298	101.75
342.526	100.75
342.754	88.75
342.981	90.75
343.209	88.75
343.437	83.75
343.665	95.75
343.893	83.75
344.12	93.75
344.348	91.75
344.576	96.75
344.804	101.75
345.031	86.75
345.259	81.75
345.487	107.75
345.714	81.75
345.942	91.75
346.17	113.75
346.397	91.75
346.625	93.75
346.853	93.75
347.08	91.75
347.308	82.75
347.535	97.75
347.763	101.75
347.99	88.75
348.218	77.75
348.445	94.75
348.673	89.75
348.9	82.75
349.128	83.75
349.355	100.75
349.583	77.75
349.81	85.75
350.037	87.75
350.265	98.75
350.492	89.75
350.72	76.75
350.947	94.75
351.174	95.75
351.402	100.75
351.629	97.75
351.856	94.75
352.083	82.75
352.311	112.75
352.538	102.75
352.765	110.75
352.992	99.75
353.22	109.75
353.447	96.75
353.674	101.75
353.901	100.75
354.128	89.75
354.355	100.75
354.583	99.75
354.81	92.75
355.037	98.75
355.264	94.75
355.491	101.75
355.718	89.75
355.945	85.75
356.172	91.75
356.399	103.75
356.626	90.75
356.853	86.75
357.08	90.75
357.307	112.75
357.534	88.75
357.761	88.75
357.988	92.75
358.215	90.75
358.441	97.75
358.668	86.75
358.895	86.75
359.122	96.75
359.349	93.75
359.576	78.75
359.802	93.75
360.029	86.75
360.256	89.75
360.483	104.75
360.709	79.75
360.936	95.75
361.163	95.75
361.39	82.75
361.616	95.75
361.843	95.75
362.07	92.75
362.296	93.75
362.523	88.75
362.749	91.75
362.976	79.75
363.203	92.75
363.429	94.75
363.656	90.75
363.882	88.75
364.109	100.75
364.335	105.75
364.562	79.75
364.788	96.75
365.015	102.75
365.241	94.75
365.468	105.75
365.694	106.75
365.92	90.75
366.147	76.75
366.373	78.75
366.599	85.75
366.826	96.75
367.052	80.75
367.278	80.75
367.505	83.75
367.731	86.75
367.957	92.75
368.184	83.75
368.41	85.75
368.636	100.75
368.862	107.75
369.089	107.75
369.315	95.75
369.541	90.75
369.767	86.75
369.993	88.75
370.219	76.75
370.445	92.75
370.672	93.75
370.898	90.75
371.124	91.75
371.35	90.75
371.576	86.75
371.802	89.75
372.028	84.75
372.254	87.75
372.48	77.75
372.706	84.75
372.932	83.75
373.158	87.75
373.384	81.75
373.61	76.75
373.835	81.75
374.061	72.75
374.287	84.75
374.513	91.75
374.739	94.75
374.965	76.75
375.191	79.75
375.416	98.75
375.642	81.75
375.868	90.75
376.094	88.75
376.319	93.75
376.545	81.75
376.771	73.75
376.997	79.75
377.222	93.75
377.448	81.75
377.674	80.75
377.899	77.75
378.125	81.75
378.35	86.75
378.576	88.75
378.802	94.75
379.027	104.75
379.253	97.75
379.478	102.75
379.704	88.75
379.929	88.75
380.155	87.75
380.38	82.75
380.606	92.75
380.831	94.75
381.057	93.75
381.282	85.75
381.507	95.75
381.733	79.75
381.958	97.75
382.184	85.75
382.409	94.75
382.634	95.75
382.86	90.75
383.085	102.75
383.31	101.75
383.535	108.75
383.761	86.75
383.986	113.75
384.211	103.75
384.436	95.75
384.662	99.75
384.887	90.75
385.112	83.75
385.337	98.75
385.562	108.75
385.787	102.75
386.013	111.75
386.238	109.75
386.463	103.75
386.688	113.75
386.913	81.75
387.138	102.75
387.363	104.75
387.588	121.75
387.813	106.75
388.038	97.75
388.263	87.75
388.488	96.75
388.713	103.75
388.938	95.75
389.163	108.75
389.387	113.75
389.612	84.75
389.837	102.75
390.062	88.75
390.287	102.75
390.512	85.75
390.736	93.75
390.961	91.75
391.186	94.75
391.411	81.75
391.636	79.75
391.86	95.75
392.085	79.75
392.31	94.75
392.534	76.75
392.759	91.75
392.984	87.75
393.208	78.75
393.433	74.75
393.658	96.75
393.882	85.75
394.107	84.75
394.331	81.75
394.556	73.75
394.78	96.75
395.005	80.75
395.229	85.75
395.454	76.75
395.678	84.75
395.903	89.75
396.127	87.75
396.352	86.75
396.576	82.75
396.801	86.75
397.025	79.75
397.249	81.75
397.474	96.75
397.698	85.75
397.922	80.75
398.147	76.75
398.371	91.75
398.595	84.75
398.82	82.75
399.044	91.75
399.268	87.75
399.492	82.75
399.717	97.75
399.941	84.75
400.165	102.75
400.389	87.75
400.613	85.75
400.837	88.75
401.062	98.75
401.286	94.75
401.51	96.75
401.734	90.75
401.958	97.75
402.182	119.75
402.406	143.75
402.63	103.75
402.854	89.75
403.078	91.75
403.302	86.75
403.526	88.75
403.75	76.75
403.974	86.75
404.198	77.75
404.422	82.75
404.645	83.75
404.869	88.75
405.093	78.75
405.317	88.75
405.541	101.75
405.765	85.75
405.988	110.75
406.212	148.75
406.436	193.75
406.66	143.75
406.883	78.75
407.107	104.75
407.331	94.75
407.555	96.75
407.778	96.75
408.002	93.75
408.226	94.75
408.449	92.75
408.673	94.75
408.896	95.75
409.12	108.75
409.344	90.75
409.567	94.75
409.791	90.75
410.014	81.75
410.238	91.75
410.461	88.75
410.685	80.75
410.908	97.75
411.132	88.75
411.355	96.75
411.578	87.75
411.802	83.75
412.025	89.75
412.249	93.75
412.472	87.75
412.695	92.75
412.919	90.75
413.142	90.75
413.365	103.75
413.589	100.75
413.812	81.75
414.035	83.75
414.258	90.75
414.482	85.75
414.705	86.75
414.928	97.75
415.151	91.75
415.374	93.75
415.597	97.75
415.821	84.75
416.044	85.75
416.267	92.75
416.49	80.75
416.713	95.75
416.936	84.75
417.159	109.75
417.382	79.75
417.605	92.75
417.828	87.75
418.051	82.75
418.274	106.75
418.497	87.75
418.72	97.75
418.943	81.75
419.166	78.75
419.389	74.75
419.611	86.75
419.834	100.75
420.057	92.75
420.28	98.75
420.503	87.75
420.726	85.75
420.948	78.75
421.171	86.75
421.394	96.75
421.617	85.75
421.839	96.75
422.062	80.75
422.285	81.75
422.507	93.75
422.73	112.75
422.953	95.75
423.175	88.75
423.398	71.75
423.621	80.75
423.843	88.75
424.066	82.75
424.288	90.75
424.511	84.75
424.733	97.75
424.956	98.75
425.178	88.75
425.401	94.75
425.623	98.75
425.846	79.75
426.068	101.75
426.291	96.75
426.513	78.75
426.735	88.75
426.958	94.75
427.18	101.75
427.402	140.75
427.625	127.75
427.847	110.75
428.069	105.75
428.292	86.75
428.514	92.75
428.736	77.75
428.958	88.75
429.181	86.75
429.403	77.75
429.625	90.75
429.847	85.75
430.069	80.75
430.292	88.75
430.514	89.75
430.736	100.75
430.958	69.75
431.18	88.75
431.402	91.75
431.624	84.75
431.846	85.75
432.068	93.75
432.29	91.75
432.512	88.75
432.734	99.75
432.956	93.75
433.178	94.75
433.4	95.75
433.622	84.75
433.844	94.75
434.066	92.75
434.287	86.75
434.509	94.75
434.731	89.75
434.953	92.75
435.175	89.75
435.397	88.75
435.618	85.75
435.84	98.75
436.062	116.75
436.284	103.75
436.505	110.75
436.727	96.75
436.949	81.75
437.17	95.75
437.392	92.75
437.614	97.75
437.835	89.75
438.057	122.75
438.278	93.75
438.5	92.75
438.721	106.75
438.943	76.75
439.165	96.75
439.386	89.75
439.608	109.75
439.829	93.75
440.05	119.75
440.272	119.75
440.493	104.75
440.715	83.75
440.936	90.75
441.158	89.75
441.379	87.75
441.6	79.75
441.822	99.75
442.043	96.75
442.264	94.75
442.486	75.75
442.707	94.75
442.928	96.75
443.149	125.75
443.371	124.75
443.592	102.75
443.813	118.75
444.034	108.75
444.255	95.75
444.476	87.75
444.698	94.75
444.919	81.75
445.14	124.75
445.361	102.75
445.582	111.75
445.803	129.75
446.024	123.75
446.245	111.75
446.466	101.75
446.687	90.75
446.908	92.75
447.129	91.75
447.35	90.75
447.571	92.75
447.792	80.75
448.013	104.75
448.234	99.75
448.455	87.75
448.675	104.75
448.896	121.75
449.117	98.75
449.338	92.75
449.559	114.75
449.779	125.75
450	91.75
450.221	85.75
450.442	82.75
450.662	104.75
450.883	79.75
451.104	99.75
451.324	86.75
451.545	82.75
451.766	86.75
451.986	87.75
452.207	84.75
452.428	86.75
452.648	98.75
452.869	95.75
453.089	96.75
453.31	93.75
453.53	92.75
453.751	90.75
453.971	96.75
454.192	92.75
454.412	100.75
454.633	86.75
454.853	82.75
455.073	87.75
455.294	82.75
455.514	98.75
455.734	88.75
455.955	80.75
456.175	92.75
456.395	85.75
456.616	82.75
456.836	97.75
457.056	81.75
457.276	89.75
457.497	74.75
457.717	87.75
457.937	84.75
458.157	97.75
458.377	92.75
458.598	95.75
458.818	141.75
459.038	134.75
459.258	106.75
459.478	86.75
459.698	82.75
459.918	96.75
460.138	85.75
460.358	87.75
460.578	80.75
460.798	90.75
461.018	79.75
461.238	76.75
461.458	90.75
461.678	89.75
461.898	76.75
462.118	91.75
462.338	81.75
462.558	79.75
462.777	88.75
462.997	85.75
463.217	87.75
463.437	93.75
463.657	86.75
463.876	83.75
464.096	91.75
464.316	94.75
464.536	98.75
464.755	90.75
464.975	86.75
465.195	129.75
465.414	148.75
465.634	89.75
465.854	79.75
466.073	86.75
466.293	93.75
466.512	81.75
466.732	75.75
466.951	97.75
467.171	90.75
467.391	78.75
467.61	100.75
467.829	80.75
468.049	98.75
468.268	94.75
468.488	88.75
468.707	84.75
468.927	78.75
469.146	79.75
469.365	86.75
469.585	87.75
469.804	90.75
470.023	90.75
470.243	78.75
470.462	100.75
470.681	89.75
470.901	91.75
471.12	66.75
471.339	84.75
471.558	91.75
471.777	81.75
471.997	90.75
472.216	89.75
472.435	95.75
472.654	77.75
472.873	97.75
473.092	74.75
473.311	94.75
473.53	77.75
473.749	93.75
473.968	105.75
474.187	104.75
474.406	95.75
474.625	76.75
474.844	75.75
475.063	77.75
475.282	93.75
475.501	89.75
475.72	94.75
475.939	91.75
476.158	89.75
476.377	83.75
476.596	83.75
476.814	86.75
477.033	94.75
477.252	91.75
477.471	73.75
477.69	75.75
477.908	92.75
478.127	81.75
478.346	86.75
478.564	72.75
478.783	109.75
479.002	76.75
479.22	78.75
479.439	94.75
479.658	88.75
479.876	81.75
480.095	85.75
480.313	99.75
480.532	96.75
480.751	93.75
480.969	90.75
481.188	96.75
481.406	84.75
481.624	74.75
481.843	87.75
482.061	80.75
482.28	84.75
482.498	84.75
482.717	92.75
482.935	70.75
483.153	97.75
483.372	94.75
483.59	95.75
483.808	85.75
484.027	94.75
484.245	97.75
484.463	100.75
484.681	92.75
484.9	87.75
485.118	86.75
485.336	100.75
485.554	104.75
485.772	100.75
485.99	93.75
486.209	104.75
486.427	108.75
486.645	94.75
486.863	96.75
487.081	94.75
487.299	99.75
487.517	96.75
487.735	86.75
487.953	95.75
488.171	80.75
488.389	85.75
488.607	100.75
488.825	88.75
489.043	98.75
489.261	96.75
489.479	92.75
489.696	104.75
489.914	96.75
490.132	92.75
490.35	85.75
490.568	70.75
490.786	84.75
491.003	92.75
491.221	96.75
491.439	100.75
491.657	93.75
491.874	84.75
492.092	85.75
492.31	99.75
492.527	80.75
492.745	103.75
492.963	88.75
493.18	91.75
493.398	87.75
493.615	94.75
493.833	100.75
494.05	97.75
494.268	82.75
494.485	87.75
494.703	94.75
494.92	77.75
495.138	80.75
495.355	92.75
495.573	92.75
495.79	80.75
496.008	97.75
496.225	89.75
496.442	84.75
496.66	90.75
496.877	92.75
497.094	91.75
497.312	93.75
497.529	92.75
497.746	102.75
497.963	82.75
498.181	84.75
498.398	88.75
498.615	89.75
498.832	99.75
499.049	99.75
499.267	93.75
499.484	106.75
499.701	84.75
499.918	75.75
500.135	92.75
500.352	96.75
500.569	75.75
500.786	92.75
501.003	92.75
501.22	82.75
501.437	89.75
501.654	74.75
501.871	90.75
502.088	94.75
502.305	83.75
502.522	97.75
502.739	98.75
502.956	90.75
503.172	90.75
503.389	93.75
503.606	106.75
503.823	92.75
504.04	88.75
504.256	86.75
504.473	89.75
504.69	75.75
504.907	86.75
505.123	86.75
505.34	85.75
505.557	91.75
505.773	85.75
505.99	100.75
506.207	93.75
506.423	92.75
506.64	82.75
506.856	90.75
507.073	101.75
507.289	98.75
507.506	84.75
507.722	95.75
507.939	105.75
508.155	94.75
508.372	103.75
508.588	86.75
508.805	103.75
509.021	86.75
509.238	102.75
509.454	106.75
509.67	108.75
509.887	99.75
510.103	113.75
510.319	188.75
510.536	623.75
510.752	1906.75
510.968	543.75
511.184	132.75
511.401	88.75
511.617	82.75
511.833	89.75
512.049	97.75
512.265	102.75
512.481	87.75
512.698	98.75
512.914	70.75
513.13	82.75
513.346	82.75
513.562	100.75
513.778	94.75
513.994	93.75
514.21	90.75
514.426	100.75
514.642	124.75
514.858	101.75
515.074	150.75
515.29	373.75
515.506	1144.75
515.721	429.75
515.937	136.75
516.153	113.75
516.369	99.75
516.585	90.75
516.801	83.75
517.016	100.75
