Data from Uncirc_1998_H10_HRD10591_00065.txt Node
Date: Wed Jan 03 11:25:37 EST 2024
User: Yrep
Spectrometer: HR+D1059
Trigger mode: 1
Integration Time (sec): 1.000000E-1
Scans to average: 1
Electric dark correction enabled: true
Nonlinearity correction enabled: false
Boxcar width: 0
XAxis mode: Wavelengths
Number of Pixels in Spectrum: 2048
>>>>>Begin Spectral Data<<<<<
223.165	-20.44
223.4	-20.44
223.635	-20.44
223.869	-12.44
224.104	-18.44
224.338	-8.44
224.573	-26.44
224.808	-18.44
225.042	-4.44
225.277	-13.44
225.511	-0.44
225.746	11.56
225.98	2.56
226.215	17.56
226.449	25.56
226.683	21.56
226.918	22.56
227.152	21.56
227.387	46.56
227.621	52.56
227.856	34.56
228.09	48.56
228.324	50.56
228.559	56.56
228.793	67.56
229.027	60.56
229.262	53.56
229.496	80.56
229.73	81.56
229.964	84.56
230.199	89.56
230.433	74.56
230.667	67.56
230.901	75.56
231.136	80.56
231.37	81.56
231.604	94.56
231.838	95.56
232.072	83.56
232.306	73.56
232.541	86.56
232.775	81.56
233.009	73.56
233.243	73.56
233.477	78.56
233.711	73.56
233.945	95.56
234.179	73.56
234.413	87.56
234.647	83.56
234.881	75.56
235.115	63.56
235.349	90.56
235.583	78.56
235.817	81.56
236.051	82.56
236.285	76.56
236.519	78.56
236.753	65.56
236.987	76.56
237.221	98.56
237.455	84.56
237.689	77.56
237.922	67.56
238.156	85.56
238.39	73.56
238.624	84.56
238.858	81.56
239.091	80.56
239.325	69.56
239.559	62.56
239.793	81.56
240.027	91.56
240.26	80.56
240.494	77.56
240.728	76.56
240.961	87.56
241.195	84.56
241.429	79.56
241.662	58.56
241.896	76.56
242.13	77.56
242.363	72.56
242.597	71.56
242.83	79.56
243.064	85.56
243.298	66.56
243.531	78.56
243.765	78.56
243.998	89.56
244.232	79.56
244.465	97.56
244.699	92.56
244.932	75.56
245.166	81.56
245.399	86.56
245.633	79.56
245.866	83.56
246.099	82.56
246.333	71.56
246.566	79.56
246.8	79.56
247.033	93.56
247.266	100.56
247.5	82.56
247.733	74.56
247.966	68.56
248.2	77.56
248.433	80.56
248.666	83.56
248.899	77.56
249.133	75.56
249.366	86.56
249.599	92.56
249.832	89.56
250.066	101.56
250.299	84.56
250.532	85.56
250.765	77.56
250.998	84.56
251.231	82.56
251.465	85.56
251.698	81.56
251.931	82.56
252.164	74.56
252.397	92.56
252.63	80.56
252.863	92.56
253.096	72.56
253.329	79.56
253.562	91.56
253.795	73.56
254.028	81.56
254.261	76.56
254.494	84.56
254.727	80.56
254.96	66.56
255.193	75.56
255.426	78.56
255.659	87.56
255.892	84.56
256.124	90.56
256.357	76.56
256.59	82.56
256.823	81.56
257.056	67.56
257.289	84.56
257.521	81.56
257.754	70.56
257.987	91.56
258.22	85.56
258.452	87.56
258.685	84.56
258.918	85.56
259.151	81.56
259.383	87.56
259.616	85.56
259.849	80.56
260.081	87.56
260.314	79.56
260.547	90.56
260.779	92.56
261.012	93.56
261.244	83.56
261.477	88.56
261.71	100.56
261.942	107.56
262.175	103.56
262.407	92.56
262.64	99.56
262.872	83.56
263.105	97.56
263.337	87.56
263.57	87.56
263.802	83.56
264.035	86.56
264.267	87.56
264.499	73.56
264.732	83.56
264.964	80.56
265.197	82.56
265.429	77.56
265.661	87.56
265.894	87.56
266.126	83.56
266.358	81.56
266.591	88.56
266.823	106.56
267.055	85.56
267.287	96.56
267.52	74.56
267.752	77.56
267.984	90.56
268.216	84.56
268.448	83.56
268.681	87.56
268.913	92.56
269.145	91.56
269.377	77.56
269.609	68.56
269.841	71.56
270.073	91.56
270.306	83.56
270.538	76.56
270.77	72.56
271.002	79.56
271.234	84.56
271.466	106.56
271.698	87.56
271.93	88.56
272.162	81.56
272.394	84.56
272.626	92.56
272.858	93.56
273.09	86.56
273.322	105.56
273.553	90.56
273.785	96.56
274.017	97.56
274.249	90.56
274.481	108.56
274.713	83.56
274.945	96.56
275.176	89.56
275.408	84.56
275.64	84.56
275.872	104.56
276.104	83.56
276.335	98.56
276.567	100.56
276.799	97.56
277.031	96.56
277.262	87.56
277.494	83.56
277.726	85.56
277.957	77.56
278.189	86.56
278.421	100.56
278.652	87.56
278.884	93.56
279.115	92.56
279.347	88.56
279.579	96.56
279.81	91.56
280.042	88.56
280.273	80.56
280.505	91.56
280.736	89.56
280.968	90.56
281.199	90.56
281.431	86.56
281.662	88.56
281.894	93.56
282.125	101.56
282.356	116.56
282.588	122.56
282.819	106.56
283.051	95.56
283.282	93.56
283.513	99.56
283.745	96.56
283.976	105.56
284.207	91.56
284.439	92.56
284.67	93.56
284.901	89.56
285.132	89.56
285.364	63.56
285.595	91.56
285.826	88.56
286.057	92.56
286.288	93.56
286.52	101.56
286.751	79.56
286.982	80.56
287.213	84.56
287.444	90.56
287.675	89.56
287.906	96.56
288.138	100.56
288.369	98.56
288.6	98.56
288.831	83.56
289.062	95.56
289.293	97.56
289.524	82.56
289.755	88.56
289.986	88.56
290.217	85.56
290.448	80.56
290.679	102.56
290.91	87.56
291.141	69.56
291.371	91.56
291.602	93.56
291.833	98.56
292.064	94.56
292.295	97.56
292.526	85.56
292.757	86.56
292.987	84.56
293.218	81.56
293.449	86.56
293.68	95.56
293.91	80.56
294.141	98.56
294.372	88.56
294.603	101.56
294.833	80.56
295.064	99.56
295.295	109.56
295.525	104.56
295.756	98.56
295.987	116.56
296.217	110.56
296.448	114.56
296.679	85.56
296.909	84.56
297.14	89.56
297.37	96.56
297.601	82.56
297.831	100.56
298.062	89.56
298.292	92.56
298.523	97.56
298.753	96.56
298.984	97.56
299.214	88.56
299.445	89.56
299.675	88.56
299.905	96.56
300.136	106.56
300.366	73.56
300.597	84.56
300.827	88.56
301.057	117.56
301.288	99.56
301.518	96.56
301.748	102.56
301.979	94.56
302.209	84.56
302.439	86.56
302.669	80.56
302.9	87.56
303.13	92.56
303.36	89.56
303.59	108.56
303.82	96.56
304.051	92.56
304.281	95.56
304.511	92.56
304.741	89.56
304.971	93.56
305.201	95.56
305.431	78.56
305.661	85.56
305.891	87.56
306.121	91.56
306.352	90.56
306.582	104.56
306.812	95.56
307.042	68.56
307.272	88.56
307.502	88.56
307.731	92.56
307.961	89.56
308.191	98.56
308.421	69.56
308.651	92.56
308.881	96.56
309.111	100.56
309.341	89.56
309.571	89.56
309.8	88.56
310.03	105.56
310.26	90.56
310.49	92.56
310.72	93.56
310.949	98.56
311.179	90.56
311.409	83.56
311.639	87.56
311.868	87.56
312.098	99.56
312.328	108.56
312.557	98.56
312.787	107.56
313.017	105.56
313.246	91.56
313.476	78.56
313.706	90.56
313.935	97.56
314.165	100.56
314.394	94.56
314.624	88.56
314.853	94.56
315.083	97.56
315.312	105.56
315.542	97.56
315.771	88.56
316.001	87.56
316.23	89.56
316.46	91.56
316.689	101.56
316.919	97.56
317.148	93.56
317.377	101.56
317.607	99.56
317.836	98.56
318.065	95.56
318.295	89.56
318.524	92.56
318.753	97.56
318.983	94.56
319.212	93.56
319.441	100.56
319.67	99.56
319.9	102.56
320.129	87.56
320.358	95.56
320.587	90.56
320.816	86.56
321.046	97.56
321.275	97.56
321.504	96.56
321.733	101.56
321.962	96.56
322.191	98.56
322.42	113.56
322.649	106.56
322.878	107.56
323.108	105.56
323.337	125.56
323.566	120.56
323.795	123.56
324.024	203.56
324.253	327.56
324.482	693.56
324.71	1411.56
324.939	1857.56
325.168	684.56
325.397	212.56
325.626	152.56
325.855	122.56
326.084	125.56
326.313	108.56
326.542	134.56
326.77	216.56
326.999	374.56
327.228	841.56
327.457	1432.56
327.686	1137.56
327.914	319.56
328.143	177.56
328.372	141.56
328.6	123.56
328.829	113.56
329.058	123.56
329.287	126.56
329.515	97.56
329.744	95.56
329.972	100.56
330.201	91.56
330.43	106.56
330.658	111.56
330.887	129.56
331.115	113.56
331.344	85.56
331.572	97.56
331.801	88.56
332.03	98.56
332.258	100.56
332.486	102.56
332.715	105.56
332.943	101.56
333.172	105.56
333.4	107.56
333.629	92.56
333.857	98.56
334.085	100.56
334.314	85.56
334.542	87.56
334.771	96.56
334.999	101.56
335.227	97.56
335.455	89.56
335.684	113.56
335.912	104.56
336.14	99.56
336.369	86.56
336.597	103.56
336.825	82.56
337.053	90.56
337.281	95.56
337.51	79.56
337.738	74.56
337.966	94.56
338.194	96.56
338.422	102.56
338.65	98.56
338.878	89.56
339.106	81.56
339.334	87.56
339.562	77.56
339.79	82.56
340.018	88.56
340.246	98.56
340.474	81.56
340.702	99.56
340.93	91.56
341.158	89.56
341.386	94.56
341.614	101.56
341.842	100.56
342.07	90.56
342.298	100.56
342.526	97.56
342.754	87.56
342.981	91.56
343.209	87.56
343.437	88.56
343.665	82.56
343.893	94.56
344.12	99.56
344.348	102.56
344.576	94.56
344.804	95.56
345.031	94.56
345.259	96.56
345.487	97.56
345.714	84.56
345.942	94.56
346.17	103.56
346.397	80.56
346.625	87.56
346.853	112.56
347.08	98.56
347.308	91.56
347.535	80.56
347.763	84.56
347.99	93.56
348.218	98.56
348.445	105.56
348.673	108.56
348.9	98.56
349.128	99.56
349.355	87.56
349.583	100.56
349.81	96.56
350.037	102.56
350.265	108.56
350.492	99.56
350.72	94.56
350.947	110.56
351.174	96.56
351.402	106.56
351.629	94.56
351.856	89.56
352.083	115.56
352.311	97.56
352.538	112.56
352.765	122.56
352.992	113.56
353.22	111.56
353.447	107.56
353.674	98.56
353.901	92.56
354.128	87.56
354.355	102.56
354.583	102.56
354.81	101.56
355.037	109.56
355.264	92.56
355.491	97.56
355.718	106.56
355.945	92.56
356.172	76.56
356.399	97.56
356.626	95.56
356.853	91.56
357.08	84.56
357.307	100.56
357.534	87.56
357.761	78.56
357.988	96.56
358.215	95.56
358.441	93.56
358.668	97.56
358.895	90.56
359.122	71.56
359.349	101.56
359.576	98.56
359.802	91.56
360.029	120.56
360.256	107.56
360.483	100.56
360.709	99.56
360.936	91.56
361.163	87.56
361.39	97.56
361.616	94.56
361.843	84.56
362.07	83.56
362.296	92.56
362.523	80.56
362.749	80.56
362.976	105.56
363.203	91.56
363.429	101.56
363.656	83.56
363.882	86.56
364.109	90.56
364.335	98.56
364.562	87.56
364.788	106.56
365.015	100.56
365.241	91.56
365.468	84.56
365.694	110.56
365.92	100.56
366.147	87.56
366.373	82.56
366.599	90.56
366.826	91.56
367.052	88.56
367.278	87.56
367.505	96.56
367.731	96.56
367.957	92.56
368.184	94.56
368.41	97.56
368.636	126.56
368.862	118.56
369.089	101.56
369.315	99.56
369.541	92.56
369.767	100.56
369.993	92.56
370.219	91.56
370.445	76.56
370.672	92.56
370.898	98.56
371.124	94.56
371.35	86.56
371.576	77.56
371.802	87.56
372.028	84.56
372.254	92.56
372.48	84.56
372.706	93.56
372.932	87.56
373.158	92.56
373.384	83.56
373.61	103.56
373.835	89.56
374.061	90.56
374.287	95.56
374.513	105.56
374.739	82.56
374.965	80.56
375.191	67.56
375.416	89.56
375.642	100.56
375.868	98.56
376.094	66.56
376.319	84.56
376.545	95.56
376.771	92.56
376.997	100.56
377.222	88.56
377.448	97.56
377.674	96.56
377.899	85.56
378.125	98.56
378.35	81.56
378.576	77.56
378.802	97.56
379.027	99.56
379.253	90.56
379.478	95.56
379.704	96.56
379.929	91.56
380.155	100.56
380.38	103.56
380.606	93.56
380.831	99.56
381.057	88.56
381.282	96.56
381.507	97.56
381.733	93.56
381.958	98.56
382.184	98.56
382.409	100.56
382.634	101.56
382.86	93.56
383.085	97.56
383.31	91.56
383.535	86.56
383.761	91.56
383.986	91.56
384.211	106.56
384.436	100.56
384.662	107.56
384.887	117.56
385.112	100.56
385.337	98.56
385.562	100.56
385.787	99.56
386.013	105.56
386.238	100.56
386.463	101.56
386.688	113.56
386.913	102.56
387.138	102.56
387.363	102.56
387.588	106.56
387.813	101.56
388.038	98.56
388.263	104.56
388.488	109.56
388.713	108.56
388.938	98.56
389.163	91.56
389.387	88.56
389.612	92.56
389.837	95.56
390.062	87.56
390.287	102.56
390.512	92.56
390.736	96.56
390.961	101.56
391.186	95.56
391.411	89.56
391.636	92.56
391.86	93.56
392.085	89.56
392.31	108.56
392.534	95.56
392.759	107.56
392.984	73.56
393.208	87.56
393.433	95.56
393.658	90.56
393.882	85.56
394.107	88.56
394.331	86.56
394.556	84.56
394.78	87.56
395.005	94.56
395.229	83.56
395.454	96.56
395.678	93.56
395.903	95.56
396.127	112.56
396.352	95.56
396.576	87.56
396.801	111.56
397.025	88.56
397.249	81.56
397.474	104.56
397.698	100.56
397.922	96.56
398.147	99.56
398.371	71.56
398.595	92.56
398.82	93.56
399.044	102.56
399.268	97.56
399.492	101.56
399.717	103.56
399.941	91.56
400.165	99.56
400.389	104.56
400.613	75.56
400.837	95.56
401.062	83.56
401.286	108.56
401.51	91.56
401.734	99.56
401.958	98.56
402.182	126.56
402.406	143.56
402.63	117.56
402.854	80.56
403.078	83.56
403.302	106.56
403.526	89.56
403.75	71.56
403.974	89.56
404.198	92.56
404.422	93.56
404.645	93.56
404.869	101.56
405.093	104.56
405.317	84.56
405.541	92.56
405.765	106.56
405.988	99.56
406.212	139.56
406.436	185.56
406.66	131.56
406.883	96.56
407.107	100.56
407.331	93.56
407.555	104.56
407.778	106.56
408.002	80.56
408.226	88.56
408.449	82.56
408.673	83.56
408.896	103.56
409.12	103.56
409.344	91.56
409.567	92.56
409.791	88.56
410.014	102.56
410.238	96.56
410.461	88.56
410.685	91.56
410.908	120.56
411.132	94.56
411.355	93.56
411.578	96.56
411.802	89.56
412.025	87.56
412.249	83.56
412.472	86.56
412.695	102.56
412.919	88.56
413.142	92.56
413.365	83.56
413.589	89.56
413.812	90.56
414.035	107.56
414.258	90.56
414.482	92.56
414.705	75.56
414.928	84.56
415.151	92.56
415.374	116.56
415.597	84.56
415.821	80.56
416.044	83.56
416.267	82.56
416.49	84.56
416.713	90.56
416.936	102.56
417.159	88.56
417.382	83.56
417.605	87.56
417.828	98.56
418.051	76.56
418.274	83.56
418.497	84.56
418.72	84.56
418.943	89.56
419.166	71.56
419.389	88.56
419.611	81.56
419.834	100.56
420.057	90.56
420.28	89.56
420.503	91.56
420.726	88.56
420.948	106.56
421.171	96.56
421.394	98.56
421.617	84.56
421.839	100.56
422.062	83.56
422.285	85.56
422.507	92.56
422.73	94.56
422.953	84.56
423.175	99.56
423.398	105.56
423.621	89.56
423.843	88.56
424.066	95.56
424.288	85.56
424.511	96.56
424.733	94.56
424.956	111.56
425.178	103.56
425.401	92.56
425.623	106.56
425.846	80.56
426.068	93.56
426.291	95.56
426.513	75.56
426.735	89.56
426.958	95.56
427.18	103.56
427.402	125.56
427.625	127.56
427.847	124.56
428.069	93.56
428.292	82.56
428.514	85.56
428.736	91.56
428.958	81.56
429.181	82.56
429.403	91.56
429.625	85.56
429.847	90.56
430.069	100.56
430.292	103.56
430.514	87.56
430.736	82.56
430.958	77.56
431.18	89.56
431.402	98.56
431.624	100.56
431.846	95.56
432.068	98.56
432.29	90.56
432.512	87.56
432.734	92.56
432.956	95.56
433.178	109.56
433.4	103.56
433.622	98.56
433.844	101.56
434.066	96.56
434.287	94.56
434.509	79.56
434.731	90.56
434.953	83.56
435.175	87.56
435.397	92.56
435.618	96.56
435.84	100.56
436.062	105.56
436.284	113.56
436.505	99.56
436.727	104.56
436.949	87.56
437.17	96.56
437.392	81.56
437.614	82.56
437.835	87.56
438.057	115.56
438.278	98.56
438.5	101.56
438.721	119.56
438.943	87.56
439.165	91.56
439.386	88.56
439.608	103.56
439.829	103.56
440.05	112.56
440.272	135.56
440.493	95.56
440.715	101.56
440.936	84.56
441.158	87.56
441.379	82.56
441.6	91.56
441.822	86.56
442.043	96.56
442.264	99.56
442.486	86.56
442.707	104.56
442.928	98.56
443.149	98.56
443.371	123.56
443.592	98.56
443.813	101.56
444.034	111.56
444.255	82.56
444.476	87.56
444.698	82.56
444.919	87.56
445.14	129.56
445.361	117.56
445.582	111.56
445.803	127.56
446.024	130.56
446.245	120.56
446.466	93.56
446.687	95.56
446.908	92.56
447.129	84.56
447.35	91.56
447.571	105.56
447.792	77.56
448.013	104.56
448.234	90.56
448.455	107.56
448.675	89.56
448.896	107.56
449.117	89.56
449.338	98.56
449.559	124.56
449.779	119.56
450	85.56
450.221	89.56
450.442	107.56
450.662	81.56
450.883	102.56
451.104	110.56
451.324	94.56
451.545	87.56
451.766	86.56
451.986	78.56
452.207	89.56
452.428	87.56
452.648	94.56
452.869	102.56
453.089	107.56
453.31	115.56
453.53	93.56
453.751	90.56
453.971	96.56
454.192	99.56
454.412	105.56
454.633	93.56
454.853	99.56
455.073	85.56
455.294	88.56
455.514	97.56
455.734	92.56
455.955	88.56
456.175	100.56
456.395	90.56
456.616	85.56
456.836	76.56
457.056	99.56
457.276	93.56
457.497	91.56
457.717	73.56
457.937	84.56
458.157	108.56
458.377	105.56
458.598	99.56
458.818	128.56
459.038	156.56
459.258	96.56
459.478	101.56
459.698	79.56
459.918	79.56
460.138	92.56
460.358	89.56
460.578	96.56
460.798	75.56
461.018	91.56
461.238	90.56
461.458	68.56
461.678	93.56
461.898	76.56
462.118	82.56
462.338	84.56
462.558	96.56
462.777	92.56
462.997	94.56
463.217	88.56
463.437	92.56
463.657	99.56
463.876	91.56
464.096	83.56
464.316	104.56
464.536	100.56
464.755	92.56
464.975	95.56
465.195	149.56
465.414	148.56
465.634	89.56
465.854	101.56
466.073	96.56
466.293	88.56
466.512	96.56
466.732	83.56
466.951	92.56
467.171	100.56
467.391	108.56
467.61	101.56
467.829	94.56
468.049	95.56
468.268	85.56
468.488	89.56
468.707	93.56
468.927	95.56
469.146	84.56
469.365	88.56
469.585	90.56
469.804	91.56
470.023	92.56
470.243	90.56
470.462	89.56
470.681	107.56
470.901	87.56
471.12	90.56
471.339	86.56
471.558	86.56
471.777	82.56
471.997	92.56
472.216	79.56
472.435	86.56
472.654	85.56
472.873	84.56
473.092	77.56
473.311	79.56
473.53	89.56
473.749	88.56
473.968	108.56
474.187	96.56
474.406	98.56
474.625	87.56
474.844	104.56
475.063	89.56
475.282	85.56
475.501	103.56
475.72	92.56
475.939	96.56
476.158	93.56
476.377	94.56
476.596	78.56
476.814	87.56
477.033	97.56
477.252	85.56
477.471	100.56
477.69	92.56
477.908	67.56
478.127	92.56
478.346	105.56
478.564	95.56
478.783	107.56
479.002	103.56
479.22	95.56
479.439	106.56
479.658	96.56
479.876	80.56
480.095	92.56
480.313	83.56
480.532	79.56
480.751	88.56
480.969	96.56
481.188	113.56
481.406	107.56
481.624	79.56
481.843	87.56
482.061	73.56
482.28	99.56
482.498	80.56
482.717	83.56
482.935	94.56
483.153	78.56
483.372	73.56
483.59	92.56
483.808	92.56
484.027	92.56
484.245	95.56
484.463	89.56
484.681	95.56
484.9	87.56
485.118	99.56
485.336	105.56
485.554	94.56
485.772	89.56
485.99	80.56
486.209	93.56
486.427	107.56
486.645	111.56
486.863	116.56
487.081	84.56
487.299	84.56
487.517	107.56
487.735	99.56
487.953	88.56
488.171	89.56
488.389	80.56
488.607	112.56
488.825	105.56
489.043	98.56
489.261	90.56
489.479	89.56
489.696	90.56
489.914	105.56
490.132	75.56
490.35	94.56
490.568	98.56
490.786	89.56
491.003	101.56
491.221	85.56
491.439	83.56
491.657	88.56
491.874	95.56
492.092	84.56
492.31	94.56
492.527	91.56
492.745	97.56
492.963	106.56
493.18	95.56
493.398	90.56
493.615	95.56
493.833	107.56
494.05	95.56
494.268	97.56
494.485	91.56
494.703	95.56
494.92	98.56
495.138	88.56
495.355	81.56
495.573	98.56
495.79	89.56
496.008	89.56
496.225	97.56
496.442	92.56
496.66	96.56
496.877	89.56
497.094	95.56
497.312	87.56
497.529	95.56
497.746	89.56
497.963	87.56
498.181	97.56
498.398	98.56
498.615	100.56
498.832	99.56
499.049	95.56
499.267	90.56
499.484	90.56
499.701	85.56
499.918	89.56
500.135	91.56
500.352	90.56
500.569	91.56
500.786	96.56
501.003	98.56
501.22	104.56
501.437	99.56
501.654	94.56
501.871	105.56
502.088	102.56
502.305	91.56
502.522	89.56
502.739	89.56
502.956	79.56
503.172	83.56
503.389	112.56
503.606	101.56
503.823	103.56
504.04	106.56
504.256	96.56
504.473	83.56
504.69	84.56
504.907	92.56
505.123	93.56
505.34	107.56
505.557	100.56
505.773	91.56
505.99	89.56
506.207	82.56
506.423	102.56
506.64	96.56
506.856	98.56
507.073	83.56
507.289	101.56
507.506	106.56
507.722	105.56
507.939	123.56
508.155	99.56
508.372	107.56
508.588	89.56
508.805	101.56
509.021	94.56
509.238	100.56
509.454	89.56
509.67	96.56
509.887	106.56
510.103	134.56
510.319	193.56
510.536	618.56
510.752	1849.56
510.968	524.56
511.184	148.56
511.401	109.56
511.617	107.56
511.833	95.56
512.049	91.56
512.265	95.56
512.481	84.56
512.698	91.56
512.914	95.56
513.13	100.56
513.346	90.56
513.562	90.56
513.778	77.56
513.994	89.56
514.21	100.56
514.426	108.56
514.642	125.56
514.858	128.56
515.074	129.56
515.29	343.56
515.506	1108.56
