Data from Uncirc_1998_H10_HRD10591_00069.txt Node
Date: Wed Jan 03 11:25:38 EST 2024
User: Yrep
Spectrometer: HR+D1059
Trigger mode: 1
Integration Time (sec): 1.000000E-1
Scans to average: 1
Electric dark correction enabled: true
Nonlinearity correction enabled: false
Boxcar width: 0
XAxis mode: Wavelengths
Number of Pixels in Spectrum: 2048
>>>>>Begin Spectral Data<<<<<
223.165	-19.38
223.4	-19.38
223.635	-19.38
223.869	-27.38
224.104	-26.38
224.338	-18.38
224.573	-19.38
224.808	-7.38
225.042	-14.38
225.277	-10.38
225.511	6.62
225.746	5.62
225.98	8.62
226.215	17.62
226.449	13.62
226.683	24.62
226.918	36.62
227.152	29.62
227.387	26.62
227.621	33.62
227.856	50.62
228.09	45.62
228.324	59.62
228.559	50.62
228.793	72.62
229.027	64.62
229.262	59.62
229.496	63.62
229.73	94.62
229.964	91.62
230.199	76.62
230.433	82.62
230.667	74.62
230.901	74.62
231.136	77.62
231.37	75.62
231.604	71.62
231.838	85.62
232.072	76.62
232.306	87.62
232.541	85.62
232.775	84.62
233.009	80.62
233.243	82.62
233.477	83.62
233.711	73.62
233.945	74.62
234.179	76.62
234.413	73.62
234.647	66.62
234.881	76.62
235.115	71.62
235.349	61.62
235.583	87.62
235.817	83.62
236.051	64.62
236.285	75.62
236.519	75.62
236.753	87.62
236.987	80.62
237.221	85.62
237.455	81.62
237.689	82.62
237.922	81.62
238.156	72.62
238.39	67.62
238.624	70.62
238.858	74.62
239.091	71.62
239.325	79.62
239.559	86.62
239.793	84.62
240.027	95.62
240.26	86.62
240.494	91.62
240.728	78.62
240.961	73.62
241.195	75.62
241.429	80.62
241.662	71.62
241.896	83.62
242.13	85.62
242.363	75.62
242.597	66.62
242.83	75.62
243.064	63.62
243.298	67.62
243.531	81.62
243.765	70.62
243.998	65.62
244.232	75.62
244.465	85.62
244.699	76.62
244.932	78.62
245.166	90.62
245.399	63.62
245.633	63.62
245.866	83.62
246.099	83.62
246.333	69.62
246.566	84.62
246.8	83.62
247.033	81.62
247.266	81.62
247.5	93.62
247.733	76.62
247.966	83.62
248.2	73.62
248.433	69.62
248.666	69.62
248.899	75.62
249.133	82.62
249.366	101.62
249.599	97.62
249.832	82.62
250.066	74.62
250.299	83.62
250.532	72.62
250.765	76.62
250.998	86.62
251.231	90.62
251.465	59.62
251.698	85.62
251.931	79.62
252.164	78.62
252.397	72.62
252.63	84.62
252.863	76.62
253.096	76.62
253.329	73.62
253.562	86.62
253.795	87.62
254.028	79.62
254.261	71.62
254.494	84.62
254.727	83.62
254.96	74.62
255.193	76.62
255.426	86.62
255.659	74.62
255.892	81.62
256.124	70.62
256.357	79.62
256.59	95.62
256.823	80.62
257.056	86.62
257.289	79.62
257.521	83.62
257.754	74.62
257.987	82.62
258.22	98.62
258.452	80.62
258.685	81.62
258.918	79.62
259.151	87.62
259.383	68.62
259.616	88.62
259.849	85.62
260.081	75.62
260.314	85.62
260.547	76.62
260.779	71.62
261.012	74.62
261.244	83.62
261.477	86.62
261.71	96.62
261.942	110.62
262.175	108.62
262.407	84.62
262.64	76.62
262.872	64.62
263.105	69.62
263.337	86.62
263.57	75.62
263.802	71.62
264.035	83.62
264.267	74.62
264.499	76.62
264.732	85.62
264.964	88.62
265.197	73.62
265.429	76.62
265.661	69.62
265.894	70.62
266.126	86.62
266.358	87.62
266.591	87.62
266.823	72.62
267.055	86.62
267.287	78.62
267.52	82.62
267.752	83.62
267.984	80.62
268.216	87.62
268.448	79.62
268.681	79.62
268.913	72.62
269.145	76.62
269.377	78.62
269.609	69.62
269.841	87.62
270.073	75.62
270.306	86.62
270.538	72.62
270.77	88.62
271.002	82.62
271.234	82.62
271.466	85.62
271.698	91.62
271.93	91.62
272.162	83.62
272.394	84.62
272.626	75.62
272.858	74.62
273.09	77.62
273.322	67.62
273.553	68.62
273.785	76.62
274.017	75.62
274.249	74.62
274.481	78.62
274.713	79.62
274.945	67.62
275.176	82.62
275.408	78.62
275.64	79.62
275.872	90.62
276.104	88.62
276.335	90.62
276.567	88.62
276.799	105.62
277.031	90.62
277.262	102.62
277.494	94.62
277.726	87.62
277.957	87.62
278.189	81.62
278.421	88.62
278.652	81.62
278.884	75.62
279.115	97.62
279.347	80.62
279.579	86.62
279.81	107.62
280.042	86.62
280.273	82.62
280.505	83.62
280.736	87.62
280.968	75.62
281.199	79.62
281.431	87.62
281.662	83.62
281.894	87.62
282.125	99.62
282.356	127.62
282.588	126.62
282.819	97.62
283.051	91.62
283.282	82.62
283.513	89.62
283.745	80.62
283.976	83.62
284.207	89.62
284.439	86.62
284.67	96.62
284.901	96.62
285.132	86.62
285.364	83.62
285.595	87.62
285.826	81.62
286.057	82.62
286.288	79.62
286.52	78.62
286.751	87.62
286.982	80.62
287.213	93.62
287.444	85.62
287.675	83.62
287.906	77.62
288.138	73.62
288.369	88.62
288.6	100.62
288.831	78.62
289.062	83.62
289.293	88.62
289.524	82.62
289.755	74.62
289.986	94.62
290.217	82.62
290.448	74.62
290.679	90.62
290.91	86.62
291.141	82.62
291.371	81.62
291.602	88.62
291.833	101.62
292.064	88.62
292.295	82.62
292.526	87.62
292.757	91.62
292.987	99.62
293.218	71.62
293.449	86.62
293.68	83.62
293.91	86.62
294.141	86.62
294.372	83.62
294.603	86.62
294.833	86.62
295.064	90.62
295.295	89.62
295.525	91.62
295.756	87.62
295.987	115.62
296.217	137.62
296.448	120.62
296.679	98.62
296.909	69.62
297.14	97.62
297.37	81.62
297.601	73.62
297.831	77.62
298.062	92.62
298.292	79.62
298.523	91.62
298.753	68.62
298.984	77.62
299.214	90.62
299.445	80.62
299.675	102.62
299.905	83.62
300.136	98.62
300.366	69.62
300.597	83.62
300.827	103.62
301.057	81.62
301.288	93.62
301.518	95.62
301.748	90.62
301.979	92.62
302.209	75.62
302.439	81.62
302.669	79.62
302.9	78.62
303.13	90.62
303.36	98.62
303.59	90.62
303.82	105.62
304.051	87.62
304.281	89.62
304.511	94.62
304.741	90.62
304.971	74.62
305.201	99.62
305.431	78.62
305.661	85.62
305.891	76.62
306.121	103.62
306.352	100.62
306.582	94.62
306.812	97.62
307.042	89.62
307.272	79.62
307.502	94.62
307.731	86.62
307.961	98.62
308.191	95.62
308.421	95.62
308.651	97.62
308.881	91.62
309.111	77.62
309.341	93.62
309.571	91.62
309.8	89.62
310.03	91.62
310.26	96.62
310.49	105.62
310.72	105.62
310.949	91.62
311.179	88.62
311.409	96.62
311.639	95.62
311.868	102.62
312.098	96.62
312.328	90.62
312.557	94.62
312.787	102.62
313.017	96.62
313.246	91.62
313.476	82.62
313.706	90.62
313.935	90.62
314.165	92.62
314.394	99.62
314.624	88.62
314.853	82.62
315.083	80.62
315.312	84.62
315.542	80.62
315.771	94.62
316.001	70.62
316.23	91.62
316.46	86.62
316.689	91.62
316.919	88.62
317.148	86.62
317.377	91.62
317.607	97.62
317.836	79.62
318.065	78.62
318.295	85.62
318.524	88.62
318.753	92.62
318.983	93.62
319.212	80.62
319.441	84.62
319.67	95.62
319.9	80.62
320.129	91.62
320.358	97.62
320.587	83.62
320.816	98.62
321.046	94.62
321.275	81.62
321.504	108.62
321.733	95.62
321.962	95.62
322.191	107.62
322.42	97.62
322.649	99.62
322.878	105.62
323.108	120.62
323.337	105.62
323.566	135.62
323.795	153.62
324.024	226.62
324.253	426.62
324.482	932.62
324.71	1927.62
324.939	2489.62
325.168	934.62
325.397	257.62
325.626	163.62
325.855	144.62
326.084	117.62
326.313	117.62
326.542	162.62
326.77	234.62
326.999	502.62
327.228	1064.62
327.457	1912.62
327.686	1531.62
327.914	410.62
328.143	210.62
328.372	130.62
328.6	120.62
328.829	120.62
329.058	116.62
329.287	115.62
329.515	100.62
329.744	93.62
329.972	98.62
330.201	108.62
330.43	103.62
330.658	127.62
330.887	132.62
331.115	114.62
331.344	106.62
331.572	95.62
331.801	102.62
332.03	93.62
332.258	101.62
332.486	90.62
332.715	102.62
332.943	105.62
333.172	87.62
333.4	88.62
333.629	93.62
333.857	108.62
334.085	108.62
334.314	108.62
334.542	107.62
334.771	101.62
334.999	94.62
335.227	99.62
335.455	100.62
335.684	78.62
335.912	95.62
336.14	95.62
336.369	94.62
336.597	102.62
336.825	86.62
337.053	92.62
337.281	86.62
337.51	75.62
337.738	100.62
337.966	101.62
338.194	100.62
338.422	106.62
338.65	90.62
338.878	88.62
339.106	91.62
339.334	103.62
339.562	78.62
339.79	90.62
340.018	86.62
340.246	81.62
340.474	103.62
340.702	82.62
340.93	87.62
341.158	95.62
341.386	102.62
341.614	106.62
341.842	87.62
342.07	79.62
342.298	80.62
342.526	87.62
342.754	85.62
342.981	78.62
343.209	89.62
343.437	95.62
343.665	98.62
343.893	82.62
344.12	99.62
344.348	91.62
344.576	85.62
344.804	95.62
345.031	92.62
345.259	76.62
345.487	93.62
345.714	82.62
345.942	79.62
346.17	98.62
346.397	91.62
346.625	78.62
346.853	84.62
347.08	77.62
347.308	82.62
347.535	87.62
347.763	106.62
347.99	110.62
348.218	96.62
348.445	99.62
348.673	101.62
348.9	92.62
349.128	90.62
349.355	89.62
349.583	76.62
349.81	72.62
350.037	95.62
350.265	95.62
350.492	91.62
350.72	85.62
350.947	106.62
351.174	102.62
351.402	100.62
351.629	96.62
351.856	92.62
352.083	93.62
352.311	99.62
352.538	113.62
352.765	116.62
352.992	113.62
353.22	116.62
353.447	96.62
353.674	109.62
353.901	93.62
354.128	85.62
354.355	84.62
354.583	97.62
354.81	79.62
355.037	92.62
355.264	87.62
355.491	90.62
355.718	84.62
355.945	86.62
356.172	96.62
356.399	104.62
356.626	91.62
356.853	86.62
357.08	89.62
357.307	89.62
357.534	77.62
357.761	89.62
357.988	92.62
358.215	96.62
358.441	101.62
358.668	85.62
358.895	94.62
359.122	85.62
359.349	90.62
359.576	88.62
359.802	99.62
360.029	100.62
360.256	110.62
360.483	103.62
360.709	91.62
360.936	92.62
361.163	85.62
361.39	90.62
361.616	91.62
361.843	83.62
362.07	96.62
362.296	95.62
362.523	87.62
362.749	83.62
362.976	90.62
363.203	90.62
363.429	88.62
363.656	94.62
363.882	82.62
364.109	88.62
364.335	93.62
364.562	89.62
364.788	97.62
365.015	104.62
365.241	91.62
365.468	104.62
365.694	100.62
365.92	98.62
366.147	75.62
366.373	94.62
366.599	86.62
366.826	76.62
367.052	67.62
367.278	83.62
367.505	73.62
367.731	78.62
367.957	104.62
368.184	87.62
368.41	106.62
368.636	124.62
368.862	114.62
369.089	100.62
369.315	88.62
369.541	87.62
369.767	77.62
369.993	79.62
370.219	91.62
370.445	92.62
370.672	90.62
370.898	83.62
371.124	88.62
371.35	91.62
371.576	90.62
371.802	78.62
372.028	89.62
372.254	82.62
372.48	95.62
372.706	83.62
372.932	95.62
373.158	86.62
373.384	99.62
373.61	82.62
373.835	87.62
374.061	88.62
374.287	92.62
374.513	88.62
374.739	92.62
374.965	98.62
375.191	83.62
375.416	98.62
375.642	85.62
375.868	80.62
376.094	83.62
376.319	80.62
376.545	89.62
376.771	99.62
376.997	98.62
377.222	76.62
377.448	95.62
377.674	82.62
377.899	87.62
378.125	92.62
378.35	94.62
378.576	95.62
378.802	81.62
379.027	84.62
379.253	92.62
379.478	85.62
379.704	84.62
379.929	88.62
380.155	94.62
380.38	96.62
380.606	85.62
380.831	99.62
381.057	76.62
381.282	88.62
381.507	84.62
381.733	94.62
381.958	104.62
382.184	90.62
382.409	101.62
382.634	91.62
382.86	91.62
383.085	85.62
383.31	98.62
383.535	83.62
383.761	99.62
383.986	94.62
384.211	104.62
384.436	83.62
384.662	92.62
384.887	93.62
385.112	96.62
385.337	101.62
385.562	94.62
385.787	90.62
386.013	99.62
386.238	108.62
386.463	98.62
386.688	85.62
386.913	80.62
387.138	89.62
387.363	89.62
387.588	105.62
387.813	88.62
388.038	90.62
388.263	111.62
388.488	91.62
388.713	93.62
388.938	83.62
389.163	100.62
389.387	104.62
389.612	88.62
389.837	92.62
390.062	91.62
390.287	77.62
390.512	88.62
390.736	84.62
390.961	97.62
391.186	91.62
391.411	87.62
391.636	90.62
391.86	86.62
392.085	80.62
392.31	82.62
392.534	87.62
392.759	91.62
392.984	80.62
393.208	81.62
393.433	78.62
393.658	98.62
393.882	76.62
394.107	86.62
394.331	93.62
394.556	80.62
394.78	80.62
395.005	92.62
395.229	103.62
395.454	96.62
395.678	81.62
395.903	91.62
396.127	98.62
396.352	85.62
396.576	82.62
396.801	78.62
397.025	80.62
397.249	76.62
397.474	84.62
397.698	91.62
397.922	88.62
398.147	80.62
398.371	83.62
398.595	78.62
398.82	83.62
399.044	90.62
399.268	72.62
399.492	75.62
399.717	83.62
399.941	86.62
400.165	84.62
400.389	80.62
400.613	73.62
400.837	85.62
401.062	79.62
401.286	99.62
401.51	92.62
401.734	89.62
401.958	102.62
402.182	146.62
402.406	164.62
402.63	112.62
402.854	80.62
403.078	77.62
403.302	91.62
403.526	83.62
403.75	90.62
403.974	87.62
404.198	87.62
404.422	84.62
404.645	73.62
404.869	78.62
405.093	88.62
405.317	93.62
405.541	96.62
405.765	90.62
405.988	117.62
406.212	171.62
406.436	222.62
406.66	158.62
406.883	99.62
407.107	96.62
407.331	90.62
407.555	104.62
407.778	90.62
408.002	86.62
408.226	95.62
408.449	86.62
408.673	77.62
408.896	106.62
409.12	94.62
409.344	87.62
409.567	78.62
409.791	79.62
410.014	97.62
410.238	91.62
410.461	83.62
410.685	92.62
410.908	107.62
411.132	98.62
411.355	93.62
411.578	91.62
411.802	85.62
412.025	94.62
412.249	84.62
412.472	90.62
412.695	88.62
412.919	93.62
413.142	107.62
413.365	93.62
413.589	84.62
413.812	87.62
414.035	91.62
414.258	87.62
414.482	88.62
414.705	67.62
414.928	71.62
415.151	89.62
415.374	88.62
415.597	77.62
415.821	71.62
416.044	87.62
416.267	78.62
416.49	83.62
416.713	90.62
416.936	72.62
417.159	78.62
417.382	78.62
417.605	87.62
417.828	98.62
418.051	75.62
418.274	87.62
418.497	82.62
418.72	72.62
418.943	74.62
419.166	80.62
419.389	89.62
419.611	68.62
419.834	86.62
420.057	82.62
420.28	73.62
420.503	76.62
420.726	78.62
420.948	88.62
421.171	90.62
421.394	99.62
421.617	78.62
421.839	72.62
422.062	93.62
422.285	88.62
422.507	94.62
422.73	110.62
422.953	87.62
423.175	74.62
423.398	91.62
423.621	75.62
423.843	77.62
424.066	80.62
424.288	86.62
424.511	95.62
424.733	88.62
424.956	107.62
425.178	105.62
425.401	93.62
425.623	96.62
425.846	105.62
426.068	82.62
426.291	96.62
426.513	74.62
426.735	90.62
426.958	105.62
427.18	104.62
427.402	130.62
427.625	169.62
427.847	104.62
428.069	110.62
428.292	90.62
428.514	88.62
428.736	81.62
428.958	88.62
429.181	82.62
429.403	86.62
429.625	87.62
429.847	90.62
430.069	104.62
430.292	94.62
430.514	81.62
430.736	84.62
430.958	88.62
431.18	87.62
431.402	82.62
431.624	78.62
431.846	82.62
432.068	95.62
432.29	78.62
432.512	84.62
432.734	88.62
432.956	99.62
433.178	94.62
433.4	105.62
433.622	86.62
433.844	88.62
434.066	92.62
434.287	89.62
434.509	76.62
434.731	86.62
434.953	79.62
435.175	90.62
435.397	82.62
435.618	92.62
435.84	107.62
436.062	122.62
436.284	131.62
436.505	107.62
436.727	111.62
436.949	101.62
437.17	85.62
437.392	70.62
437.614	92.62
437.835	114.62
438.057	119.62
438.278	104.62
438.5	109.62
438.721	110.62
438.943	116.62
439.165	97.62
439.386	78.62
439.608	88.62
439.829	96.62
440.05	124.62
440.272	156.62
440.493	111.62
440.715	89.62
440.936	78.62
441.158	90.62
441.379	76.62
441.6	91.62
441.822	88.62
442.043	84.62
442.264	91.62
442.486	113.62
442.707	87.62
442.928	91.62
443.149	110.62
443.371	120.62
443.592	107.62
443.813	117.62
444.034	109.62
444.255	82.62
444.476	76.62
444.698	85.62
444.919	82.62
445.14	120.62
445.361	117.62
445.582	112.62
445.803	130.62
446.024	141.62
446.245	152.62
446.466	108.62
446.687	77.62
446.908	76.62
447.129	76.62
447.35	80.62
447.571	90.62
447.792	97.62
448.013	83.62
448.234	97.62
448.455	102.62
448.675	126.62
448.896	117.62
449.117	107.62
449.338	93.62
449.559	146.62
449.779	140.62
450	81.62
450.221	77.62
450.442	89.62
450.662	97.62
450.883	91.62
451.104	104.62
451.324	88.62
451.545	86.62
451.766	99.62
451.986	95.62
452.207	79.62
452.428	93.62
452.648	101.62
452.869	111.62
453.089	117.62
453.31	120.62
453.53	95.62
453.751	88.62
453.971	103.62
454.192	102.62
454.412	91.62
454.633	83.62
454.853	77.62
455.073	83.62
455.294	87.62
455.514	91.62
455.734	95.62
455.955	78.62
456.175	93.62
456.395	102.62
456.616	76.62
456.836	71.62
457.056	85.62
457.276	79.62
457.497	73.62
457.717	81.62
457.937	72.62
458.157	94.62
458.377	88.62
458.598	108.62
458.818	140.62
459.038	154.62
459.258	113.62
459.478	97.62
459.698	87.62
459.918	86.62
460.138	74.62
460.358	98.62
460.578	68.62
460.798	84.62
461.018	77.62
461.238	94.62
461.458	87.62
461.678	87.62
461.898	98.62
462.118	83.62
462.338	88.62
462.558	76.62
462.777	72.62
462.997	80.62
463.217	75.62
463.437	88.62
463.657	79.62
463.876	86.62
464.096	82.62
464.316	90.62
464.536	100.62
464.755	88.62
464.975	108.62
465.195	169.62
465.414	155.62
465.634	97.62
465.854	78.62
466.073	84.62
466.293	91.62
466.512	85.62
466.732	87.62
466.951	70.62
467.171	105.62
467.391	88.62
467.61	96.62
467.829	84.62
468.049	75.62
468.268	74.62
468.488	91.62
468.707	93.62
468.927	86.62
469.146	82.62
469.365	85.62
469.585	75.62
469.804	90.62
470.023	93.62
470.243	82.62
470.462	100.62
470.681	106.62
470.901	96.62
471.12	91.62
471.339	66.62
471.558	86.62
471.777	75.62
471.997	82.62
472.216	84.62
472.435	94.62
472.654	81.62
472.873	86.62
473.092	80.62
473.311	109.62
473.53	64.62
473.749	93.62
473.968	90.62
474.187	99.62
474.406	106.62
474.625	82.62
474.844	72.62
475.063	74.62
475.282	82.62
475.501	75.62
475.72	84.62
475.939	75.62
476.158	93.62
476.377	98.62
476.596	84.62
476.814	97.62
477.033	102.62
477.252	88.62
477.471	91.62
477.69	78.62
477.908	101.62
478.127	83.62
478.346	78.62
478.564	90.62
478.783	98.62
479.002	95.62
479.22	74.62
479.439	95.62
479.658	95.62
479.876	93.62
480.095	88.62
480.313	82.62
480.532	88.62
480.751	79.62
480.969	86.62
481.188	112.62
481.406	96.62
481.624	78.62
481.843	91.62
482.061	78.62
482.28	85.62
482.498	85.62
482.717	71.62
482.935	92.62
483.153	100.62
483.372	78.62
483.59	97.62
483.808	82.62
484.027	94.62
484.245	81.62
484.463	89.62
484.681	92.62
484.9	97.62
485.118	89.62
485.336	71.62
485.554	84.62
485.772	89.62
485.99	95.62
486.209	92.62
486.427	94.62
486.645	106.62
486.863	108.62
487.081	105.62
487.299	105.62
487.517	90.62
487.735	99.62
487.953	72.62
488.171	85.62
488.389	97.62
488.607	105.62
488.825	92.62
489.043	84.62
489.261	106.62
489.479	84.62
489.696	94.62
489.914	76.62
490.132	77.62
490.35	92.62
490.568	87.62
490.786	75.62
491.003	87.62
491.221	79.62
491.439	87.62
491.657	81.62
491.874	81.62
492.092	81.62
492.31	90.62
492.527	78.62
492.745	100.62
492.963	84.62
493.18	83.62
493.398	86.62
493.615	86.62
493.833	85.62
494.05	93.62
494.268	94.62
494.485	89.62
494.703	78.62
494.92	83.62
495.138	82.62
495.355	92.62
495.573	97.62
495.79	85.62
496.008	85.62
496.225	76.62
496.442	82.62
496.66	78.62
496.877	99.62
497.094	94.62
497.312	74.62
497.529	91.62
497.746	107.62
497.963	93.62
498.181	81.62
498.398	87.62
498.615	122.62
498.832	114.62
499.049	95.62
499.267	94.62
499.484	90.62
499.701	101.62
499.918	96.62
500.135	83.62
500.352	85.62
500.569	75.62
500.786	63.62
501.003	80.62
501.22	80.62
501.437	95.62
501.654	82.62
501.871	106.62
502.088	97.62
502.305	88.62
502.522	90.62
502.739	88.62
502.956	84.62
503.172	95.62
503.389	98.62
503.606	111.62
503.823	95.62
504.04	84.62
504.256	98.62
504.473	78.62
504.69	91.62
504.907	89.62
505.123	85.62
505.34	89.62
505.557	87.62
505.773	83.62
505.99	91.62
506.207	88.62
506.423	88.62
506.64	83.62
506.856	94.62
507.073	88.62
507.289	91.62
507.506	94.62
507.722	117.62
507.939	101.62
508.155	96.62
508.372	74.62
508.588	98.62
508.805	89.62
509.021	98.62
509.238	86.62
509.454	95.62
509.67	96.62
509.887	108.62
510.103	134.62
510.319	211.62
510.536	764.62
510.752	2536.62
510.968	681.62
511.184	154.62
511.401	115.62
511.617	87.62
511.833	72.62
512.049	92.62
512.265	88.62
512.481	84.62
512.698	88.62
512.914	87.62
513.13	87.62
513.346	87.62
513.562	100.62
513.778	99.62
513.994	95.62
514.21	88.62
514.426	109.62
514.642	132.62
514.858	123.62
515.074	170.62
515.29	473.62
515.506	1560.62
515.721	582.62
515.937	158.62
516.153	108.62
516.369	106.62
516.585	93.62
516.801	98.62
