Data from Uncirc_1998_H10_HRD10591_00035.txt Node
Date: Wed Jan 03 11:25:31 EST 2024
User: Yrep
Spectrometer: HR+D1059
Trigger mode: 1
Integration Time (sec): 1.000000E-1
Scans to average: 1
Electric dark correction enabled: true
Nonlinearity correction enabled: false
Boxcar width: 0
XAxis mode: Wavelengths
Number of Pixels in Spectrum: 2048
>>>>>Begin Spectral Data<<<<<
223.165	-17.62
223.4	-17.62
223.635	-17.62
223.869	-11.62
224.104	-7.62
224.338	-17.62
224.573	-9.62
224.808	-26.62
225.042	-1.62
225.277	-12.62
225.511	15.38
225.746	-3.62
225.98	3.38
226.215	13.38
226.449	5.38
226.683	6.38
226.918	43.38
227.152	21.38
227.387	31.38
227.621	37.38
227.856	54.38
228.09	37.38
228.324	50.38
228.559	59.38
228.793	69.38
229.027	58.38
229.262	58.38
229.496	84.38
229.73	97.38
229.964	85.38
230.199	72.38
230.433	70.38
230.667	60.38
230.901	85.38
231.136	88.38
231.37	77.38
231.604	95.38
231.838	84.38
232.072	77.38
232.306	80.38
232.541	82.38
232.775	70.38
233.009	85.38
233.243	64.38
233.477	79.38
233.711	87.38
233.945	90.38
234.179	78.38
234.413	78.38
234.647	78.38
234.881	72.38
235.115	77.38
235.349	78.38
235.583	81.38
235.817	83.38
236.051	74.38
236.285	80.38
236.519	94.38
236.753	85.38
236.987	86.38
237.221	76.38
237.455	91.38
237.689	80.38
237.922	85.38
238.156	78.38
238.39	78.38
238.624	83.38
238.858	74.38
239.091	73.38
239.325	72.38
239.559	79.38
239.793	84.38
240.027	73.38
240.26	91.38
240.494	85.38
240.728	93.38
240.961	59.38
241.195	89.38
241.429	79.38
241.662	65.38
241.896	84.38
242.13	87.38
242.363	73.38
242.597	65.38
242.83	70.38
243.064	72.38
243.298	73.38
243.531	75.38
243.765	79.38
243.998	82.38
244.232	74.38
244.465	88.38
244.699	78.38
244.932	83.38
245.166	90.38
245.399	71.38
245.633	83.38
245.866	85.38
246.099	80.38
246.333	68.38
246.566	74.38
246.8	82.38
247.033	86.38
247.266	78.38
247.5	85.38
247.733	80.38
247.966	91.38
248.2	94.38
248.433	81.38
248.666	92.38
248.899	88.38
249.133	83.38
249.366	95.38
249.599	96.38
249.832	82.38
250.066	89.38
250.299	79.38
250.532	84.38
250.765	73.38
250.998	79.38
251.231	78.38
251.465	71.38
251.698	61.38
251.931	73.38
252.164	69.38
252.397	85.38
252.63	77.38
252.863	71.38
253.096	90.38
253.329	86.38
253.562	76.38
253.795	73.38
254.028	84.38
254.261	86.38
254.494	80.38
254.727	77.38
254.96	87.38
255.193	91.38
255.426	71.38
255.659	72.38
255.892	86.38
256.124	78.38
256.357	80.38
256.59	90.38
256.823	85.38
257.056	62.38
257.289	77.38
257.521	82.38
257.754	85.38
257.987	87.38
258.22	87.38
258.452	93.38
258.685	73.38
258.918	88.38
259.151	73.38
259.383	80.38
259.616	71.38
259.849	71.38
260.081	74.38
260.314	84.38
260.547	67.38
260.779	67.38
261.012	85.38
261.244	75.38
261.477	90.38
261.71	93.38
261.942	110.38
262.175	119.38
262.407	85.38
262.64	75.38
262.872	82.38
263.105	89.38
263.337	84.38
263.57	90.38
263.802	86.38
264.035	98.38
264.267	83.38
264.499	89.38
264.732	87.38
264.964	89.38
265.197	102.38
265.429	63.38
265.661	81.38
265.894	102.38
266.126	86.38
266.358	87.38
266.591	83.38
266.823	91.38
267.055	71.38
267.287	86.38
267.52	64.38
267.752	85.38
267.984	91.38
268.216	80.38
268.448	91.38
268.681	91.38
268.913	74.38
269.145	89.38
269.377	91.38
269.609	89.38
269.841	97.38
270.073	99.38
270.306	104.38
270.538	89.38
270.77	81.38
271.002	79.38
271.234	79.38
271.466	82.38
271.698	86.38
271.93	74.38
272.162	98.38
272.394	89.38
272.626	77.38
272.858	93.38
273.09	92.38
273.322	89.38
273.553	83.38
273.785	77.38
274.017	80.38
274.249	94.38
274.481	85.38
274.713	90.38
274.945	83.38
275.176	98.38
275.408	89.38
275.64	86.38
275.872	98.38
276.104	90.38
276.335	93.38
276.567	103.38
276.799	109.38
277.031	97.38
277.262	88.38
277.494	93.38
277.726	94.38
277.957	97.38
278.189	82.38
278.421	78.38
278.652	79.38
278.884	84.38
279.115	77.38
279.347	87.38
279.579	85.38
279.81	85.38
280.042	79.38
280.273	103.38
280.505	93.38
280.736	89.38
280.968	73.38
281.199	75.38
281.431	93.38
281.662	81.38
281.894	87.38
282.125	98.38
282.356	116.38
282.588	104.38
282.819	110.38
283.051	98.38
283.282	90.38
283.513	72.38
283.745	87.38
283.976	86.38
284.207	90.38
284.439	87.38
284.67	92.38
284.901	82.38
285.132	97.38
285.364	93.38
285.595	90.38
285.826	91.38
286.057	87.38
286.288	93.38
286.52	88.38
286.751	92.38
286.982	86.38
287.213	94.38
287.444	83.38
287.675	90.38
287.906	105.38
288.138	77.38
288.369	86.38
288.6	96.38
288.831	89.38
289.062	83.38
289.293	86.38
289.524	79.38
289.755	87.38
289.986	88.38
290.217	73.38
290.448	93.38
290.679	109.38
290.91	92.38
291.141	89.38
291.371	72.38
291.602	90.38
291.833	92.38
292.064	93.38
292.295	69.38
292.526	82.38
292.757	85.38
292.987	98.38
293.218	75.38
293.449	86.38
293.68	105.38
293.91	81.38
294.141	85.38
294.372	90.38
294.603	103.38
294.833	82.38
295.064	86.38
295.295	88.38
295.525	94.38
295.756	95.38
295.987	95.38
296.217	123.38
296.448	118.38
296.679	90.38
296.909	98.38
297.14	92.38
297.37	100.38
297.601	87.38
297.831	83.38
298.062	106.38
298.292	106.38
298.523	92.38
298.753	85.38
298.984	84.38
299.214	98.38
299.445	84.38
299.675	89.38
299.905	100.38
300.136	98.38
300.366	93.38
300.597	97.38
300.827	90.38
301.057	74.38
301.288	90.38
301.518	103.38
301.748	82.38
301.979	101.38
302.209	62.38
302.439	77.38
302.669	88.38
302.9	90.38
303.13	87.38
303.36	91.38
303.59	88.38
303.82	90.38
304.051	95.38
304.281	93.38
304.511	98.38
304.741	89.38
304.971	74.38
305.201	94.38
305.431	91.38
305.661	91.38
305.891	83.38
306.121	82.38
306.352	98.38
306.582	97.38
306.812	89.38
307.042	95.38
307.272	85.38
307.502	84.38
307.731	93.38
307.961	94.38
308.191	82.38
308.421	85.38
308.651	80.38
308.881	96.38
309.111	91.38
309.341	85.38
309.571	93.38
309.8	93.38
310.03	103.38
310.26	88.38
310.49	88.38
310.72	88.38
310.949	110.38
311.179	102.38
311.409	92.38
311.639	91.38
311.868	92.38
312.098	106.38
312.328	98.38
312.557	97.38
312.787	104.38
313.017	94.38
313.246	90.38
313.476	89.38
313.706	83.38
313.935	93.38
314.165	99.38
314.394	93.38
314.624	94.38
314.853	86.38
315.083	97.38
315.312	97.38
315.542	70.38
315.771	69.38
316.001	97.38
316.23	99.38
316.46	88.38
316.689	94.38
316.919	105.38
317.148	91.38
317.377	113.38
317.607	88.38
317.836	95.38
318.065	91.38
318.295	83.38
318.524	80.38
318.753	85.38
318.983	85.38
319.212	94.38
319.441	98.38
319.67	90.38
319.9	102.38
320.129	104.38
320.358	94.38
320.587	93.38
320.816	96.38
321.046	104.38
321.275	95.38
321.504	91.38
321.733	84.38
321.962	106.38
322.191	102.38
322.42	99.38
322.649	102.38
322.878	107.38
323.108	122.38
323.337	102.38
323.566	118.38
323.795	141.38
324.024	187.38
324.253	342.38
324.482	726.38
324.71	1485.38
324.939	1924.38
325.168	711.38
325.397	233.38
325.626	141.38
325.855	116.38
326.084	107.38
326.313	118.38
326.542	133.38
326.77	209.38
326.999	424.38
327.228	855.38
327.457	1530.38
327.686	1207.38
327.914	329.38
328.143	191.38
328.372	131.38
328.6	122.38
328.829	114.38
329.058	118.38
329.287	125.38
329.515	105.38
329.744	101.38
329.972	111.38
330.201	100.38
330.43	97.38
330.658	114.38
330.887	127.38
331.115	112.38
331.344	93.38
331.572	100.38
331.801	95.38
332.03	112.38
332.258	103.38
332.486	87.38
332.715	93.38
332.943	81.38
333.172	90.38
333.4	89.38
333.629	98.38
333.857	111.38
334.085	88.38
334.314	99.38
334.542	90.38
334.771	91.38
334.999	95.38
335.227	90.38
335.455	92.38
335.684	91.38
335.912	93.38
336.14	88.38
336.369	117.38
336.597	101.38
336.825	90.38
337.053	96.38
337.281	91.38
337.51	94.38
337.738	85.38
337.966	98.38
338.194	108.38
338.422	103.38
338.65	96.38
338.878	84.38
339.106	89.38
339.334	90.38
339.562	85.38
339.79	85.38
340.018	85.38
340.246	94.38
340.474	100.38
340.702	97.38
340.93	86.38
341.158	99.38
341.386	104.38
341.614	99.38
341.842	86.38
342.07	96.38
342.298	97.38
342.526	88.38
342.754	76.38
342.981	82.38
343.209	95.38
343.437	84.38
343.665	95.38
343.893	91.38
344.12	97.38
344.348	81.38
344.576	94.38
344.804	75.38
345.031	96.38
345.259	90.38
345.487	76.38
345.714	107.38
345.942	101.38
346.17	79.38
346.397	94.38
346.625	96.38
346.853	87.38
347.08	65.38
347.308	87.38
347.535	89.38
347.763	93.38
347.99	106.38
348.218	109.38
348.445	97.38
348.673	91.38
348.9	103.38
349.128	94.38
349.355	77.38
349.583	98.38
349.81	95.38
350.037	88.38
350.265	83.38
350.492	94.38
350.72	95.38
350.947	99.38
351.174	110.38
351.402	110.38
351.629	104.38
351.856	73.38
352.083	94.38
352.311	91.38
352.538	88.38
352.765	112.38
352.992	91.38
353.22	99.38
353.447	102.38
353.674	108.38
353.901	98.38
354.128	96.38
354.355	98.38
354.583	93.38
354.81	91.38
355.037	98.38
355.264	85.38
355.491	108.38
355.718	98.38
355.945	96.38
356.172	96.38
356.399	102.38
356.626	92.38
356.853	98.38
357.08	90.38
357.307	101.38
357.534	86.38
357.761	93.38
357.988	94.38
358.215	96.38
358.441	90.38
358.668	92.38
358.895	89.38
359.122	82.38
359.349	91.38
359.576	90.38
359.802	92.38
360.029	108.38
360.256	103.38
360.483	75.38
360.709	79.38
360.936	95.38
361.163	90.38
361.39	77.38
361.616	90.38
361.843	91.38
362.07	96.38
362.296	87.38
362.523	88.38
362.749	90.38
362.976	80.38
363.203	93.38
363.429	99.38
363.656	86.38
363.882	90.38
364.109	93.38
364.335	80.38
364.562	86.38
364.788	95.38
365.015	93.38
365.241	112.38
365.468	112.38
365.694	115.38
365.92	83.38
366.147	99.38
366.373	88.38
366.599	85.38
366.826	86.38
367.052	94.38
367.278	102.38
367.505	81.38
367.731	93.38
367.957	102.38
368.184	103.38
368.41	99.38
368.636	110.38
368.862	108.38
369.089	96.38
369.315	98.38
369.541	100.38
369.767	89.38
369.993	82.38
370.219	100.38
370.445	83.38
370.672	94.38
370.898	77.38
371.124	94.38
371.35	94.38
371.576	94.38
371.802	86.38
372.028	95.38
372.254	85.38
372.48	99.38
372.706	78.38
372.932	82.38
373.158	75.38
373.384	87.38
373.61	97.38
373.835	87.38
374.061	85.38
374.287	96.38
374.513	85.38
374.739	93.38
374.965	96.38
375.191	98.38
375.416	80.38
375.642	92.38
375.868	86.38
376.094	97.38
376.319	95.38
376.545	87.38
376.771	89.38
376.997	91.38
377.222	87.38
377.448	94.38
377.674	80.38
377.899	83.38
378.125	78.38
378.35	85.38
378.576	86.38
378.802	95.38
379.027	91.38
379.253	85.38
379.478	83.38
379.704	100.38
379.929	84.38
380.155	74.38
380.38	88.38
380.606	95.38
380.831	86.38
381.057	99.38
381.282	91.38
381.507	98.38
381.733	98.38
381.958	75.38
382.184	104.38
382.409	99.38
382.634	119.38
382.86	104.38
383.085	98.38
383.31	97.38
383.535	89.38
383.761	95.38
383.986	100.38
384.211	91.38
384.436	97.38
384.662	105.38
384.887	106.38
385.112	105.38
385.337	101.38
385.562	89.38
385.787	89.38
386.013	103.38
386.238	117.38
386.463	100.38
386.688	114.38
386.913	80.38
387.138	104.38
387.363	95.38
387.588	102.38
387.813	96.38
388.038	104.38
388.263	104.38
388.488	98.38
388.713	98.38
388.938	103.38
389.163	95.38
389.387	78.38
389.612	97.38
389.837	95.38
390.062	88.38
390.287	102.38
390.512	100.38
390.736	93.38
390.961	99.38
391.186	89.38
391.411	100.38
391.636	92.38
391.86	86.38
392.085	85.38
392.31	81.38
392.534	80.38
392.759	94.38
392.984	94.38
393.208	82.38
393.433	89.38
393.658	79.38
393.882	87.38
394.107	94.38
394.331	82.38
394.556	83.38
394.78	91.38
395.005	85.38
395.229	82.38
395.454	88.38
395.678	87.38
395.903	93.38
396.127	76.38
396.352	101.38
396.576	85.38
396.801	89.38
397.025	86.38
397.249	81.38
397.474	86.38
397.698	71.38
397.922	79.38
398.147	88.38
398.371	79.38
398.595	87.38
398.82	83.38
399.044	79.38
399.268	95.38
399.492	91.38
399.717	91.38
399.941	88.38
400.165	104.38
400.389	99.38
400.613	81.38
400.837	90.38
401.062	91.38
401.286	77.38
401.51	91.38
401.734	98.38
401.958	85.38
402.182	115.38
402.406	139.38
402.63	105.38
402.854	88.38
403.078	77.38
403.302	87.38
403.526	89.38
403.75	102.38
403.974	66.38
404.198	77.38
404.422	87.38
404.645	104.38
404.869	86.38
405.093	88.38
405.317	95.38
405.541	94.38
405.765	105.38
405.988	111.38
406.212	145.38
406.436	177.38
406.66	121.38
406.883	92.38
407.107	96.38
407.331	80.38
407.555	95.38
407.778	97.38
408.002	108.38
408.226	98.38
408.449	87.38
408.673	93.38
408.896	87.38
409.12	102.38
409.344	91.38
409.567	96.38
409.791	94.38
410.014	94.38
410.238	102.38
410.461	105.38
410.685	92.38
410.908	108.38
411.132	106.38
411.355	100.38
411.578	89.38
411.802	88.38
412.025	86.38
412.249	85.38
412.472	81.38
412.695	77.38
412.919	86.38
413.142	101.38
413.365	92.38
413.589	84.38
413.812	79.38
414.035	91.38
414.258	77.38
414.482	91.38
414.705	87.38
414.928	95.38
415.151	90.38
415.374	89.38
415.597	77.38
415.821	90.38
416.044	90.38
416.267	83.38
416.49	103.38
416.713	74.38
416.936	72.38
417.159	85.38
417.382	78.38
417.605	82.38
417.828	83.38
418.051	92.38
418.274	93.38
418.497	78.38
418.72	80.38
418.943	93.38
419.166	81.38
419.389	92.38
419.611	88.38
419.834	97.38
420.057	80.38
420.28	67.38
420.503	84.38
420.726	88.38
420.948	94.38
421.171	93.38
421.394	90.38
421.617	87.38
421.839	83.38
422.062	79.38
422.285	91.38
422.507	91.38
422.73	100.38
422.953	93.38
423.175	93.38
423.398	85.38
423.621	93.38
423.843	91.38
424.066	103.38
424.288	88.38
424.511	75.38
424.733	96.38
424.956	95.38
425.178	103.38
425.401	101.38
425.623	115.38
425.846	87.38
426.068	78.38
426.291	74.38
426.513	79.38
426.735	82.38
426.958	89.38
427.18	109.38
427.402	128.38
427.625	142.38
427.847	118.38
428.069	88.38
428.292	81.38
428.514	77.38
428.736	92.38
428.958	86.38
429.181	84.38
429.403	91.38
429.625	77.38
429.847	99.38
430.069	87.38
430.292	93.38
430.514	84.38
430.736	94.38
430.958	91.38
431.18	79.38
431.402	79.38
431.624	83.38
431.846	74.38
432.068	76.38
432.29	82.38
432.512	85.38
432.734	95.38
432.956	98.38
433.178	97.38
433.4	104.38
433.622	88.38
433.844	85.38
434.066	83.38
434.287	88.38
434.509	90.38
434.731	84.38
434.953	78.38
435.175	82.38
435.397	94.38
435.618	82.38
435.84	103.38
436.062	104.38
436.284	111.38
436.505	98.38
436.727	96.38
436.949	91.38
437.17	91.38
437.392	80.38
437.614	92.38
437.835	105.38
438.057	106.38
438.278	115.38
438.5	99.38
438.721	110.38
438.943	109.38
439.165	89.38
439.386	69.38
439.608	92.38
439.829	98.38
440.05	121.38
440.272	137.38
440.493	87.38
440.715	88.38
440.936	88.38
441.158	85.38
441.379	82.38
441.6	87.38
441.822	81.38
442.043	91.38
442.264	99.38
442.486	99.38
442.707	85.38
442.928	122.38
443.149	110.38
443.371	115.38
443.592	110.38
443.813	107.38
444.034	96.38
444.255	88.38
444.476	90.38
444.698	88.38
444.919	91.38
445.14	144.38
445.361	107.38
445.582	117.38
445.803	133.38
446.024	129.38
446.245	129.38
446.466	93.38
446.687	92.38
446.908	79.38
447.129	92.38
447.35	98.38
447.571	96.38
447.792	71.38
448.013	83.38
448.234	101.38
448.455	96.38
448.675	111.38
448.896	102.38
449.117	96.38
449.338	95.38
449.559	112.38
449.779	125.38
450	94.38
450.221	91.38
450.442	94.38
450.662	83.38
450.883	101.38
451.104	105.38
451.324	99.38
451.545	83.38
451.766	97.38
451.986	107.38
452.207	88.38
452.428	93.38
452.648	99.38
452.869	104.38
453.089	107.38
453.31	109.38
453.53	102.38
453.751	93.38
453.971	90.38
454.192	110.38
454.412	82.38
454.633	76.38
454.853	82.38
455.073	79.38
455.294	101.38
455.514	95.38
455.734	85.38
455.955	84.38
456.175	85.38
456.395	91.38
456.616	79.38
456.836	82.38
457.056	89.38
457.276	82.38
457.497	79.38
457.717	88.38
457.937	93.38
458.157	89.38
458.377	85.38
458.598	98.38
458.818	124.38
459.038	136.38
459.258	109.38
459.478	93.38
459.698	99.38
459.918	83.38
460.138	95.38
460.358	59.38
460.578	93.38
460.798	78.38
461.018	92.38
461.238	92.38
461.458	87.38
461.678	80.38
461.898	107.38
462.118	99.38
462.338	91.38
462.558	74.38
462.777	76.38
462.997	73.38
463.217	86.38
463.437	88.38
463.657	96.38
463.876	80.38
464.096	86.38
464.316	102.38
464.536	86.38
464.755	86.38
464.975	95.38
465.195	155.38
465.414	133.38
465.634	102.38
465.854	96.38
466.073	85.38
466.293	88.38
466.512	87.38
466.732	97.38
466.951	103.38
467.171	104.38
467.391	100.38
467.61	108.38
467.829	91.38
468.049	95.38
468.268	79.38
468.488	81.38
468.707	86.38
468.927	86.38
469.146	75.38
469.365	80.38
469.585	91.38
469.804	95.38
470.023	114.38
470.243	90.38
470.462	96.38
470.681	96.38
470.901	80.38
471.12	88.38
471.339	86.38
471.558	82.38
471.777	92.38
471.997	82.38
472.216	83.38
472.435	93.38
472.654	89.38
472.873	88.38
473.092	79.38
473.311	88.38
473.53	83.38
473.749	89.38
473.968	92.38
474.187	97.38
474.406	80.38
474.625	96.38
474.844	94.38
475.063	97.38
475.282	85.38
475.501	91.38
475.72	104.38
475.939	91.38
476.158	75.38
476.377	89.38
476.596	90.38
476.814	83.38
477.033	92.38
477.252	91.38
477.471	92.38
477.69	90.38
477.908	95.38
478.127	95.38
478.346	94.38
478.564	96.38
478.783	93.38
479.002	91.38
479.22	87.38
479.439	101.38
479.658	98.38
479.876	84.38
480.095	89.38
480.313	92.38
480.532	94.38
480.751	95.38
480.969	95.38
481.188	110.38
481.406	93.38
481.624	88.38
481.843	80.38
482.061	81.38
482.28	88.38
482.498	82.38
482.717	83.38
482.935	79.38
483.153	102.38
483.372	95.38
483.59	83.38
483.808	84.38
484.027	93.38
484.245	89.38
484.463	94.38
484.681	91.38
484.9	82.38
485.118	86.38
485.336	95.38
485.554	97.38
485.772	101.38
485.99	97.38
486.209	108.38
486.427	101.38
486.645	99.38
486.863	107.38
487.081	99.38
487.299	102.38
487.517	92.38
487.735	89.38
487.953	80.38
488.171	97.38
488.389	90.38
488.607	86.38
488.825	92.38
489.043	95.38
489.261	98.38
489.479	81.38
489.696	94.38
489.914	77.38
490.132	92.38
490.35	94.38
490.568	91.38
490.786	93.38
491.003	87.38
491.221	66.38
491.439	97.38
491.657	90.38
491.874	98.38
492.092	89.38
492.31	98.38
492.527	94.38
492.745	94.38
492.963	100.38
493.18	87.38
493.398	90.38
493.615	101.38
493.833	93.38
494.05	93.38
494.268	93.38
494.485	101.38
494.703	88.38
494.92	91.38
495.138	80.38
495.355	86.38
495.573	82.38
495.79	85.38
496.008	103.38
496.225	81.38
496.442	104.38
496.66	91.38
496.877	99.38
497.094	97.38
497.312	103.38
497.529	77.38
497.746	87.38
497.963	83.38
498.181	90.38
498.398	88.38
498.615	106.38
498.832	94.38
499.049	101.38
499.267	75.38
499.484	83.38
499.701	86.38
499.918	91.38
500.135	100.38
500.352	89.38
500.569	89.38
500.786	89.38
501.003	93.38
501.22	81.38
501.437	96.38
501.654	88.38
501.871	100.38
502.088	98.38
502.305	90.38
502.522	92.38
502.739	89.38
502.956	81.38
503.172	78.38
503.389	92.38
503.606	110.38
503.823	94.38
504.04	96.38
504.256	89.38
504.473	91.38
504.69	102.38
504.907	84.38
505.123	98.38
505.34	94.38
505.557	105.38
505.773	95.38
505.99	96.38
506.207	86.38
506.423	84.38
506.64	90.38
506.856	95.38
507.073	93.38
507.289	91.38
507.506	93.38
507.722	110.38
507.939	82.38
508.155	105.38
508.372	101.38
508.588	89.38
508.805	100.38
509.021	101.38
509.238	95.38
509.454	100.38
509.67	94.38
509.887	117.38
510.103	129.38
510.319	192.38
510.536	694.38
510.752	1949.38
510.968	541.38
511.184	150.38
511.401	101.38
511.617	114.38
511.833	91.38
512.049	76.38
512.265	95.38
512.481	83.38
512.698	88.38
512.914	94.38
513.13	86.38
513.346	72.38
513.562	89.38
513.778	92.38
513.994	87.38
514.21	93.38
514.426	98.38
514.642	120.38
514.858	119.38
515.074	146.38
515.29	380.38
515.506	1157.38
515.721	439.38
515.937	152.38
516.153	112.38
516.369	105.38
