Data from Uncirc_1998_H10_HRD10591_00044.txt Node
Date: Wed Jan 03 11:25:33 EST 2024
User: Yrep
Spectrometer: HR+D1059
Trigger mode: 1
Integration Time (sec): 1.000000E-1
Scans to average: 1
Electric dark correction enabled: true
Nonlinearity correction enabled: false
Boxcar width: 0
XAxis mode: Wavelengths
Number of Pixels in Spectrum: 2048
>>>>>Begin Spectral Data<<<<<
223.165	-7.75
223.4	-7.75
223.635	-7.75
223.869	-25.75
224.104	-16.75
224.338	-16.75
224.573	-17.75
224.808	-9.75
225.042	-3.75
225.277	-4.75
225.511	-14.75
225.746	6.25
225.98	8.25
226.215	23.25
226.449	16.25
226.683	15.25
226.918	26.25
227.152	22.25
227.387	40.25
227.621	38.25
227.856	42.25
228.09	54.25
228.324	49.25
228.559	60.25
228.793	59.25
229.027	59.25
229.262	43.25
229.496	54.25
229.73	86.25
229.964	82.25
230.199	70.25
230.433	80.25
230.667	77.25
230.901	82.25
231.136	64.25
231.37	88.25
231.604	83.25
231.838	83.25
232.072	83.25
232.306	74.25
232.541	75.25
232.775	78.25
233.009	81.25
233.243	95.25
233.477	84.25
233.711	80.25
233.945	79.25
234.179	94.25
234.413	85.25
234.647	80.25
234.881	70.25
235.115	79.25
235.349	83.25
235.583	76.25
235.817	71.25
236.051	83.25
236.285	76.25
236.519	77.25
236.753	82.25
236.987	73.25
237.221	83.25
237.455	78.25
237.689	70.25
237.922	82.25
238.156	97.25
238.39	77.25
238.624	84.25
238.858	56.25
239.091	55.25
239.325	72.25
239.559	63.25
239.793	76.25
240.027	69.25
240.26	84.25
240.494	79.25
240.728	79.25
240.961	81.25
241.195	82.25
241.429	96.25
241.662	77.25
241.896	88.25
242.13	94.25
242.363	85.25
242.597	91.25
242.83	93.25
243.064	80.25
243.298	96.25
243.531	72.25
243.765	88.25
243.998	83.25
244.232	85.25
244.465	91.25
244.699	78.25
244.932	69.25
245.166	79.25
245.399	81.25
245.633	74.25
245.866	85.25
246.099	77.25
246.333	64.25
246.566	86.25
246.8	77.25
247.033	84.25
247.266	80.25
247.5	78.25
247.733	75.25
247.966	91.25
248.2	89.25
248.433	88.25
248.666	68.25
248.899	81.25
249.133	83.25
249.366	97.25
249.599	97.25
249.832	70.25
250.066	73.25
250.299	84.25
250.532	80.25
250.765	82.25
250.998	75.25
251.231	74.25
251.465	90.25
251.698	69.25
251.931	78.25
252.164	74.25
252.397	83.25
252.63	80.25
252.863	87.25
253.096	72.25
253.329	75.25
253.562	89.25
253.795	91.25
254.028	83.25
254.261	86.25
254.494	78.25
254.727	83.25
254.96	82.25
255.193	76.25
255.426	90.25
255.659	73.25
255.892	91.25
256.124	76.25
256.357	93.25
256.59	88.25
256.823	88.25
257.056	81.25
257.289	82.25
257.521	71.25
257.754	79.25
257.987	67.25
258.22	80.25
258.452	85.25
258.685	81.25
258.918	72.25
259.151	84.25
259.383	71.25
259.616	64.25
259.849	76.25
260.081	94.25
260.314	89.25
260.547	78.25
260.779	82.25
261.012	87.25
261.244	86.25
261.477	74.25
261.71	102.25
261.942	103.25
262.175	96.25
262.407	86.25
262.64	82.25
262.872	95.25
263.105	86.25
263.337	102.25
263.57	92.25
263.802	75.25
264.035	90.25
264.267	87.25
264.499	92.25
264.732	84.25
264.964	90.25
265.197	74.25
265.429	87.25
265.661	86.25
265.894	82.25
266.126	88.25
266.358	77.25
266.591	86.25
266.823	82.25
267.055	79.25
267.287	86.25
267.52	71.25
267.752	68.25
267.984	90.25
268.216	79.25
268.448	88.25
268.681	75.25
268.913	86.25
269.145	95.25
269.377	87.25
269.609	69.25
269.841	89.25
270.073	86.25
270.306	75.25
270.538	103.25
270.77	80.25
271.002	100.25
271.234	88.25
271.466	89.25
271.698	94.25
271.93	85.25
272.162	87.25
272.394	89.25
272.626	93.25
272.858	97.25
273.09	79.25
273.322	99.25
273.553	80.25
273.785	80.25
274.017	82.25
274.249	90.25
274.481	78.25
274.713	88.25
274.945	93.25
275.176	94.25
275.408	72.25
275.64	85.25
275.872	87.25
276.104	78.25
276.335	84.25
276.567	91.25
276.799	105.25
277.031	104.25
277.262	86.25
277.494	66.25
277.726	90.25
277.957	76.25
278.189	75.25
278.421	76.25
278.652	97.25
278.884	86.25
279.115	98.25
279.347	99.25
279.579	78.25
279.81	89.25
280.042	83.25
280.273	99.25
280.505	90.25
280.736	79.25
280.968	89.25
281.199	93.25
281.431	93.25
281.662	86.25
281.894	103.25
282.125	91.25
282.356	115.25
282.588	120.25
282.819	115.25
283.051	93.25
283.282	91.25
283.513	82.25
283.745	81.25
283.976	92.25
284.207	87.25
284.439	93.25
284.67	100.25
284.901	96.25
285.132	99.25
285.364	80.25
285.595	97.25
285.826	81.25
286.057	92.25
286.288	83.25
286.52	67.25
286.751	100.25
286.982	82.25
287.213	81.25
287.444	71.25
287.675	90.25
287.906	87.25
288.138	78.25
288.369	95.25
288.6	83.25
288.831	76.25
289.062	102.25
289.293	92.25
289.524	82.25
289.755	86.25
289.986	81.25
290.217	93.25
290.448	89.25
290.679	96.25
290.91	86.25
291.141	80.25
291.371	86.25
291.602	92.25
291.833	97.25
292.064	86.25
292.295	79.25
292.526	107.25
292.757	91.25
292.987	73.25
293.218	85.25
293.449	93.25
293.68	92.25
293.91	79.25
294.141	89.25
294.372	90.25
294.603	80.25
294.833	104.25
295.064	86.25
295.295	94.25
295.525	87.25
295.756	89.25
295.987	114.25
296.217	127.25
296.448	126.25
296.679	98.25
296.909	110.25
297.14	81.25
297.37	94.25
297.601	86.25
297.831	86.25
298.062	93.25
298.292	96.25
298.523	93.25
298.753	89.25
298.984	90.25
299.214	76.25
299.445	111.25
299.675	98.25
299.905	94.25
300.136	93.25
300.366	78.25
300.597	95.25
300.827	117.25
301.057	89.25
301.288	99.25
301.518	93.25
301.748	83.25
301.979	98.25
302.209	79.25
302.439	85.25
302.669	93.25
302.9	84.25
303.13	95.25
303.36	106.25
303.59	94.25
303.82	91.25
304.051	83.25
304.281	92.25
304.511	77.25
304.741	102.25
304.971	93.25
305.201	81.25
305.431	80.25
305.661	89.25
305.891	87.25
306.121	95.25
306.352	89.25
306.582	114.25
306.812	94.25
307.042	95.25
307.272	81.25
307.502	98.25
307.731	87.25
307.961	97.25
308.191	96.25
308.421	95.25
308.651	92.25
308.881	95.25
309.111	104.25
309.341	86.25
309.571	103.25
309.8	100.25
310.03	94.25
310.26	94.25
310.49	100.25
310.72	98.25
310.949	107.25
311.179	95.25
311.409	94.25
311.639	82.25
311.868	90.25
312.098	94.25
312.328	91.25
312.557	97.25
312.787	100.25
313.017	98.25
313.246	104.25
313.476	98.25
313.706	101.25
313.935	102.25
314.165	106.25
314.394	109.25
314.624	100.25
314.853	105.25
315.083	97.25
315.312	91.25
315.542	88.25
315.771	101.25
316.001	90.25
316.23	103.25
316.46	93.25
316.689	84.25
316.919	106.25
317.148	95.25
317.377	91.25
317.607	101.25
317.836	95.25
318.065	88.25
318.295	80.25
318.524	88.25
318.753	95.25
318.983	96.25
319.212	105.25
319.441	105.25
319.67	104.25
319.9	93.25
320.129	93.25
320.358	86.25
320.587	88.25
320.816	98.25
321.046	91.25
321.275	89.25
321.504	105.25
321.733	93.25
321.962	99.25
322.191	93.25
322.42	97.25
322.649	97.25
322.878	112.25
323.108	107.25
323.337	118.25
323.566	127.25
323.795	149.25
324.024	168.25
324.253	334.25
324.482	688.25
324.71	1432.25
324.939	1828.25
325.168	667.25
325.397	207.25
325.626	152.25
325.855	114.25
326.084	116.25
326.313	131.25
326.542	142.25
326.77	212.25
326.999	420.25
327.228	810.25
327.457	1419.25
327.686	1130.25
327.914	330.25
328.143	164.25
328.372	150.25
328.6	108.25
328.829	98.25
329.058	113.25
329.287	122.25
329.515	102.25
329.744	104.25
329.972	109.25
330.201	89.25
330.43	125.25
330.658	115.25
330.887	125.25
331.115	112.25
331.344	106.25
331.572	97.25
331.801	96.25
332.03	100.25
332.258	100.25
332.486	94.25
332.715	86.25
332.943	107.25
333.172	94.25
333.4	83.25
333.629	104.25
333.857	108.25
334.085	101.25
334.314	97.25
334.542	92.25
334.771	103.25
334.999	91.25
335.227	83.25
335.455	94.25
335.684	92.25
335.912	88.25
336.14	104.25
336.369	104.25
336.597	99.25
336.825	95.25
337.053	91.25
337.281	100.25
337.51	93.25
337.738	91.25
337.966	95.25
338.194	95.25
338.422	95.25
338.65	81.25
338.878	91.25
339.106	84.25
339.334	94.25
339.562	99.25
339.79	97.25
340.018	112.25
340.246	92.25
340.474	103.25
340.702	90.25
340.93	103.25
341.158	95.25
341.386	105.25
341.614	100.25
341.842	105.25
342.07	80.25
342.298	90.25
342.526	87.25
342.754	80.25
342.981	95.25
343.209	94.25
343.437	101.25
343.665	94.25
343.893	91.25
344.12	106.25
344.348	82.25
344.576	97.25
344.804	95.25
345.031	100.25
345.259	85.25
345.487	96.25
345.714	88.25
345.942	82.25
346.17	86.25
346.397	96.25
346.625	93.25
346.853	81.25
347.08	70.25
347.308	89.25
347.535	102.25
347.763	112.25
347.99	98.25
348.218	98.25
348.445	100.25
348.673	100.25
348.9	106.25
349.128	90.25
349.355	99.25
349.583	105.25
349.81	85.25
350.037	88.25
350.265	84.25
350.492	96.25
350.72	107.25
350.947	106.25
351.174	108.25
351.402	111.25
351.629	100.25
351.856	99.25
352.083	100.25
352.311	91.25
352.538	111.25
352.765	111.25
352.992	118.25
353.22	112.25
353.447	104.25
353.674	99.25
353.901	110.25
354.128	88.25
354.355	95.25
354.583	100.25
354.81	114.25
355.037	99.25
355.264	90.25
355.491	91.25
355.718	100.25
355.945	119.25
356.172	93.25
356.399	74.25
356.626	106.25
356.853	88.25
357.08	93.25
357.307	114.25
357.534	93.25
357.761	102.25
357.988	94.25
358.215	89.25
358.441	92.25
358.668	94.25
358.895	94.25
359.122	91.25
359.349	96.25
359.576	82.25
359.802	92.25
360.029	102.25
360.256	106.25
360.483	93.25
360.709	88.25
360.936	88.25
361.163	96.25
361.39	95.25
361.616	90.25
361.843	101.25
362.07	88.25
362.296	98.25
362.523	98.25
362.749	101.25
362.976	91.25
363.203	95.25
363.429	88.25
363.656	78.25
363.882	94.25
364.109	90.25
364.335	90.25
364.562	91.25
364.788	104.25
365.015	92.25
365.241	98.25
365.468	106.25
365.694	99.25
365.92	95.25
366.147	109.25
366.373	97.25
366.599	95.25
366.826	92.25
367.052	79.25
367.278	91.25
367.505	91.25
367.731	81.25
367.957	83.25
368.184	88.25
368.41	85.25
368.636	106.25
368.862	115.25
369.089	98.25
369.315	85.25
369.541	85.25
369.767	90.25
369.993	88.25
370.219	83.25
370.445	93.25
370.672	89.25
370.898	100.25
371.124	83.25
371.35	76.25
371.576	81.25
371.802	87.25
372.028	87.25
372.254	81.25
372.48	83.25
372.706	78.25
372.932	93.25
373.158	88.25
373.384	93.25
373.61	99.25
373.835	103.25
374.061	64.25
374.287	90.25
374.513	86.25
374.739	96.25
374.965	86.25
375.191	88.25
375.416	96.25
375.642	102.25
375.868	86.25
376.094	92.25
376.319	90.25
376.545	98.25
376.771	103.25
376.997	93.25
377.222	81.25
377.448	96.25
377.674	84.25
377.899	85.25
378.125	88.25
378.35	79.25
378.576	97.25
378.802	95.25
379.027	97.25
379.253	88.25
379.478	92.25
379.704	94.25
379.929	90.25
380.155	97.25
380.38	100.25
380.606	91.25
380.831	117.25
381.057	97.25
381.282	83.25
381.507	90.25
381.733	81.25
381.958	92.25
382.184	101.25
382.409	102.25
382.634	100.25
382.86	106.25
383.085	100.25
383.31	97.25
383.535	97.25
383.761	88.25
383.986	104.25
384.211	100.25
384.436	97.25
384.662	91.25
384.887	90.25
385.112	107.25
385.337	97.25
385.562	99.25
385.787	101.25
386.013	111.25
386.238	109.25
386.463	114.25
386.688	107.25
386.913	82.25
387.138	99.25
387.363	96.25
387.588	103.25
387.813	96.25
388.038	111.25
388.263	108.25
388.488	96.25
388.713	104.25
388.938	100.25
389.163	97.25
389.387	102.25
389.612	94.25
389.837	80.25
390.062	100.25
390.287	98.25
390.512	102.25
390.736	94.25
390.961	95.25
391.186	90.25
391.411	100.25
391.636	86.25
391.86	95.25
392.085	97.25
392.31	84.25
392.534	84.25
392.759	81.25
392.984	86.25
393.208	88.25
393.433	88.25
393.658	79.25
393.882	93.25
394.107	90.25
394.331	96.25
394.556	86.25
394.78	99.25
395.005	87.25
395.229	80.25
395.454	94.25
395.678	91.25
395.903	88.25
396.127	89.25
396.352	87.25
396.576	87.25
396.801	80.25
397.025	87.25
397.249	87.25
397.474	89.25
397.698	87.25
397.922	79.25
398.147	84.25
398.371	89.25
398.595	81.25
398.82	93.25
399.044	82.25
399.268	100.25
399.492	91.25
399.717	99.25
399.941	101.25
400.165	98.25
400.389	89.25
400.613	94.25
400.837	90.25
401.062	88.25
401.286	86.25
401.51	87.25
401.734	96.25
401.958	96.25
402.182	103.25
402.406	136.25
402.63	118.25
402.854	102.25
403.078	94.25
403.302	74.25
403.526	99.25
403.75	96.25
403.974	83.25
404.198	98.25
404.422	85.25
404.645	90.25
404.869	94.25
405.093	97.25
405.317	99.25
405.541	96.25
405.765	115.25
405.988	107.25
406.212	130.25
406.436	193.25
406.66	135.25
406.883	100.25
407.107	87.25
407.331	106.25
407.555	90.25
407.778	91.25
408.002	93.25
408.226	88.25
408.449	91.25
408.673	84.25
408.896	88.25
409.12	98.25
409.344	93.25
409.567	81.25
409.791	92.25
410.014	92.25
410.238	110.25
410.461	95.25
410.685	96.25
410.908	103.25
411.132	108.25
411.355	100.25
411.578	99.25
411.802	110.25
412.025	86.25
412.249	94.25
412.472	88.25
412.695	81.25
412.919	94.25
413.142	85.25
413.365	104.25
413.589	101.25
413.812	91.25
414.035	86.25
414.258	85.25
414.482	80.25
414.705	98.25
414.928	92.25
415.151	90.25
415.374	86.25
415.597	88.25
415.821	95.25
416.044	94.25
416.267	94.25
416.49	89.25
416.713	96.25
416.936	87.25
417.159	86.25
417.382	101.25
417.605	88.25
417.828	92.25
418.051	95.25
418.274	86.25
418.497	87.25
418.72	78.25
418.943	96.25
419.166	80.25
419.389	77.25
419.611	91.25
419.834	91.25
420.057	100.25
420.28	89.25
420.503	81.25
420.726	76.25
420.948	68.25
421.171	89.25
421.394	88.25
421.617	95.25
421.839	90.25
422.062	91.25
422.285	92.25
422.507	102.25
422.73	111.25
422.953	97.25
423.175	94.25
423.398	98.25
423.621	75.25
423.843	82.25
424.066	75.25
424.288	86.25
424.511	100.25
424.733	94.25
424.956	113.25
425.178	92.25
425.401	103.25
425.623	88.25
425.846	102.25
426.068	92.25
426.291	94.25
426.513	84.25
426.735	81.25
426.958	92.25
427.18	99.25
427.402	141.25
427.625	156.25
427.847	121.25
428.069	87.25
428.292	97.25
428.514	81.25
428.736	96.25
428.958	107.25
429.181	89.25
429.403	103.25
429.625	86.25
429.847	87.25
430.069	110.25
430.292	85.25
430.514	81.25
430.736	85.25
430.958	90.25
431.18	94.25
431.402	97.25
431.624	91.25
431.846	86.25
432.068	87.25
432.29	100.25
432.512	89.25
432.734	87.25
432.956	83.25
433.178	98.25
433.4	110.25
433.622	96.25
433.844	93.25
434.066	87.25
434.287	90.25
434.509	86.25
434.731	85.25
434.953	80.25
435.175	103.25
435.397	88.25
435.618	110.25
435.84	105.25
436.062	114.25
436.284	106.25
436.505	92.25
436.727	102.25
436.949	94.25
437.17	95.25
437.392	93.25
437.614	80.25
437.835	95.25
438.057	112.25
438.278	107.25
438.5	97.25
438.721	102.25
438.943	113.25
439.165	94.25
439.386	104.25
439.608	105.25
439.829	88.25
440.05	109.25
440.272	124.25
440.493	97.25
440.715	84.25
440.936	89.25
441.158	85.25
441.379	88.25
441.6	91.25
441.822	80.25
442.043	95.25
442.264	106.25
442.486	97.25
442.707	88.25
442.928	108.25
443.149	102.25
443.371	108.25
443.592	98.25
443.813	98.25
444.034	88.25
444.255	103.25
444.476	86.25
444.698	86.25
444.919	91.25
445.14	127.25
445.361	120.25
445.582	103.25
445.803	131.25
446.024	124.25
446.245	116.25
446.466	103.25
446.687	98.25
446.908	90.25
447.129	88.25
447.35	102.25
447.571	83.25
447.792	96.25
448.013	100.25
448.234	98.25
448.455	90.25
448.675	107.25
448.896	106.25
449.117	98.25
449.338	103.25
449.559	137.25
449.779	118.25
450	84.25
450.221	86.25
450.442	91.25
450.662	98.25
450.883	111.25
451.104	114.25
451.324	95.25
451.545	74.25
451.766	75.25
451.986	75.25
452.207	85.25
452.428	98.25
452.648	92.25
452.869	97.25
453.089	89.25
453.31	96.25
453.53	99.25
453.751	71.25
453.971	85.25
454.192	93.25
454.412	97.25
454.633	81.25
454.853	86.25
455.073	97.25
455.294	89.25
455.514	103.25
455.734	86.25
455.955	72.25
456.175	83.25
456.395	97.25
456.616	85.25
456.836	84.25
457.056	76.25
457.276	82.25
457.497	82.25
457.717	88.25
457.937	94.25
458.157	92.25
458.377	94.25
458.598	107.25
458.818	130.25
459.038	133.25
459.258	110.25
459.478	99.25
459.698	94.25
459.918	94.25
460.138	99.25
460.358	82.25
460.578	86.25
460.798	100.25
461.018	98.25
461.238	83.25
461.458	87.25
461.678	86.25
461.898	80.25
462.118	88.25
462.338	82.25
462.558	86.25
462.777	84.25
462.997	88.25
463.217	77.25
463.437	84.25
463.657	86.25
463.876	92.25
464.096	90.25
464.316	87.25
464.536	87.25
464.755	75.25
464.975	104.25
465.195	138.25
465.414	134.25
465.634	89.25
465.854	87.25
466.073	100.25
466.293	105.25
466.512	74.25
466.732	75.25
466.951	78.25
467.171	83.25
467.391	86.25
467.61	95.25
467.829	90.25
468.049	92.25
468.268	88.25
468.488	78.25
468.707	91.25
468.927	91.25
469.146	77.25
469.365	95.25
469.585	99.25
469.804	94.25
470.023	99.25
470.243	80.25
470.462	95.25
470.681	100.25
470.901	95.25
471.12	73.25
471.339	73.25
471.558	95.25
471.777	77.25
471.997	80.25
472.216	93.25
472.435	80.25
472.654	83.25
472.873	99.25
473.092	99.25
473.311	96.25
473.53	90.25
473.749	76.25
473.968	100.25
474.187	98.25
474.406	89.25
474.625	81.25
474.844	91.25
475.063	87.25
475.282	92.25
475.501	88.25
475.72	95.25
475.939	85.25
476.158	88.25
476.377	87.25
476.596	80.25
476.814	96.25
477.033	85.25
477.252	89.25
477.471	105.25
477.69	89.25
477.908	89.25
478.127	95.25
478.346	80.25
478.564	86.25
478.783	92.25
479.002	97.25
479.22	98.25
479.439	98.25
479.658	100.25
479.876	86.25
480.095	95.25
480.313	98.25
480.532	89.25
480.751	91.25
480.969	94.25
481.188	114.25
481.406	95.25
481.624	102.25
481.843	86.25
482.061	86.25
482.28	77.25
482.498	68.25
482.717	74.25
482.935	66.25
483.153	77.25
483.372	88.25
483.59	85.25
483.808	99.25
484.027	76.25
484.245	101.25
484.463	79.25
484.681	93.25
484.9	100.25
485.118	103.25
485.336	91.25
485.554	98.25
485.772	97.25
485.99	100.25
486.209	103.25
486.427	114.25
486.645	114.25
486.863	114.25
487.081	89.25
487.299	94.25
487.517	109.25
487.735	94.25
487.953	89.25
488.171	95.25
488.389	96.25
488.607	93.25
488.825	90.25
489.043	90.25
489.261	85.25
489.479	95.25
489.696	85.25
489.914	81.25
490.132	93.25
490.35	103.25
490.568	101.25
490.786	88.25
491.003	95.25
491.221	89.25
491.439	84.25
491.657	97.25
491.874	97.25
492.092	92.25
492.31	83.25
492.527	79.25
492.745	83.25
492.963	88.25
493.18	102.25
493.398	112.25
493.615	90.25
493.833	94.25
494.05	89.25
494.268	94.25
494.485	89.25
494.703	91.25
494.92	86.25
495.138	93.25
495.355	86.25
495.573	93.25
495.79	92.25
496.008	83.25
496.225	97.25
496.442	85.25
496.66	100.25
496.877	105.25
497.094	104.25
497.312	95.25
497.529	89.25
497.746	71.25
497.963	94.25
498.181	96.25
498.398	84.25
498.615	111.25
498.832	100.25
499.049	88.25
499.267	75.25
499.484	90.25
499.701	105.25
499.918	87.25
500.135	87.25
500.352	92.25
500.569	90.25
500.786	91.25
501.003	89.25
501.22	76.25
501.437	89.25
501.654	93.25
501.871	104.25
502.088	83.25
502.305	92.25
502.522	95.25
502.739	101.25
502.956	81.25
503.172	95.25
503.389	103.25
503.606	108.25
503.823	104.25
504.04	96.25
504.256	75.25
504.473	81.25
504.69	98.25
504.907	99.25
505.123	71.25
505.34	84.25
505.557	89.25
505.773	92.25
505.99	105.25
506.207	80.25
506.423	97.25
506.64	86.25
506.856	86.25
507.073	90.25
507.289	94.25
507.506	93.25
507.722	89.25
507.939	107.25
508.155	91.25
508.372	89.25
508.588	99.25
508.805	83.25
509.021	74.25
509.238	89.25
509.454	88.25
509.67	93.25
509.887	111.25
510.103	122.25
510.319	194.25
510.536	622.25
510.752	1820.25
510.968	490.25
511.184	132.25
511.401	104.25
511.617	93.25
511.833	95.25
512.049	101.25
512.265	93.25
512.481	92.25
512.698	77.25
512.914	85.25
513.13	85.25
513.346	84.25
513.562	81.25
513.778	104.25
513.994	94.25
514.21	107.25
514.426	107.25
514.642	116.25
514.858	122.25
515.074	152.25
515.29	346.25
515.506	1080.25
515.721	418.25
515.937	137.25
