Data from Uncirc_1998_H10_HRD10591_00048.txt Node
Date: Wed Jan 03 11:25:34 EST 2024
User: Yrep
Spectrometer: HR+D1059
Trigger mode: 1
Integration Time (sec): 1.000000E-1
Scans to average: 1
Electric dark correction enabled: true
Nonlinearity correction enabled: false
Boxcar width: 0
XAxis mode: Wavelengths
Number of Pixels in Spectrum: 2048
>>>>>Begin Spectral Data<<<<<
223.165	-18.81
223.4	-18.81
223.635	-18.81
223.869	-2.81
224.104	-22.81
224.338	-13.81
224.573	-14.81
224.808	-20.81
225.042	-3.81
225.277	2.19
225.511	-4.81
225.746	-1.81
225.98	6.19
226.215	23.19
226.449	7.19
226.683	17.19
226.918	14.19
227.152	34.19
227.387	40.19
227.621	37.19
227.856	50.19
228.09	59.19
228.324	65.19
228.559	60.19
228.793	57.19
229.027	55.19
229.262	75.19
229.496	81.19
229.73	79.19
229.964	76.19
230.199	87.19
230.433	85.19
230.667	87.19
230.901	70.19
231.136	69.19
231.37	54.19
231.604	73.19
231.838	80.19
232.072	76.19
232.306	72.19
232.541	88.19
232.775	94.19
233.009	83.19
233.243	83.19
233.477	77.19
233.711	85.19
233.945	78.19
234.179	85.19
234.413	93.19
234.647	83.19
234.881	87.19
235.115	86.19
235.349	69.19
235.583	73.19
235.817	91.19
236.051	79.19
236.285	95.19
236.519	92.19
236.753	74.19
236.987	85.19
237.221	79.19
237.455	88.19
237.689	69.19
237.922	78.19
238.156	83.19
238.39	64.19
238.624	72.19
238.858	74.19
239.091	79.19
239.325	54.19
239.559	77.19
239.793	74.19
240.027	85.19
240.26	83.19
240.494	79.19
240.728	84.19
240.961	70.19
241.195	61.19
241.429	81.19
241.662	80.19
241.896	79.19
242.13	86.19
242.363	73.19
242.597	77.19
242.83	82.19
243.064	90.19
243.298	86.19
243.531	79.19
243.765	85.19
243.998	87.19
244.232	79.19
244.465	87.19
244.699	82.19
244.932	68.19
245.166	69.19
245.399	72.19
245.633	78.19
245.866	84.19
246.099	87.19
246.333	84.19
246.566	74.19
246.8	87.19
247.033	76.19
247.266	83.19
247.5	80.19
247.733	87.19
247.966	85.19
248.2	87.19
248.433	81.19
248.666	66.19
248.899	86.19
249.133	75.19
249.366	89.19
249.599	94.19
249.832	87.19
250.066	90.19
250.299	82.19
250.532	83.19
250.765	70.19
250.998	81.19
251.231	86.19
251.465	80.19
251.698	74.19
251.931	76.19
252.164	65.19
252.397	91.19
252.63	76.19
252.863	77.19
253.096	74.19
253.329	79.19
253.562	65.19
253.795	69.19
254.028	73.19
254.261	89.19
254.494	80.19
254.727	96.19
254.96	82.19
255.193	81.19
255.426	80.19
255.659	71.19
255.892	89.19
256.124	85.19
256.357	92.19
256.59	82.19
256.823	79.19
257.056	85.19
257.289	82.19
257.521	101.19
257.754	80.19
257.987	82.19
258.22	77.19
258.452	85.19
258.685	84.19
258.918	89.19
259.151	76.19
259.383	91.19
259.616	69.19
259.849	80.19
260.081	78.19
260.314	82.19
260.547	88.19
260.779	76.19
261.012	75.19
261.244	69.19
261.477	87.19
261.71	88.19
261.942	107.19
262.175	90.19
262.407	90.19
262.64	78.19
262.872	83.19
263.105	97.19
263.337	81.19
263.57	95.19
263.802	75.19
264.035	76.19
264.267	91.19
264.499	86.19
264.732	78.19
264.964	88.19
265.197	75.19
265.429	86.19
265.661	84.19
265.894	74.19
266.126	89.19
266.358	93.19
266.591	89.19
266.823	80.19
267.055	82.19
267.287	85.19
267.52	80.19
267.752	77.19
267.984	88.19
268.216	77.19
268.448	94.19
268.681	90.19
268.913	82.19
269.145	82.19
269.377	73.19
269.609	87.19
269.841	80.19
270.073	75.19
270.306	89.19
270.538	76.19
270.77	78.19
271.002	87.19
271.234	94.19
271.466	81.19
271.698	91.19
271.93	76.19
272.162	93.19
272.394	76.19
272.626	90.19
272.858	85.19
273.09	83.19
273.322	80.19
273.553	87.19
273.785	96.19
274.017	75.19
274.249	83.19
274.481	94.19
274.713	85.19
274.945	93.19
275.176	94.19
275.408	99.19
275.64	75.19
275.872	95.19
276.104	88.19
276.335	94.19
276.567	94.19
276.799	107.19
277.031	97.19
277.262	91.19
277.494	88.19
277.726	87.19
277.957	81.19
278.189	73.19
278.421	94.19
278.652	95.19
278.884	78.19
279.115	91.19
279.347	96.19
279.579	83.19
279.81	100.19
280.042	96.19
280.273	87.19
280.505	90.19
280.736	84.19
280.968	81.19
281.199	93.19
281.431	73.19
281.662	84.19
281.894	95.19
282.125	98.19
282.356	112.19
282.588	134.19
282.819	99.19
283.051	74.19
283.282	91.19
283.513	85.19
283.745	74.19
283.976	78.19
284.207	83.19
284.439	92.19
284.67	93.19
284.901	105.19
285.132	78.19
285.364	94.19
285.595	89.19
285.826	92.19
286.057	86.19
286.288	95.19
286.52	88.19
286.751	81.19
286.982	91.19
287.213	86.19
287.444	75.19
287.675	83.19
287.906	83.19
288.138	85.19
288.369	91.19
288.6	85.19
288.831	99.19
289.062	87.19
289.293	82.19
289.524	87.19
289.755	90.19
289.986	83.19
290.217	97.19
290.448	98.19
290.679	81.19
290.91	87.19
291.141	92.19
291.371	94.19
291.602	94.19
291.833	96.19
292.064	76.19
292.295	97.19
292.526	92.19
292.757	83.19
292.987	81.19
293.218	97.19
293.449	99.19
293.68	75.19
293.91	83.19
294.141	90.19
294.372	97.19
294.603	98.19
294.833	97.19
295.064	103.19
295.295	90.19
295.525	89.19
295.756	95.19
295.987	118.19
296.217	128.19
296.448	96.19
296.679	75.19
296.909	81.19
297.14	78.19
297.37	82.19
297.601	88.19
297.831	84.19
298.062	88.19
298.292	94.19
298.523	98.19
298.753	90.19
298.984	91.19
299.214	82.19
299.445	93.19
299.675	96.19
299.905	92.19
300.136	77.19
300.366	86.19
300.597	83.19
300.827	92.19
301.057	93.19
301.288	104.19
301.518	91.19
301.748	85.19
301.979	89.19
302.209	90.19
302.439	89.19
302.669	91.19
302.9	65.19
303.13	89.19
303.36	88.19
303.59	98.19
303.82	97.19
304.051	97.19
304.281	94.19
304.511	101.19
304.741	85.19
304.971	80.19
305.201	92.19
305.431	82.19
305.661	89.19
305.891	93.19
306.121	94.19
306.352	76.19
306.582	98.19
306.812	88.19
307.042	91.19
307.272	88.19
307.502	86.19
307.731	95.19
307.961	93.19
308.191	102.19
308.421	94.19
308.651	94.19
308.881	105.19
309.111	93.19
309.341	96.19
309.571	85.19
309.8	89.19
310.03	77.19
310.26	91.19
310.49	87.19
310.72	103.19
310.949	99.19
311.179	101.19
311.409	103.19
311.639	99.19
311.868	111.19
312.098	97.19
312.328	101.19
312.557	83.19
312.787	106.19
313.017	97.19
313.246	81.19
313.476	103.19
313.706	98.19
313.935	73.19
314.165	104.19
314.394	106.19
314.624	101.19
314.853	97.19
315.083	93.19
315.312	93.19
315.542	88.19
315.771	87.19
316.001	78.19
316.23	101.19
316.46	89.19
316.689	84.19
316.919	82.19
317.148	93.19
317.377	102.19
317.607	96.19
317.836	86.19
318.065	92.19
318.295	74.19
318.524	89.19
318.753	94.19
318.983	108.19
319.212	97.19
319.441	102.19
319.67	88.19
319.9	94.19
320.129	96.19
320.358	106.19
320.587	95.19
320.816	97.19
321.046	88.19
321.275	91.19
321.504	85.19
321.733	79.19
321.962	97.19
322.191	103.19
322.42	93.19
322.649	116.19
322.878	101.19
323.108	113.19
323.337	127.19
323.566	136.19
323.795	141.19
324.024	186.19
324.253	312.19
324.482	692.19
324.71	1325.19
324.939	1722.19
325.168	659.19
325.397	207.19
325.626	134.19
325.855	107.19
326.084	127.19
326.313	134.19
326.542	147.19
326.77	206.19
326.999	390.19
327.228	750.19
327.457	1344.19
327.686	1099.19
327.914	316.19
328.143	171.19
328.372	137.19
328.6	118.19
328.829	120.19
329.058	118.19
329.287	111.19
329.515	91.19
329.744	97.19
329.972	95.19
330.201	108.19
330.43	118.19
330.658	113.19
330.887	121.19
331.115	116.19
331.344	109.19
331.572	105.19
331.801	94.19
332.03	89.19
332.258	103.19
332.486	87.19
332.715	90.19
332.943	89.19
333.172	98.19
333.4	91.19
333.629	96.19
333.857	104.19
334.085	90.19
334.314	97.19
334.542	101.19
334.771	93.19
334.999	99.19
335.227	93.19
335.455	78.19
335.684	94.19
335.912	103.19
336.14	95.19
336.369	96.19
336.597	89.19
336.825	85.19
337.053	94.19
337.281	86.19
337.51	101.19
337.738	98.19
337.966	94.19
338.194	73.19
338.422	99.19
338.65	97.19
338.878	98.19
339.106	95.19
339.334	100.19
339.562	90.19
339.79	80.19
340.018	99.19
340.246	88.19
340.474	96.19
340.702	110.19
340.93	96.19
341.158	88.19
341.386	91.19
341.614	85.19
341.842	84.19
342.07	89.19
342.298	95.19
342.526	93.19
342.754	86.19
342.981	95.19
343.209	88.19
343.437	99.19
343.665	91.19
343.893	83.19
344.12	97.19
344.348	97.19
344.576	95.19
344.804	103.19
345.031	94.19
345.259	83.19
345.487	86.19
345.714	93.19
345.942	82.19
346.17	103.19
346.397	99.19
346.625	103.19
346.853	98.19
347.08	92.19
347.308	88.19
347.535	86.19
347.763	96.19
347.99	92.19
348.218	92.19
348.445	107.19
348.673	93.19
348.9	97.19
349.128	100.19
349.355	90.19
349.583	92.19
349.81	93.19
350.037	89.19
350.265	95.19
350.492	98.19
350.72	88.19
350.947	95.19
351.174	90.19
351.402	100.19
351.629	103.19
351.856	110.19
352.083	92.19
352.311	99.19
352.538	99.19
352.765	105.19
352.992	113.19
353.22	116.19
353.447	119.19
353.674	117.19
353.901	89.19
354.128	99.19
354.355	100.19
354.583	104.19
354.81	94.19
355.037	93.19
355.264	107.19
355.491	101.19
355.718	83.19
355.945	81.19
356.172	98.19
356.399	103.19
356.626	100.19
356.853	89.19
357.08	87.19
357.307	81.19
357.534	99.19
357.761	90.19
357.988	86.19
358.215	93.19
358.441	81.19
358.668	88.19
358.895	88.19
359.122	85.19
359.349	91.19
359.576	87.19
359.802	86.19
360.029	103.19
360.256	90.19
360.483	96.19
360.709	89.19
360.936	79.19
361.163	95.19
361.39	86.19
361.616	96.19
361.843	78.19
362.07	97.19
362.296	90.19
362.523	92.19
362.749	114.19
362.976	103.19
363.203	85.19
363.429	86.19
363.656	101.19
363.882	95.19
364.109	101.19
364.335	80.19
364.562	98.19
364.788	88.19
365.015	92.19
365.241	104.19
365.468	112.19
365.694	86.19
365.92	87.19
366.147	79.19
366.373	85.19
366.599	91.19
366.826	89.19
367.052	90.19
367.278	89.19
367.505	91.19
367.731	77.19
367.957	100.19
368.184	101.19
368.41	105.19
368.636	106.19
368.862	108.19
369.089	97.19
369.315	93.19
369.541	93.19
369.767	98.19
369.993	92.19
370.219	86.19
370.445	89.19
370.672	86.19
370.898	89.19
371.124	81.19
371.35	85.19
371.576	99.19
371.802	87.19
372.028	79.19
372.254	89.19
372.48	91.19
372.706	84.19
372.932	95.19
373.158	90.19
373.384	94.19
373.61	91.19
373.835	85.19
374.061	90.19
374.287	99.19
374.513	96.19
374.739	87.19
374.965	89.19
375.191	98.19
375.416	92.19
375.642	72.19
375.868	93.19
376.094	95.19
376.319	94.19
376.545	93.19
376.771	96.19
376.997	76.19
377.222	86.19
377.448	91.19
377.674	84.19
377.899	90.19
378.125	81.19
378.35	98.19
378.576	91.19
378.802	87.19
379.027	94.19
379.253	95.19
379.478	93.19
379.704	86.19
379.929	98.19
380.155	90.19
380.38	110.19
380.606	89.19
380.831	79.19
381.057	96.19
381.282	91.19
381.507	85.19
381.733	93.19
381.958	81.19
382.184	89.19
382.409	98.19
382.634	111.19
382.86	101.19
383.085	109.19
383.31	92.19
383.535	98.19
383.761	99.19
383.986	88.19
384.211	99.19
384.436	103.19
384.662	89.19
384.887	95.19
385.112	85.19
385.337	97.19
385.562	94.19
385.787	82.19
386.013	107.19
386.238	104.19
386.463	99.19
386.688	90.19
386.913	114.19
387.138	95.19
387.363	91.19
387.588	108.19
387.813	99.19
388.038	96.19
388.263	104.19
388.488	95.19
388.713	103.19
388.938	89.19
389.163	103.19
389.387	90.19
389.612	89.19
389.837	91.19
390.062	85.19
390.287	101.19
390.512	82.19
390.736	96.19
390.961	79.19
391.186	87.19
391.411	86.19
391.636	100.19
391.86	87.19
392.085	93.19
392.31	91.19
392.534	73.19
392.759	97.19
392.984	111.19
393.208	97.19
393.433	88.19
393.658	73.19
393.882	96.19
394.107	81.19
394.331	87.19
394.556	93.19
394.78	88.19
395.005	91.19
395.229	90.19
395.454	83.19
395.678	87.19
395.903	89.19
396.127	88.19
396.352	89.19
396.576	95.19
396.801	82.19
397.025	89.19
397.249	87.19
397.474	98.19
397.698	100.19
397.922	93.19
398.147	85.19
398.371	83.19
398.595	98.19
398.82	93.19
399.044	85.19
399.268	86.19
399.492	85.19
399.717	93.19
399.941	87.19
400.165	88.19
400.389	77.19
400.613	103.19
400.837	95.19
401.062	80.19
401.286	88.19
401.51	77.19
401.734	81.19
401.958	101.19
402.182	117.19
402.406	143.19
402.63	106.19
402.854	101.19
403.078	80.19
403.302	73.19
403.526	87.19
403.75	98.19
403.974	93.19
404.198	91.19
404.422	78.19
404.645	74.19
404.869	73.19
405.093	95.19
405.317	96.19
405.541	87.19
405.765	98.19
405.988	103.19
406.212	147.19
406.436	185.19
406.66	117.19
406.883	106.19
407.107	87.19
407.331	97.19
407.555	92.19
407.778	102.19
408.002	94.19
408.226	84.19
408.449	87.19
408.673	92.19
408.896	95.19
409.12	99.19
409.344	89.19
409.567	91.19
409.791	96.19
410.014	89.19
410.238	87.19
410.461	88.19
410.685	101.19
410.908	96.19
411.132	99.19
411.355	89.19
411.578	89.19
411.802	87.19
412.025	83.19
412.249	94.19
412.472	95.19
412.695	93.19
412.919	77.19
413.142	81.19
413.365	80.19
413.589	81.19
413.812	82.19
414.035	94.19
414.258	105.19
414.482	81.19
414.705	94.19
414.928	96.19
415.151	90.19
415.374	82.19
415.597	97.19
415.821	81.19
416.044	81.19
416.267	81.19
416.49	87.19
416.713	70.19
416.936	89.19
417.159	82.19
417.382	96.19
417.605	73.19
417.828	90.19
418.051	92.19
418.274	94.19
418.497	77.19
418.72	93.19
418.943	99.19
419.166	80.19
419.389	90.19
419.611	90.19
419.834	97.19
420.057	96.19
420.28	94.19
420.503	93.19
420.726	88.19
420.948	98.19
421.171	91.19
421.394	82.19
421.617	94.19
421.839	92.19
422.062	96.19
422.285	90.19
422.507	105.19
422.73	105.19
422.953	92.19
423.175	88.19
423.398	86.19
423.621	92.19
423.843	93.19
424.066	81.19
424.288	84.19
424.511	98.19
424.733	96.19
424.956	99.19
425.178	88.19
425.401	102.19
425.623	86.19
425.846	88.19
426.068	90.19
426.291	73.19
426.513	70.19
426.735	86.19
426.958	76.19
427.18	95.19
427.402	131.19
427.625	141.19
427.847	101.19
428.069	99.19
428.292	86.19
428.514	83.19
428.736	105.19
428.958	78.19
429.181	99.19
429.403	87.19
429.625	88.19
429.847	79.19
430.069	96.19
430.292	82.19
430.514	91.19
430.736	85.19
430.958	93.19
431.18	92.19
431.402	83.19
431.624	73.19
431.846	85.19
432.068	81.19
432.29	82.19
432.512	87.19
432.734	85.19
432.956	95.19
433.178	86.19
433.4	106.19
433.622	86.19
433.844	88.19
434.066	91.19
434.287	97.19
434.509	92.19
434.731	80.19
434.953	93.19
435.175	79.19
435.397	108.19
435.618	87.19
435.84	102.19
436.062	99.19
436.284	109.19
436.505	100.19
436.727	98.19
436.949	98.19
437.17	89.19
437.392	78.19
437.614	95.19
437.835	107.19
438.057	105.19
438.278	93.19
438.5	93.19
438.721	109.19
438.943	94.19
439.165	87.19
439.386	93.19
439.608	81.19
439.829	92.19
440.05	105.19
440.272	119.19
440.493	101.19
440.715	89.19
440.936	82.19
441.158	70.19
441.379	92.19
441.6	91.19
441.822	80.19
442.043	94.19
442.264	101.19
442.486	90.19
442.707	95.19
442.928	102.19
443.149	120.19
443.371	123.19
443.592	109.19
443.813	95.19
444.034	97.19
444.255	83.19
444.476	84.19
444.698	98.19
444.919	90.19
445.14	120.19
445.361	121.19
445.582	108.19
445.803	130.19
446.024	121.19
446.245	116.19
446.466	101.19
446.687	87.19
446.908	92.19
447.129	95.19
447.35	82.19
447.571	97.19
447.792	82.19
448.013	95.19
448.234	99.19
448.455	93.19
448.675	94.19
448.896	105.19
449.117	102.19
449.338	94.19
449.559	121.19
449.779	122.19
450	95.19
450.221	87.19
450.442	88.19
450.662	97.19
450.883	86.19
451.104	92.19
451.324	107.19
451.545	86.19
451.766	78.19
451.986	87.19
452.207	102.19
452.428	79.19
452.648	91.19
452.869	113.19
453.089	98.19
453.31	105.19
453.53	87.19
453.751	103.19
453.971	94.19
454.192	100.19
454.412	98.19
454.633	87.19
454.853	82.19
455.073	91.19
455.294	82.19
455.514	89.19
455.734	84.19
455.955	80.19
456.175	79.19
456.395	77.19
456.616	81.19
456.836	81.19
457.056	89.19
457.276	84.19
457.497	102.19
457.717	81.19
457.937	94.19
458.157	89.19
458.377	89.19
458.598	106.19
458.818	129.19
459.038	131.19
459.258	103.19
459.478	102.19
459.698	84.19
459.918	94.19
460.138	84.19
460.358	81.19
460.578	92.19
460.798	85.19
461.018	83.19
461.238	70.19
461.458	83.19
461.678	99.19
461.898	95.19
462.118	86.19
462.338	81.19
462.558	97.19
462.777	79.19
462.997	82.19
463.217	88.19
463.437	87.19
463.657	90.19
463.876	86.19
464.096	94.19
464.316	96.19
464.536	83.19
464.755	87.19
464.975	103.19
465.195	133.19
465.414	137.19
465.634	82.19
465.854	94.19
466.073	93.19
466.293	93.19
466.512	87.19
466.732	85.19
466.951	94.19
467.171	88.19
467.391	113.19
467.61	97.19
467.829	89.19
468.049	96.19
468.268	93.19
468.488	73.19
468.707	97.19
468.927	86.19
469.146	90.19
469.365	86.19
469.585	85.19
469.804	106.19
470.023	79.19
470.243	99.19
470.462	103.19
470.681	99.19
470.901	93.19
471.12	80.19
471.339	91.19
471.558	94.19
471.777	80.19
471.997	89.19
472.216	94.19
472.435	82.19
472.654	88.19
472.873	86.19
473.092	102.19
473.311	85.19
473.53	91.19
473.749	90.19
473.968	87.19
474.187	96.19
474.406	96.19
474.625	80.19
474.844	78.19
475.063	93.19
475.282	91.19
475.501	93.19
475.72	86.19
475.939	93.19
476.158	85.19
476.377	81.19
476.596	83.19
476.814	95.19
477.033	93.19
477.252	76.19
477.471	85.19
477.69	93.19
477.908	90.19
478.127	89.19
478.346	82.19
478.564	89.19
478.783	96.19
479.002	104.19
479.22	100.19
479.439	104.19
479.658	94.19
479.876	68.19
480.095	86.19
480.313	81.19
480.532	87.19
480.751	92.19
480.969	99.19
481.188	103.19
481.406	99.19
481.624	91.19
481.843	102.19
482.061	93.19
482.28	91.19
482.498	73.19
482.717	107.19
482.935	104.19
483.153	84.19
483.372	87.19
483.59	91.19
483.808	94.19
484.027	100.19
484.245	95.19
484.463	88.19
484.681	101.19
484.9	110.19
485.118	96.19
485.336	88.19
485.554	103.19
485.772	103.19
485.99	118.19
486.209	109.19
486.427	107.19
486.645	98.19
486.863	115.19
487.081	99.19
487.299	92.19
487.517	94.19
487.735	82.19
487.953	87.19
488.171	90.19
488.389	96.19
488.607	93.19
488.825	80.19
489.043	83.19
489.261	81.19
489.479	102.19
489.696	85.19
489.914	103.19
490.132	90.19
490.35	94.19
490.568	76.19
490.786	87.19
491.003	91.19
491.221	86.19
491.439	92.19
491.657	83.19
491.874	90.19
492.092	84.19
492.31	97.19
492.527	82.19
492.745	91.19
492.963	115.19
493.18	88.19
493.398	97.19
493.615	81.19
493.833	81.19
494.05	89.19
494.268	91.19
494.485	80.19
494.703	84.19
494.92	90.19
495.138	79.19
495.355	80.19
495.573	92.19
495.79	96.19
496.008	92.19
496.225	86.19
496.442	105.19
496.66	90.19
496.877	102.19
497.094	77.19
497.312	93.19
497.529	70.19
497.746	90.19
497.963	77.19
498.181	98.19
498.398	101.19
498.615	105.19
498.832	95.19
499.049	94.19
499.267	92.19
499.484	87.19
499.701	99.19
499.918	90.19
500.135	97.19
500.352	89.19
500.569	88.19
500.786	78.19
501.003	96.19
501.22	83.19
501.437	86.19
501.654	92.19
501.871	99.19
502.088	97.19
502.305	94.19
502.522	80.19
502.739	79.19
502.956	93.19
503.172	93.19
503.389	96.19
503.606	108.19
503.823	98.19
504.04	103.19
504.256	96.19
504.473	95.19
504.69	85.19
504.907	93.19
505.123	77.19
505.34	85.19
505.557	89.19
505.773	79.19
505.99	87.19
506.207	93.19
506.423	81.19
506.64	77.19
506.856	84.19
507.073	102.19
507.289	97.19
507.506	97.19
507.722	114.19
507.939	115.19
508.155	86.19
508.372	94.19
508.588	102.19
508.805	95.19
509.021	87.19
509.238	94.19
509.454	87.19
509.67	96.19
509.887	108.19
510.103	129.19
510.319	165.19
510.536	604.19
510.752	1846.19
510.968	531.19
511.184	136.19
511.401	102.19
511.617	110.19
511.833	98.19
512.049	107.19
512.265	97.19
512.481	91.19
512.698	91.19
512.914	88.19
513.13	98.19
513.346	85.19
513.562	99.19
513.778	113.19
513.994	77.19
514.21	79.19
514.426	116.19
514.642	125.19
514.858	117.19
515.074	149.19
515.29	380.19
515.506	1109.19
515.721	427.19
515.937	131.19
516.153	90.19
516.369	100.19
516.585	94.19
516.801	95.19
