Data from Uncirc_1998_H10_HRD10591_00024.txt Node
Date: Wed Jan 03 11:25:29 EST 2024
User: Yrep
Spectrometer: HR+D1059
Trigger mode: 1
Integration Time (sec): 1.000000E-1
Scans to average: 1
Electric dark correction enabled: true
Nonlinearity correction enabled: false
Boxcar width: 0
XAxis mode: Wavelengths
Number of Pixels in Spectrum: 2048
>>>>>Begin Spectral Data<<<<<
223.165	-20.25
223.4	-20.25
223.635	-20.25
223.869	-19.25
224.104	-17.25
224.338	-19.25
224.573	-16.25
224.808	-4.25
225.042	-14.25
225.277	-0.25
225.511	-12.25
225.746	5.75
225.98	6.75
226.215	15.75
226.449	20.75
226.683	25.75
226.918	20.75
227.152	27.75
227.387	33.75
227.621	29.75
227.856	41.75
228.09	44.75
228.324	56.75
228.559	73.75
228.793	65.75
229.027	69.75
229.262	62.75
229.496	77.75
229.73	62.75
229.964	74.75
230.199	78.75
230.433	84.75
230.667	74.75
230.901	79.75
231.136	81.75
231.37	66.75
231.604	72.75
231.838	79.75
232.072	64.75
232.306	62.75
232.541	65.75
232.775	80.75
233.009	80.75
233.243	74.75
233.477	76.75
233.711	82.75
233.945	73.75
234.179	73.75
234.413	74.75
234.647	71.75
234.881	79.75
235.115	84.75
235.349	87.75
235.583	88.75
235.817	84.75
236.051	73.75
236.285	82.75
236.519	59.75
236.753	66.75
236.987	77.75
237.221	74.75
237.455	76.75
237.689	59.75
237.922	90.75
238.156	70.75
238.39	64.75
238.624	67.75
238.858	80.75
239.091	71.75
239.325	87.75
239.559	74.75
239.793	86.75
240.027	64.75
240.26	78.75
240.494	80.75
240.728	75.75
240.961	82.75
241.195	88.75
241.429	83.75
241.662	88.75
241.896	63.75
242.13	72.75
242.363	71.75
242.597	74.75
242.83	70.75
243.064	86.75
243.298	81.75
243.531	78.75
243.765	72.75
243.998	87.75
244.232	78.75
244.465	80.75
244.699	75.75
244.932	71.75
245.166	86.75
245.399	79.75
245.633	76.75
245.866	80.75
246.099	86.75
246.333	70.75
246.566	70.75
246.8	63.75
247.033	85.75
247.266	73.75
247.5	83.75
247.733	96.75
247.966	73.75
248.2	85.75
248.433	86.75
248.666	85.75
248.899	86.75
249.133	73.75
249.366	76.75
249.599	75.75
249.832	78.75
250.066	75.75
250.299	96.75
250.532	62.75
250.765	76.75
250.998	70.75
251.231	84.75
251.465	88.75
251.698	83.75
251.931	91.75
252.164	77.75
252.397	83.75
252.63	77.75
252.863	76.75
253.096	91.75
253.329	78.75
253.562	86.75
253.795	98.75
254.028	83.75
254.261	80.75
254.494	86.75
254.727	89.75
254.96	70.75
255.193	84.75
255.426	77.75
255.659	80.75
255.892	71.75
256.124	68.75
256.357	64.75
256.59	71.75
256.823	88.75
257.056	88.75
257.289	91.75
257.521	71.75
257.754	76.75
257.987	61.75
258.22	78.75
258.452	80.75
258.685	75.75
258.918	87.75
259.151	75.75
259.383	87.75
259.616	87.75
259.849	92.75
260.081	64.75
260.314	92.75
260.547	79.75
260.779	83.75
261.012	94.75
261.244	78.75
261.477	89.75
261.71	96.75
261.942	95.75
262.175	102.75
262.407	84.75
262.64	72.75
262.872	87.75
263.105	82.75
263.337	80.75
263.57	74.75
263.802	91.75
264.035	86.75
264.267	78.75
264.499	87.75
264.732	81.75
264.964	74.75
265.197	86.75
265.429	76.75
265.661	96.75
265.894	92.75
266.126	93.75
266.358	56.75
266.591	82.75
266.823	82.75
267.055	89.75
267.287	89.75
267.52	74.75
267.752	87.75
267.984	82.75
268.216	82.75
268.448	81.75
268.681	83.75
268.913	94.75
269.145	80.75
269.377	79.75
269.609	94.75
269.841	71.75
270.073	89.75
270.306	74.75
270.538	69.75
270.77	79.75
271.002	82.75
271.234	92.75
271.466	78.75
271.698	70.75
271.93	81.75
272.162	78.75
272.394	69.75
272.626	82.75
272.858	75.75
273.09	86.75
273.322	70.75
273.553	68.75
273.785	91.75
274.017	85.75
274.249	85.75
274.481	88.75
274.713	79.75
274.945	84.75
275.176	91.75
275.408	93.75
275.64	85.75
275.872	89.75
276.104	90.75
276.335	75.75
276.567	100.75
276.799	98.75
277.031	89.75
277.262	101.75
277.494	84.75
277.726	86.75
277.957	86.75
278.189	91.75
278.421	77.75
278.652	84.75
278.884	81.75
279.115	82.75
279.347	72.75
279.579	76.75
279.81	83.75
280.042	66.75
280.273	80.75
280.505	96.75
280.736	82.75
280.968	77.75
281.199	92.75
281.431	74.75
281.662	87.75
281.894	87.75
282.125	91.75
282.356	102.75
282.588	124.75
282.819	104.75
283.051	78.75
283.282	73.75
283.513	87.75
283.745	94.75
283.976	86.75
284.207	91.75
284.439	89.75
284.67	97.75
284.901	88.75
285.132	74.75
285.364	86.75
285.595	86.75
285.826	97.75
286.057	83.75
286.288	83.75
286.52	83.75
286.751	78.75
286.982	80.75
287.213	80.75
287.444	86.75
287.675	82.75
287.906	82.75
288.138	78.75
288.369	87.75
288.6	97.75
288.831	90.75
289.062	98.75
289.293	92.75
289.524	78.75
289.755	82.75
289.986	76.75
290.217	85.75
290.448	88.75
290.679	82.75
290.91	73.75
291.141	83.75
291.371	97.75
291.602	82.75
291.833	66.75
292.064	92.75
292.295	97.75
292.526	92.75
292.757	100.75
292.987	92.75
293.218	94.75
293.449	91.75
293.68	89.75
293.91	85.75
294.141	83.75
294.372	79.75
294.603	83.75
294.833	90.75
295.064	92.75
295.295	97.75
295.525	91.75
295.756	95.75
295.987	98.75
296.217	117.75
296.448	116.75
296.679	99.75
296.909	89.75
297.14	77.75
297.37	80.75
297.601	95.75
297.831	83.75
298.062	83.75
298.292	68.75
298.523	81.75
298.753	72.75
298.984	98.75
299.214	92.75
299.445	78.75
299.675	87.75
299.905	89.75
300.136	69.75
300.366	77.75
300.597	106.75
300.827	83.75
301.057	93.75
301.288	79.75
301.518	86.75
301.748	86.75
301.979	99.75
302.209	78.75
302.439	88.75
302.669	78.75
302.9	81.75
303.13	82.75
303.36	87.75
303.59	78.75
303.82	92.75
304.051	87.75
304.281	92.75
304.511	92.75
304.741	87.75
304.971	77.75
305.201	83.75
305.431	85.75
305.661	92.75
305.891	92.75
306.121	82.75
306.352	98.75
306.582	90.75
306.812	89.75
307.042	96.75
307.272	100.75
307.502	88.75
307.731	79.75
307.961	78.75
308.191	78.75
308.421	71.75
308.651	79.75
308.881	94.75
309.111	77.75
309.341	88.75
309.571	92.75
309.8	105.75
310.03	92.75
310.26	100.75
310.49	75.75
310.72	86.75
310.949	96.75
311.179	87.75
311.409	76.75
311.639	91.75
311.868	104.75
312.098	92.75
312.328	90.75
312.557	109.75
312.787	97.75
313.017	104.75
313.246	95.75
313.476	103.75
313.706	78.75
313.935	98.75
314.165	102.75
314.394	96.75
314.624	91.75
314.853	93.75
315.083	93.75
315.312	96.75
315.542	91.75
315.771	79.75
316.001	81.75
316.23	98.75
316.46	96.75
316.689	87.75
316.919	84.75
317.148	90.75
317.377	93.75
317.607	90.75
317.836	90.75
318.065	109.75
318.295	91.75
318.524	88.75
318.753	84.75
318.983	95.75
319.212	101.75
319.441	90.75
319.67	108.75
319.9	89.75
320.129	93.75
320.358	89.75
320.587	94.75
320.816	94.75
321.046	100.75
321.275	94.75
321.504	88.75
321.733	91.75
321.962	83.75
322.191	90.75
322.42	98.75
322.649	88.75
322.878	93.75
323.108	116.75
323.337	130.75
323.566	124.75
323.795	137.75
324.024	165.75
324.253	342.75
324.482	694.75
324.71	1350.75
324.939	1724.75
325.168	660.75
325.397	218.75
325.626	138.75
325.855	104.75
326.084	119.75
326.313	117.75
326.542	143.75
326.77	186.75
326.999	406.75
327.228	784.75
327.457	1379.75
327.686	1098.75
327.914	319.75
328.143	166.75
328.372	138.75
328.6	127.75
328.829	111.75
329.058	114.75
329.287	110.75
329.515	100.75
329.744	97.75
329.972	96.75
330.201	95.75
330.43	96.75
330.658	116.75
330.887	110.75
331.115	111.75
331.344	95.75
331.572	100.75
331.801	107.75
332.03	95.75
332.258	94.75
332.486	92.75
332.715	99.75
332.943	90.75
333.172	91.75
333.4	100.75
333.629	102.75
333.857	118.75
334.085	103.75
334.314	98.75
334.542	93.75
334.771	113.75
334.999	99.75
335.227	92.75
335.455	89.75
335.684	98.75
335.912	81.75
336.14	100.75
336.369	87.75
336.597	101.75
336.825	92.75
337.053	95.75
337.281	81.75
337.51	86.75
337.738	88.75
337.966	83.75
338.194	99.75
338.422	100.75
338.65	95.75
338.878	110.75
339.106	90.75
339.334	70.75
339.562	100.75
339.79	89.75
340.018	95.75
340.246	94.75
340.474	83.75
340.702	70.75
340.93	100.75
341.158	94.75
341.386	103.75
341.614	98.75
341.842	94.75
342.07	80.75
342.298	86.75
342.526	84.75
342.754	90.75
342.981	77.75
343.209	81.75
343.437	87.75
343.665	95.75
343.893	104.75
344.12	96.75
344.348	93.75
344.576	76.75
344.804	75.75
345.031	105.75
345.259	101.75
345.487	91.75
345.714	100.75
345.942	103.75
346.17	98.75
346.397	83.75
346.625	97.75
346.853	103.75
347.08	90.75
347.308	85.75
347.535	94.75
347.763	96.75
347.99	111.75
348.218	105.75
348.445	94.75
348.673	98.75
348.9	100.75
349.128	101.75
349.355	103.75
349.583	92.75
349.81	90.75
350.037	105.75
350.265	93.75
350.492	99.75
350.72	85.75
350.947	96.75
351.174	99.75
351.402	105.75
351.629	113.75
351.856	114.75
352.083	90.75
352.311	114.75
352.538	102.75
352.765	101.75
352.992	111.75
353.22	100.75
353.447	113.75
353.674	109.75
353.901	93.75
354.128	98.75
354.355	98.75
354.583	101.75
354.81	111.75
355.037	99.75
355.264	89.75
355.491	106.75
355.718	91.75
355.945	102.75
356.172	81.75
356.399	97.75
356.626	100.75
356.853	96.75
357.08	90.75
357.307	91.75
357.534	95.75
357.761	90.75
357.988	93.75
358.215	98.75
358.441	103.75
358.668	83.75
358.895	91.75
359.122	96.75
359.349	86.75
359.576	100.75
359.802	100.75
360.029	99.75
360.256	100.75
360.483	95.75
360.709	90.75
360.936	100.75
361.163	101.75
361.39	80.75
361.616	94.75
361.843	82.75
362.07	100.75
362.296	87.75
362.523	89.75
362.749	87.75
362.976	89.75
363.203	88.75
363.429	86.75
363.656	88.75
363.882	77.75
364.109	89.75
364.335	87.75
364.562	77.75
364.788	83.75
365.015	87.75
365.241	92.75
365.468	104.75
365.694	95.75
365.92	99.75
366.147	87.75
366.373	87.75
366.599	83.75
366.826	84.75
367.052	91.75
367.278	97.75
367.505	100.75
367.731	81.75
367.957	88.75
368.184	96.75
368.41	86.75
368.636	105.75
368.862	115.75
369.089	106.75
369.315	100.75
369.541	95.75
369.767	88.75
369.993	86.75
370.219	89.75
370.445	84.75
370.672	95.75
370.898	102.75
371.124	82.75
371.35	78.75
371.576	93.75
371.802	83.75
372.028	91.75
372.254	93.75
372.48	77.75
372.706	82.75
372.932	95.75
373.158	89.75
373.384	103.75
373.61	96.75
373.835	94.75
374.061	94.75
374.287	88.75
374.513	86.75
374.739	83.75
374.965	86.75
375.191	99.75
375.416	92.75
375.642	97.75
375.868	94.75
376.094	85.75
376.319	107.75
376.545	85.75
376.771	96.75
376.997	90.75
377.222	102.75
377.448	95.75
377.674	94.75
377.899	101.75
378.125	95.75
378.35	91.75
378.576	83.75
378.802	91.75
379.027	103.75
379.253	71.75
379.478	87.75
379.704	113.75
379.929	93.75
380.155	79.75
380.38	91.75
380.606	94.75
380.831	96.75
381.057	113.75
381.282	111.75
381.507	112.75
381.733	110.75
381.958	88.75
382.184	100.75
382.409	95.75
382.634	93.75
382.86	113.75
383.085	88.75
383.31	110.75
383.535	93.75
383.761	91.75
383.986	106.75
384.211	102.75
384.436	88.75
384.662	102.75
384.887	106.75
385.112	114.75
385.337	103.75
385.562	113.75
385.787	86.75
386.013	109.75
386.238	97.75
386.463	85.75
386.688	107.75
386.913	113.75
387.138	97.75
387.363	101.75
387.588	100.75
387.813	91.75
388.038	102.75
388.263	91.75
388.488	104.75
388.713	92.75
388.938	106.75
389.163	100.75
389.387	110.75
389.612	107.75
389.837	99.75
390.062	103.75
390.287	90.75
390.512	104.75
390.736	103.75
390.961	95.75
391.186	84.75
391.411	90.75
391.636	92.75
391.86	88.75
392.085	87.75
392.31	97.75
392.534	91.75
392.759	93.75
392.984	89.75
393.208	84.75
393.433	92.75
393.658	86.75
393.882	84.75
394.107	95.75
394.331	80.75
394.556	103.75
394.78	100.75
395.005	89.75
395.229	100.75
395.454	81.75
395.678	80.75
395.903	90.75
396.127	92.75
396.352	91.75
396.576	96.75
396.801	95.75
397.025	78.75
397.249	103.75
397.474	98.75
397.698	97.75
397.922	94.75
398.147	86.75
398.371	91.75
398.595	85.75
398.82	91.75
399.044	91.75
399.268	82.75
399.492	85.75
399.717	90.75
399.941	94.75
400.165	105.75
400.389	92.75
400.613	89.75
400.837	83.75
401.062	95.75
401.286	98.75
401.51	93.75
401.734	86.75
401.958	94.75
402.182	122.75
402.406	140.75
402.63	106.75
402.854	97.75
403.078	85.75
403.302	86.75
403.526	80.75
403.75	83.75
403.974	97.75
404.198	82.75
404.422	101.75
404.645	94.75
404.869	95.75
405.093	96.75
405.317	91.75
405.541	78.75
405.765	96.75
405.988	106.75
406.212	144.75
406.436	197.75
406.66	141.75
406.883	102.75
407.107	107.75
407.331	97.75
407.555	102.75
407.778	92.75
408.002	88.75
408.226	97.75
408.449	86.75
408.673	81.75
408.896	96.75
409.12	92.75
409.344	89.75
409.567	87.75
409.791	94.75
410.014	107.75
410.238	86.75
410.461	93.75
410.685	96.75
410.908	91.75
411.132	118.75
411.355	103.75
411.578	95.75
411.802	82.75
412.025	95.75
412.249	92.75
412.472	97.75
412.695	96.75
412.919	106.75
413.142	97.75
413.365	87.75
413.589	97.75
413.812	94.75
414.035	94.75
414.258	98.75
414.482	97.75
414.705	98.75
414.928	89.75
415.151	97.75
415.374	107.75
415.597	90.75
415.821	90.75
416.044	92.75
416.267	96.75
416.49	95.75
416.713	105.75
416.936	88.75
417.159	89.75
417.382	79.75
417.605	92.75
417.828	87.75
418.051	87.75
418.274	82.75
418.497	91.75
418.72	81.75
418.943	100.75
419.166	104.75
419.389	98.75
419.611	80.75
419.834	87.75
420.057	94.75
420.28	84.75
420.503	86.75
420.726	82.75
420.948	94.75
421.171	81.75
421.394	84.75
421.617	82.75
421.839	92.75
422.062	94.75
422.285	99.75
422.507	96.75
422.73	96.75
422.953	83.75
423.175	84.75
423.398	78.75
423.621	93.75
423.843	84.75
424.066	107.75
424.288	95.75
424.511	81.75
424.733	98.75
424.956	95.75
425.178	96.75
425.401	109.75
425.623	94.75
425.846	88.75
426.068	102.75
426.291	87.75
426.513	83.75
426.735	82.75
426.958	79.75
427.18	107.75
427.402	114.75
427.625	158.75
427.847	100.75
428.069	86.75
428.292	97.75
428.514	85.75
428.736	75.75
428.958	95.75
429.181	97.75
429.403	94.75
429.625	80.75
429.847	89.75
430.069	93.75
430.292	92.75
430.514	84.75
430.736	93.75
430.958	81.75
431.18	86.75
431.402	77.75
431.624	87.75
431.846	91.75
432.068	86.75
432.29	106.75
432.512	97.75
432.734	99.75
432.956	83.75
433.178	89.75
433.4	87.75
433.622	83.75
433.844	88.75
434.066	73.75
434.287	100.75
434.509	106.75
434.731	102.75
434.953	87.75
435.175	85.75
435.397	80.75
435.618	88.75
435.84	95.75
436.062	103.75
436.284	107.75
436.505	119.75
436.727	100.75
436.949	77.75
437.17	85.75
437.392	82.75
437.614	96.75
437.835	99.75
438.057	103.75
438.278	109.75
438.5	94.75
438.721	119.75
438.943	97.75
439.165	92.75
439.386	80.75
439.608	84.75
439.829	98.75
440.05	107.75
440.272	122.75
440.493	104.75
440.715	79.75
440.936	84.75
441.158	84.75
441.379	84.75
441.6	93.75
441.822	81.75
442.043	88.75
442.264	89.75
442.486	80.75
442.707	93.75
442.928	94.75
443.149	107.75
443.371	99.75
443.592	97.75
443.813	100.75
444.034	95.75
444.255	93.75
444.476	91.75
444.698	77.75
444.919	97.75
445.14	128.75
445.361	121.75
445.582	109.75
445.803	112.75
446.024	112.75
446.245	116.75
446.466	109.75
446.687	94.75
446.908	90.75
447.129	97.75
447.35	92.75
447.571	93.75
447.792	81.75
448.013	99.75
448.234	88.75
448.455	99.75
448.675	105.75
448.896	121.75
449.117	95.75
449.338	92.75
449.559	123.75
449.779	127.75
450	92.75
450.221	85.75
450.442	87.75
450.662	97.75
450.883	100.75
451.104	109.75
451.324	99.75
451.545	91.75
451.766	90.75
451.986	87.75
452.207	86.75
452.428	88.75
452.648	86.75
452.869	99.75
453.089	103.75
453.31	109.75
453.53	86.75
453.751	92.75
453.971	99.75
454.192	99.75
454.412	95.75
454.633	81.75
454.853	92.75
455.073	90.75
455.294	91.75
455.514	103.75
455.734	91.75
455.955	90.75
456.175	73.75
456.395	88.75
456.616	78.75
456.836	85.75
457.056	74.75
457.276	88.75
457.497	81.75
457.717	85.75
457.937	95.75
458.157	82.75
458.377	97.75
458.598	96.75
458.818	117.75
459.038	134.75
459.258	105.75
459.478	90.75
459.698	78.75
459.918	84.75
460.138	72.75
460.358	75.75
460.578	97.75
460.798	91.75
461.018	94.75
461.238	90.75
461.458	104.75
461.678	90.75
461.898	99.75
462.118	76.75
462.338	81.75
462.558	81.75
462.777	81.75
462.997	80.75
463.217	88.75
463.437	79.75
463.657	77.75
463.876	74.75
464.096	83.75
464.316	86.75
464.536	82.75
464.755	84.75
464.975	105.75
465.195	138.75
465.414	115.75
465.634	99.75
465.854	79.75
466.073	75.75
466.293	91.75
466.512	91.75
466.732	85.75
466.951	103.75
467.171	92.75
467.391	93.75
467.61	99.75
467.829	87.75
468.049	87.75
468.268	89.75
468.488	89.75
468.707	100.75
468.927	83.75
469.146	87.75
469.365	89.75
469.585	90.75
469.804	92.75
470.023	92.75
470.243	103.75
470.462	97.75
470.681	102.75
470.901	94.75
471.12	76.75
471.339	90.75
471.558	95.75
471.777	95.75
471.997	99.75
472.216	97.75
472.435	90.75
472.654	93.75
472.873	80.75
473.092	89.75
473.311	76.75
473.53	93.75
473.749	89.75
473.968	90.75
474.187	90.75
474.406	94.75
474.625	88.75
474.844	97.75
475.063	85.75
475.282	94.75
475.501	79.75
475.72	83.75
475.939	85.75
476.158	90.75
476.377	92.75
476.596	88.75
476.814	89.75
477.033	102.75
477.252	94.75
477.471	90.75
477.69	89.75
477.908	87.75
478.127	82.75
478.346	80.75
478.564	85.75
478.783	88.75
479.002	84.75
479.22	98.75
479.439	109.75
479.658	97.75
479.876	79.75
480.095	89.75
480.313	91.75
480.532	82.75
480.751	80.75
480.969	90.75
481.188	104.75
481.406	101.75
481.624	95.75
481.843	80.75
482.061	98.75
482.28	78.75
482.498	90.75
482.717	82.75
482.935	80.75
483.153	89.75
483.372	93.75
483.59	79.75
483.808	86.75
484.027	97.75
484.245	87.75
484.463	97.75
484.681	97.75
484.9	87.75
485.118	92.75
485.336	107.75
485.554	78.75
485.772	88.75
485.99	104.75
486.209	99.75
486.427	93.75
486.645	100.75
486.863	94.75
487.081	99.75
487.299	98.75
487.517	93.75
487.735	81.75
487.953	104.75
488.171	98.75
488.389	96.75
488.607	101.75
488.825	84.75
489.043	73.75
489.261	104.75
489.479	92.75
489.696	100.75
489.914	81.75
490.132	82.75
490.35	76.75
490.568	98.75
490.786	76.75
491.003	90.75
491.221	86.75
491.439	85.75
491.657	98.75
491.874	93.75
492.092	98.75
492.31	89.75
492.527	103.75
492.745	89.75
492.963	106.75
493.18	88.75
493.398	97.75
493.615	91.75
493.833	92.75
494.05	81.75
494.268	87.75
494.485	81.75
494.703	99.75
494.92	93.75
495.138	82.75
495.355	90.75
495.573	108.75
495.79	91.75
496.008	91.75
496.225	88.75
496.442	94.75
496.66	95.75
496.877	93.75
497.094	84.75
497.312	99.75
497.529	91.75
497.746	78.75
497.963	83.75
498.181	86.75
498.398	88.75
498.615	99.75
498.832	106.75
499.049	84.75
499.267	96.75
499.484	103.75
499.701	81.75
499.918	82.75
500.135	73.75
500.352	82.75
500.569	98.75
500.786	79.75
501.003	97.75
501.22	98.75
501.437	80.75
501.654	107.75
501.871	109.75
502.088	84.75
502.305	98.75
502.522	93.75
502.739	92.75
502.956	88.75
503.172	92.75
503.389	74.75
503.606	94.75
503.823	102.75
504.04	101.75
504.256	92.75
504.473	89.75
504.69	101.75
504.907	95.75
505.123	85.75
505.34	88.75
505.557	90.75
505.773	89.75
505.99	79.75
506.207	83.75
506.423	87.75
506.64	99.75
506.856	104.75
507.073	79.75
507.289	97.75
507.506	96.75
507.722	96.75
507.939	92.75
508.155	105.75
508.372	87.75
508.588	98.75
508.805	99.75
509.021	90.75
509.238	110.75
509.454	95.75
509.67	87.75
509.887	111.75
510.103	107.75
510.319	196.75
510.536	636.75
510.752	1768.75
510.968	488.75
511.184	126.75
511.401	96.75
511.617	106.75
511.833	92.75
512.049	74.75
512.265	95.75
512.481	86.75
512.698	92.75
512.914	105.75
513.13	95.75
513.346	95.75
513.562	82.75
513.778	93.75
513.994	92.75
514.21	96.75
514.426	115.75
514.642	124.75
514.858	106.75
515.074	138.75
515.29	336.75
515.506	1046.75
515.721	383.75
515.937	122.75
516.153	118.75
516.369	95.75
