Data from Uncirc_1998_H10_HRD10591_00070.txt Node
Date: Wed Jan 03 11:25:38 EST 2024
User: Yrep
Spectrometer: HR+D1059
Trigger mode: 1
Integration Time (sec): 1.000000E-1
Scans to average: 1
Electric dark correction enabled: true
Nonlinearity correction enabled: false
Boxcar width: 0
XAxis mode: Wavelengths
Number of Pixels in Spectrum: 2048
>>>>>Begin Spectral Data<<<<<
223.165	-13.62
223.4	-13.62
223.635	-13.62
223.869	-29.62
224.104	-10.62
224.338	-15.62
224.573	-17.62
224.808	-16.62
225.042	-2.62
225.277	-8.62
225.511	9.38
225.746	8.38
225.98	-0.62
226.215	-0.62
226.449	7.38
226.683	26.38
226.918	27.38
227.152	37.38
227.387	31.38
227.621	35.38
227.856	45.38
228.09	35.38
228.324	60.38
228.559	58.38
228.793	58.38
229.027	58.38
229.262	62.38
229.496	80.38
229.73	90.38
229.964	81.38
230.199	69.38
230.433	82.38
230.667	78.38
230.901	86.38
231.136	69.38
231.37	90.38
231.604	77.38
231.838	89.38
232.072	83.38
232.306	81.38
232.541	80.38
232.775	86.38
233.009	72.38
233.243	82.38
233.477	101.38
233.711	89.38
233.945	93.38
234.179	83.38
234.413	69.38
234.647	76.38
234.881	71.38
235.115	75.38
235.349	75.38
235.583	82.38
235.817	64.38
236.051	81.38
236.285	83.38
236.519	75.38
236.753	70.38
236.987	78.38
237.221	88.38
237.455	76.38
237.689	64.38
237.922	78.38
238.156	68.38
238.39	71.38
238.624	74.38
238.858	72.38
239.091	78.38
239.325	76.38
239.559	78.38
239.793	75.38
240.027	74.38
240.26	82.38
240.494	78.38
240.728	67.38
240.961	84.38
241.195	83.38
241.429	87.38
241.662	54.38
241.896	73.38
242.13	87.38
242.363	77.38
242.597	74.38
242.83	75.38
243.064	83.38
243.298	75.38
243.531	84.38
243.765	71.38
243.998	71.38
244.232	71.38
244.465	66.38
244.699	64.38
244.932	78.38
245.166	79.38
245.399	83.38
245.633	70.38
245.866	60.38
246.099	77.38
246.333	77.38
246.566	89.38
246.8	77.38
247.033	87.38
247.266	60.38
247.5	59.38
247.733	71.38
247.966	74.38
248.2	78.38
248.433	79.38
248.666	80.38
248.899	88.38
249.133	79.38
249.366	86.38
249.599	112.38
249.832	85.38
250.066	73.38
250.299	67.38
250.532	89.38
250.765	75.38
250.998	77.38
251.231	78.38
251.465	74.38
251.698	79.38
251.931	82.38
252.164	73.38
252.397	90.38
252.63	90.38
252.863	78.38
253.096	84.38
253.329	87.38
253.562	95.38
253.795	84.38
254.028	90.38
254.261	73.38
254.494	78.38
254.727	75.38
254.96	86.38
255.193	84.38
255.426	82.38
255.659	74.38
255.892	85.38
256.124	85.38
256.357	79.38
256.59	91.38
256.823	79.38
257.056	83.38
257.289	85.38
257.521	85.38
257.754	75.38
257.987	79.38
258.22	81.38
258.452	84.38
258.685	78.38
258.918	84.38
259.151	80.38
259.383	77.38
259.616	84.38
259.849	78.38
260.081	81.38
260.314	87.38
260.547	73.38
260.779	91.38
261.012	81.38
261.244	77.38
261.477	81.38
261.71	90.38
261.942	107.38
262.175	105.38
262.407	78.38
262.64	80.38
262.872	79.38
263.105	81.38
263.337	86.38
263.57	67.38
263.802	82.38
264.035	77.38
264.267	79.38
264.499	77.38
264.732	80.38
264.964	80.38
265.197	87.38
265.429	85.38
265.661	86.38
265.894	79.38
266.126	82.38
266.358	88.38
266.591	87.38
266.823	90.38
267.055	89.38
267.287	88.38
267.52	91.38
267.752	83.38
267.984	84.38
268.216	71.38
268.448	95.38
268.681	81.38
268.913	80.38
269.145	83.38
269.377	83.38
269.609	95.38
269.841	81.38
270.073	68.38
270.306	93.38
270.538	82.38
270.77	85.38
271.002	85.38
271.234	75.38
271.466	78.38
271.698	89.38
271.93	85.38
272.162	83.38
272.394	78.38
272.626	92.38
272.858	97.38
273.09	89.38
273.322	72.38
273.553	83.38
273.785	87.38
274.017	86.38
274.249	86.38
274.481	87.38
274.713	83.38
274.945	87.38
275.176	91.38
275.408	91.38
275.64	93.38
275.872	90.38
276.104	97.38
276.335	88.38
276.567	98.38
276.799	96.38
277.031	103.38
277.262	96.38
277.494	82.38
277.726	89.38
277.957	93.38
278.189	82.38
278.421	71.38
278.652	84.38
278.884	84.38
279.115	82.38
279.347	90.38
279.579	90.38
279.81	85.38
280.042	98.38
280.273	90.38
280.505	83.38
280.736	100.38
280.968	81.38
281.199	98.38
281.431	95.38
281.662	85.38
281.894	86.38
282.125	91.38
282.356	108.38
282.588	108.38
282.819	104.38
283.051	95.38
283.282	91.38
283.513	94.38
283.745	87.38
283.976	99.38
284.207	86.38
284.439	83.38
284.67	73.38
284.901	86.38
285.132	85.38
285.364	81.38
285.595	89.38
285.826	86.38
286.057	88.38
286.288	77.38
286.52	64.38
286.751	86.38
286.982	92.38
287.213	77.38
287.444	102.38
287.675	90.38
287.906	90.38
288.138	86.38
288.369	82.38
288.6	90.38
288.831	84.38
289.062	102.38
289.293	79.38
289.524	77.38
289.755	81.38
289.986	81.38
290.217	93.38
290.448	86.38
290.679	95.38
290.91	87.38
291.141	78.38
291.371	98.38
291.602	95.38
291.833	87.38
292.064	83.38
292.295	83.38
292.526	85.38
292.757	82.38
292.987	69.38
293.218	87.38
293.449	97.38
293.68	97.38
293.91	95.38
294.141	97.38
294.372	89.38
294.603	90.38
294.833	95.38
295.064	94.38
295.295	95.38
295.525	102.38
295.756	110.38
295.987	107.38
296.217	125.38
296.448	116.38
296.679	87.38
296.909	97.38
297.14	81.38
297.37	90.38
297.601	97.38
297.831	93.38
298.062	100.38
298.292	96.38
298.523	79.38
298.753	92.38
298.984	81.38
299.214	100.38
299.445	83.38
299.675	74.38
299.905	105.38
300.136	73.38
300.366	77.38
300.597	86.38
300.827	86.38
301.057	103.38
301.288	92.38
301.518	108.38
301.748	89.38
301.979	100.38
302.209	82.38
302.439	82.38
302.669	95.38
302.9	99.38
303.13	90.38
303.36	97.38
303.59	96.38
303.82	100.38
304.051	107.38
304.281	92.38
304.511	94.38
304.741	85.38
304.971	83.38
305.201	69.38
305.431	92.38
305.661	93.38
305.891	83.38
306.121	97.38
306.352	102.38
306.582	97.38
306.812	93.38
307.042	88.38
307.272	85.38
307.502	98.38
307.731	103.38
307.961	103.38
308.191	90.38
308.421	101.38
308.651	85.38
308.881	87.38
309.111	85.38
309.341	90.38
309.571	102.38
309.8	104.38
310.03	95.38
310.26	96.38
310.49	102.38
310.72	85.38
310.949	99.38
311.179	88.38
311.409	92.38
311.639	102.38
311.868	85.38
312.098	92.38
312.328	92.38
312.557	104.38
312.787	96.38
313.017	91.38
313.246	87.38
313.476	71.38
313.706	84.38
313.935	103.38
314.165	103.38
314.394	111.38
314.624	90.38
314.853	97.38
315.083	108.38
315.312	97.38
315.542	97.38
315.771	99.38
316.001	89.38
316.23	82.38
316.46	92.38
316.689	98.38
316.919	84.38
317.148	105.38
317.377	96.38
317.607	102.38
317.836	86.38
318.065	91.38
318.295	94.38
318.524	95.38
318.753	102.38
318.983	98.38
319.212	97.38
319.441	101.38
319.67	98.38
319.9	90.38
320.129	97.38
320.358	98.38
320.587	93.38
320.816	102.38
321.046	98.38
321.275	105.38
321.504	94.38
321.733	93.38
321.962	95.38
322.191	102.38
322.42	109.38
322.649	99.38
322.878	104.38
323.108	122.38
323.337	133.38
323.566	126.38
323.795	149.38
324.024	194.38
324.253	361.38
324.482	803.38
324.71	1622.38
324.939	2098.38
325.168	758.38
325.397	230.38
325.626	160.38
325.855	126.38
326.084	123.38
326.313	123.38
326.542	149.38
326.77	246.38
326.999	454.38
327.228	923.38
327.457	1685.38
327.686	1305.38
327.914	359.38
328.143	188.38
328.372	135.38
328.6	120.38
328.829	112.38
329.058	116.38
329.287	122.38
329.515	104.38
329.744	92.38
329.972	106.38
330.201	91.38
330.43	105.38
330.658	118.38
330.887	134.38
331.115	123.38
331.344	95.38
331.572	102.38
331.801	110.38
332.03	102.38
332.258	107.38
332.486	94.38
332.715	99.38
332.943	94.38
333.172	96.38
333.4	80.38
333.629	105.38
333.857	109.38
334.085	89.38
334.314	95.38
334.542	97.38
334.771	103.38
334.999	106.38
335.227	109.38
335.455	93.38
335.684	102.38
335.912	96.38
336.14	118.38
336.369	89.38
336.597	96.38
336.825	88.38
337.053	85.38
337.281	82.38
337.51	95.38
337.738	96.38
337.966	93.38
338.194	95.38
338.422	103.38
338.65	98.38
338.878	89.38
339.106	82.38
339.334	103.38
339.562	86.38
339.79	90.38
340.018	91.38
340.246	101.38
340.474	97.38
340.702	96.38
340.93	106.38
341.158	80.38
341.386	91.38
341.614	85.38
341.842	84.38
342.07	96.38
342.298	105.38
342.526	98.38
342.754	96.38
342.981	75.38
343.209	83.38
343.437	93.38
343.665	85.38
343.893	89.38
344.12	101.38
344.348	94.38
344.576	101.38
344.804	82.38
345.031	89.38
345.259	101.38
345.487	80.38
345.714	78.38
345.942	98.38
346.17	80.38
346.397	94.38
346.625	102.38
346.853	96.38
347.08	85.38
347.308	98.38
347.535	102.38
347.763	100.38
347.99	92.38
348.218	91.38
348.445	93.38
348.673	99.38
348.9	90.38
349.128	93.38
349.355	98.38
349.583	113.38
349.81	83.38
350.037	100.38
350.265	95.38
350.492	81.38
350.72	96.38
350.947	101.38
351.174	122.38
351.402	109.38
351.629	96.38
351.856	114.38
352.083	95.38
352.311	112.38
352.538	104.38
352.765	103.38
352.992	107.38
353.22	110.38
353.447	107.38
353.674	109.38
353.901	91.38
354.128	91.38
354.355	89.38
354.583	88.38
354.81	98.38
355.037	83.38
355.264	102.38
355.491	105.38
355.718	104.38
355.945	93.38
356.172	104.38
356.399	104.38
356.626	89.38
356.853	90.38
357.08	94.38
357.307	101.38
357.534	96.38
357.761	101.38
357.988	80.38
358.215	107.38
358.441	98.38
358.668	82.38
358.895	101.38
359.122	89.38
359.349	92.38
359.576	95.38
359.802	96.38
360.029	110.38
360.256	96.38
360.483	101.38
360.709	94.38
360.936	83.38
361.163	94.38
361.39	83.38
361.616	102.38
361.843	89.38
362.07	98.38
362.296	104.38
362.523	102.38
362.749	79.38
362.976	86.38
363.203	94.38
363.429	96.38
363.656	87.38
363.882	72.38
364.109	90.38
364.335	108.38
364.562	90.38
364.788	83.38
365.015	97.38
365.241	110.38
365.468	115.38
365.694	95.38
365.92	97.38
366.147	102.38
366.373	93.38
366.599	90.38
366.826	93.38
367.052	81.38
367.278	98.38
367.505	94.38
367.731	87.38
367.957	90.38
368.184	87.38
368.41	101.38
368.636	115.38
368.862	111.38
369.089	102.38
369.315	92.38
369.541	99.38
369.767	89.38
369.993	79.38
370.219	77.38
370.445	97.38
370.672	89.38
370.898	67.38
371.124	82.38
371.35	70.38
371.576	89.38
371.802	67.38
372.028	92.38
372.254	96.38
372.48	92.38
372.706	109.38
372.932	88.38
373.158	90.38
373.384	87.38
373.61	86.38
373.835	105.38
374.061	84.38
374.287	89.38
374.513	94.38
374.739	98.38
374.965	92.38
375.191	92.38
375.416	87.38
375.642	89.38
375.868	89.38
376.094	99.38
376.319	97.38
376.545	86.38
376.771	94.38
376.997	97.38
377.222	94.38
377.448	87.38
377.674	81.38
377.899	96.38
378.125	89.38
378.35	73.38
378.576	90.38
378.802	93.38
379.027	97.38
379.253	91.38
379.478	89.38
379.704	81.38
379.929	93.38
380.155	87.38
380.38	89.38
380.606	97.38
380.831	91.38
381.057	92.38
381.282	102.38
381.507	88.38
381.733	98.38
381.958	102.38
382.184	94.38
382.409	99.38
382.634	88.38
382.86	94.38
383.085	89.38
383.31	91.38
383.535	90.38
383.761	101.38
383.986	105.38
384.211	75.38
384.436	82.38
384.662	88.38
384.887	104.38
385.112	90.38
385.337	102.38
385.562	96.38
385.787	93.38
386.013	96.38
386.238	96.38
386.463	83.38
386.688	102.38
386.913	97.38
387.138	105.38
387.363	105.38
387.588	94.38
387.813	97.38
388.038	95.38
388.263	114.38
388.488	100.38
388.713	107.38
388.938	103.38
389.163	109.38
389.387	90.38
389.612	93.38
389.837	97.38
390.062	83.38
390.287	82.38
390.512	71.38
390.736	107.38
390.961	92.38
391.186	86.38
391.411	94.38
391.636	89.38
391.86	97.38
392.085	78.38
392.31	94.38
392.534	86.38
392.759	104.38
392.984	80.38
393.208	98.38
393.433	84.38
393.658	89.38
393.882	94.38
394.107	83.38
394.331	100.38
394.556	101.38
394.78	82.38
395.005	86.38
395.229	99.38
395.454	85.38
395.678	89.38
395.903	94.38
396.127	90.38
396.352	91.38
396.576	84.38
396.801	93.38
397.025	70.38
397.249	89.38
397.474	110.38
397.698	90.38
397.922	58.38
398.147	87.38
398.371	91.38
398.595	93.38
398.82	80.38
399.044	85.38
399.268	88.38
399.492	82.38
399.717	73.38
399.941	97.38
400.165	90.38
400.389	88.38
400.613	93.38
400.837	90.38
401.062	93.38
401.286	89.38
401.51	80.38
401.734	90.38
401.958	95.38
402.182	133.38
402.406	146.38
402.63	110.38
402.854	94.38
403.078	91.38
403.302	90.38
403.526	90.38
403.75	82.38
403.974	76.38
404.198	85.38
404.422	91.38
404.645	77.38
404.869	78.38
405.093	87.38
405.317	91.38
405.541	95.38
405.765	90.38
405.988	105.38
406.212	170.38
406.436	202.38
406.66	128.38
406.883	103.38
407.107	101.38
407.331	89.38
407.555	89.38
407.778	90.38
408.002	100.38
408.226	96.38
408.449	80.38
408.673	95.38
408.896	90.38
409.12	90.38
409.344	94.38
409.567	92.38
409.791	91.38
410.014	94.38
410.238	89.38
410.461	93.38
410.685	85.38
410.908	96.38
411.132	107.38
411.355	94.38
411.578	87.38
411.802	71.38
412.025	94.38
412.249	74.38
412.472	94.38
412.695	80.38
412.919	92.38
413.142	80.38
413.365	86.38
413.589	93.38
413.812	94.38
414.035	96.38
414.258	85.38
414.482	90.38
414.705	89.38
414.928	92.38
415.151	89.38
415.374	89.38
415.597	78.38
415.821	80.38
416.044	94.38
416.267	87.38
416.49	96.38
416.713	92.38
416.936	92.38
417.159	97.38
417.382	75.38
417.605	79.38
417.828	98.38
418.051	92.38
418.274	91.38
418.497	95.38
418.72	95.38
418.943	108.38
419.166	90.38
419.389	96.38
419.611	78.38
419.834	89.38
420.057	81.38
420.28	93.38
420.503	91.38
420.726	86.38
420.948	90.38
421.171	96.38
421.394	99.38
421.617	89.38
421.839	88.38
422.062	94.38
422.285	93.38
422.507	83.38
422.73	110.38
422.953	89.38
423.175	89.38
423.398	92.38
423.621	92.38
423.843	69.38
424.066	93.38
424.288	86.38
424.511	87.38
424.733	90.38
424.956	96.38
425.178	87.38
425.401	104.38
425.623	78.38
425.846	96.38
426.068	89.38
426.291	88.38
426.513	91.38
426.735	88.38
426.958	95.38
427.18	84.38
427.402	130.38
427.625	171.38
427.847	110.38
428.069	92.38
428.292	99.38
428.514	82.38
428.736	81.38
428.958	85.38
429.181	81.38
429.403	73.38
429.625	85.38
429.847	84.38
430.069	110.38
430.292	98.38
430.514	93.38
430.736	95.38
430.958	91.38
431.18	86.38
431.402	88.38
431.624	80.38
431.846	112.38
432.068	78.38
432.29	82.38
432.512	86.38
432.734	83.38
432.956	91.38
433.178	94.38
433.4	91.38
433.622	93.38
433.844	91.38
434.066	101.38
434.287	93.38
434.509	90.38
434.731	91.38
434.953	90.38
435.175	79.38
435.397	94.38
435.618	103.38
435.84	98.38
436.062	134.38
436.284	120.38
436.505	96.38
436.727	97.38
436.949	103.38
437.17	87.38
437.392	85.38
437.614	88.38
437.835	89.38
438.057	113.38
438.278	105.38
438.5	83.38
438.721	96.38
438.943	106.38
439.165	101.38
439.386	86.38
439.608	86.38
439.829	107.38
440.05	121.38
440.272	142.38
440.493	92.38
440.715	85.38
440.936	82.38
441.158	97.38
441.379	91.38
441.6	93.38
441.822	99.38
442.043	77.38
442.264	105.38
442.486	90.38
442.707	81.38
442.928	99.38
443.149	122.38
443.371	125.38
443.592	105.38
443.813	96.38
444.034	99.38
444.255	92.38
444.476	93.38
444.698	86.38
444.919	97.38
445.14	120.38
445.361	123.38
445.582	114.38
445.803	144.38
446.024	139.38
446.245	134.38
446.466	109.38
446.687	96.38
446.908	81.38
447.129	84.38
447.35	78.38
447.571	83.38
447.792	86.38
448.013	104.38
448.234	98.38
448.455	117.38
448.675	99.38
448.896	110.38
449.117	105.38
449.338	93.38
449.559	118.38
449.779	121.38
450	86.38
450.221	89.38
450.442	79.38
450.662	89.38
450.883	111.38
451.104	106.38
451.324	78.38
451.545	88.38
451.766	97.38
451.986	82.38
452.207	75.38
452.428	96.38
452.648	103.38
452.869	111.38
453.089	125.38
453.31	102.38
453.53	92.38
453.751	84.38
453.971	85.38
454.192	83.38
454.412	99.38
454.633	89.38
454.853	73.38
455.073	82.38
455.294	103.38
455.514	90.38
455.734	90.38
455.955	85.38
456.175	79.38
456.395	77.38
456.616	92.38
456.836	71.38
457.056	86.38
457.276	76.38
457.497	82.38
457.717	76.38
457.937	82.38
458.157	85.38
458.377	88.38
458.598	94.38
458.818	141.38
459.038	140.38
459.258	110.38
459.478	112.38
459.698	93.38
459.918	77.38
460.138	88.38
460.358	84.38
460.578	86.38
460.798	100.38
461.018	90.38
461.238	85.38
461.458	81.38
461.678	80.38
461.898	90.38
462.118	84.38
462.338	75.38
462.558	92.38
462.777	89.38
462.997	96.38
463.217	92.38
463.437	98.38
463.657	78.38
463.876	81.38
464.096	104.38
464.316	103.38
464.536	87.38
464.755	82.38
464.975	102.38
465.195	141.38
465.414	136.38
465.634	97.38
465.854	91.38
466.073	79.38
466.293	89.38
466.512	86.38
466.732	100.38
466.951	80.38
467.171	96.38
467.391	88.38
467.61	103.38
467.829	80.38
468.049	81.38
468.268	85.38
468.488	74.38
468.707	75.38
468.927	82.38
469.146	89.38
469.365	75.38
469.585	85.38
469.804	86.38
470.023	97.38
470.243	92.38
470.462	93.38
470.681	105.38
470.901	97.38
471.12	81.38
471.339	90.38
471.558	91.38
471.777	85.38
471.997	105.38
472.216	96.38
472.435	100.38
472.654	81.38
472.873	93.38
473.092	77.38
473.311	81.38
473.53	72.38
473.749	76.38
473.968	95.38
474.187	115.38
474.406	98.38
474.625	101.38
474.844	104.38
475.063	95.38
475.282	98.38
475.501	90.38
475.72	93.38
475.939	95.38
476.158	75.38
476.377	87.38
476.596	93.38
476.814	93.38
477.033	104.38
477.252	95.38
477.471	81.38
477.69	79.38
477.908	94.38
478.127	96.38
478.346	95.38
478.564	102.38
478.783	111.38
479.002	96.38
479.22	114.38
479.439	83.38
479.658	117.38
479.876	97.38
480.095	90.38
480.313	94.38
480.532	87.38
480.751	83.38
480.969	87.38
481.188	97.38
481.406	109.38
481.624	84.38
481.843	87.38
482.061	92.38
482.28	96.38
482.498	82.38
482.717	92.38
482.935	81.38
483.153	85.38
483.372	87.38
483.59	97.38
483.808	87.38
484.027	88.38
484.245	74.38
484.463	102.38
484.681	95.38
484.9	102.38
485.118	96.38
485.336	98.38
485.554	95.38
485.772	107.38
485.99	94.38
486.209	105.38
486.427	104.38
486.645	105.38
486.863	120.38
487.081	103.38
487.299	106.38
487.517	90.38
487.735	90.38
487.953	102.38
488.171	85.38
488.389	96.38
488.607	98.38
488.825	98.38
489.043	89.38
489.261	97.38
489.479	95.38
489.696	95.38
489.914	87.38
490.132	90.38
490.35	92.38
490.568	93.38
490.786	76.38
491.003	88.38
491.221	98.38
491.439	95.38
491.657	102.38
491.874	88.38
492.092	98.38
492.31	95.38
492.527	99.38
492.745	82.38
492.963	78.38
493.18	100.38
493.398	88.38
493.615	98.38
493.833	89.38
494.05	99.38
494.268	91.38
494.485	85.38
494.703	83.38
494.92	91.38
495.138	87.38
495.355	95.38
495.573	85.38
495.79	95.38
496.008	97.38
496.225	102.38
496.442	90.38
496.66	91.38
496.877	96.38
497.094	96.38
497.312	102.38
497.529	83.38
497.746	85.38
497.963	83.38
498.181	100.38
498.398	92.38
498.615	112.38
498.832	96.38
499.049	86.38
499.267	102.38
499.484	89.38
499.701	97.38
499.918	85.38
500.135	83.38
500.352	85.38
500.569	87.38
500.786	98.38
501.003	93.38
501.22	85.38
501.437	87.38
501.654	97.38
501.871	94.38
502.088	82.38
502.305	85.38
502.522	92.38
502.739	74.38
502.956	90.38
503.172	74.38
503.389	100.38
503.606	89.38
503.823	94.38
504.04	93.38
504.256	85.38
504.473	85.38
504.69	92.38
504.907	89.38
505.123	91.38
505.34	84.38
505.557	78.38
505.773	99.38
505.99	85.38
506.207	98.38
506.423	95.38
506.64	81.38
506.856	90.38
507.073	94.38
507.289	101.38
507.506	79.38
507.722	110.38
507.939	113.38
508.155	96.38
508.372	103.38
508.588	99.38
508.805	111.38
509.021	99.38
509.238	93.38
509.454	86.38
509.67	94.38
509.887	116.38
510.103	135.38
510.319	217.38
510.536	746.38
510.752	2209.38
510.968	627.38
511.184	161.38
511.401	106.38
511.617	85.38
511.833	93.38
512.049	88.38
512.265	96.38
512.481	107.38
512.698	87.38
512.914	89.38
513.13	91.38
513.346	89.38
513.562	89.38
513.778	112.38
513.994	90.38
514.21	109.38
514.426	126.38
514.642	122.38
514.858	123.38
515.074	151.38
515.29	446.38
515.506	1374.38
515.721	511.38
515.937	157.38
516.153	119.38
