Data from Uncirc_1998_H10_HRD10591_00076.txt Node
Date: Wed Jan 03 11:25:40 EST 2024
User: Yrep
Spectrometer: HR+D1059
Trigger mode: 1
Integration Time (sec): 1.000000E-1
Scans to average: 1
Electric dark correction enabled: true
Nonlinearity correction enabled: false
Boxcar width: 0
XAxis mode: Wavelengths
Number of Pixels in Spectrum: 2048
>>>>>Begin Spectral Data<<<<<
223.165	-23
223.4	-23
223.635	-23
223.869	-15
224.104	-20
224.338	-24
224.573	-13
224.808	-14
225.042	0
225.277	-1
225.511	-9
225.746	4
225.98	6
226.215	6
226.449	26
226.683	18
226.918	32
227.152	27
227.387	26
227.621	42
227.856	44
228.09	40
228.324	49
228.559	63
228.793	66
229.027	62
229.262	62
229.496	67
229.73	79
229.964	87
230.199	73
230.433	84
230.667	88
230.901	78
231.136	64
231.37	93
231.604	82
231.838	67
232.072	102
232.306	80
232.541	86
232.775	77
233.009	74
233.243	87
233.477	74
233.711	74
233.945	83
234.179	86
234.413	86
234.647	77
234.881	86
235.115	77
235.349	75
235.583	77
235.817	78
236.051	81
236.285	79
236.519	77
236.753	66
236.987	68
237.221	75
237.455	85
237.689	80
237.922	79
238.156	72
238.39	76
238.624	80
238.858	75
239.091	78
239.325	77
239.559	72
239.793	83
240.027	71
240.26	92
240.494	79
240.728	81
240.961	64
241.195	66
241.429	71
241.662	66
241.896	88
242.13	79
242.363	72
242.597	74
242.83	81
243.064	81
243.298	75
243.531	84
243.765	77
243.998	90
244.232	73
244.465	76
244.699	79
244.932	76
245.166	70
245.399	80
245.633	82
245.866	76
246.099	78
246.333	91
246.566	93
246.8	95
247.033	75
247.266	75
247.5	87
247.733	97
247.966	76
248.2	74
248.433	86
248.666	72
248.899	82
249.133	90
249.366	101
249.599	98
249.832	78
250.066	79
250.299	88
250.532	84
250.765	86
250.998	79
251.231	81
251.465	75
251.698	92
251.931	80
252.164	76
252.397	81
252.63	96
252.863	81
253.096	92
253.329	98
253.562	80
253.795	89
254.028	66
254.261	89
254.494	78
254.727	89
254.96	91
255.193	75
255.426	81
255.659	89
255.892	91
256.124	74
256.357	78
256.59	87
256.823	76
257.056	84
257.289	79
257.521	83
257.754	76
257.987	78
258.22	91
258.452	72
258.685	79
258.918	82
259.151	94
259.383	79
259.616	89
259.849	80
260.081	74
260.314	87
260.547	93
260.779	91
261.012	94
261.244	86
261.477	84
261.71	94
261.942	100
262.175	96
262.407	98
262.64	85
262.872	78
263.105	72
263.337	79
263.57	99
263.802	98
264.035	86
264.267	70
264.499	74
264.732	88
264.964	92
265.197	81
265.429	82
265.661	78
265.894	75
266.126	80
266.358	82
266.591	75
266.823	82
267.055	74
267.287	86
267.52	76
267.752	78
267.984	82
268.216	87
268.448	106
268.681	88
268.913	77
269.145	78
269.377	75
269.609	95
269.841	91
270.073	81
270.306	80
270.538	92
270.77	81
271.002	82
271.234	97
271.466	86
271.698	86
271.93	84
272.162	81
272.394	97
272.626	85
272.858	97
273.09	86
273.322	79
273.553	73
273.785	88
274.017	92
274.249	77
274.481	80
274.713	72
274.945	92
275.176	91
275.408	95
275.64	82
275.872	94
276.104	91
276.335	95
276.567	100
276.799	119
277.031	92
277.262	109
277.494	84
277.726	79
277.957	97
278.189	80
278.421	77
278.652	84
278.884	96
279.115	111
279.347	95
279.579	79
279.81	87
280.042	80
280.273	102
280.505	86
280.736	90
280.968	90
281.199	94
281.431	67
281.662	75
281.894	86
282.125	99
282.356	107
282.588	141
282.819	101
283.051	94
283.282	81
283.513	78
283.745	92
283.976	87
284.207	76
284.439	73
284.67	107
284.901	89
285.132	75
285.364	89
285.595	82
285.826	93
286.057	96
286.288	88
286.52	92
286.751	87
286.982	91
287.213	74
287.444	78
287.675	90
287.906	90
288.138	90
288.369	89
288.6	99
288.831	82
289.062	80
289.293	84
289.524	88
289.755	83
289.986	87
290.217	63
290.448	81
290.679	94
290.91	84
291.141	94
291.371	83
291.602	95
291.833	90
292.064	87
292.295	95
292.526	84
292.757	81
292.987	90
293.218	104
293.449	83
293.68	92
293.91	97
294.141	107
294.372	90
294.603	71
294.833	71
295.064	96
295.295	94
295.525	92
295.756	115
295.987	102
296.217	129
296.448	122
296.679	80
296.909	85
297.14	76
297.37	97
297.601	74
297.831	98
298.062	84
298.292	72
298.523	81
298.753	83
298.984	87
299.214	84
299.445	91
299.675	79
299.905	91
300.136	87
300.366	83
300.597	91
300.827	96
301.057	106
301.288	109
301.518	94
301.748	86
301.979	105
302.209	85
302.439	80
302.669	86
302.9	90
303.13	78
303.36	83
303.59	113
303.82	96
304.051	102
304.281	106
304.511	75
304.741	87
304.971	77
305.201	91
305.431	102
305.661	90
305.891	94
306.121	109
306.352	104
306.582	111
306.812	92
307.042	101
307.272	91
307.502	99
307.731	97
307.961	85
308.191	86
308.421	99
308.651	82
308.881	103
309.111	105
309.341	91
309.571	96
309.8	87
310.03	88
310.26	99
310.49	90
310.72	107
310.949	96
311.179	108
311.409	90
311.639	85
311.868	98
312.098	96
312.328	103
312.557	96
312.787	90
313.017	93
313.246	79
313.476	81
313.706	97
313.935	95
314.165	98
314.394	94
314.624	100
314.853	80
315.083	85
315.312	82
315.542	105
315.771	84
316.001	111
316.23	98
316.46	91
316.689	86
316.919	101
317.148	98
317.377	97
317.607	100
317.836	86
318.065	92
318.295	79
318.524	91
318.753	97
318.983	90
319.212	94
319.441	115
319.67	106
319.9	79
320.129	99
320.358	96
320.587	97
320.816	95
321.046	101
321.275	110
321.504	98
321.733	83
321.962	103
322.191	105
322.42	111
322.649	109
322.878	106
323.108	115
323.337	126
323.566	136
323.795	164
324.024	203
324.253	390
324.482	843
324.71	1744
324.939	2244
325.168	808
325.397	241
325.626	151
325.855	136
326.084	131
326.313	127
326.542	164
326.77	224
326.999	456
327.228	954
327.457	1768
327.686	1354
327.914	364
328.143	189
328.372	138
328.6	122
328.829	107
329.058	108
329.287	124
329.515	106
329.744	94
329.972	113
330.201	116
330.43	112
330.658	135
330.887	142
331.115	108
331.344	89
331.572	101
331.801	120
332.03	103
332.258	101
332.486	94
332.715	92
332.943	100
333.172	98
333.4	104
333.629	94
333.857	125
334.085	98
334.314	100
334.542	111
334.771	104
334.999	99
335.227	92
335.455	107
335.684	84
335.912	109
336.14	101
336.369	94
336.597	116
336.825	95
337.053	92
337.281	104
337.51	94
337.738	102
337.966	112
338.194	115
338.422	105
338.65	108
338.878	87
339.106	92
339.334	94
339.562	82
339.79	90
340.018	94
340.246	90
340.474	96
340.702	89
340.93	79
341.158	86
341.386	96
341.614	99
341.842	94
342.07	101
342.298	83
342.526	82
342.754	92
342.981	87
343.209	89
343.437	111
343.665	80
343.893	88
344.12	84
344.348	94
344.576	94
344.804	86
345.031	93
345.259	96
345.487	94
345.714	99
345.942	88
346.17	81
346.397	96
346.625	92
346.853	91
347.08	91
347.308	89
347.535	100
347.763	91
347.99	92
348.218	106
348.445	87
348.673	87
348.9	88
349.128	88
349.355	87
349.583	99
349.81	103
350.037	94
350.265	94
350.492	96
350.72	91
350.947	94
351.174	119
351.402	112
351.629	118
351.856	106
352.083	98
352.311	117
352.538	95
352.765	101
352.992	100
353.22	106
353.447	110
353.674	105
353.901	96
354.128	104
354.355	98
354.583	116
354.81	104
355.037	83
355.264	106
355.491	90
355.718	99
355.945	86
356.172	105
356.399	90
356.626	74
356.853	95
357.08	88
357.307	93
357.534	92
357.761	99
357.988	114
358.215	95
358.441	94
358.668	95
358.895	98
359.122	95
359.349	91
359.576	92
359.802	108
360.029	111
360.256	115
360.483	107
360.709	92
360.936	88
361.163	113
361.39	92
361.616	96
361.843	92
362.07	97
362.296	92
362.523	97
362.749	95
362.976	90
363.203	88
363.429	87
363.656	90
363.882	90
364.109	90
364.335	103
364.562	84
364.788	95
365.015	97
365.241	111
365.468	116
365.694	101
365.92	100
366.147	104
366.373	99
366.599	107
366.826	90
367.052	90
367.278	100
367.505	97
367.731	115
367.957	105
368.184	79
368.41	95
368.636	119
368.862	116
369.089	102
369.315	94
369.541	106
369.767	88
369.993	90
370.219	97
370.445	81
370.672	103
370.898	84
371.124	95
371.35	101
371.576	96
371.802	74
372.028	99
372.254	75
372.48	79
372.706	87
372.932	91
373.158	90
373.384	87
373.61	106
373.835	86
374.061	95
374.287	88
374.513	83
374.739	100
374.965	89
375.191	86
375.416	97
375.642	106
375.868	90
376.094	88
376.319	91
376.545	92
376.771	91
376.997	90
377.222	78
377.448	85
377.674	91
377.899	88
378.125	88
378.35	74
378.576	86
378.802	74
379.027	90
379.253	100
379.478	82
379.704	105
379.929	99
380.155	103
380.38	89
380.606	83
380.831	99
381.057	119
381.282	91
381.507	91
381.733	94
381.958	94
382.184	71
382.409	90
382.634	91
382.86	102
383.085	107
383.31	109
383.535	85
383.761	111
383.986	114
384.211	113
384.436	102
384.662	106
384.887	100
385.112	107
385.337	95
385.562	96
385.787	93
386.013	109
386.238	96
386.463	105
386.688	101
386.913	96
387.138	104
387.363	87
387.588	100
387.813	105
388.038	102
388.263	100
388.488	105
388.713	89
388.938	80
389.163	90
389.387	106
389.612	96
389.837	80
390.062	106
390.287	90
390.512	88
390.736	92
390.961	90
391.186	101
391.411	82
391.636	88
391.86	86
392.085	91
392.31	84
392.534	102
392.759	94
392.984	92
393.208	86
393.433	90
393.658	93
393.882	84
394.107	90
394.331	89
394.556	70
394.78	94
395.005	94
395.229	97
395.454	96
395.678	82
395.903	74
396.127	90
396.352	90
396.576	82
396.801	92
397.025	83
397.249	81
397.474	102
397.698	90
397.922	90
398.147	94
398.371	97
398.595	81
398.82	76
399.044	89
399.268	84
399.492	86
399.717	94
399.941	95
400.165	91
400.389	102
400.613	86
400.837	94
401.062	85
401.286	96
401.51	89
401.734	102
401.958	90
402.182	124
402.406	184
402.63	120
402.854	86
403.078	107
403.302	82
403.526	90
403.75	96
403.974	86
404.198	82
404.422	94
404.645	96
404.869	101
405.093	97
405.317	99
405.541	96
405.765	120
405.988	126
406.212	190
406.436	244
406.66	148
406.883	100
407.107	97
407.331	88
407.555	97
407.778	91
408.002	84
408.226	91
408.449	87
408.673	96
408.896	104
409.12	98
409.344	79
409.567	83
409.791	84
410.014	90
410.238	93
410.461	97
410.685	88
410.908	92
411.132	105
411.355	92
411.578	87
411.802	90
412.025	99
412.249	90
412.472	112
412.695	100
412.919	96
413.142	86
413.365	88
413.589	98
413.812	86
414.035	98
414.258	100
414.482	93
414.705	99
414.928	86
415.151	98
415.374	101
415.597	90
415.821	92
416.044	92
416.267	99
416.49	92
416.713	110
416.936	83
417.159	91
417.382	81
417.605	78
417.828	86
418.051	86
418.274	90
418.497	99
418.72	100
418.943	96
419.166	84
419.389	79
419.611	82
419.834	89
420.057	82
420.28	93
420.503	100
420.726	83
420.948	87
421.171	85
421.394	97
421.617	82
421.839	80
422.062	91
422.285	81
422.507	98
422.73	97
422.953	99
423.175	86
423.398	86
423.621	101
423.843	86
424.066	93
424.288	86
424.511	86
424.733	114
424.956	97
425.178	92
425.401	94
425.623	95
425.846	92
426.068	85
426.291	92
426.513	92
426.735	100
426.958	102
427.18	89
427.402	126
427.625	169
427.847	131
428.069	110
428.292	91
428.514	90
428.736	102
428.958	96
429.181	88
429.403	68
429.625	79
429.847	82
430.069	100
430.292	87
430.514	85
430.736	88
430.958	92
431.18	80
431.402	76
431.624	82
431.846	73
432.068	85
432.29	86
432.512	75
432.734	80
432.956	78
433.178	86
433.4	102
433.622	83
433.844	86
434.066	84
434.287	100
434.509	89
434.731	78
434.953	74
435.175	91
435.397	87
435.618	92
435.84	109
436.062	124
436.284	111
436.505	102
436.727	107
436.949	79
437.17	92
437.392	92
437.614	79
437.835	112
438.057	117
438.278	106
438.5	97
438.721	120
438.943	96
439.165	100
439.386	79
439.608	91
439.829	107
440.05	143
440.272	136
440.493	103
440.715	96
440.936	84
441.158	90
441.379	89
441.6	89
441.822	85
442.043	93
442.264	104
442.486	108
442.707	94
442.928	101
443.149	114
443.371	122
443.592	114
443.813	115
444.034	105
444.255	94
444.476	78
444.698	89
444.919	86
445.14	130
445.361	127
445.582	116
445.803	129
446.024	135
446.245	120
446.466	117
446.687	77
446.908	91
447.129	89
447.35	90
447.571	93
447.792	108
448.013	106
448.234	112
448.455	108
448.675	100
448.896	127
449.117	97
449.338	117
449.559	132
449.779	144
450	97
450.221	97
450.442	98
450.662	87
450.883	110
451.104	113
451.324	106
451.545	80
451.766	90
451.986	104
452.207	91
452.428	89
452.648	101
452.869	108
453.089	115
453.31	118
453.53	104
453.751	98
453.971	120
454.192	112
454.412	100
454.633	91
454.853	89
455.073	67
455.294	89
455.514	96
455.734	96
455.955	89
456.175	73
456.395	79
456.616	94
456.836	81
457.056	84
457.276	87
457.497	91
457.717	82
457.937	82
458.157	89
458.377	98
458.598	106
458.818	154
459.038	162
459.258	119
459.478	88
459.698	87
459.918	82
460.138	76
460.358	82
460.578	93
460.798	92
461.018	97
461.238	73
461.458	92
461.678	98
461.898	97
462.118	87
462.338	87
462.558	79
462.777	81
462.997	82
463.217	74
463.437	81
463.657	78
463.876	93
464.096	78
464.316	97
464.536	96
464.755	95
464.975	108
465.195	170
465.414	148
465.634	91
465.854	91
466.073	93
466.293	85
466.512	71
466.732	76
466.951	77
467.171	78
467.391	86
467.61	102
467.829	87
468.049	87
468.268	93
468.488	83
468.707	83
468.927	90
469.146	95
469.365	85
469.585	84
469.804	92
470.023	94
470.243	86
470.462	100
470.681	102
470.901	91
471.12	89
471.339	82
471.558	87
471.777	90
471.997	78
472.216	84
472.435	114
472.654	93
472.873	75
473.092	99
473.311	93
473.53	87
473.749	82
473.968	89
474.187	126
474.406	83
474.625	92
474.844	93
475.063	71
475.282	73
475.501	76
475.72	82
475.939	77
476.158	90
476.377	87
476.596	96
476.814	76
477.033	98
477.252	93
477.471	97
477.69	80
477.908	81
478.127	84
478.346	83
478.564	108
478.783	86
479.002	90
479.22	95
479.439	93
479.658	106
479.876	82
480.095	86
480.313	89
480.532	79
480.751	91
480.969	89
481.188	118
481.406	99
481.624	102
481.843	93
482.061	96
482.28	98
482.498	92
482.717	83
482.935	81
483.153	87
483.372	85
483.59	88
483.808	102
484.027	92
484.245	100
484.463	99
484.681	95
484.9	76
485.118	107
485.336	99
485.554	84
485.772	105
485.99	100
486.209	91
486.427	106
486.645	104
486.863	106
487.081	106
487.299	104
487.517	99
487.735	89
487.953	98
488.171	97
488.389	88
488.607	103
488.825	89
489.043	92
489.261	75
489.479	87
489.696	83
489.914	92
490.132	79
490.35	76
490.568	100
490.786	78
491.003	85
491.221	90
491.439	89
491.657	96
491.874	109
492.092	93
492.31	91
492.527	92
492.745	88
492.963	98
493.18	96
493.398	100
493.615	84
493.833	100
494.05	98
494.268	89
494.485	83
494.703	83
494.92	100
495.138	106
495.355	97
495.573	93
495.79	102
496.008	98
496.225	79
496.442	76
496.66	90
496.877	80
497.094	97
497.312	99
497.529	97
497.746	90
497.963	77
498.181	92
498.398	103
498.615	104
498.832	107
499.049	91
499.267	80
499.484	77
499.701	97
499.918	85
500.135	81
500.352	93
500.569	82
500.786	92
501.003	81
501.22	99
501.437	91
501.654	93
501.871	105
502.088	92
502.305	100
502.522	84
502.739	99
502.956	80
503.172	86
503.389	91
503.606	107
503.823	100
504.04	86
504.256	76
504.473	97
504.69	94
504.907	101
505.123	84
505.34	92
505.557	95
505.773	90
505.99	86
506.207	78
506.423	95
506.64	98
506.856	80
507.073	95
507.289	96
507.506	97
507.722	105
507.939	113
508.155	105
508.372	97
508.588	87
508.805	96
509.021	104
509.238	104
509.454	88
509.67	94
509.887	116
510.103	127
510.319	224
510.536	777
510.752	2294
510.968	632
511.184	147
511.401	98
511.617	94
511.833	83
512.049	97
512.265	100
512.481	111
512.698	94
512.914	94
513.13	99
513.346	92
513.562	95
513.778	100
513.994	96
514.21	105
514.426	129
514.642	147
514.858	138
515.074	163
515.29	459
515.506	1504
515.721	546
515.937	155
516.153	114
516.369	86
516.585	89
516.801	97
517.016	104
517.232	99
517.448	94
517.664	88
517.879	96
518.095	85
518.311	89
518.527	105
518.742	104
518.958	92
519.173	94
519.389	89
519.605	109
519.82	94
520.036	108
520.251	118
520.467	99
520.682	89
520.898	110
521.113	130
521.329	153
521.544	212
521.76	590
521.975	2487
522.19	1453
522.406	318
522.621	126
522.836	87
523.052	90
523.267	98
523.482	96
523.698	99
523.913	113
524.128	107
524.343	102
524.559	94
524.774	97
524.989	104
525.204	105
525.419	109
525.634	88
525.849	97
526.064	100
526.28	97
526.495	74
526.71	103
526.925	90
527.14	80
527.355	90
527.57	83
527.785	88
527.999	92
528.214	96
528.429	93
528.644	107
528.859	89
529.074	106
529.289	118
529.503	158
529.718	107
529.933	99
530.148	96
530.363	82
530.577	84
530.792	99
531.007	94
531.221	93
531.436	85
531.651	85
531.865	81
532.08	85
532.295	84
532.509	86
532.724	82
532.938	106
533.153	81
533.367	93
533.582	101
533.796	94
534.011	115
534.225	83
534.44	95
534.654	87
534.868	99
535.083	89
535.297	109
535.511	101
535.726	89
535.94	97
536.154	83
536.369	83
536.583	88
536.797	90
537.011	83
537.225	93
537.44	91
537.654	93
537.868	82
538.082	92
538.296	89
538.51	95
538.724	91
538.938	87
539.153	100
539.367	102
539.581	100
539.795	91
540.009	83
540.222	100
540.436	98
540.65	86
540.864	97
541.078	95
541.292	96
541.506	74
541.72	94
541.934	89
542.147	75
542.361	104
542.575	94
542.789	102
543.002	111
543.216	92
543.43	99
543.644	91
543.857	92
544.071	100
544.285	99
544.498	100
544.712	95
544.925	88
545.139	89
545.352	83
545.566	88
545.779	93
545.993	86
546.206	91
546.42	91
546.633	102
546.847	88
547.06	97
547.274	94
547.487	81
547.7	95
547.914	97
548.127	75
548.34	83
548.554	99
548.767	86
548.98	96
549.193	76
549.407	87
549.62	91
549.833	92
550.046	87
550.259	96
550.473	79
550.686	91
550.899	92
551.112	82
551.325	91
551.538	94
551.751	82
551.964	80
552.177	93
552.39	90
552.603	89
552.816	96
553.029	81
553.242	99
553.455	110
553.667	100
553.88	110
554.093	100
554.306	95
554.519	87
554.732	82
554.944	112
555.157	95
555.37	89
555.583	78
555.795	86
556.008	100
556.221	92
556.433	96
556.646	92
556.859	90
557.071	88
557.284	93
557.496	93
557.709	83
557.921	89
558.134	87
558.346	83
558.559	82
558.771	95
558.984	90
559.196	85
559.409	104
559.621	79
559.833	89
560.046	91
560.258	96
560.47	101
560.683	87
560.895	111
561.107	107
561.32	89
561.532	90
561.744	95
561.956	85
562.168	84
562.381	86
562.593	82
562.805	79
563.017	92
563.229	94
563.441	94
563.653	86
563.865	96
564.077	81
564.289	92
564.501	84
564.713	88
564.925	95
565.137	98
565.349	83
565.561	94
565.773	99
565.985	76
566.197	90
566.408	89
566.62	92
566.832	96
567.044	83
567.255	91
567.467	96
567.679	78
567.891	81
568.102	89
568.314	100
568.526	95
568.737	82
568.949	91
569.161	83
569.372	72
569.584	102
569.795	97
570.007	118
570.218	247
570.43	133
570.641	93
570.853	93
571.064	83
571.276	86
571.487	85
571.698	83
571.91	88
572.121	92
572.333	100
572.544	98
572.755	85
572.966	90
573.178	79
573.389	92
573.6	96
573.811	95
574.023	90
574.234	80
574.445	90
574.656	86
574.867	98
575.078	77
575.289	92
575.501	97
575.712	99
575.923	90
576.134	87
576.345	81
576.556	88
576.767	81
576.978	99
577.188	94
577.399	100
577.61	90
577.821	98
578.032	122
578.243	271
578.454	769
578.665	224
578.875	97
579.086	90
579.297	93
579.508	78
579.718	97
579.929	103
580.14	84
580.35	80
580.561	103
580.772	91
580.982	89
581.193	87
581.403	90
581.614	75
581.825	98
582.035	93
582.246	88
582.456	97
582.667	91
582.877	75
583.087	94
583.298	83
583.508	78
583.719	86
583.929	91
