Data from Uncirc_1998_H10_HRD10591_00007.txt Node
Date: Wed Jan 03 11:25:26 EST 2024
User: Yrep
Spectrometer: HR+D1059
Trigger mode: 1
Integration Time (sec): 1.000000E-1
Scans to average: 1
Electric dark correction enabled: true
Nonlinearity correction enabled: false
Boxcar width: 0
XAxis mode: Wavelengths
Number of Pixels in Spectrum: 2048
>>>>>Begin Spectral Data<<<<<
223.165	-19
223.4	-19
223.635	-19
223.869	-27
224.104	-9
224.338	-18
224.573	-32
224.808	-13
225.042	-17
225.277	1
225.511	7
225.746	3
225.98	3
226.215	16
226.449	19
226.683	32
226.918	21
227.152	33
227.387	33
227.621	50
227.856	45
228.09	43
228.324	48
228.559	51
228.793	55
229.027	78
229.262	76
229.496	80
229.73	73
229.964	74
230.199	71
230.433	73
230.667	91
230.901	65
231.136	73
231.37	79
231.604	83
231.838	83
232.072	76
232.306	76
232.541	85
232.775	88
233.009	69
233.243	81
233.477	86
233.711	82
233.945	79
234.179	87
234.413	98
234.647	68
234.881	74
235.115	75
235.349	92
235.583	78
235.817	88
236.051	100
236.285	87
236.519	95
236.753	73
236.987	79
237.221	75
237.455	78
237.689	74
237.922	101
238.156	80
238.39	70
238.624	85
238.858	84
239.091	82
239.325	79
239.559	90
239.793	83
240.027	74
240.26	84
240.494	79
240.728	84
240.961	81
241.195	88
241.429	87
241.662	83
241.896	79
242.13	88
242.363	78
242.597	67
242.83	81
243.064	66
243.298	76
243.531	75
243.765	92
243.998	76
244.232	63
244.465	77
244.699	92
244.932	75
245.166	84
245.399	86
245.633	84
245.866	79
246.099	73
246.333	84
246.566	80
246.8	79
247.033	81
247.266	89
247.5	68
247.733	77
247.966	80
248.2	84
248.433	89
248.666	90
248.899	86
249.133	80
249.366	89
249.599	84
249.832	81
250.066	79
250.299	85
250.532	85
250.765	86
250.998	88
251.231	87
251.465	91
251.698	79
251.931	81
252.164	68
252.397	78
252.63	86
252.863	78
253.096	79
253.329	83
253.562	95
253.795	79
254.028	83
254.261	100
254.494	86
254.727	77
254.96	80
255.193	79
255.426	93
255.659	85
255.892	82
256.124	83
256.357	86
256.59	78
256.823	81
257.056	90
257.289	94
257.521	80
257.754	83
257.987	82
258.22	92
258.452	78
258.685	73
258.918	73
259.151	83
259.383	88
259.616	80
259.849	81
260.081	84
260.314	73
260.547	85
260.779	84
261.012	80
261.244	83
261.477	82
261.71	101
261.942	103
262.175	99
262.407	93
262.64	86
262.872	87
263.105	80
263.337	83
263.57	93
263.802	103
264.035	80
264.267	81
264.499	91
264.732	90
264.964	79
265.197	91
265.429	84
265.661	81
265.894	83
266.126	92
266.358	99
266.591	80
266.823	101
267.055	83
267.287	71
267.52	79
267.752	85
267.984	77
268.216	92
268.448	85
268.681	98
268.913	99
269.145	84
269.377	88
269.609	87
269.841	82
270.073	82
270.306	87
270.538	92
270.77	97
271.002	98
271.234	96
271.466	96
271.698	84
271.93	97
272.162	96
272.394	80
272.626	95
272.858	73
273.09	97
273.322	90
273.553	75
273.785	97
274.017	75
274.249	92
274.481	95
274.713	105
274.945	88
275.176	96
275.408	87
275.64	82
275.872	90
276.104	96
276.335	88
276.567	108
276.799	97
277.031	90
277.262	75
277.494	90
277.726	75
277.957	96
278.189	87
278.421	88
278.652	80
278.884	90
279.115	99
279.347	89
279.579	92
279.81	95
280.042	91
280.273	85
280.505	86
280.736	91
280.968	96
281.199	81
281.431	91
281.662	83
281.894	89
282.125	77
282.356	109
282.588	109
282.819	106
283.051	107
283.282	79
283.513	89
283.745	93
283.976	80
284.207	93
284.439	66
284.67	81
284.901	75
285.132	90
285.364	93
285.595	83
285.826	93
286.057	80
286.288	85
286.52	67
286.751	87
286.982	86
287.213	85
287.444	93
287.675	85
287.906	81
288.138	93
288.369	100
288.6	80
288.831	97
289.062	107
289.293	80
289.524	87
289.755	98
289.986	87
290.217	90
290.448	99
290.679	79
290.91	93
291.141	93
291.371	97
291.602	83
291.833	75
292.064	95
292.295	88
292.526	74
292.757	94
292.987	92
293.218	93
293.449	76
293.68	94
293.91	103
294.141	89
294.372	83
294.603	84
294.833	87
295.064	80
295.295	87
295.525	92
295.756	101
295.987	91
296.217	109
296.448	111
296.679	100
296.909	84
297.14	89
297.37	95
297.601	96
297.831	95
298.062	91
298.292	105
298.523	100
298.753	87
298.984	76
299.214	92
299.445	92
299.675	85
299.905	97
300.136	90
300.366	84
300.597	89
300.827	90
301.057	102
301.288	96
301.518	101
301.748	87
301.979	106
302.209	85
302.439	93
302.669	102
302.9	95
303.13	84
303.36	97
303.59	94
303.82	93
304.051	102
304.281	85
304.511	87
304.741	71
304.971	90
305.201	103
305.431	91
305.661	95
305.891	94
306.121	94
306.352	96
306.582	96
306.812	93
307.042	89
307.272	101
307.502	105
307.731	91
307.961	88
308.191	82
308.421	90
308.651	83
308.881	95
309.111	98
309.341	88
309.571	97
309.8	94
310.03	95
310.26	101
310.49	99
310.72	103
310.949	104
311.179	103
311.409	99
311.639	100
311.868	96
312.098	87
312.328	105
312.557	104
312.787	108
313.017	107
313.246	84
313.476	82
313.706	82
313.935	97
314.165	89
314.394	93
314.624	89
314.853	111
315.083	94
315.312	93
315.542	85
315.771	103
316.001	105
316.23	103
316.46	109
316.689	77
316.919	87
317.148	89
317.377	81
317.607	85
317.836	89
318.065	79
318.295	90
318.524	85
318.753	105
318.983	113
319.212	91
319.441	105
319.67	104
319.9	91
320.129	90
320.358	97
320.587	97
320.816	104
321.046	89
321.275	97
321.504	93
321.733	107
321.962	92
322.191	97
322.42	105
322.649	112
322.878	109
323.108	96
323.337	120
323.566	133
323.795	153
324.024	194
324.253	349
324.482	685
324.71	1404
324.939	1813
325.168	665
325.397	211
325.626	140
325.855	121
326.084	110
326.313	130
326.542	137
326.77	213
326.999	403
327.228	816
327.457	1460
327.686	1155
327.914	327
328.143	196
328.372	153
328.6	108
328.829	117
329.058	132
329.287	117
329.515	107
329.744	111
329.972	98
330.201	88
330.43	96
330.658	106
330.887	126
331.115	122
331.344	86
331.572	96
331.801	91
332.03	89
332.258	99
332.486	114
332.715	88
332.943	88
333.172	105
333.4	99
333.629	96
333.857	111
334.085	110
334.314	120
334.542	108
334.771	104
334.999	81
335.227	103
335.455	88
335.684	104
335.912	87
336.14	96
336.369	88
336.597	100
336.825	88
337.053	85
337.281	102
337.51	85
337.738	90
337.966	107
338.194	115
338.422	104
338.65	91
338.878	91
339.106	79
339.334	83
339.562	89
339.79	99
340.018	82
340.246	91
340.474	93
340.702	90
340.93	86
341.158	109
341.386	86
341.614	99
341.842	81
342.07	85
342.298	92
342.526	87
342.754	85
342.981	75
343.209	106
343.437	98
343.665	90
343.893	95
344.12	84
344.348	100
344.576	95
344.804	97
345.031	95
345.259	84
345.487	81
345.714	87
345.942	86
346.17	96
346.397	114
346.625	95
346.853	101
347.08	103
347.308	100
347.535	95
347.763	91
347.99	121
348.218	98
348.445	105
348.673	101
348.9	106
349.128	101
349.355	95
349.583	95
349.81	86
350.037	100
350.265	101
350.492	89
350.72	101
350.947	101
351.174	95
351.402	108
351.629	98
351.856	95
352.083	109
352.311	105
352.538	96
352.765	104
352.992	106
353.22	106
353.447	113
353.674	87
353.901	88
354.128	109
354.355	105
354.583	96
354.81	118
355.037	113
355.264	103
355.491	99
355.718	96
355.945	117
356.172	91
356.399	93
356.626	107
356.853	94
357.08	95
357.307	96
357.534	100
357.761	120
357.988	100
358.215	96
358.441	109
358.668	82
358.895	96
359.122	97
359.349	90
359.576	74
359.802	98
360.029	99
360.256	99
360.483	102
360.709	96
360.936	89
361.163	96
361.39	97
361.616	93
361.843	96
362.07	90
362.296	75
362.523	72
362.749	91
362.976	95
363.203	99
363.429	96
363.656	95
363.882	102
364.109	98
364.335	97
364.562	95
364.788	95
365.015	88
365.241	89
365.468	120
365.694	92
365.92	96
366.147	95
366.373	87
366.599	98
366.826	100
367.052	86
367.278	95
367.505	88
367.731	99
367.957	84
368.184	91
368.41	100
368.636	100
368.862	99
369.089	102
369.315	81
369.541	87
369.767	85
369.993	98
370.219	93
370.445	90
370.672	84
370.898	91
371.124	103
371.35	89
371.576	90
371.802	89
372.028	100
372.254	81
372.48	91
372.706	87
372.932	83
373.158	96
373.384	91
373.61	85
373.835	87
374.061	93
374.287	98
374.513	105
374.739	104
374.965	84
375.191	83
375.416	83
375.642	99
375.868	89
376.094	88
376.319	89
376.545	91
376.771	98
376.997	94
377.222	89
377.448	100
377.674	83
377.899	84
378.125	84
378.35	91
378.576	84
378.802	82
379.027	90
379.253	104
379.478	90
379.704	94
379.929	97
380.155	100
380.38	94
380.606	105
380.831	111
381.057	101
381.282	97
381.507	99
381.733	97
381.958	91
382.184	95
382.409	99
382.634	92
382.86	98
383.085	111
383.31	97
383.535	99
383.761	94
383.986	93
384.211	96
384.436	103
384.662	101
384.887	105
385.112	109
385.337	109
385.562	97
385.787	112
386.013	107
386.238	122
386.463	127
386.688	128
386.913	93
387.138	101
387.363	106
387.588	104
387.813	103
388.038	121
388.263	104
388.488	101
388.713	98
388.938	95
389.163	89
389.387	105
389.612	89
389.837	96
390.062	90
390.287	98
390.512	96
390.736	81
390.961	100
391.186	94
391.411	105
391.636	97
391.86	96
392.085	103
392.31	98
392.534	91
392.759	87
392.984	82
393.208	74
393.433	94
393.658	89
393.882	79
394.107	79
394.331	98
394.556	93
394.78	87
395.005	91
395.229	72
395.454	81
395.678	87
395.903	88
396.127	92
396.352	81
396.576	91
396.801	84
397.025	90
397.249	81
397.474	103
397.698	85
397.922	107
398.147	85
398.371	97
398.595	89
398.82	97
399.044	100
399.268	93
399.492	79
399.717	106
399.941	94
400.165	103
400.389	98
400.613	84
400.837	84
401.062	89
401.286	83
401.51	81
401.734	86
401.958	89
402.182	106
402.406	133
402.63	101
402.854	88
403.078	98
403.302	88
403.526	84
403.75	94
403.974	98
404.198	83
404.422	88
404.645	93
404.869	88
405.093	91
405.317	92
405.541	99
405.765	106
405.988	115
406.212	153
406.436	183
406.66	138
406.883	89
407.107	92
407.331	90
407.555	99
407.778	101
408.002	89
408.226	96
408.449	92
408.673	107
408.896	86
409.12	104
409.344	111
409.567	87
409.791	86
410.014	109
410.238	95
410.461	93
410.685	114
410.908	101
411.132	111
411.355	111
411.578	68
411.802	96
412.025	102
412.249	97
412.472	82
412.695	98
412.919	95
413.142	92
413.365	98
413.589	108
413.812	107
414.035	92
414.258	96
414.482	104
414.705	91
414.928	98
415.151	106
415.374	106
415.597	77
415.821	94
416.044	98
416.267	88
416.49	103
416.713	103
416.936	96
417.159	101
417.382	95
417.605	89
417.828	108
418.051	104
418.274	96
418.497	93
418.72	94
418.943	71
419.166	91
419.389	84
419.611	104
419.834	71
420.057	90
420.28	97
420.503	92
420.726	76
420.948	95
421.171	93
421.394	93
421.617	93
421.839	96
422.062	89
422.285	107
422.507	92
422.73	114
422.953	100
423.175	92
423.398	99
423.621	92
423.843	93
424.066	80
424.288	95
424.511	86
424.733	100
424.956	104
425.178	84
425.401	103
425.623	83
425.846	89
426.068	104
426.291	85
426.513	99
426.735	94
426.958	96
427.18	115
427.402	126
427.625	143
427.847	97
428.069	102
428.292	89
428.514	82
428.736	75
428.958	83
429.181	99
429.403	86
429.625	103
429.847	91
430.069	100
430.292	95
430.514	80
430.736	92
430.958	75
431.18	81
431.402	91
431.624	93
431.846	82
432.068	79
432.29	86
432.512	100
432.734	93
432.956	94
433.178	97
433.4	98
433.622	89
433.844	88
434.066	97
434.287	103
434.509	104
434.731	91
434.953	71
435.175	101
435.397	95
435.618	88
435.84	106
436.062	108
436.284	114
436.505	116
436.727	111
436.949	109
437.17	100
437.392	99
437.614	92
437.835	99
438.057	101
438.278	107
438.5	105
438.721	105
438.943	105
439.165	81
439.386	76
439.608	91
439.829	91
440.05	126
440.272	124
440.493	95
440.715	93
440.936	95
441.158	101
441.379	87
441.6	89
441.822	89
442.043	99
442.264	83
442.486	98
442.707	95
442.928	93
443.149	117
443.371	115
443.592	98
443.813	111
444.034	107
444.255	95
444.476	105
444.698	86
444.919	84
445.14	126
445.361	120
445.582	98
445.803	120
446.024	124
446.245	125
446.466	117
446.687	80
446.908	77
447.129	100
447.35	98
447.571	83
447.792	79
448.013	99
448.234	100
448.455	88
448.675	104
448.896	115
449.117	89
449.338	108
449.559	111
449.779	125
450	93
450.221	85
450.442	100
450.662	101
450.883	99
451.104	96
451.324	96
451.545	95
451.766	90
451.986	84
452.207	101
452.428	83
452.648	87
452.869	108
453.089	108
453.31	109
453.53	79
453.751	96
453.971	109
454.192	98
454.412	104
454.633	88
454.853	83
455.073	91
455.294	97
455.514	97
455.734	98
455.955	86
456.175	83
456.395	83
456.616	83
456.836	84
457.056	80
457.276	96
457.497	84
457.717	84
457.937	96
458.157	102
458.377	83
458.598	104
458.818	124
459.038	136
459.258	103
459.478	100
459.698	93
459.918	86
460.138	94
460.358	89
460.578	85
460.798	97
461.018	96
461.238	89
461.458	92
461.678	90
461.898	100
462.118	96
462.338	98
462.558	81
462.777	81
462.997	73
463.217	86
463.437	83
463.657	81
463.876	92
464.096	80
464.316	95
464.536	89
464.755	87
464.975	103
465.195	127
465.414	129
465.634	95
465.854	93
466.073	94
466.293	89
466.512	99
466.732	100
466.951	89
467.171	88
467.391	97
467.61	93
467.829	98
468.049	84
468.268	86
468.488	98
468.707	87
468.927	94
469.146	89
469.365	96
469.585	99
469.804	85
470.023	88
470.243	96
470.462	98
470.681	101
470.901	99
471.12	81
471.339	84
471.558	92
471.777	85
471.997	93
472.216	88
472.435	84
472.654	98
472.873	89
473.092	95
473.311	105
473.53	96
473.749	85
473.968	97
474.187	90
474.406	97
474.625	87
474.844	98
475.063	89
475.282	87
475.501	81
475.72	79
475.939	90
476.158	77
476.377	71
476.596	89
476.814	92
477.033	95
477.252	100
477.471	95
477.69	81
477.908	97
478.127	104
478.346	86
478.564	85
478.783	93
479.002	88
479.22	97
479.439	99
479.658	96
479.876	92
480.095	76
480.313	90
480.532	99
480.751	94
480.969	89
481.188	115
481.406	105
481.624	89
481.843	88
482.061	88
482.28	79
482.498	99
482.717	86
482.935	77
483.153	78
483.372	95
483.59	92
483.808	85
484.027	90
484.245	105
484.463	102
484.681	97
484.9	101
485.118	92
485.336	96
485.554	92
485.772	100
485.99	106
486.209	110
486.427	114
486.645	117
486.863	108
487.081	103
487.299	113
487.517	114
487.735	88
487.953	98
488.171	78
488.389	97
488.607	92
488.825	90
489.043	91
489.261	93
489.479	91
489.696	91
489.914	94
490.132	91
490.35	92
490.568	88
490.786	104
491.003	79
491.221	84
491.439	87
491.657	105
491.874	97
492.092	86
492.31	100
492.527	102
492.745	91
492.963	99
493.18	96
493.398	109
493.615	94
493.833	91
494.05	93
494.268	94
494.485	94
494.703	93
494.92	90
495.138	105
495.355	90
495.573	97
495.79	88
496.008	100
496.225	105
496.442	77
496.66	87
496.877	87
497.094	101
497.312	100
497.529	106
497.746	82
497.963	98
498.181	98
498.398	106
498.615	99
498.832	101
499.049	75
499.267	93
499.484	85
499.701	87
499.918	86
500.135	89
500.352	98
500.569	87
500.786	93
501.003	101
501.22	82
501.437	89
501.654	81
501.871	107
502.088	96
502.305	104
502.522	95
502.739	84
502.956	76
503.172	88
503.389	107
503.606	99
503.823	102
504.04	94
504.256	99
504.473	85
504.69	91
504.907	95
505.123	96
505.34	96
505.557	90
505.773	93
505.99	100
506.207	83
506.423	83
506.64	100
506.856	86
507.073	104
507.289	93
507.506	95
507.722	98
507.939	109
508.155	89
508.372	87
508.588	89
508.805	96
509.021	99
509.238	96
509.454	88
509.67	108
509.887	106
510.103	107
510.319	193
510.536	582
510.752	1655
510.968	491
511.184	128
511.401	103
511.617	98
511.833	93
512.049	79
512.265	90
512.481	100
512.698	88
512.914	90
513.13	103
513.346	92
513.562	111
513.778	105
513.994	93
514.21	108
514.426	101
514.642	122
514.858	109
515.074	164
515.29	348
515.506	1009
515.721	410
515.937	129
516.153	110
516.369	90
516.585	99
516.801	81
517.016	97
517.232	93
517.448	81
517.664	87
517.879	74
518.095	75
518.311	87
518.527	97
518.742	99
518.958	106
519.173	89
519.389	99
519.605	102
519.82	91
520.036	86
520.251	125
520.467	116
520.682	97
520.898	111
521.113	96
521.329	112
521.544	176
521.76	441
521.975	1659
522.19	1003
522.406	238
522.621	113
522.836	91
523.052	106
523.267	103
523.482	88
523.698	88
523.913	100
524.128	103
524.343	94
524.559	106
524.774	94
524.989	93
525.204	97
525.419	86
525.634	92
525.849	92
526.064	104
526.28	105
526.495	97
526.71	94
526.925	87
527.14	74
527.355	98
527.57	99
527.785	102
527.999	87
528.214	87
528.429	89
528.644	104
528.859	96
529.074	79
529.289	116
529.503	134
529.718	103
529.933	78
530.148	83
530.363	96
530.577	101
530.792	91
531.007	80
531.221	90
531.436	94
531.651	92
531.865	93
532.08	90
532.295	88
532.509	100
532.724	92
532.938	89
533.153	103
533.367	87
533.582	97
533.796	105
534.011	93
534.225	90
534.44	102
534.654	90
534.868	95
535.083	98
535.297	88
535.511	107
535.726	103
535.94	96
536.154	107
536.369	100
536.583	89
536.797	99
537.011	107
537.225	92
537.44	96
537.654	91
537.868	77
538.082	91
538.296	94
538.51	84
538.724	101
538.938	98
539.153	95
539.367	106
539.581	91
539.795	91
540.009	92
540.222	99
540.436	99
540.65	96
540.864	91
541.078	84
541.292	109
541.506	94
541.72	95
541.934	105
542.147	107
542.361	83
542.575	99
542.789	88
543.002	95
543.216	99
543.43	91
543.644	80
543.857	101
544.071	91
544.285	87
544.498	96
544.712	97
544.925	86
545.139	87
545.352	85
545.566	93
545.779	87
545.993	82
546.206	84
546.42	87
546.633	108
546.847	85
547.06	96
547.274	88
547.487	81
547.7	99
547.914	91
548.127	98
548.34	90
548.554	91
548.767	94
548.98	91
549.193	99
549.407	82
549.62	96
549.833	85
550.046	95
550.259	91
550.473	89
550.686	97
550.899	97
551.112	101
551.325	90
551.538	89
551.751	98
551.964	94
552.177	94
552.39	99
552.603	89
552.816	85
553.029	98
553.242	99
553.455	98
553.667	107
553.88	101
554.093	96
554.306	86
554.519	100
554.732	100
554.944	96
555.157	90
555.37	93
555.583	90
555.795	89
556.008	99
556.221	98
556.433	97
556.646	96
556.859	101
557.071	80
557.284	97
557.496	89
557.709	92
557.921	90
558.134	89
558.346	102
558.559	92
558.771	99
558.984	85
559.196	74
559.409	91
559.621	95
559.833	92
560.046	93
560.258	97
560.47	86
560.683	96
560.895	93
561.107	85
561.32	91
561.532	97
561.744	82
561.956	96
562.168	98
562.381	95
562.593	110
562.805	104
563.017	91
563.229	100
563.441	105
563.653	92
563.865	88
564.077	102
564.289	90
564.501	92
564.713	98
564.925	97
565.137	108
565.349	96
565.561	94
565.773	98
565.985	112
566.197	89
566.408	101
566.62	95
566.832	91
567.044	93
567.255	104
567.467	81
567.679	77
567.891	90
568.102	93
568.314	87
568.526	76
568.737	84
568.949	81
569.161	89
569.372	91
569.584	90
569.795	104
570.007	116
570.218	199
570.43	119
570.641	88
570.853	98
571.064	105
571.276	93
571.487	100
571.698	100
571.91	106
572.121	66
572.333	87
572.544	80
572.755	89
572.966	99
573.178	98
573.389	77
573.6	87
573.811	85
574.023	98
574.234	93
574.445	91
574.656	88
574.867	92
575.078	98
575.289	93
575.501	95
575.712	81
575.923	93
576.134	93
576.345	88
576.556	77
576.767	95
576.978	94
577.188	101
577.399	96
577.61	87
577.821	96
578.032	115
578.243	238
578.454	599
578.665	167
578.875	97
579.086	94
579.297	91
579.508	84
579.718	98
579.929	86
580.14	94
580.35	92
580.561	88
580.772	92
580.982	78
581.193	77
581.403	83
581.614	89
581.825	87
582.035	105
582.246	89
582.456	103
582.667	100
582.877	97
583.087	74
583.298	101
583.508	91
