Data from Uncirc_1998_H10_HRD10591_00099.txt Node
Date: Wed Jan 03 11:25:44 EST 2024
User: Yrep
Spectrometer: HR+D1059
Trigger mode: 1
Integration Time (sec): 1.000000E-1
Scans to average: 1
Electric dark correction enabled: true
Nonlinearity correction enabled: false
Boxcar width: 0
XAxis mode: Wavelengths
Number of Pixels in Spectrum: 2048
>>>>>Begin Spectral Data<<<<<
223.165	-23.5
223.4	-23.5
223.635	-23.5
223.869	-30.5
224.104	-19.5
224.338	-12.5
224.573	-3.5
224.808	-8.5
225.042	-14.5
225.277	-13.5
225.511	-4.5
225.746	-10.5
225.98	7.5
226.215	25.5
226.449	19.5
226.683	27.5
226.918	32.5
227.152	28.5
227.387	38.5
227.621	39.5
227.856	37.5
228.09	37.5
228.324	52.5
228.559	61.5
228.793	53.5
229.027	73.5
229.262	54.5
229.496	87.5
229.73	71.5
229.964	97.5
230.199	99.5
230.433	91.5
230.667	90.5
230.901	83.5
231.136	94.5
231.37	81.5
231.604	91.5
231.838	91.5
232.072	62.5
232.306	82.5
232.541	89.5
232.775	97.5
233.009	89.5
233.243	90.5
233.477	77.5
233.711	91.5
233.945	76.5
234.179	89.5
234.413	81.5
234.647	89.5
234.881	93.5
235.115	79.5
235.349	88.5
235.583	101.5
235.817	80.5
236.051	80.5
236.285	88.5
236.519	85.5
236.753	73.5
236.987	83.5
237.221	77.5
237.455	89.5
237.689	87.5
237.922	83.5
238.156	74.5
238.39	63.5
238.624	79.5
238.858	67.5
239.091	71.5
239.325	84.5
239.559	81.5
239.793	74.5
240.027	85.5
240.26	86.5
240.494	79.5
240.728	73.5
240.961	96.5
241.195	93.5
241.429	82.5
241.662	60.5
241.896	68.5
242.13	84.5
242.363	65.5
242.597	76.5
242.83	84.5
243.064	84.5
243.298	79.5
243.531	63.5
243.765	83.5
243.998	86.5
244.232	72.5
244.465	87.5
244.699	61.5
244.932	77.5
245.166	79.5
245.399	87.5
245.633	90.5
245.866	81.5
246.099	84.5
246.333	68.5
246.566	87.5
246.8	91.5
247.033	91.5
247.266	87.5
247.5	85.5
247.733	84.5
247.966	79.5
248.2	81.5
248.433	75.5
248.666	76.5
248.899	97.5
249.133	93.5
249.366	92.5
249.599	106.5
249.832	74.5
250.066	76.5
250.299	88.5
250.532	100.5
250.765	86.5
250.998	80.5
251.231	89.5
251.465	82.5
251.698	88.5
251.931	86.5
252.164	77.5
252.397	92.5
252.63	92.5
252.863	81.5
253.096	80.5
253.329	110.5
253.562	76.5
253.795	72.5
254.028	88.5
254.261	75.5
254.494	66.5
254.727	79.5
254.96	78.5
255.193	87.5
255.426	75.5
255.659	80.5
255.892	78.5
256.124	83.5
256.357	88.5
256.59	89.5
256.823	85.5
257.056	67.5
257.289	79.5
257.521	87.5
257.754	98.5
257.987	92.5
258.22	84.5
258.452	92.5
258.685	90.5
258.918	97.5
259.151	85.5
259.383	91.5
259.616	81.5
259.849	91.5
260.081	81.5
260.314	82.5
260.547	52.5
260.779	71.5
261.012	86.5
261.244	79.5
261.477	113.5
261.71	105.5
261.942	111.5
262.175	112.5
262.407	86.5
262.64	98.5
262.872	81.5
263.105	83.5
263.337	88.5
263.57	81.5
263.802	99.5
264.035	80.5
264.267	91.5
264.499	91.5
264.732	86.5
264.964	82.5
265.197	98.5
265.429	78.5
265.661	83.5
265.894	86.5
266.126	71.5
266.358	93.5
266.591	87.5
266.823	87.5
267.055	95.5
267.287	91.5
267.52	79.5
267.752	73.5
267.984	102.5
268.216	97.5
268.448	86.5
268.681	80.5
268.913	83.5
269.145	86.5
269.377	89.5
269.609	78.5
269.841	97.5
270.073	90.5
270.306	84.5
270.538	91.5
270.77	95.5
271.002	79.5
271.234	110.5
271.466	105.5
271.698	87.5
271.93	75.5
272.162	93.5
272.394	89.5
272.626	95.5
272.858	91.5
273.09	86.5
273.322	81.5
273.553	81.5
273.785	84.5
274.017	101.5
274.249	100.5
274.481	76.5
274.713	87.5
274.945	95.5
275.176	81.5
275.408	94.5
275.64	85.5
275.872	95.5
276.104	96.5
276.335	83.5
276.567	97.5
276.799	99.5
277.031	101.5
277.262	89.5
277.494	96.5
277.726	87.5
277.957	85.5
278.189	81.5
278.421	93.5
278.652	106.5
278.884	79.5
279.115	87.5
279.347	89.5
279.579	89.5
279.81	93.5
280.042	103.5
280.273	79.5
280.505	86.5
280.736	91.5
280.968	83.5
281.199	83.5
281.431	85.5
281.662	84.5
281.894	97.5
282.125	98.5
282.356	111.5
282.588	125.5
282.819	106.5
283.051	92.5
283.282	107.5
283.513	95.5
283.745	77.5
283.976	93.5
284.207	78.5
284.439	94.5
284.67	94.5
284.901	103.5
285.132	88.5
285.364	77.5
285.595	94.5
285.826	85.5
286.057	87.5
286.288	97.5
286.52	92.5
286.751	97.5
286.982	93.5
287.213	89.5
287.444	82.5
287.675	83.5
287.906	85.5
288.138	81.5
288.369	92.5
288.6	99.5
288.831	68.5
289.062	100.5
289.293	95.5
289.524	91.5
289.755	89.5
289.986	93.5
290.217	98.5
290.448	82.5
290.679	86.5
290.91	91.5
291.141	89.5
291.371	93.5
291.602	91.5
291.833	96.5
292.064	100.5
292.295	100.5
292.526	98.5
292.757	84.5
292.987	70.5
293.218	97.5
293.449	89.5
293.68	101.5
293.91	89.5
294.141	101.5
294.372	94.5
294.603	80.5
294.833	101.5
295.064	93.5
295.295	93.5
295.525	87.5
295.756	104.5
295.987	113.5
296.217	129.5
296.448	118.5
296.679	107.5
296.909	97.5
297.14	92.5
297.37	82.5
297.601	89.5
297.831	103.5
298.062	101.5
298.292	86.5
298.523	89.5
298.753	89.5
298.984	92.5
299.214	102.5
299.445	87.5
299.675	97.5
299.905	108.5
300.136	101.5
300.366	89.5
300.597	85.5
300.827	83.5
301.057	106.5
301.288	108.5
301.518	93.5
301.748	91.5
301.979	99.5
302.209	97.5
302.439	94.5
302.669	92.5
302.9	94.5
303.13	100.5
303.36	95.5
303.59	94.5
303.82	124.5
304.051	104.5
304.281	93.5
304.511	90.5
304.741	93.5
304.971	80.5
305.201	106.5
305.431	93.5
305.661	83.5
305.891	95.5
306.121	90.5
306.352	102.5
306.582	95.5
306.812	89.5
307.042	86.5
307.272	98.5
307.502	115.5
307.731	96.5
307.961	100.5
308.191	96.5
308.421	103.5
308.651	99.5
308.881	98.5
309.111	78.5
309.341	93.5
309.571	98.5
309.8	101.5
310.03	98.5
310.26	101.5
310.49	103.5
310.72	103.5
310.949	90.5
311.179	92.5
311.409	100.5
311.639	91.5
311.868	88.5
312.098	101.5
312.328	95.5
312.557	103.5
312.787	102.5
313.017	92.5
313.246	79.5
313.476	91.5
313.706	95.5
313.935	86.5
314.165	110.5
314.394	106.5
314.624	98.5
314.853	87.5
315.083	84.5
315.312	84.5
315.542	102.5
315.771	102.5
316.001	90.5
316.23	96.5
316.46	100.5
316.689	93.5
316.919	88.5
317.148	88.5
317.377	91.5
317.607	110.5
317.836	97.5
318.065	96.5
318.295	87.5
318.524	91.5
318.753	88.5
318.983	97.5
319.212	107.5
319.441	100.5
319.67	118.5
319.9	109.5
320.129	95.5
320.358	98.5
320.587	95.5
320.816	98.5
321.046	89.5
321.275	99.5
321.504	105.5
321.733	99.5
321.962	93.5
322.191	94.5
322.42	99.5
322.649	95.5
322.878	114.5
323.108	111.5
323.337	125.5
323.566	133.5
323.795	152.5
324.024	201.5
324.253	357.5
324.482	720.5
324.71	1494.5
324.939	1929.5
325.168	710.5
325.397	221.5
325.626	141.5
325.855	132.5
326.084	131.5
326.313	120.5
326.542	144.5
326.77	224.5
326.999	426.5
327.228	841.5
327.457	1538.5
327.686	1206.5
327.914	340.5
328.143	201.5
328.372	132.5
328.6	123.5
328.829	103.5
329.058	123.5
329.287	124.5
329.515	106.5
329.744	112.5
329.972	95.5
330.201	105.5
330.43	113.5
330.658	116.5
330.887	133.5
331.115	116.5
331.344	110.5
331.572	90.5
331.801	103.5
332.03	109.5
332.258	97.5
332.486	92.5
332.715	122.5
332.943	106.5
333.172	92.5
333.4	107.5
333.629	104.5
333.857	123.5
334.085	108.5
334.314	92.5
334.542	109.5
334.771	98.5
334.999	87.5
335.227	95.5
335.455	99.5
335.684	89.5
335.912	116.5
336.14	113.5
336.369	95.5
336.597	98.5
336.825	96.5
337.053	103.5
337.281	110.5
337.51	92.5
337.738	97.5
337.966	86.5
338.194	103.5
338.422	110.5
338.65	90.5
338.878	97.5
339.106	95.5
339.334	95.5
339.562	90.5
339.79	98.5
340.018	90.5
340.246	103.5
340.474	94.5
340.702	87.5
340.93	97.5
341.158	95.5
341.386	93.5
341.614	88.5
341.842	99.5
342.07	102.5
342.298	97.5
342.526	92.5
342.754	109.5
342.981	101.5
343.209	88.5
343.437	100.5
343.665	89.5
343.893	110.5
344.12	73.5
344.348	101.5
344.576	106.5
344.804	112.5
345.031	97.5
345.259	101.5
345.487	97.5
345.714	93.5
345.942	99.5
346.17	99.5
346.397	95.5
346.625	94.5
346.853	87.5
347.08	94.5
347.308	104.5
347.535	91.5
347.763	107.5
347.99	99.5
348.218	102.5
348.445	103.5
348.673	107.5
348.9	92.5
349.128	102.5
349.355	91.5
349.583	98.5
349.81	93.5
350.037	89.5
350.265	93.5
350.492	111.5
350.72	112.5
350.947	99.5
351.174	121.5
351.402	114.5
351.629	113.5
351.856	99.5
352.083	111.5
352.311	97.5
352.538	108.5
352.765	106.5
352.992	128.5
353.22	127.5
353.447	108.5
353.674	103.5
353.901	101.5
354.128	102.5
354.355	94.5
354.583	97.5
354.81	110.5
355.037	111.5
355.264	110.5
355.491	95.5
355.718	108.5
355.945	98.5
356.172	103.5
356.399	108.5
356.626	101.5
356.853	100.5
357.08	105.5
357.307	98.5
357.534	102.5
357.761	91.5
357.988	89.5
358.215	101.5
358.441	83.5
358.668	74.5
358.895	100.5
359.122	97.5
359.349	91.5
359.576	107.5
359.802	112.5
360.029	98.5
360.256	115.5
360.483	113.5
360.709	98.5
360.936	108.5
361.163	99.5
361.39	103.5
361.616	101.5
361.843	101.5
362.07	105.5
362.296	83.5
362.523	95.5
362.749	92.5
362.976	99.5
363.203	96.5
363.429	99.5
363.656	91.5
363.882	99.5
364.109	96.5
364.335	90.5
364.562	87.5
364.788	97.5
365.015	95.5
365.241	101.5
365.468	119.5
365.694	106.5
365.92	115.5
366.147	105.5
366.373	97.5
366.599	92.5
366.826	75.5
367.052	95.5
367.278	101.5
367.505	95.5
367.731	96.5
367.957	95.5
368.184	94.5
368.41	111.5
368.636	116.5
368.862	112.5
369.089	111.5
369.315	88.5
369.541	93.5
369.767	99.5
369.993	95.5
370.219	81.5
370.445	83.5
370.672	105.5
370.898	102.5
371.124	93.5
371.35	104.5
371.576	101.5
371.802	85.5
372.028	106.5
372.254	109.5
372.48	102.5
372.706	87.5
372.932	80.5
373.158	88.5
373.384	94.5
373.61	83.5
373.835	88.5
374.061	100.5
374.287	107.5
374.513	96.5
374.739	95.5
374.965	89.5
375.191	89.5
375.416	100.5
375.642	104.5
375.868	107.5
376.094	91.5
376.319	88.5
376.545	93.5
376.771	84.5
376.997	86.5
377.222	89.5
377.448	97.5
377.674	88.5
377.899	82.5
378.125	87.5
378.35	90.5
378.576	102.5
378.802	95.5
379.027	90.5
379.253	82.5
379.478	92.5
379.704	99.5
379.929	86.5
380.155	92.5
380.38	93.5
380.606	70.5
380.831	97.5
381.057	89.5
381.282	97.5
381.507	84.5
381.733	96.5
381.958	97.5
382.184	104.5
382.409	98.5
382.634	100.5
382.86	82.5
383.085	106.5
383.31	109.5
383.535	99.5
383.761	104.5
383.986	91.5
384.211	92.5
384.436	92.5
384.662	96.5
384.887	91.5
385.112	83.5
385.337	97.5
385.562	100.5
385.787	101.5
386.013	101.5
386.238	94.5
386.463	105.5
386.688	120.5
386.913	100.5
387.138	107.5
387.363	110.5
387.588	103.5
387.813	102.5
388.038	99.5
388.263	109.5
388.488	125.5
388.713	93.5
388.938	107.5
389.163	91.5
389.387	96.5
389.612	93.5
389.837	87.5
390.062	87.5
390.287	103.5
390.512	92.5
390.736	99.5
390.961	96.5
391.186	111.5
391.411	106.5
391.636	88.5
391.86	73.5
392.085	77.5
392.31	79.5
392.534	100.5
392.759	92.5
392.984	91.5
393.208	88.5
393.433	90.5
393.658	85.5
393.882	100.5
394.107	93.5
394.331	91.5
394.556	99.5
394.78	78.5
395.005	96.5
395.229	93.5
395.454	84.5
395.678	92.5
395.903	85.5
396.127	100.5
396.352	83.5
396.576	92.5
396.801	99.5
397.025	98.5
397.249	84.5
397.474	86.5
397.698	88.5
397.922	97.5
398.147	111.5
398.371	84.5
398.595	102.5
398.82	81.5
399.044	93.5
399.268	102.5
399.492	89.5
399.717	90.5
399.941	91.5
400.165	97.5
400.389	103.5
400.613	83.5
400.837	98.5
401.062	93.5
401.286	106.5
401.51	92.5
401.734	82.5
401.958	91.5
402.182	112.5
402.406	152.5
402.63	113.5
402.854	101.5
403.078	97.5
403.302	98.5
403.526	100.5
403.75	90.5
403.974	99.5
404.198	97.5
404.422	107.5
404.645	96.5
404.869	90.5
405.093	98.5
405.317	103.5
405.541	103.5
405.765	106.5
405.988	116.5
406.212	176.5
406.436	223.5
406.66	144.5
406.883	99.5
407.107	100.5
407.331	99.5
407.555	103.5
407.778	94.5
408.002	97.5
408.226	90.5
408.449	81.5
408.673	100.5
408.896	94.5
409.12	88.5
409.344	93.5
409.567	82.5
409.791	99.5
410.014	83.5
410.238	96.5
410.461	91.5
410.685	97.5
410.908	100.5
411.132	122.5
411.355	111.5
411.578	85.5
411.802	91.5
412.025	82.5
412.249	98.5
412.472	98.5
412.695	93.5
412.919	107.5
413.142	108.5
413.365	89.5
413.589	90.5
413.812	89.5
414.035	101.5
414.258	95.5
414.482	103.5
414.705	82.5
414.928	117.5
415.151	88.5
415.374	90.5
415.597	81.5
415.821	98.5
416.044	84.5
416.267	81.5
416.49	83.5
416.713	78.5
416.936	96.5
417.159	82.5
417.382	95.5
417.605	101.5
417.828	87.5
418.051	96.5
418.274	89.5
418.497	89.5
418.72	96.5
418.943	114.5
419.166	92.5
419.389	114.5
419.611	94.5
419.834	93.5
420.057	97.5
420.28	82.5
420.503	97.5
420.726	94.5
420.948	108.5
421.171	81.5
421.394	93.5
421.617	82.5
421.839	101.5
422.062	98.5
422.285	107.5
422.507	81.5
422.73	97.5
422.953	91.5
423.175	104.5
423.398	101.5
423.621	82.5
423.843	84.5
424.066	99.5
424.288	90.5
424.511	95.5
424.733	85.5
424.956	114.5
425.178	109.5
425.401	98.5
425.623	86.5
425.846	87.5
426.068	97.5
426.291	94.5
426.513	97.5
426.735	99.5
426.958	91.5
427.18	106.5
427.402	132.5
427.625	141.5
427.847	113.5
428.069	99.5
428.292	98.5
428.514	88.5
428.736	89.5
428.958	95.5
429.181	87.5
429.403	94.5
429.625	92.5
429.847	102.5
430.069	97.5
430.292	85.5
430.514	97.5
430.736	86.5
430.958	92.5
431.18	94.5
431.402	87.5
431.624	94.5
431.846	98.5
432.068	82.5
432.29	99.5
432.512	93.5
432.734	101.5
432.956	103.5
433.178	94.5
433.4	98.5
433.622	94.5
433.844	81.5
434.066	109.5
434.287	100.5
434.509	94.5
434.731	92.5
434.953	90.5
435.175	92.5
435.397	85.5
435.618	85.5
435.84	111.5
436.062	131.5
436.284	111.5
436.505	91.5
436.727	98.5
436.949	93.5
437.17	85.5
437.392	99.5
437.614	102.5
437.835	115.5
438.057	106.5
438.278	114.5
438.5	119.5
438.721	118.5
438.943	87.5
439.165	71.5
439.386	92.5
439.608	106.5
439.829	90.5
440.05	110.5
440.272	134.5
440.493	109.5
440.715	96.5
440.936	95.5
441.158	101.5
441.379	93.5
441.6	106.5
441.822	107.5
442.043	98.5
442.264	102.5
442.486	102.5
442.707	90.5
442.928	102.5
443.149	126.5
443.371	111.5
443.592	104.5
443.813	115.5
444.034	103.5
444.255	99.5
444.476	92.5
444.698	96.5
444.919	78.5
445.14	147.5
445.361	130.5
445.582	113.5
445.803	126.5
446.024	133.5
446.245	143.5
446.466	104.5
446.687	89.5
446.908	78.5
447.129	83.5
447.35	95.5
447.571	114.5
447.792	101.5
448.013	115.5
448.234	101.5
448.455	102.5
448.675	101.5
448.896	117.5
449.117	80.5
449.338	107.5
449.559	125.5
449.779	141.5
450	92.5
450.221	87.5
450.442	102.5
450.662	91.5
450.883	97.5
451.104	109.5
451.324	91.5
451.545	93.5
451.766	90.5
451.986	106.5
452.207	92.5
452.428	95.5
452.648	98.5
452.869	109.5
453.089	109.5
453.31	120.5
453.53	86.5
453.751	97.5
453.971	102.5
454.192	109.5
454.412	83.5
454.633	89.5
454.853	92.5
455.073	89.5
455.294	98.5
455.514	98.5
455.734	96.5
455.955	97.5
456.175	84.5
456.395	98.5
456.616	102.5
456.836	92.5
457.056	87.5
457.276	87.5
457.497	93.5
457.717	98.5
457.937	92.5
458.157	99.5
458.377	88.5
458.598	105.5
458.818	138.5
459.038	158.5
459.258	124.5
459.478	93.5
459.698	94.5
459.918	91.5
460.138	95.5
460.358	84.5
460.578	99.5
460.798	98.5
461.018	90.5
461.238	99.5
461.458	91.5
461.678	86.5
461.898	84.5
462.118	89.5
462.338	90.5
462.558	90.5
462.777	106.5
462.997	103.5
463.217	85.5
463.437	73.5
463.657	92.5
463.876	84.5
464.096	81.5
464.316	91.5
464.536	103.5
464.755	100.5
464.975	108.5
465.195	151.5
465.414	149.5
465.634	107.5
465.854	113.5
466.073	62.5
466.293	87.5
466.512	84.5
466.732	79.5
466.951	77.5
467.171	96.5
467.391	102.5
467.61	98.5
467.829	89.5
468.049	77.5
468.268	73.5
468.488	82.5
468.707	75.5
468.927	77.5
469.146	93.5
469.365	87.5
469.585	94.5
469.804	96.5
470.023	85.5
470.243	91.5
470.462	107.5
470.681	94.5
470.901	90.5
471.12	91.5
471.339	95.5
471.558	83.5
471.777	92.5
471.997	102.5
472.216	89.5
472.435	99.5
472.654	101.5
472.873	92.5
473.092	91.5
473.311	95.5
473.53	95.5
473.749	88.5
473.968	94.5
474.187	95.5
474.406	97.5
474.625	88.5
474.844	103.5
475.063	90.5
475.282	79.5
475.501	94.5
475.72	83.5
475.939	94.5
476.158	82.5
476.377	101.5
476.596	80.5
476.814	71.5
477.033	91.5
477.252	89.5
477.471	98.5
477.69	101.5
477.908	94.5
478.127	95.5
478.346	90.5
478.564	98.5
478.783	108.5
479.002	93.5
479.22	80.5
479.439	108.5
479.658	97.5
479.876	79.5
480.095	101.5
480.313	96.5
480.532	86.5
480.751	94.5
480.969	110.5
481.188	117.5
481.406	113.5
481.624	103.5
481.843	84.5
482.061	86.5
482.28	73.5
482.498	92.5
482.717	91.5
482.935	93.5
483.153	89.5
483.372	82.5
483.59	92.5
483.808	83.5
484.027	102.5
484.245	100.5
484.463	102.5
484.681	101.5
484.9	88.5
485.118	93.5
485.336	99.5
485.554	95.5
485.772	88.5
485.99	102.5
486.209	99.5
486.427	103.5
486.645	110.5
486.863	117.5
487.081	102.5
487.299	93.5
487.517	101.5
487.735	99.5
487.953	98.5
488.171	89.5
488.389	90.5
488.607	114.5
488.825	89.5
489.043	95.5
489.261	94.5
489.479	81.5
489.696	85.5
489.914	102.5
490.132	96.5
490.35	90.5
490.568	88.5
490.786	82.5
491.003	85.5
491.221	98.5
491.439	96.5
491.657	97.5
491.874	87.5
492.092	82.5
492.31	85.5
492.527	89.5
492.745	75.5
492.963	93.5
493.18	90.5
493.398	100.5
493.615	102.5
493.833	94.5
494.05	96.5
494.268	92.5
494.485	94.5
494.703	76.5
494.92	85.5
495.138	94.5
495.355	94.5
495.573	96.5
495.79	98.5
496.008	102.5
496.225	90.5
496.442	103.5
496.66	78.5
496.877	100.5
497.094	105.5
497.312	95.5
497.529	99.5
497.746	101.5
497.963	95.5
498.181	104.5
498.398	89.5
498.615	113.5
498.832	98.5
499.049	77.5
499.267	93.5
499.484	87.5
499.701	97.5
499.918	102.5
500.135	90.5
500.352	99.5
500.569	89.5
500.786	91.5
501.003	93.5
501.22	88.5
501.437	98.5
501.654	97.5
501.871	93.5
502.088	89.5
502.305	88.5
502.522	103.5
502.739	105.5
502.956	81.5
503.172	104.5
503.389	103.5
503.606	102.5
503.823	93.5
504.04	100.5
504.256	109.5
504.473	86.5
504.69	86.5
504.907	91.5
505.123	99.5
505.34	84.5
505.557	98.5
505.773	86.5
505.99	81.5
506.207	96.5
506.423	88.5
506.64	98.5
506.856	84.5
507.073	90.5
507.289	107.5
507.506	106.5
507.722	114.5
507.939	115.5
508.155	102.5
508.372	109.5
508.588	99.5
508.805	94.5
509.021	92.5
509.238	100.5
509.454	94.5
509.67	102.5
509.887	108.5
510.103	121.5
510.319	207.5
510.536	705.5
510.752	2181.5
510.968	581.5
511.184	150.5
511.401	93.5
511.617	99.5
511.833	82.5
512.049	100.5
512.265	98.5
512.481	91.5
512.698	93.5
512.914	87.5
513.13	98.5
513.346	86.5
513.562	110.5
513.778	97.5
513.994	83.5
514.21	105.5
514.426	113.5
514.642	122.5
514.858	124.5
515.074	158.5
515.29	399.5
515.506	1293.5
515.721	483.5
515.937	132.5
516.153	124.5
516.369	102.5
516.585	106.5
516.801	97.5
517.016	89.5
517.232	97.5
517.448	107.5
517.664	89.5
517.879	87.5
518.095	101.5
518.311	89.5
518.527	107.5
518.742	102.5
518.958	98.5
519.173	76.5
519.389	107.5
519.605	91.5
519.82	91.5
520.036	114.5
520.251	111.5
520.467	109.5
520.682	98.5
520.898	104.5
521.113	117.5
521.329	129.5
521.544	188.5
521.76	512.5
521.975	2127.5
522.19	1286.5
522.406	278.5
522.621	129.5
522.836	104.5
523.052	99.5
523.267	85.5
523.482	89.5
523.698	109.5
523.913	118.5
524.128	107.5
524.343	101.5
524.559	95.5
524.774	99.5
524.989	89.5
525.204	100.5
525.419	91.5
525.634	91.5
525.849	97.5
526.064	106.5
526.28	90.5
526.495	90.5
526.71	94.5
526.925	93.5
527.14	94.5
527.355	85.5
527.57	83.5
527.785	97.5
527.999	96.5
528.214	98.5
528.429	95.5
528.644	89.5
528.859	96.5
529.074	101.5
529.289	115.5
529.503	168.5
529.718	96.5
529.933	95.5
530.148	98.5
530.363	98.5
530.577	109.5
530.792	80.5
531.007	93.5
531.221	110.5
531.436	105.5
531.651	104.5
531.865	95.5
532.08	91.5
532.295	65.5
532.509	92.5
532.724	95.5
532.938	98.5
533.153	81.5
533.367	98.5
533.582	102.5
533.796	102.5
