Data from Uncirc_1998_H10_HRD10591_00017.txt Node
Date: Wed Jan 03 11:25:28 EST 2024
User: Yrep
Spectrometer: HR+D1059
Trigger mode: 1
Integration Time (sec): 1.000000E-1
Scans to average: 1
Electric dark correction enabled: true
Nonlinearity correction enabled: false
Boxcar width: 0
XAxis mode: Wavelengths
Number of Pixels in Spectrum: 2048
>>>>>Begin Spectral Data<<<<<
223.165	-21.25
223.4	-21.25
223.635	-21.25
223.869	-22.25
224.104	-19.25
224.338	-13.25
224.573	-25.25
224.808	2.75
225.042	-4.25
225.277	5.75
225.511	-17.25
225.746	9.75
225.98	21.75
226.215	9.75
226.449	-4.25
226.683	6.75
226.918	36.75
227.152	33.75
227.387	45.75
227.621	44.75
227.856	44.75
228.09	40.75
228.324	49.75
228.559	55.75
228.793	50.75
229.027	55.75
229.262	62.75
229.496	71.75
229.73	75.75
229.964	75.75
230.199	68.75
230.433	70.75
230.667	83.75
230.901	73.75
231.136	86.75
231.37	85.75
231.604	73.75
231.838	66.75
232.072	80.75
232.306	75.75
232.541	71.75
232.775	70.75
233.009	78.75
233.243	80.75
233.477	74.75
233.711	80.75
233.945	75.75
234.179	78.75
234.413	87.75
234.647	84.75
234.881	76.75
235.115	82.75
235.349	77.75
235.583	82.75
235.817	82.75
236.051	69.75
236.285	60.75
236.519	70.75
236.753	90.75
236.987	70.75
237.221	93.75
237.455	86.75
237.689	82.75
237.922	73.75
238.156	74.75
238.39	70.75
238.624	77.75
238.858	86.75
239.091	90.75
239.325	82.75
239.559	86.75
239.793	62.75
240.027	83.75
240.26	72.75
240.494	79.75
240.728	50.75
240.961	69.75
241.195	80.75
241.429	79.75
241.662	82.75
241.896	87.75
242.13	72.75
242.363	64.75
242.597	64.75
242.83	75.75
243.064	62.75
243.298	87.75
243.531	76.75
243.765	76.75
243.998	83.75
244.232	63.75
244.465	73.75
244.699	70.75
244.932	89.75
245.166	79.75
245.399	76.75
245.633	77.75
245.866	74.75
246.099	83.75
246.333	66.75
246.566	71.75
246.8	61.75
247.033	76.75
247.266	75.75
247.5	86.75
247.733	82.75
247.966	84.75
248.2	64.75
248.433	64.75
248.666	70.75
248.899	84.75
249.133	92.75
249.366	80.75
249.599	93.75
249.832	77.75
250.066	79.75
250.299	88.75
250.532	75.75
250.765	76.75
250.998	77.75
251.231	78.75
251.465	89.75
251.698	72.75
251.931	70.75
252.164	75.75
252.397	76.75
252.63	81.75
252.863	79.75
253.096	78.75
253.329	75.75
253.562	75.75
253.795	99.75
254.028	84.75
254.261	72.75
254.494	83.75
254.727	81.75
254.96	63.75
255.193	95.75
255.426	56.75
255.659	70.75
255.892	88.75
256.124	77.75
256.357	70.75
256.59	77.75
256.823	73.75
257.056	69.75
257.289	87.75
257.521	74.75
257.754	74.75
257.987	75.75
258.22	76.75
258.452	74.75
258.685	86.75
258.918	68.75
259.151	58.75
259.383	84.75
259.616	82.75
259.849	74.75
260.081	93.75
260.314	81.75
260.547	71.75
260.779	85.75
261.012	70.75
261.244	82.75
261.477	86.75
261.71	87.75
261.942	103.75
262.175	89.75
262.407	89.75
262.64	86.75
262.872	77.75
263.105	84.75
263.337	77.75
263.57	78.75
263.802	84.75
264.035	83.75
264.267	66.75
264.499	68.75
264.732	70.75
264.964	79.75
265.197	63.75
265.429	81.75
265.661	73.75
265.894	80.75
266.126	89.75
266.358	82.75
266.591	74.75
266.823	69.75
267.055	79.75
267.287	89.75
267.52	89.75
267.752	76.75
267.984	83.75
268.216	89.75
268.448	73.75
268.681	87.75
268.913	80.75
269.145	89.75
269.377	82.75
269.609	79.75
269.841	61.75
270.073	99.75
270.306	86.75
270.538	89.75
270.77	75.75
271.002	76.75
271.234	85.75
271.466	84.75
271.698	90.75
271.93	86.75
272.162	73.75
272.394	91.75
272.626	84.75
272.858	90.75
273.09	88.75
273.322	78.75
273.553	85.75
273.785	85.75
274.017	73.75
274.249	81.75
274.481	90.75
274.713	82.75
274.945	89.75
275.176	74.75
275.408	76.75
275.64	81.75
275.872	79.75
276.104	67.75
276.335	79.75
276.567	107.75
276.799	107.75
277.031	97.75
277.262	89.75
277.494	84.75
277.726	98.75
277.957	93.75
278.189	81.75
278.421	89.75
278.652	87.75
278.884	87.75
279.115	69.75
279.347	84.75
279.579	86.75
279.81	76.75
280.042	96.75
280.273	88.75
280.505	72.75
280.736	89.75
280.968	76.75
281.199	84.75
281.431	89.75
281.662	85.75
281.894	86.75
282.125	100.75
282.356	117.75
282.588	126.75
282.819	102.75
283.051	104.75
283.282	91.75
283.513	92.75
283.745	64.75
283.976	81.75
284.207	89.75
284.439	80.75
284.67	96.75
284.901	84.75
285.132	76.75
285.364	90.75
285.595	82.75
285.826	82.75
286.057	91.75
286.288	85.75
286.52	88.75
286.751	79.75
286.982	88.75
287.213	78.75
287.444	73.75
287.675	98.75
287.906	92.75
288.138	91.75
288.369	71.75
288.6	79.75
288.831	75.75
289.062	75.75
289.293	76.75
289.524	72.75
289.755	74.75
289.986	93.75
290.217	84.75
290.448	93.75
290.679	83.75
290.91	96.75
291.141	88.75
291.371	90.75
291.602	89.75
291.833	91.75
292.064	94.75
292.295	88.75
292.526	79.75
292.757	85.75
292.987	90.75
293.218	81.75
293.449	99.75
293.68	78.75
293.91	93.75
294.141	88.75
294.372	72.75
294.603	79.75
294.833	99.75
295.064	100.75
295.295	86.75
295.525	76.75
295.756	90.75
295.987	105.75
296.217	124.75
296.448	121.75
296.679	91.75
296.909	88.75
297.14	85.75
297.37	79.75
297.601	85.75
297.831	70.75
298.062	86.75
298.292	80.75
298.523	83.75
298.753	90.75
298.984	93.75
299.214	85.75
299.445	91.75
299.675	92.75
299.905	82.75
300.136	72.75
300.366	85.75
300.597	88.75
300.827	84.75
301.057	98.75
301.288	98.75
301.518	73.75
301.748	88.75
301.979	104.75
302.209	95.75
302.439	84.75
302.669	93.75
302.9	99.75
303.13	87.75
303.36	83.75
303.59	96.75
303.82	89.75
304.051	92.75
304.281	86.75
304.511	94.75
304.741	82.75
304.971	91.75
305.201	79.75
305.431	91.75
305.661	87.75
305.891	88.75
306.121	101.75
306.352	88.75
306.582	95.75
306.812	92.75
307.042	86.75
307.272	79.75
307.502	102.75
307.731	86.75
307.961	94.75
308.191	107.75
308.421	97.75
308.651	93.75
308.881	100.75
309.111	100.75
309.341	93.75
309.571	85.75
309.8	92.75
310.03	94.75
310.26	92.75
310.49	91.75
310.72	92.75
310.949	96.75
311.179	97.75
311.409	84.75
311.639	86.75
311.868	108.75
312.098	97.75
312.328	103.75
312.557	94.75
312.787	108.75
313.017	101.75
313.246	89.75
313.476	106.75
313.706	99.75
313.935	102.75
314.165	110.75
314.394	89.75
314.624	92.75
314.853	85.75
315.083	98.75
315.312	102.75
315.542	82.75
315.771	91.75
316.001	96.75
316.23	78.75
316.46	93.75
316.689	90.75
316.919	71.75
317.148	100.75
317.377	98.75
317.607	96.75
317.836	86.75
318.065	93.75
318.295	82.75
318.524	83.75
318.753	79.75
318.983	92.75
319.212	94.75
319.441	105.75
319.67	82.75
319.9	85.75
320.129	92.75
320.358	89.75
320.587	100.75
320.816	103.75
321.046	92.75
321.275	89.75
321.504	77.75
321.733	95.75
321.962	99.75
322.191	92.75
322.42	96.75
322.649	117.75
322.878	113.75
323.108	110.75
323.337	127.75
323.566	129.75
323.795	124.75
324.024	187.75
324.253	333.75
324.482	746.75
324.71	1530.75
324.939	1964.75
325.168	734.75
325.397	230.75
325.626	122.75
325.855	138.75
326.084	114.75
326.313	124.75
326.542	142.75
326.77	216.75
326.999	447.75
327.228	878.75
327.457	1555.75
327.686	1228.75
327.914	349.75
328.143	193.75
328.372	136.75
328.6	121.75
328.829	104.75
329.058	108.75
329.287	106.75
329.515	91.75
329.744	82.75
329.972	112.75
330.201	95.75
330.43	105.75
330.658	108.75
330.887	116.75
331.115	116.75
331.344	87.75
331.572	111.75
331.801	93.75
332.03	92.75
332.258	93.75
332.486	83.75
332.715	92.75
332.943	105.75
333.172	88.75
333.4	92.75
333.629	104.75
333.857	106.75
334.085	93.75
334.314	90.75
334.542	105.75
334.771	90.75
334.999	82.75
335.227	94.75
335.455	92.75
335.684	87.75
335.912	96.75
336.14	100.75
336.369	96.75
336.597	81.75
336.825	101.75
337.053	86.75
337.281	83.75
337.51	89.75
337.738	98.75
337.966	109.75
338.194	106.75
338.422	95.75
338.65	93.75
338.878	98.75
339.106	82.75
339.334	86.75
339.562	86.75
339.79	87.75
340.018	92.75
340.246	96.75
340.474	99.75
340.702	88.75
340.93	94.75
341.158	91.75
341.386	97.75
341.614	96.75
341.842	100.75
342.07	82.75
342.298	100.75
342.526	93.75
342.754	90.75
342.981	91.75
343.209	96.75
343.437	94.75
343.665	73.75
343.893	85.75
344.12	94.75
344.348	86.75
344.576	91.75
344.804	100.75
345.031	97.75
345.259	100.75
345.487	90.75
345.714	88.75
345.942	91.75
346.17	87.75
346.397	95.75
346.625	101.75
346.853	89.75
347.08	82.75
347.308	97.75
347.535	95.75
347.763	84.75
347.99	83.75
348.218	95.75
348.445	93.75
348.673	109.75
348.9	95.75
349.128	98.75
349.355	98.75
349.583	88.75
349.81	100.75
350.037	92.75
350.265	80.75
350.492	94.75
350.72	89.75
350.947	96.75
351.174	94.75
351.402	98.75
351.629	95.75
351.856	94.75
352.083	99.75
352.311	109.75
352.538	106.75
352.765	105.75
352.992	92.75
353.22	105.75
353.447	110.75
353.674	105.75
353.901	89.75
354.128	107.75
354.355	86.75
354.583	112.75
354.81	101.75
355.037	101.75
355.264	98.75
355.491	96.75
355.718	105.75
355.945	102.75
356.172	95.75
356.399	93.75
356.626	92.75
356.853	98.75
357.08	96.75
357.307	87.75
357.534	81.75
357.761	90.75
357.988	102.75
358.215	90.75
358.441	90.75
358.668	96.75
358.895	85.75
359.122	89.75
359.349	90.75
359.576	95.75
359.802	110.75
360.029	100.75
360.256	97.75
360.483	110.75
360.709	102.75
360.936	95.75
361.163	100.75
361.39	87.75
361.616	104.75
361.843	88.75
362.07	79.75
362.296	103.75
362.523	82.75
362.749	88.75
362.976	88.75
363.203	80.75
363.429	92.75
363.656	93.75
363.882	84.75
364.109	80.75
364.335	86.75
364.562	90.75
364.788	77.75
365.015	80.75
365.241	86.75
365.468	96.75
365.694	102.75
365.92	84.75
366.147	98.75
366.373	93.75
366.599	84.75
366.826	79.75
367.052	86.75
367.278	89.75
367.505	79.75
367.731	109.75
367.957	96.75
368.184	86.75
368.41	99.75
368.636	108.75
368.862	120.75
369.089	96.75
369.315	97.75
369.541	89.75
369.767	81.75
369.993	97.75
370.219	88.75
370.445	93.75
370.672	92.75
370.898	84.75
371.124	84.75
371.35	83.75
371.576	92.75
371.802	89.75
372.028	93.75
372.254	107.75
372.48	95.75
372.706	73.75
372.932	78.75
373.158	73.75
373.384	94.75
373.61	106.75
373.835	88.75
374.061	87.75
374.287	84.75
374.513	90.75
374.739	97.75
374.965	83.75
375.191	74.75
375.416	72.75
375.642	88.75
375.868	93.75
376.094	99.75
376.319	101.75
376.545	83.75
376.771	84.75
376.997	85.75
377.222	86.75
377.448	92.75
377.674	101.75
377.899	88.75
378.125	76.75
378.35	82.75
378.576	81.75
378.802	96.75
379.027	84.75
379.253	86.75
379.478	75.75
379.704	90.75
379.929	89.75
380.155	89.75
380.38	108.75
380.606	108.75
380.831	95.75
381.057	115.75
381.282	99.75
381.507	96.75
381.733	96.75
381.958	86.75
382.184	89.75
382.409	91.75
382.634	93.75
382.86	102.75
383.085	88.75
383.31	107.75
383.535	104.75
383.761	91.75
383.986	86.75
384.211	89.75
384.436	97.75
384.662	89.75
384.887	108.75
385.112	99.75
385.337	98.75
385.562	97.75
385.787	120.75
386.013	118.75
386.238	110.75
386.463	110.75
386.688	111.75
386.913	96.75
387.138	95.75
387.363	105.75
387.588	110.75
387.813	108.75
388.038	102.75
388.263	116.75
388.488	119.75
388.713	92.75
388.938	76.75
389.163	81.75
389.387	89.75
389.612	80.75
389.837	90.75
390.062	98.75
390.287	97.75
390.512	101.75
390.736	97.75
390.961	86.75
391.186	88.75
391.411	88.75
391.636	78.75
391.86	97.75
392.085	87.75
392.31	93.75
392.534	77.75
392.759	87.75
392.984	76.75
393.208	90.75
393.433	86.75
393.658	79.75
393.882	85.75
394.107	88.75
394.331	83.75
394.556	82.75
394.78	84.75
395.005	88.75
395.229	91.75
395.454	88.75
395.678	78.75
395.903	86.75
396.127	82.75
396.352	94.75
396.576	90.75
396.801	98.75
397.025	88.75
397.249	87.75
397.474	86.75
397.698	76.75
397.922	76.75
398.147	90.75
398.371	87.75
398.595	92.75
398.82	94.75
399.044	77.75
399.268	79.75
399.492	92.75
399.717	100.75
399.941	97.75
400.165	101.75
400.389	89.75
400.613	94.75
400.837	91.75
401.062	92.75
401.286	81.75
401.51	104.75
401.734	88.75
401.958	98.75
402.182	118.75
402.406	134.75
402.63	111.75
402.854	110.75
403.078	87.75
403.302	76.75
403.526	84.75
403.75	89.75
403.974	80.75
404.198	93.75
404.422	90.75
404.645	79.75
404.869	94.75
405.093	90.75
405.317	91.75
405.541	93.75
405.765	111.75
405.988	114.75
406.212	151.75
406.436	187.75
406.66	136.75
406.883	94.75
407.107	84.75
407.331	84.75
407.555	108.75
407.778	100.75
408.002	90.75
408.226	95.75
408.449	89.75
408.673	86.75
408.896	101.75
409.12	90.75
409.344	84.75
409.567	96.75
409.791	93.75
410.014	98.75
410.238	85.75
410.461	90.75
410.685	83.75
410.908	93.75
411.132	94.75
411.355	96.75
411.578	98.75
411.802	86.75
412.025	92.75
412.249	92.75
412.472	101.75
412.695	84.75
412.919	89.75
413.142	85.75
413.365	94.75
413.589	82.75
413.812	89.75
414.035	87.75
414.258	79.75
414.482	75.75
414.705	89.75
414.928	99.75
415.151	83.75
415.374	80.75
415.597	76.75
415.821	90.75
416.044	83.75
416.267	90.75
416.49	93.75
416.713	75.75
416.936	92.75
417.159	77.75
417.382	73.75
417.605	91.75
417.828	89.75
418.051	84.75
418.274	93.75
418.497	99.75
418.72	96.75
418.943	90.75
419.166	83.75
419.389	83.75
419.611	73.75
419.834	74.75
420.057	88.75
420.28	64.75
420.503	78.75
420.726	89.75
420.948	94.75
421.171	97.75
421.394	79.75
421.617	91.75
421.839	81.75
422.062	91.75
422.285	90.75
422.507	98.75
422.73	101.75
422.953	81.75
423.175	87.75
423.398	90.75
423.621	90.75
423.843	82.75
424.066	78.75
424.288	78.75
424.511	90.75
424.733	92.75
424.956	110.75
425.178	98.75
425.401	100.75
425.623	89.75
425.846	93.75
426.068	74.75
426.291	105.75
426.513	81.75
426.735	100.75
426.958	111.75
427.18	100.75
427.402	152.75
427.625	158.75
427.847	119.75
428.069	115.75
428.292	83.75
428.514	78.75
428.736	84.75
428.958	87.75
429.181	77.75
429.403	89.75
429.625	98.75
429.847	86.75
430.069	96.75
430.292	88.75
430.514	89.75
430.736	88.75
430.958	78.75
431.18	65.75
431.402	87.75
431.624	80.75
431.846	73.75
432.068	79.75
432.29	90.75
432.512	97.75
432.734	76.75
432.956	94.75
433.178	99.75
433.4	105.75
433.622	93.75
433.844	79.75
434.066	100.75
434.287	85.75
434.509	67.75
434.731	91.75
434.953	100.75
435.175	87.75
435.397	81.75
435.618	110.75
435.84	98.75
436.062	115.75
436.284	115.75
436.505	80.75
436.727	97.75
436.949	101.75
437.17	70.75
437.392	96.75
437.614	84.75
437.835	84.75
438.057	116.75
438.278	101.75
438.5	109.75
438.721	118.75
438.943	90.75
439.165	86.75
439.386	97.75
439.608	89.75
439.829	94.75
440.05	123.75
440.272	128.75
440.493	81.75
440.715	100.75
440.936	90.75
441.158	102.75
441.379	93.75
441.6	90.75
441.822	80.75
442.043	79.75
442.264	97.75
442.486	99.75
442.707	105.75
442.928	96.75
443.149	104.75
443.371	114.75
443.592	100.75
443.813	117.75
444.034	106.75
444.255	87.75
444.476	95.75
444.698	94.75
444.919	91.75
445.14	122.75
445.361	117.75
445.582	113.75
445.803	120.75
446.024	123.75
446.245	129.75
446.466	104.75
446.687	96.75
446.908	85.75
447.129	99.75
447.35	77.75
447.571	89.75
447.792	89.75
448.013	104.75
448.234	88.75
448.455	96.75
448.675	115.75
448.896	104.75
449.117	81.75
449.338	102.75
449.559	136.75
449.779	119.75
450	75.75
450.221	93.75
450.442	88.75
450.662	95.75
450.883	103.75
451.104	95.75
451.324	81.75
451.545	86.75
451.766	82.75
451.986	76.75
452.207	106.75
452.428	92.75
452.648	94.75
452.869	82.75
453.089	111.75
453.31	104.75
453.53	82.75
453.751	100.75
453.971	96.75
454.192	102.75
454.412	86.75
454.633	92.75
454.853	79.75
455.073	94.75
455.294	82.75
455.514	112.75
455.734	96.75
455.955	92.75
456.175	67.75
456.395	90.75
456.616	73.75
456.836	89.75
457.056	89.75
457.276	81.75
457.497	82.75
457.717	80.75
457.937	76.75
458.157	70.75
458.377	103.75
458.598	87.75
458.818	129.75
459.038	134.75
459.258	106.75
459.478	78.75
459.698	84.75
459.918	89.75
460.138	77.75
460.358	81.75
460.578	90.75
460.798	80.75
461.018	82.75
461.238	70.75
461.458	90.75
461.678	65.75
461.898	85.75
462.118	97.75
462.338	78.75
462.558	88.75
462.777	89.75
462.997	87.75
463.217	85.75
463.437	86.75
463.657	87.75
463.876	89.75
464.096	103.75
464.316	95.75
464.536	105.75
464.755	75.75
464.975	98.75
465.195	138.75
465.414	132.75
465.634	102.75
465.854	99.75
466.073	94.75
466.293	90.75
466.512	96.75
466.732	76.75
466.951	92.75
467.171	88.75
467.391	105.75
467.61	89.75
467.829	90.75
468.049	89.75
468.268	74.75
468.488	88.75
468.707	88.75
468.927	84.75
469.146	84.75
469.365	87.75
469.585	92.75
469.804	84.75
470.023	81.75
470.243	72.75
470.462	102.75
470.681	104.75
470.901	81.75
471.12	87.75
471.339	96.75
471.558	76.75
471.777	69.75
471.997	100.75
472.216	85.75
472.435	90.75
472.654	88.75
472.873	99.75
473.092	96.75
473.311	84.75
473.53	87.75
473.749	77.75
473.968	101.75
474.187	92.75
474.406	86.75
474.625	80.75
474.844	88.75
475.063	81.75
475.282	87.75
475.501	85.75
475.72	88.75
475.939	92.75
476.158	88.75
476.377	91.75
476.596	88.75
476.814	81.75
477.033	89.75
477.252	80.75
477.471	92.75
477.69	86.75
477.908	92.75
478.127	85.75
478.346	86.75
478.564	92.75
478.783	98.75
479.002	98.75
479.22	86.75
479.439	94.75
479.658	92.75
479.876	98.75
480.095	81.75
480.313	100.75
480.532	100.75
480.751	76.75
480.969	84.75
481.188	116.75
481.406	104.75
481.624	81.75
481.843	87.75
482.061	83.75
482.28	93.75
482.498	82.75
482.717	89.75
482.935	72.75
483.153	76.75
483.372	91.75
483.59	90.75
483.808	92.75
484.027	97.75
484.245	92.75
484.463	80.75
484.681	79.75
484.9	81.75
485.118	87.75
485.336	97.75
485.554	97.75
485.772	104.75
485.99	105.75
486.209	105.75
486.427	108.75
486.645	100.75
486.863	108.75
487.081	87.75
487.299	106.75
487.517	103.75
487.735	95.75
487.953	91.75
488.171	101.75
488.389	100.75
488.607	90.75
488.825	88.75
489.043	93.75
489.261	76.75
489.479	89.75
489.696	62.75
489.914	83.75
490.132	79.75
490.35	105.75
490.568	96.75
490.786	81.75
491.003	78.75
491.221	85.75
491.439	72.75
491.657	82.75
491.874	93.75
492.092	88.75
492.31	83.75
492.527	88.75
492.745	82.75
492.963	90.75
493.18	86.75
493.398	92.75
493.615	95.75
493.833	96.75
494.05	81.75
494.268	88.75
494.485	84.75
494.703	94.75
494.92	90.75
495.138	96.75
495.355	84.75
495.573	91.75
495.79	93.75
496.008	87.75
496.225	104.75
496.442	96.75
496.66	95.75
496.877	84.75
497.094	86.75
497.312	93.75
497.529	86.75
497.746	88.75
497.963	86.75
498.181	95.75
498.398	90.75
498.615	104.75
498.832	84.75
499.049	85.75
499.267	84.75
499.484	83.75
499.701	101.75
499.918	95.75
500.135	89.75
500.352	86.75
500.569	87.75
500.786	92.75
501.003	95.75
501.22	81.75
501.437	94.75
501.654	91.75
501.871	111.75
502.088	80.75
502.305	88.75
502.522	87.75
502.739	90.75
502.956	99.75
503.172	87.75
503.389	85.75
503.606	104.75
503.823	94.75
504.04	99.75
504.256	92.75
504.473	80.75
504.69	70.75
504.907	102.75
505.123	82.75
505.34	96.75
505.557	104.75
505.773	105.75
505.99	98.75
506.207	89.75
506.423	86.75
506.64	77.75
506.856	90.75
507.073	96.75
507.289	78.75
507.506	99.75
507.722	97.75
507.939	108.75
508.155	90.75
508.372	104.75
508.588	104.75
508.805	93.75
509.021	86.75
509.238	101.75
509.454	94.75
509.67	101.75
509.887	98.75
510.103	119.75
510.319	198.75
510.536	633.75
510.752	1902.75
510.968	556.75
511.184	161.75
511.401	96.75
511.617	96.75
511.833	101.75
512.049	102.75
512.265	85.75
512.481	88.75
512.698	93.75
512.914	96.75
513.13	82.75
513.346	87.75
513.562	90.75
513.778	88.75
513.994	104.75
514.21	100.75
514.426	112.75
514.642	108.75
514.858	112.75
515.074	148.75
515.29	391.75
515.506	1162.75
515.721	422.75
515.937	134.75
516.153	108.75
516.369	90.75
