Data from Uncirc_1998_H10_HRD10591_00030.txt Node
Date: Wed Jan 03 11:25:30 EST 2024
User: Yrep
Spectrometer: HR+D1059
Trigger mode: 1
Integration Time (sec): 1.000000E-1
Scans to average: 1
Electric dark correction enabled: true
Nonlinearity correction enabled: false
Boxcar width: 0
XAxis mode: Wavelengths
Number of Pixels in Spectrum: 2048
>>>>>Begin Spectral Data<<<<<
223.165	-10.12
223.4	-10.12
223.635	-10.12
223.869	-17.12
224.104	-8.12
224.338	-15.12
224.573	-22.12
224.808	5.88
225.042	-14.12
225.277	2.88
225.511	-2.12
225.746	-6.12
225.98	-0.12
226.215	-1.12
226.449	23.88
226.683	18.88
226.918	17.88
227.152	26.88
227.387	42.88
227.621	17.88
227.856	50.88
228.09	34.88
228.324	36.88
228.559	61.88
228.793	57.88
229.027	58.88
229.262	55.88
229.496	77.88
229.73	63.88
229.964	70.88
230.199	72.88
230.433	75.88
230.667	81.88
230.901	73.88
231.136	72.88
231.37	88.88
231.604	81.88
231.838	81.88
232.072	82.88
232.306	80.88
232.541	68.88
232.775	74.88
233.009	77.88
233.243	90.88
233.477	79.88
233.711	81.88
233.945	84.88
234.179	69.88
234.413	70.88
234.647	72.88
234.881	74.88
235.115	72.88
235.349	72.88
235.583	77.88
235.817	70.88
236.051	84.88
236.285	72.88
236.519	79.88
236.753	69.88
236.987	87.88
237.221	89.88
237.455	72.88
237.689	92.88
237.922	71.88
238.156	77.88
238.39	74.88
238.624	84.88
238.858	81.88
239.091	74.88
239.325	80.88
239.559	66.88
239.793	82.88
240.027	76.88
240.26	84.88
240.494	76.88
240.728	84.88
240.961	74.88
241.195	76.88
241.429	63.88
241.662	68.88
241.896	71.88
242.13	84.88
242.363	80.88
242.597	72.88
242.83	77.88
243.064	69.88
243.298	80.88
243.531	80.88
243.765	89.88
243.998	75.88
244.232	84.88
244.465	97.88
244.699	76.88
244.932	78.88
245.166	76.88
245.399	61.88
245.633	66.88
245.866	78.88
246.099	68.88
246.333	76.88
246.566	76.88
246.8	94.88
247.033	64.88
247.266	90.88
247.5	76.88
247.733	72.88
247.966	78.88
248.2	88.88
248.433	87.88
248.666	72.88
248.899	78.88
249.133	89.88
249.366	95.88
249.599	102.88
249.832	77.88
250.066	76.88
250.299	74.88
250.532	82.88
250.765	75.88
250.998	59.88
251.231	86.88
251.465	81.88
251.698	78.88
251.931	76.88
252.164	80.88
252.397	73.88
252.63	70.88
252.863	76.88
253.096	76.88
253.329	69.88
253.562	63.88
253.795	73.88
254.028	82.88
254.261	73.88
254.494	76.88
254.727	77.88
254.96	88.88
255.193	72.88
255.426	81.88
255.659	73.88
255.892	70.88
256.124	80.88
256.357	75.88
256.59	87.88
256.823	93.88
257.056	83.88
257.289	84.88
257.521	81.88
257.754	68.88
257.987	89.88
258.22	88.88
258.452	80.88
258.685	76.88
258.918	69.88
259.151	95.88
259.383	86.88
259.616	85.88
259.849	84.88
260.081	81.88
260.314	72.88
260.547	89.88
260.779	79.88
261.012	74.88
261.244	76.88
261.477	86.88
261.71	86.88
261.942	96.88
262.175	106.88
262.407	93.88
262.64	76.88
262.872	84.88
263.105	92.88
263.337	82.88
263.57	78.88
263.802	96.88
264.035	91.88
264.267	84.88
264.499	76.88
264.732	65.88
264.964	81.88
265.197	80.88
265.429	65.88
265.661	80.88
265.894	78.88
266.126	85.88
266.358	81.88
266.591	82.88
266.823	72.88
267.055	82.88
267.287	87.88
267.52	82.88
267.752	69.88
267.984	63.88
268.216	77.88
268.448	87.88
268.681	80.88
268.913	86.88
269.145	80.88
269.377	84.88
269.609	76.88
269.841	90.88
270.073	79.88
270.306	89.88
270.538	75.88
270.77	74.88
271.002	64.88
271.234	71.88
271.466	72.88
271.698	85.88
271.93	79.88
272.162	84.88
272.394	97.88
272.626	93.88
272.858	85.88
273.09	80.88
273.322	78.88
273.553	91.88
273.785	86.88
274.017	88.88
274.249	74.88
274.481	82.88
274.713	59.88
274.945	80.88
275.176	84.88
275.408	95.88
275.64	85.88
275.872	78.88
276.104	87.88
276.335	88.88
276.567	95.88
276.799	103.88
277.031	93.88
277.262	88.88
277.494	88.88
277.726	80.88
277.957	75.88
278.189	86.88
278.421	87.88
278.652	80.88
278.884	68.88
279.115	83.88
279.347	84.88
279.579	68.88
279.81	86.88
280.042	89.88
280.273	95.88
280.505	88.88
280.736	84.88
280.968	93.88
281.199	88.88
281.431	74.88
281.662	74.88
281.894	81.88
282.125	84.88
282.356	100.88
282.588	108.88
282.819	100.88
283.051	82.88
283.282	81.88
283.513	77.88
283.745	89.88
283.976	81.88
284.207	104.88
284.439	108.88
284.67	75.88
284.901	88.88
285.132	80.88
285.364	85.88
285.595	91.88
285.826	73.88
286.057	62.88
286.288	70.88
286.52	80.88
286.751	82.88
286.982	78.88
287.213	84.88
287.444	79.88
287.675	77.88
287.906	91.88
288.138	87.88
288.369	84.88
288.6	74.88
288.831	90.88
289.062	94.88
289.293	79.88
289.524	101.88
289.755	85.88
289.986	93.88
290.217	89.88
290.448	81.88
290.679	93.88
290.91	84.88
291.141	92.88
291.371	93.88
291.602	92.88
291.833	75.88
292.064	77.88
292.295	97.88
292.526	84.88
292.757	84.88
292.987	90.88
293.218	80.88
293.449	86.88
293.68	87.88
293.91	88.88
294.141	90.88
294.372	84.88
294.603	79.88
294.833	68.88
295.064	84.88
295.295	89.88
295.525	89.88
295.756	104.88
295.987	109.88
296.217	107.88
296.448	118.88
296.679	98.88
296.909	95.88
297.14	89.88
297.37	98.88
297.601	80.88
297.831	87.88
298.062	89.88
298.292	72.88
298.523	87.88
298.753	98.88
298.984	92.88
299.214	89.88
299.445	90.88
299.675	91.88
299.905	73.88
300.136	87.88
300.366	74.88
300.597	86.88
300.827	80.88
301.057	111.88
301.288	98.88
301.518	106.88
301.748	82.88
301.979	103.88
302.209	93.88
302.439	87.88
302.669	97.88
302.9	97.88
303.13	75.88
303.36	96.88
303.59	105.88
303.82	100.88
304.051	79.88
304.281	89.88
304.511	84.88
304.741	94.88
304.971	84.88
305.201	94.88
305.431	94.88
305.661	91.88
305.891	82.88
306.121	86.88
306.352	101.88
306.582	87.88
306.812	71.88
307.042	85.88
307.272	91.88
307.502	84.88
307.731	103.88
307.961	94.88
308.191	91.88
308.421	92.88
308.651	90.88
308.881	81.88
309.111	88.88
309.341	84.88
309.571	80.88
309.8	90.88
310.03	103.88
310.26	70.88
310.49	80.88
310.72	96.88
310.949	100.88
311.179	96.88
311.409	104.88
311.639	83.88
311.868	80.88
312.098	87.88
312.328	94.88
312.557	92.88
312.787	104.88
313.017	85.88
313.246	97.88
313.476	90.88
313.706	97.88
313.935	96.88
314.165	87.88
314.394	93.88
314.624	77.88
314.853	79.88
315.083	97.88
315.312	90.88
315.542	93.88
315.771	77.88
316.001	86.88
316.23	81.88
316.46	84.88
316.689	77.88
316.919	103.88
317.148	89.88
317.377	99.88
317.607	101.88
317.836	85.88
318.065	91.88
318.295	82.88
318.524	83.88
318.753	90.88
318.983	93.88
319.212	93.88
319.441	94.88
319.67	100.88
319.9	95.88
320.129	92.88
320.358	79.88
320.587	95.88
320.816	78.88
321.046	81.88
321.275	94.88
321.504	97.88
321.733	83.88
321.962	100.88
322.191	97.88
322.42	94.88
322.649	93.88
322.878	108.88
323.108	108.88
323.337	107.88
323.566	119.88
323.795	155.88
324.024	184.88
324.253	321.88
324.482	695.88
324.71	1434.88
324.939	1835.88
325.168	664.88
325.397	210.88
325.626	128.88
325.855	110.88
326.084	117.88
326.313	118.88
326.542	142.88
326.77	218.88
326.999	398.88
327.228	854.88
327.457	1443.88
327.686	1162.88
327.914	347.88
328.143	174.88
328.372	127.88
328.6	105.88
328.829	88.88
329.058	121.88
329.287	104.88
329.515	115.88
329.744	111.88
329.972	107.88
330.201	100.88
330.43	94.88
330.658	110.88
330.887	102.88
331.115	109.88
331.344	108.88
331.572	101.88
331.801	92.88
332.03	103.88
332.258	104.88
332.486	76.88
332.715	91.88
332.943	89.88
333.172	98.88
333.4	93.88
333.629	92.88
333.857	92.88
334.085	106.88
334.314	94.88
334.542	100.88
334.771	97.88
334.999	90.88
335.227	93.88
335.455	92.88
335.684	97.88
335.912	114.88
336.14	85.88
336.369	90.88
336.597	96.88
336.825	102.88
337.053	90.88
337.281	95.88
337.51	95.88
337.738	88.88
337.966	84.88
338.194	106.88
338.422	105.88
338.65	87.88
338.878	84.88
339.106	89.88
339.334	88.88
339.562	88.88
339.79	90.88
340.018	92.88
340.246	68.88
340.474	85.88
340.702	92.88
340.93	81.88
341.158	102.88
341.386	83.88
341.614	84.88
341.842	85.88
342.07	87.88
342.298	78.88
342.526	97.88
342.754	72.88
342.981	93.88
343.209	80.88
343.437	93.88
343.665	79.88
343.893	74.88
344.12	73.88
344.348	97.88
344.576	84.88
344.804	96.88
345.031	96.88
345.259	90.88
345.487	96.88
345.714	90.88
345.942	82.88
346.17	89.88
346.397	79.88
346.625	99.88
346.853	80.88
347.08	96.88
347.308	97.88
347.535	86.88
347.763	88.88
347.99	91.88
348.218	97.88
348.445	96.88
348.673	95.88
348.9	100.88
349.128	99.88
349.355	86.88
349.583	89.88
349.81	91.88
350.037	93.88
350.265	98.88
350.492	98.88
350.72	86.88
350.947	88.88
351.174	98.88
351.402	112.88
351.629	104.88
351.856	91.88
352.083	90.88
352.311	104.88
352.538	92.88
352.765	93.88
352.992	104.88
353.22	89.88
353.447	81.88
353.674	105.88
353.901	84.88
354.128	90.88
354.355	86.88
354.583	101.88
354.81	94.88
355.037	90.88
355.264	102.88
355.491	96.88
355.718	86.88
355.945	90.88
356.172	88.88
356.399	92.88
356.626	99.88
356.853	107.88
357.08	95.88
357.307	71.88
357.534	90.88
357.761	108.88
357.988	88.88
358.215	82.88
358.441	105.88
358.668	109.88
358.895	90.88
359.122	99.88
359.349	84.88
359.576	88.88
359.802	96.88
360.029	94.88
360.256	98.88
360.483	104.88
360.709	79.88
360.936	95.88
361.163	79.88
361.39	86.88
361.616	79.88
361.843	102.88
362.07	87.88
362.296	63.88
362.523	92.88
362.749	79.88
362.976	90.88
363.203	91.88
363.429	101.88
363.656	77.88
363.882	79.88
364.109	94.88
364.335	92.88
364.562	76.88
364.788	89.88
365.015	89.88
365.241	88.88
365.468	99.88
365.694	93.88
365.92	95.88
366.147	90.88
366.373	84.88
366.599	65.88
366.826	85.88
367.052	79.88
367.278	77.88
367.505	91.88
367.731	100.88
367.957	84.88
368.184	96.88
368.41	94.88
368.636	87.88
368.862	106.88
369.089	103.88
369.315	90.88
369.541	81.88
369.767	84.88
369.993	90.88
370.219	97.88
370.445	89.88
370.672	89.88
370.898	90.88
371.124	74.88
371.35	83.88
371.576	88.88
371.802	82.88
372.028	88.88
372.254	102.88
372.48	86.88
372.706	92.88
372.932	90.88
373.158	87.88
373.384	101.88
373.61	95.88
373.835	90.88
374.061	65.88
374.287	87.88
374.513	91.88
374.739	76.88
374.965	85.88
375.191	86.88
375.416	94.88
375.642	102.88
375.868	85.88
376.094	99.88
376.319	92.88
376.545	81.88
376.771	80.88
376.997	95.88
377.222	94.88
377.448	76.88
377.674	89.88
377.899	87.88
378.125	86.88
378.35	86.88
378.576	93.88
378.802	93.88
379.027	100.88
379.253	88.88
379.478	78.88
379.704	90.88
379.929	81.88
380.155	88.88
380.38	90.88
380.606	105.88
380.831	102.88
381.057	93.88
381.282	93.88
381.507	112.88
381.733	88.88
381.958	104.88
382.184	94.88
382.409	103.88
382.634	104.88
382.86	88.88
383.085	85.88
383.31	94.88
383.535	110.88
383.761	82.88
383.986	95.88
384.211	89.88
384.436	92.88
384.662	97.88
384.887	88.88
385.112	99.88
385.337	100.88
385.562	105.88
385.787	115.88
386.013	86.88
386.238	105.88
386.463	100.88
386.688	98.88
386.913	103.88
387.138	105.88
387.363	79.88
387.588	104.88
387.813	111.88
388.038	98.88
388.263	108.88
388.488	103.88
388.713	96.88
388.938	97.88
389.163	89.88
389.387	90.88
389.612	96.88
389.837	97.88
390.062	92.88
390.287	89.88
390.512	91.88
390.736	88.88
390.961	91.88
391.186	98.88
391.411	109.88
391.636	88.88
391.86	59.88
392.085	91.88
392.31	96.88
392.534	80.88
392.759	82.88
392.984	98.88
393.208	87.88
393.433	87.88
393.658	92.88
393.882	85.88
394.107	90.88
394.331	81.88
394.556	74.88
394.78	79.88
395.005	84.88
395.229	98.88
395.454	86.88
395.678	90.88
395.903	84.88
396.127	92.88
396.352	87.88
396.576	79.88
396.801	79.88
397.025	86.88
397.249	87.88
397.474	76.88
397.698	77.88
397.922	82.88
398.147	88.88
398.371	84.88
398.595	98.88
398.82	81.88
399.044	100.88
399.268	94.88
399.492	74.88
399.717	92.88
399.941	79.88
400.165	78.88
400.389	86.88
400.613	83.88
400.837	82.88
401.062	68.88
401.286	83.88
401.51	74.88
401.734	87.88
401.958	85.88
402.182	103.88
402.406	130.88
402.63	109.88
402.854	87.88
403.078	86.88
403.302	88.88
403.526	96.88
403.75	80.88
403.974	86.88
404.198	87.88
404.422	88.88
404.645	90.88
404.869	93.88
405.093	98.88
405.317	84.88
405.541	93.88
405.765	94.88
405.988	98.88
406.212	151.88
406.436	185.88
406.66	121.88
406.883	99.88
407.107	94.88
407.331	104.88
407.555	95.88
407.778	95.88
408.002	98.88
408.226	84.88
408.449	75.88
408.673	80.88
408.896	88.88
409.12	98.88
409.344	80.88
409.567	86.88
409.791	97.88
410.014	87.88
410.238	94.88
410.461	84.88
410.685	101.88
410.908	101.88
411.132	89.88
411.355	97.88
411.578	89.88
411.802	91.88
412.025	86.88
412.249	86.88
412.472	85.88
412.695	100.88
412.919	82.88
413.142	84.88
413.365	92.88
413.589	81.88
413.812	89.88
414.035	90.88
414.258	88.88
414.482	101.88
414.705	85.88
414.928	76.88
415.151	74.88
415.374	87.88
415.597	81.88
415.821	70.88
416.044	89.88
416.267	82.88
416.49	83.88
416.713	79.88
416.936	86.88
417.159	90.88
417.382	86.88
417.605	86.88
417.828	78.88
418.051	86.88
418.274	84.88
418.497	77.88
418.72	83.88
418.943	105.88
419.166	70.88
419.389	97.88
419.611	87.88
419.834	95.88
420.057	98.88
420.28	97.88
420.503	81.88
420.726	90.88
420.948	94.88
421.171	85.88
421.394	87.88
421.617	105.88
421.839	85.88
422.062	76.88
422.285	88.88
422.507	93.88
422.73	88.88
422.953	86.88
423.175	86.88
423.398	92.88
423.621	90.88
423.843	102.88
424.066	84.88
424.288	81.88
424.511	76.88
424.733	106.88
424.956	90.88
425.178	101.88
425.401	92.88
425.623	89.88
425.846	95.88
426.068	93.88
426.291	91.88
426.513	95.88
426.735	87.88
426.958	87.88
427.18	88.88
427.402	118.88
427.625	141.88
427.847	118.88
428.069	100.88
428.292	77.88
428.514	78.88
428.736	98.88
428.958	82.88
429.181	90.88
429.403	87.88
429.625	86.88
429.847	91.88
430.069	96.88
430.292	81.88
430.514	77.88
430.736	61.88
430.958	79.88
431.18	82.88
431.402	84.88
431.624	97.88
431.846	94.88
432.068	91.88
432.29	84.88
432.512	81.88
432.734	89.88
432.956	87.88
433.178	95.88
433.4	86.88
433.622	93.88
433.844	89.88
434.066	82.88
434.287	87.88
434.509	80.88
434.731	85.88
434.953	70.88
435.175	97.88
435.397	78.88
435.618	96.88
435.84	108.88
436.062	116.88
436.284	91.88
436.505	97.88
436.727	79.88
436.949	92.88
437.17	79.88
437.392	100.88
437.614	89.88
437.835	104.88
438.057	103.88
438.278	90.88
438.5	98.88
438.721	107.88
438.943	108.88
439.165	96.88
439.386	94.88
439.608	76.88
439.829	98.88
440.05	115.88
440.272	112.88
440.493	92.88
440.715	89.88
440.936	93.88
441.158	101.88
441.379	91.88
441.6	88.88
441.822	87.88
442.043	88.88
442.264	113.88
442.486	77.88
442.707	90.88
442.928	104.88
443.149	117.88
443.371	114.88
443.592	102.88
443.813	114.88
444.034	112.88
444.255	90.88
444.476	78.88
444.698	100.88
444.919	92.88
445.14	136.88
445.361	120.88
445.582	112.88
445.803	111.88
446.024	115.88
446.245	110.88
446.466	96.88
446.687	86.88
446.908	88.88
447.129	80.88
447.35	83.88
447.571	89.88
447.792	106.88
448.013	94.88
448.234	92.88
448.455	97.88
448.675	102.88
448.896	111.88
449.117	114.88
449.338	97.88
449.559	108.88
449.779	120.88
450	76.88
450.221	79.88
450.442	88.88
450.662	82.88
450.883	107.88
451.104	102.88
451.324	98.88
451.545	74.88
451.766	72.88
451.986	89.88
452.207	78.88
452.428	89.88
452.648	81.88
452.869	98.88
453.089	110.88
453.31	116.88
453.53	103.88
453.751	98.88
453.971	101.88
454.192	90.88
454.412	86.88
454.633	84.88
454.853	85.88
455.073	88.88
455.294	97.88
455.514	95.88
455.734	80.88
455.955	79.88
456.175	77.88
456.395	80.88
456.616	98.88
456.836	89.88
457.056	85.88
457.276	99.88
457.497	80.88
457.717	82.88
457.937	83.88
458.157	88.88
458.377	84.88
458.598	95.88
458.818	121.88
459.038	143.88
459.258	114.88
459.478	82.88
459.698	82.88
459.918	91.88
460.138	82.88
460.358	93.88
460.578	91.88
460.798	88.88
461.018	86.88
461.238	78.88
461.458	77.88
461.678	88.88
461.898	65.88
462.118	90.88
462.338	82.88
462.558	76.88
462.777	83.88
462.997	75.88
463.217	88.88
463.437	83.88
463.657	90.88
463.876	80.88
464.096	85.88
464.316	89.88
464.536	88.88
464.755	83.88
464.975	94.88
465.195	140.88
465.414	128.88
465.634	90.88
465.854	91.88
466.073	85.88
466.293	73.88
466.512	82.88
466.732	83.88
466.951	96.88
467.171	90.88
467.391	91.88
467.61	77.88
467.829	90.88
468.049	94.88
468.268	89.88
468.488	92.88
468.707	90.88
468.927	88.88
469.146	86.88
469.365	88.88
469.585	83.88
469.804	86.88
470.023	102.88
470.243	94.88
470.462	88.88
470.681	103.88
470.901	96.88
471.12	86.88
471.339	85.88
471.558	86.88
471.777	89.88
471.997	86.88
472.216	75.88
472.435	90.88
472.654	92.88
472.873	93.88
473.092	82.88
473.311	84.88
473.53	87.88
473.749	84.88
473.968	83.88
474.187	85.88
474.406	94.88
474.625	93.88
474.844	91.88
475.063	91.88
475.282	90.88
475.501	83.88
475.72	86.88
475.939	104.88
476.158	86.88
476.377	87.88
476.596	94.88
476.814	80.88
477.033	86.88
477.252	98.88
477.471	75.88
477.69	91.88
477.908	94.88
478.127	87.88
478.346	92.88
478.564	100.88
478.783	75.88
479.002	87.88
479.22	84.88
479.439	100.88
479.658	104.88
479.876	94.88
480.095	84.88
480.313	82.88
480.532	99.88
480.751	100.88
480.969	70.88
481.188	117.88
481.406	118.88
481.624	82.88
481.843	88.88
482.061	100.88
482.28	80.88
482.498	94.88
482.717	82.88
482.935	88.88
483.153	81.88
483.372	101.88
483.59	95.88
483.808	94.88
484.027	94.88
484.245	85.88
484.463	73.88
484.681	94.88
484.9	93.88
485.118	105.88
485.336	79.88
485.554	93.88
485.772	95.88
485.99	92.88
486.209	102.88
486.427	116.88
486.645	114.88
486.863	107.88
487.081	97.88
487.299	100.88
487.517	92.88
487.735	79.88
487.953	86.88
488.171	91.88
488.389	86.88
488.607	98.88
488.825	88.88
489.043	91.88
489.261	89.88
489.479	81.88
489.696	96.88
489.914	96.88
490.132	78.88
490.35	90.88
490.568	93.88
490.786	85.88
491.003	92.88
491.221	82.88
491.439	90.88
491.657	94.88
491.874	84.88
492.092	89.88
492.31	81.88
492.527	73.88
492.745	87.88
492.963	85.88
493.18	102.88
493.398	95.88
493.615	107.88
493.833	101.88
494.05	88.88
494.268	80.88
494.485	86.88
494.703	77.88
494.92	88.88
495.138	72.88
495.355	93.88
495.573	91.88
495.79	93.88
496.008	89.88
496.225	97.88
496.442	81.88
496.66	94.88
496.877	88.88
497.094	91.88
497.312	88.88
497.529	92.88
497.746	104.88
497.963	85.88
498.181	86.88
498.398	86.88
498.615	103.88
498.832	92.88
499.049	95.88
499.267	94.88
499.484	90.88
499.701	98.88
499.918	86.88
500.135	91.88
500.352	75.88
500.569	93.88
500.786	96.88
501.003	92.88
501.22	88.88
501.437	82.88
501.654	102.88
501.871	104.88
502.088	94.88
502.305	86.88
502.522	75.88
502.739	92.88
502.956	90.88
503.172	90.88
503.389	91.88
503.606	95.88
503.823	86.88
504.04	86.88
504.256	91.88
504.473	91.88
504.69	92.88
504.907	85.88
505.123	77.88
505.34	88.88
505.557	77.88
505.773	94.88
505.99	101.88
506.207	94.88
506.423	84.88
506.64	85.88
506.856	77.88
507.073	98.88
507.289	90.88
507.506	89.88
507.722	108.88
507.939	98.88
508.155	96.88
508.372	92.88
508.588	79.88
508.805	106.88
509.021	82.88
509.238	93.88
509.454	89.88
509.67	94.88
509.887	104.88
510.103	124.88
510.319	187.88
510.536	605.88
510.752	1892.88
510.968	526.88
511.184	146.88
511.401	108.88
511.617	101.88
511.833	114.88
512.049	92.88
512.265	81.88
512.481	90.88
512.698	89.88
512.914	96.88
513.13	92.88
513.346	88.88
513.562	90.88
513.778	106.88
513.994	110.88
514.21	110.88
514.426	127.88
514.642	119.88
514.858	109.88
515.074	137.88
515.29	344.88
515.506	1072.88
515.721	423.88
515.937	138.88
516.153	95.88
516.369	87.88
516.585	96.88
516.801	89.88
