Data from Uncirc_1998_H10_HRD10591_00025.txt Node
Date: Wed Jan 03 11:25:29 EST 2024
User: Yrep
Spectrometer: HR+D1059
Trigger mode: 1
Integration Time (sec): 1.000000E-1
Scans to average: 1
Electric dark correction enabled: true
Nonlinearity correction enabled: false
Boxcar width: 0
XAxis mode: Wavelengths
Number of Pixels in Spectrum: 2048
>>>>>Begin Spectral Data<<<<<
223.165	-19.31
223.4	-19.31
223.635	-19.31
223.869	-16.31
224.104	-21.31
224.338	-8.31
224.573	-14.31
224.808	-12.31
225.042	-10.31
225.277	-8.31
225.511	1.69
225.746	-16.31
225.98	3.69
226.215	14.69
226.449	13.69
226.683	26.69
226.918	31.69
227.152	34.69
227.387	35.69
227.621	45.69
227.856	49.69
228.09	59.69
228.324	50.69
228.559	60.69
228.793	69.69
229.027	86.69
229.262	66.69
229.496	82.69
229.73	99.69
229.964	89.69
230.199	91.69
230.433	85.69
230.667	81.69
230.901	94.69
231.136	79.69
231.37	97.69
231.604	94.69
231.838	74.69
232.072	89.69
232.306	91.69
232.541	86.69
232.775	88.69
233.009	92.69
233.243	74.69
233.477	93.69
233.711	82.69
233.945	80.69
234.179	93.69
234.413	82.69
234.647	86.69
234.881	86.69
235.115	83.69
235.349	66.69
235.583	89.69
235.817	75.69
236.051	76.69
236.285	98.69
236.519	82.69
236.753	82.69
236.987	89.69
237.221	82.69
237.455	82.69
237.689	85.69
237.922	100.69
238.156	88.69
238.39	93.69
238.624	68.69
238.858	71.69
239.091	78.69
239.325	88.69
239.559	82.69
239.793	90.69
240.027	89.69
240.26	68.69
240.494	92.69
240.728	70.69
240.961	71.69
241.195	87.69
241.429	79.69
241.662	78.69
241.896	94.69
242.13	82.69
242.363	84.69
242.597	78.69
242.83	81.69
243.064	73.69
243.298	84.69
243.531	80.69
243.765	72.69
243.998	84.69
244.232	81.69
244.465	80.69
244.699	90.69
244.932	82.69
245.166	90.69
245.399	82.69
245.633	79.69
245.866	82.69
246.099	69.69
246.333	81.69
246.566	74.69
246.8	81.69
247.033	79.69
247.266	72.69
247.5	74.69
247.733	90.69
247.966	97.69
248.2	92.69
248.433	80.69
248.666	84.69
248.899	81.69
249.133	98.69
249.366	102.69
249.599	109.69
249.832	78.69
250.066	90.69
250.299	95.69
250.532	90.69
250.765	84.69
250.998	96.69
251.231	79.69
251.465	70.69
251.698	86.69
251.931	89.69
252.164	93.69
252.397	75.69
252.63	106.69
252.863	88.69
253.096	56.69
253.329	78.69
253.562	89.69
253.795	86.69
254.028	101.69
254.261	89.69
254.494	95.69
254.727	93.69
254.96	89.69
255.193	90.69
255.426	94.69
255.659	95.69
255.892	92.69
256.124	82.69
256.357	86.69
256.59	95.69
256.823	96.69
257.056	85.69
257.289	74.69
257.521	81.69
257.754	94.69
257.987	94.69
258.22	83.69
258.452	86.69
258.685	82.69
258.918	80.69
259.151	82.69
259.383	90.69
259.616	78.69
259.849	92.69
260.081	71.69
260.314	95.69
260.547	96.69
260.779	92.69
261.012	94.69
261.244	82.69
261.477	75.69
261.71	93.69
261.942	94.69
262.175	122.69
262.407	96.69
262.64	82.69
262.872	94.69
263.105	99.69
263.337	87.69
263.57	88.69
263.802	83.69
264.035	83.69
264.267	86.69
264.499	89.69
264.732	86.69
264.964	83.69
265.197	85.69
265.429	86.69
265.661	68.69
265.894	95.69
266.126	91.69
266.358	96.69
266.591	97.69
266.823	83.69
267.055	94.69
267.287	83.69
267.52	82.69
267.752	94.69
267.984	82.69
268.216	98.69
268.448	87.69
268.681	78.69
268.913	104.69
269.145	92.69
269.377	88.69
269.609	93.69
269.841	85.69
270.073	91.69
270.306	98.69
270.538	96.69
270.77	85.69
271.002	85.69
271.234	93.69
271.466	95.69
271.698	90.69
271.93	77.69
272.162	92.69
272.394	94.69
272.626	85.69
272.858	89.69
273.09	82.69
273.322	101.69
273.553	94.69
273.785	84.69
274.017	96.69
274.249	96.69
274.481	87.69
274.713	92.69
274.945	101.69
275.176	76.69
275.408	98.69
275.64	86.69
275.872	93.69
276.104	95.69
276.335	81.69
276.567	104.69
276.799	113.69
277.031	108.69
277.262	98.69
277.494	95.69
277.726	78.69
277.957	95.69
278.189	113.69
278.421	91.69
278.652	82.69
278.884	82.69
279.115	84.69
279.347	88.69
279.579	92.69
279.81	87.69
280.042	91.69
280.273	99.69
280.505	89.69
280.736	80.69
280.968	92.69
281.199	94.69
281.431	93.69
281.662	98.69
281.894	104.69
282.125	98.69
282.356	121.69
282.588	141.69
282.819	110.69
283.051	97.69
283.282	90.69
283.513	94.69
283.745	85.69
283.976	88.69
284.207	82.69
284.439	95.69
284.67	93.69
284.901	95.69
285.132	86.69
285.364	95.69
285.595	92.69
285.826	85.69
286.057	81.69
286.288	86.69
286.52	105.69
286.751	90.69
286.982	87.69
287.213	90.69
287.444	91.69
287.675	98.69
287.906	101.69
288.138	103.69
288.369	111.69
288.6	100.69
288.831	98.69
289.062	101.69
289.293	96.69
289.524	92.69
289.755	74.69
289.986	81.69
290.217	93.69
290.448	86.69
290.679	92.69
290.91	100.69
291.141	83.69
291.371	93.69
291.602	82.69
291.833	99.69
292.064	80.69
292.295	83.69
292.526	98.69
292.757	87.69
292.987	100.69
293.218	90.69
293.449	96.69
293.68	82.69
293.91	94.69
294.141	114.69
294.372	83.69
294.603	75.69
294.833	99.69
295.064	103.69
295.295	90.69
295.525	82.69
295.756	101.69
295.987	106.69
296.217	133.69
296.448	113.69
296.679	95.69
296.909	102.69
297.14	83.69
297.37	96.69
297.601	94.69
297.831	102.69
298.062	98.69
298.292	88.69
298.523	81.69
298.753	95.69
298.984	89.69
299.214	112.69
299.445	84.69
299.675	94.69
299.905	91.69
300.136	80.69
300.366	93.69
300.597	99.69
300.827	94.69
301.057	99.69
301.288	98.69
301.518	84.69
301.748	94.69
301.979	83.69
302.209	93.69
302.439	105.69
302.669	100.69
302.9	106.69
303.13	84.69
303.36	99.69
303.59	114.69
303.82	98.69
304.051	97.69
304.281	95.69
304.511	95.69
304.741	86.69
304.971	95.69
305.201	87.69
305.431	100.69
305.661	86.69
305.891	87.69
306.121	101.69
306.352	111.69
306.582	101.69
306.812	95.69
307.042	87.69
307.272	86.69
307.502	100.69
307.731	101.69
307.961	89.69
308.191	102.69
308.421	84.69
308.651	105.69
308.881	100.69
309.111	91.69
309.341	89.69
309.571	95.69
309.8	109.69
310.03	111.69
310.26	90.69
310.49	85.69
310.72	98.69
310.949	99.69
311.179	112.69
311.409	93.69
311.639	102.69
311.868	98.69
312.098	100.69
312.328	101.69
312.557	82.69
312.787	112.69
313.017	102.69
313.246	98.69
313.476	97.69
313.706	89.69
313.935	103.69
314.165	92.69
314.394	94.69
314.624	99.69
314.853	100.69
315.083	94.69
315.312	94.69
315.542	98.69
315.771	106.69
316.001	96.69
316.23	95.69
316.46	98.69
316.689	105.69
316.919	100.69
317.148	103.69
317.377	91.69
317.607	98.69
317.836	85.69
318.065	105.69
318.295	84.69
318.524	115.69
318.753	94.69
318.983	102.69
319.212	96.69
319.441	109.69
319.67	125.69
319.9	92.69
320.129	88.69
320.358	99.69
320.587	100.69
320.816	99.69
321.046	102.69
321.275	99.69
321.504	103.69
321.733	95.69
321.962	78.69
322.191	93.69
322.42	101.69
322.649	95.69
322.878	118.69
323.108	112.69
323.337	127.69
323.566	130.69
323.795	151.69
324.024	196.69
324.253	348.69
324.482	766.69
324.71	1505.69
324.939	1959.69
325.168	730.69
325.397	236.69
325.626	141.69
325.855	118.69
326.084	130.69
326.313	128.69
326.542	139.69
326.77	207.69
326.999	421.69
327.228	862.69
327.457	1563.69
327.686	1253.69
327.914	354.69
328.143	194.69
328.372	162.69
328.6	127.69
328.829	115.69
329.058	131.69
329.287	127.69
329.515	108.69
329.744	104.69
329.972	108.69
330.201	117.69
330.43	104.69
330.658	118.69
330.887	127.69
331.115	124.69
331.344	95.69
331.572	86.69
331.801	93.69
332.03	114.69
332.258	101.69
332.486	100.69
332.715	95.69
332.943	85.69
333.172	94.69
333.4	95.69
333.629	89.69
333.857	96.69
334.085	96.69
334.314	115.69
334.542	113.69
334.771	115.69
334.999	90.69
335.227	101.69
335.455	104.69
335.684	99.69
335.912	94.69
336.14	108.69
336.369	93.69
336.597	98.69
336.825	91.69
337.053	96.69
337.281	88.69
337.51	84.69
337.738	94.69
337.966	97.69
338.194	99.69
338.422	116.69
338.65	115.69
338.878	103.69
339.106	91.69
339.334	92.69
339.562	88.69
339.79	99.69
340.018	96.69
340.246	92.69
340.474	85.69
340.702	93.69
340.93	98.69
341.158	83.69
341.386	109.69
341.614	99.69
341.842	91.69
342.07	76.69
342.298	93.69
342.526	93.69
342.754	80.69
342.981	94.69
343.209	112.69
343.437	112.69
343.665	100.69
343.893	80.69
344.12	87.69
344.348	91.69
344.576	86.69
344.804	101.69
345.031	101.69
345.259	108.69
345.487	103.69
345.714	85.69
345.942	99.69
346.17	94.69
346.397	96.69
346.625	93.69
346.853	88.69
347.08	90.69
347.308	86.69
347.535	104.69
347.763	106.69
347.99	110.69
348.218	97.69
348.445	98.69
348.673	103.69
348.9	108.69
349.128	101.69
349.355	97.69
349.583	97.69
349.81	74.69
350.037	104.69
350.265	97.69
350.492	75.69
350.72	93.69
350.947	110.69
351.174	100.69
351.402	108.69
351.629	111.69
351.856	109.69
352.083	101.69
352.311	99.69
352.538	104.69
352.765	108.69
352.992	114.69
353.22	112.69
353.447	95.69
353.674	94.69
353.901	102.69
354.128	106.69
354.355	103.69
354.583	100.69
354.81	97.69
355.037	106.69
355.264	107.69
355.491	91.69
355.718	102.69
355.945	95.69
356.172	90.69
356.399	94.69
356.626	104.69
356.853	92.69
357.08	102.69
357.307	100.69
357.534	90.69
357.761	101.69
357.988	93.69
358.215	96.69
358.441	100.69
358.668	95.69
358.895	96.69
359.122	97.69
359.349	102.69
359.576	95.69
359.802	111.69
360.029	112.69
360.256	93.69
360.483	101.69
360.709	99.69
360.936	98.69
361.163	103.69
361.39	101.69
361.616	98.69
361.843	85.69
362.07	91.69
362.296	103.69
362.523	99.69
362.749	98.69
362.976	99.69
363.203	95.69
363.429	88.69
363.656	84.69
363.882	82.69
364.109	84.69
364.335	92.69
364.562	99.69
364.788	106.69
365.015	106.69
365.241	113.69
365.468	115.69
365.694	106.69
365.92	85.69
366.147	87.69
366.373	90.69
366.599	85.69
366.826	93.69
367.052	90.69
367.278	92.69
367.505	87.69
367.731	80.69
367.957	88.69
368.184	90.69
368.41	95.69
368.636	96.69
368.862	113.69
369.089	112.69
369.315	96.69
369.541	95.69
369.767	101.69
369.993	115.69
370.219	90.69
370.445	85.69
370.672	78.69
370.898	95.69
371.124	95.69
371.35	95.69
371.576	96.69
371.802	88.69
372.028	93.69
372.254	82.69
372.48	102.69
372.706	90.69
372.932	76.69
373.158	85.69
373.384	103.69
373.61	100.69
373.835	76.69
374.061	102.69
374.287	78.69
374.513	87.69
374.739	94.69
374.965	94.69
375.191	94.69
375.416	90.69
375.642	87.69
375.868	97.69
376.094	97.69
376.319	97.69
376.545	90.69
376.771	102.69
376.997	95.69
377.222	101.69
377.448	86.69
377.674	83.69
377.899	88.69
378.125	102.69
378.35	86.69
378.576	91.69
378.802	100.69
379.027	96.69
379.253	101.69
379.478	105.69
379.704	86.69
379.929	95.69
380.155	97.69
380.38	103.69
380.606	84.69
380.831	100.69
381.057	102.69
381.282	92.69
381.507	78.69
381.733	102.69
381.958	91.69
382.184	109.69
382.409	103.69
382.634	114.69
382.86	86.69
383.085	114.69
383.31	101.69
383.535	93.69
383.761	101.69
383.986	88.69
384.211	97.69
384.436	114.69
384.662	99.69
384.887	104.69
385.112	105.69
385.337	114.69
385.562	108.69
385.787	112.69
386.013	114.69
386.238	109.69
386.463	99.69
386.688	124.69
386.913	103.69
387.138	91.69
387.363	99.69
387.588	107.69
387.813	110.69
388.038	95.69
388.263	104.69
388.488	94.69
388.713	104.69
388.938	94.69
389.163	91.69
389.387	98.69
389.612	94.69
389.837	103.69
390.062	113.69
390.287	96.69
390.512	102.69
390.736	86.69
390.961	98.69
391.186	97.69
391.411	101.69
391.636	84.69
391.86	93.69
392.085	87.69
392.31	80.69
392.534	87.69
392.759	90.69
392.984	105.69
393.208	87.69
393.433	90.69
393.658	95.69
393.882	85.69
394.107	87.69
394.331	94.69
394.556	83.69
394.78	99.69
395.005	97.69
395.229	76.69
395.454	86.69
395.678	94.69
395.903	85.69
396.127	90.69
396.352	88.69
396.576	83.69
396.801	88.69
397.025	87.69
397.249	92.69
397.474	112.69
397.698	78.69
397.922	102.69
398.147	82.69
398.371	93.69
398.595	91.69
398.82	73.69
399.044	98.69
399.268	83.69
399.492	108.69
399.717	86.69
399.941	94.69
400.165	98.69
400.389	93.69
400.613	98.69
400.837	86.69
401.062	88.69
401.286	90.69
401.51	84.69
401.734	91.69
401.958	107.69
402.182	123.69
402.406	144.69
402.63	108.69
402.854	101.69
403.078	89.69
403.302	80.69
403.526	100.69
403.75	100.69
403.974	91.69
404.198	107.69
404.422	94.69
404.645	80.69
404.869	93.69
405.093	99.69
405.317	97.69
405.541	90.69
405.765	102.69
405.988	115.69
406.212	158.69
406.436	207.69
406.66	133.69
406.883	101.69
407.107	97.69
407.331	109.69
407.555	105.69
407.778	94.69
408.002	95.69
408.226	92.69
408.449	88.69
408.673	78.69
408.896	84.69
409.12	101.69
409.344	97.69
409.567	103.69
409.791	80.69
410.014	103.69
410.238	96.69
410.461	97.69
410.685	100.69
410.908	99.69
411.132	102.69
411.355	106.69
411.578	94.69
411.802	96.69
412.025	81.69
412.249	94.69
412.472	108.69
412.695	107.69
412.919	94.69
413.142	90.69
413.365	85.69
413.589	95.69
413.812	93.69
414.035	109.69
414.258	94.69
414.482	83.69
414.705	94.69
414.928	83.69
415.151	94.69
415.374	79.69
415.597	101.69
415.821	91.69
416.044	96.69
416.267	108.69
416.49	82.69
416.713	95.69
416.936	102.69
417.159	90.69
417.382	85.69
417.605	102.69
417.828	91.69
418.051	96.69
418.274	93.69
418.497	100.69
418.72	97.69
418.943	99.69
419.166	89.69
419.389	87.69
419.611	105.69
419.834	93.69
420.057	97.69
420.28	91.69
420.503	83.69
420.726	85.69
420.948	88.69
421.171	101.69
421.394	101.69
421.617	91.69
421.839	95.69
422.062	89.69
422.285	99.69
422.507	111.69
422.73	94.69
422.953	80.69
423.175	95.69
423.398	104.69
423.621	86.69
423.843	80.69
424.066	86.69
424.288	95.69
424.511	88.69
424.733	97.69
424.956	103.69
425.178	96.69
425.401	97.69
425.623	103.69
425.846	112.69
426.068	82.69
426.291	99.69
426.513	92.69
426.735	99.69
426.958	94.69
427.18	102.69
427.402	140.69
427.625	156.69
427.847	126.69
428.069	113.69
428.292	96.69
428.514	98.69
428.736	95.69
428.958	90.69
429.181	83.69
429.403	92.69
429.625	84.69
429.847	95.69
430.069	97.69
430.292	98.69
430.514	104.69
430.736	91.69
430.958	97.69
431.18	80.69
431.402	82.69
431.624	93.69
431.846	90.69
432.068	82.69
432.29	87.69
432.512	85.69
432.734	78.69
432.956	108.69
433.178	92.69
433.4	84.69
433.622	85.69
433.844	90.69
434.066	94.69
434.287	96.69
434.509	76.69
434.731	84.69
434.953	88.69
435.175	103.69
435.397	96.69
435.618	102.69
435.84	116.69
436.062	125.69
436.284	108.69
436.505	103.69
436.727	113.69
436.949	91.69
437.17	90.69
437.392	106.69
437.614	99.69
437.835	105.69
438.057	108.69
438.278	100.69
438.5	108.69
438.721	123.69
438.943	101.69
439.165	86.69
439.386	95.69
439.608	95.69
439.829	97.69
440.05	122.69
440.272	133.69
440.493	104.69
440.715	99.69
440.936	97.69
441.158	98.69
441.379	82.69
441.6	96.69
441.822	102.69
442.043	96.69
442.264	115.69
442.486	88.69
442.707	99.69
442.928	108.69
443.149	126.69
443.371	131.69
443.592	115.69
443.813	113.69
444.034	112.69
444.255	98.69
444.476	84.69
444.698	83.69
444.919	86.69
445.14	133.69
445.361	124.69
445.582	123.69
445.803	130.69
446.024	128.69
446.245	122.69
446.466	112.69
446.687	99.69
446.908	76.69
447.129	78.69
447.35	104.69
447.571	99.69
447.792	94.69
448.013	94.69
448.234	97.69
448.455	107.69
448.675	108.69
448.896	111.69
449.117	90.69
449.338	101.69
449.559	118.69
449.779	128.69
450	103.69
450.221	96.69
450.442	102.69
450.662	95.69
450.883	103.69
451.104	107.69
451.324	99.69
451.545	96.69
451.766	102.69
451.986	86.69
452.207	106.69
452.428	100.69
452.648	91.69
452.869	100.69
453.089	101.69
453.31	113.69
453.53	84.69
453.751	100.69
453.971	113.69
454.192	111.69
454.412	99.69
454.633	98.69
454.853	96.69
455.073	87.69
455.294	103.69
455.514	85.69
455.734	102.69
455.955	88.69
456.175	95.69
456.395	76.69
456.616	83.69
456.836	108.69
457.056	92.69
457.276	91.69
457.497	84.69
457.717	90.69
457.937	98.69
458.157	95.69
458.377	94.69
458.598	111.69
458.818	128.69
459.038	134.69
459.258	131.69
459.478	92.69
459.698	90.69
459.918	76.69
460.138	87.69
460.358	87.69
460.578	106.69
460.798	80.69
461.018	95.69
461.238	102.69
461.458	94.69
461.678	104.69
461.898	93.69
462.118	92.69
462.338	80.69
462.558	85.69
462.777	84.69
462.997	94.69
463.217	94.69
463.437	99.69
463.657	83.69
463.876	85.69
464.096	103.69
464.316	96.69
464.536	91.69
464.755	88.69
464.975	99.69
465.195	141.69
465.414	144.69
465.634	101.69
465.854	95.69
466.073	97.69
466.293	98.69
466.512	102.69
466.732	78.69
466.951	94.69
467.171	96.69
467.391	91.69
467.61	114.69
467.829	90.69
468.049	97.69
468.268	105.69
468.488	105.69
468.707	79.69
468.927	72.69
469.146	105.69
469.365	102.69
469.585	81.69
469.804	95.69
470.023	100.69
470.243	88.69
470.462	95.69
470.681	106.69
470.901	85.69
471.12	90.69
471.339	99.69
471.558	93.69
471.777	92.69
471.997	98.69
472.216	86.69
472.435	83.69
472.654	95.69
472.873	91.69
473.092	99.69
473.311	84.69
473.53	80.69
473.749	93.69
473.968	90.69
474.187	101.69
474.406	100.69
474.625	100.69
474.844	92.69
475.063	101.69
475.282	101.69
475.501	99.69
475.72	86.69
475.939	107.69
476.158	92.69
476.377	86.69
476.596	83.69
476.814	92.69
477.033	94.69
477.252	95.69
477.471	95.69
477.69	79.69
477.908	95.69
478.127	102.69
478.346	90.69
478.564	94.69
478.783	107.69
479.002	86.69
479.22	86.69
479.439	103.69
479.658	105.69
479.876	97.69
480.095	98.69
480.313	87.69
480.532	96.69
480.751	107.69
480.969	89.69
481.188	122.69
481.406	107.69
481.624	94.69
481.843	98.69
482.061	102.69
482.28	82.69
482.498	94.69
482.717	95.69
482.935	93.69
483.153	96.69
483.372	101.69
483.59	84.69
483.808	95.69
484.027	98.69
484.245	95.69
484.463	103.69
484.681	108.69
484.9	86.69
485.118	98.69
485.336	97.69
485.554	97.69
485.772	107.69
485.99	112.69
486.209	118.69
486.427	92.69
486.645	124.69
486.863	104.69
487.081	106.69
487.299	114.69
487.517	99.69
487.735	82.69
487.953	87.69
488.171	93.69
488.389	88.69
488.607	106.69
488.825	97.69
489.043	94.69
489.261	101.69
489.479	93.69
489.696	92.69
489.914	104.69
490.132	104.69
490.35	92.69
490.568	110.69
490.786	94.69
491.003	93.69
491.221	85.69
491.439	102.69
491.657	105.69
491.874	98.69
492.092	91.69
492.31	101.69
492.527	96.69
492.745	97.69
492.963	83.69
493.18	104.69
493.398	95.69
493.615	82.69
493.833	79.69
494.05	99.69
494.268	94.69
494.485	88.69
494.703	94.69
494.92	85.69
495.138	78.69
495.355	88.69
495.573	104.69
495.79	91.69
496.008	99.69
496.225	93.69
496.442	95.69
496.66	117.69
496.877	95.69
497.094	92.69
497.312	106.69
497.529	96.69
497.746	90.69
497.963	88.69
498.181	91.69
498.398	99.69
498.615	95.69
498.832	87.69
499.049	88.69
499.267	100.69
499.484	90.69
499.701	95.69
499.918	102.69
500.135	91.69
500.352	99.69
500.569	115.69
500.786	101.69
501.003	92.69
501.22	93.69
501.437	100.69
501.654	98.69
501.871	106.69
502.088	86.69
502.305	83.69
502.522	102.69
502.739	102.69
502.956	91.69
503.172	101.69
503.389	101.69
503.606	107.69
503.823	91.69
504.04	84.69
504.256	103.69
504.473	94.69
504.69	94.69
504.907	98.69
505.123	103.69
505.34	96.69
505.557	96.69
505.773	102.69
505.99	101.69
506.207	106.69
506.423	106.69
506.64	106.69
506.856	91.69
507.073	98.69
507.289	88.69
507.506	107.69
507.722	90.69
507.939	112.69
508.155	103.69
508.372	99.69
508.588	98.69
508.805	94.69
509.021	101.69
509.238	103.69
509.454	95.69
509.67	120.69
509.887	125.69
510.103	144.69
510.319	189.69
510.536	663.69
510.752	2003.69
510.968	547.69
511.184	157.69
511.401	106.69
511.617	109.69
511.833	114.69
512.049	98.69
512.265	90.69
512.481	97.69
512.698	96.69
512.914	98.69
513.13	92.69
513.346	107.69
513.562	92.69
513.778	107.69
513.994	95.69
514.21	85.69
