Data from Uncirc_1998_H10_HRD10591_00092.txt Node
Date: Wed Jan 03 11:25:43 EST 2024
User: Yrep
Spectrometer: HR+D1059
Trigger mode: 1
Integration Time (sec): 1.000000E-1
Scans to average: 1
Electric dark correction enabled: true
Nonlinearity correction enabled: false
Boxcar width: 0
XAxis mode: Wavelengths
Number of Pixels in Spectrum: 2048
>>>>>Begin Spectral Data<<<<<
223.165	-12.56
223.4	-12.56
223.635	-12.56
223.869	-21.56
224.104	-17.56
224.338	-11.56
224.573	-29.56
224.808	-4.56
225.042	-7.56
225.277	1.44
225.511	-18.56
225.746	5.44
225.98	7.44
226.215	10.44
226.449	7.44
226.683	17.44
226.918	38.44
227.152	35.44
227.387	29.44
227.621	27.44
227.856	39.44
228.09	42.44
228.324	44.44
228.559	46.44
228.793	55.44
229.027	61.44
229.262	58.44
229.496	79.44
229.73	63.44
229.964	89.44
230.199	57.44
230.433	79.44
230.667	78.44
230.901	86.44
231.136	75.44
231.37	89.44
231.604	81.44
231.838	78.44
232.072	76.44
232.306	70.44
232.541	79.44
232.775	78.44
233.009	74.44
233.243	77.44
233.477	71.44
233.711	63.44
233.945	87.44
234.179	84.44
234.413	78.44
234.647	77.44
234.881	65.44
235.115	75.44
235.349	77.44
235.583	74.44
235.817	84.44
236.051	67.44
236.285	75.44
236.519	70.44
236.753	83.44
236.987	68.44
237.221	75.44
237.455	77.44
237.689	76.44
237.922	75.44
238.156	78.44
238.39	75.44
238.624	64.44
238.858	71.44
239.091	77.44
239.325	80.44
239.559	97.44
239.793	76.44
240.027	69.44
240.26	57.44
240.494	79.44
240.728	74.44
240.961	85.44
241.195	84.44
241.429	77.44
241.662	65.44
241.896	81.44
242.13	81.44
242.363	83.44
242.597	75.44
242.83	84.44
243.064	73.44
243.298	93.44
243.531	70.44
243.765	73.44
243.998	81.44
244.232	75.44
244.465	74.44
244.699	79.44
244.932	79.44
245.166	82.44
245.399	74.44
245.633	67.44
245.866	70.44
246.099	64.44
246.333	73.44
246.566	81.44
246.8	70.44
247.033	71.44
247.266	81.44
247.5	84.44
247.733	89.44
247.966	74.44
248.2	80.44
248.433	78.44
248.666	91.44
248.899	81.44
249.133	95.44
249.366	97.44
249.599	97.44
249.832	92.44
250.066	86.44
250.299	97.44
250.532	82.44
250.765	81.44
250.998	87.44
251.231	81.44
251.465	71.44
251.698	79.44
251.931	81.44
252.164	86.44
252.397	94.44
252.63	81.44
252.863	82.44
253.096	85.44
253.329	79.44
253.562	77.44
253.795	87.44
254.028	69.44
254.261	83.44
254.494	87.44
254.727	89.44
254.96	67.44
255.193	88.44
255.426	87.44
255.659	71.44
255.892	79.44
256.124	78.44
256.357	63.44
256.59	89.44
256.823	79.44
257.056	97.44
257.289	76.44
257.521	71.44
257.754	78.44
257.987	71.44
258.22	80.44
258.452	81.44
258.685	77.44
258.918	83.44
259.151	94.44
259.383	71.44
259.616	77.44
259.849	87.44
260.081	83.44
260.314	80.44
260.547	78.44
260.779	87.44
261.012	77.44
261.244	63.44
261.477	66.44
261.71	78.44
261.942	88.44
262.175	95.44
262.407	93.44
262.64	81.44
262.872	87.44
263.105	73.44
263.337	93.44
263.57	85.44
263.802	85.44
264.035	92.44
264.267	94.44
264.499	77.44
264.732	94.44
264.964	80.44
265.197	76.44
265.429	66.44
265.661	90.44
265.894	73.44
266.126	85.44
266.358	93.44
266.591	73.44
266.823	79.44
267.055	79.44
267.287	79.44
267.52	79.44
267.752	81.44
267.984	85.44
268.216	68.44
268.448	75.44
268.681	86.44
268.913	97.44
269.145	88.44
269.377	79.44
269.609	85.44
269.841	80.44
270.073	73.44
270.306	75.44
270.538	79.44
270.77	85.44
271.002	71.44
271.234	91.44
271.466	75.44
271.698	82.44
271.93	84.44
272.162	89.44
272.394	90.44
272.626	98.44
272.858	84.44
273.09	86.44
273.322	81.44
273.553	85.44
273.785	82.44
274.017	84.44
274.249	84.44
274.481	77.44
274.713	74.44
274.945	84.44
275.176	85.44
275.408	94.44
275.64	83.44
275.872	100.44
276.104	85.44
276.335	99.44
276.567	101.44
276.799	102.44
277.031	102.44
277.262	97.44
277.494	91.44
277.726	76.44
277.957	84.44
278.189	90.44
278.421	85.44
278.652	73.44
278.884	87.44
279.115	79.44
279.347	81.44
279.579	88.44
279.81	71.44
280.042	87.44
280.273	91.44
280.505	82.44
280.736	96.44
280.968	85.44
281.199	87.44
281.431	88.44
281.662	67.44
281.894	95.44
282.125	85.44
282.356	114.44
282.588	145.44
282.819	108.44
283.051	88.44
283.282	86.44
283.513	92.44
283.745	89.44
283.976	81.44
284.207	94.44
284.439	86.44
284.67	80.44
284.901	91.44
285.132	85.44
285.364	86.44
285.595	76.44
285.826	82.44
286.057	89.44
286.288	100.44
286.52	85.44
286.751	78.44
286.982	83.44
287.213	76.44
287.444	96.44
287.675	93.44
287.906	96.44
288.138	84.44
288.369	84.44
288.6	90.44
288.831	74.44
289.062	80.44
289.293	90.44
289.524	78.44
289.755	86.44
289.986	96.44
290.217	83.44
290.448	81.44
290.679	78.44
290.91	89.44
291.141	74.44
291.371	91.44
291.602	96.44
291.833	94.44
292.064	89.44
292.295	82.44
292.526	91.44
292.757	74.44
292.987	85.44
293.218	91.44
293.449	94.44
293.68	88.44
293.91	79.44
294.141	77.44
294.372	87.44
294.603	84.44
294.833	99.44
295.064	94.44
295.295	81.44
295.525	77.44
295.756	71.44
295.987	105.44
296.217	124.44
296.448	111.44
296.679	94.44
296.909	80.44
297.14	77.44
297.37	88.44
297.601	95.44
297.831	95.44
298.062	92.44
298.292	73.44
298.523	95.44
298.753	76.44
298.984	93.44
299.214	93.44
299.445	96.44
299.675	77.44
299.905	78.44
300.136	87.44
300.366	86.44
300.597	98.44
300.827	93.44
301.057	89.44
301.288	90.44
301.518	101.44
301.748	89.44
301.979	95.44
302.209	91.44
302.439	88.44
302.669	79.44
302.9	85.44
303.13	92.44
303.36	79.44
303.59	87.44
303.82	91.44
304.051	80.44
304.281	82.44
304.511	104.44
304.741	93.44
304.971	96.44
305.201	92.44
305.431	82.44
305.661	88.44
305.891	81.44
306.121	84.44
306.352	95.44
306.582	93.44
306.812	90.44
307.042	89.44
307.272	102.44
307.502	91.44
307.731	92.44
307.961	89.44
308.191	76.44
308.421	100.44
308.651	93.44
308.881	99.44
309.111	88.44
309.341	94.44
309.571	89.44
309.8	97.44
310.03	103.44
310.26	95.44
310.49	85.44
310.72	86.44
310.949	104.44
311.179	98.44
311.409	78.44
311.639	95.44
311.868	94.44
312.098	78.44
312.328	88.44
312.557	106.44
312.787	105.44
313.017	102.44
313.246	104.44
313.476	83.44
313.706	98.44
313.935	88.44
314.165	95.44
314.394	82.44
314.624	97.44
314.853	95.44
315.083	88.44
315.312	98.44
315.542	91.44
315.771	91.44
316.001	82.44
316.23	92.44
316.46	78.44
316.689	83.44
316.919	105.44
317.148	89.44
317.377	86.44
317.607	84.44
317.836	81.44
318.065	98.44
318.295	94.44
318.524	83.44
318.753	100.44
318.983	89.44
319.212	89.44
319.441	98.44
319.67	104.44
319.9	92.44
320.129	96.44
320.358	87.44
320.587	81.44
320.816	89.44
321.046	92.44
321.275	87.44
321.504	92.44
321.733	91.44
321.962	99.44
322.191	97.44
322.42	108.44
322.649	101.44
322.878	97.44
323.108	117.44
323.337	114.44
323.566	115.44
323.795	134.44
324.024	192.44
324.253	359.44
324.482	737.44
324.71	1463.44
324.939	1917.44
325.168	712.44
325.397	228.44
325.626	143.44
325.855	134.44
326.084	112.44
326.313	121.44
326.542	154.44
326.77	232.44
326.999	423.44
327.228	823.44
327.457	1459.44
327.686	1160.44
327.914	326.44
328.143	168.44
328.372	141.44
328.6	114.44
328.829	111.44
329.058	105.44
329.287	121.44
329.515	98.44
329.744	112.44
329.972	101.44
330.201	94.44
330.43	112.44
330.658	91.44
330.887	134.44
331.115	105.44
331.344	86.44
331.572	92.44
331.801	78.44
332.03	105.44
332.258	89.44
332.486	93.44
332.715	95.44
332.943	102.44
333.172	92.44
333.4	89.44
333.629	109.44
333.857	109.44
334.085	103.44
334.314	99.44
334.542	98.44
334.771	108.44
334.999	98.44
335.227	98.44
335.455	81.44
335.684	108.44
335.912	84.44
336.14	85.44
336.369	82.44
336.597	92.44
336.825	101.44
337.053	95.44
337.281	87.44
337.51	78.44
337.738	96.44
337.966	94.44
338.194	91.44
338.422	112.44
338.65	110.44
338.878	103.44
339.106	87.44
339.334	79.44
339.562	84.44
339.79	87.44
340.018	84.44
340.246	91.44
340.474	85.44
340.702	93.44
340.93	87.44
341.158	86.44
341.386	86.44
341.614	88.44
341.842	102.44
342.07	92.44
342.298	101.44
342.526	92.44
342.754	83.44
342.981	92.44
343.209	90.44
343.437	79.44
343.665	87.44
343.893	86.44
344.12	89.44
344.348	87.44
344.576	95.44
344.804	102.44
345.031	87.44
345.259	88.44
345.487	91.44
345.714	88.44
345.942	79.44
346.17	93.44
346.397	84.44
346.625	91.44
346.853	95.44
347.08	80.44
347.308	93.44
347.535	97.44
347.763	89.44
347.99	98.44
348.218	94.44
348.445	99.44
348.673	93.44
348.9	99.44
349.128	82.44
349.355	94.44
349.583	101.44
349.81	95.44
350.037	95.44
350.265	99.44
350.492	95.44
350.72	110.44
350.947	98.44
351.174	86.44
351.402	94.44
351.629	110.44
351.856	110.44
352.083	93.44
352.311	108.44
352.538	92.44
352.765	109.44
352.992	104.44
353.22	111.44
353.447	103.44
353.674	94.44
353.901	93.44
354.128	83.44
354.355	83.44
354.583	89.44
354.81	102.44
355.037	98.44
355.264	89.44
355.491	80.44
355.718	90.44
355.945	89.44
356.172	96.44
356.399	94.44
356.626	89.44
356.853	86.44
357.08	98.44
357.307	103.44
357.534	83.44
357.761	89.44
357.988	97.44
358.215	85.44
358.441	99.44
358.668	103.44
358.895	86.44
359.122	106.44
359.349	78.44
359.576	85.44
359.802	98.44
360.029	99.44
360.256	93.44
360.483	106.44
360.709	90.44
360.936	100.44
361.163	84.44
361.39	103.44
361.616	97.44
361.843	96.44
362.07	91.44
362.296	71.44
362.523	81.44
362.749	103.44
362.976	99.44
363.203	81.44
363.429	98.44
363.656	82.44
363.882	90.44
364.109	89.44
364.335	98.44
364.562	93.44
364.788	105.44
365.015	87.44
365.241	109.44
365.468	94.44
365.694	100.44
365.92	103.44
366.147	78.44
366.373	81.44
366.599	86.44
366.826	94.44
367.052	76.44
367.278	82.44
367.505	95.44
367.731	95.44
367.957	88.44
368.184	79.44
368.41	99.44
368.636	104.44
368.862	111.44
369.089	87.44
369.315	73.44
369.541	93.44
369.767	84.44
369.993	100.44
370.219	100.44
370.445	86.44
370.672	79.44
370.898	89.44
371.124	74.44
371.35	97.44
371.576	89.44
371.802	90.44
372.028	76.44
372.254	82.44
372.48	84.44
372.706	87.44
372.932	92.44
373.158	81.44
373.384	103.44
373.61	98.44
373.835	81.44
374.061	82.44
374.287	85.44
374.513	85.44
374.739	85.44
374.965	101.44
375.191	85.44
375.416	85.44
375.642	103.44
375.868	95.44
376.094	76.44
376.319	84.44
376.545	90.44
376.771	88.44
376.997	103.44
377.222	93.44
377.448	89.44
377.674	93.44
377.899	97.44
378.125	73.44
378.35	89.44
378.576	98.44
378.802	81.44
379.027	94.44
379.253	93.44
379.478	90.44
379.704	97.44
379.929	86.44
380.155	95.44
380.38	100.44
380.606	88.44
380.831	98.44
381.057	95.44
381.282	101.44
381.507	91.44
381.733	89.44
381.958	98.44
382.184	102.44
382.409	90.44
382.634	92.44
382.86	103.44
383.085	96.44
383.31	93.44
383.535	98.44
383.761	105.44
383.986	98.44
384.211	81.44
384.436	85.44
384.662	80.44
384.887	98.44
385.112	99.44
385.337	93.44
385.562	102.44
385.787	105.44
386.013	101.44
386.238	113.44
386.463	103.44
386.688	111.44
386.913	94.44
387.138	80.44
387.363	98.44
387.588	103.44
387.813	107.44
388.038	99.44
388.263	104.44
388.488	99.44
388.713	100.44
388.938	94.44
389.163	90.44
389.387	95.44
389.612	96.44
389.837	84.44
390.062	93.44
390.287	111.44
390.512	101.44
390.736	90.44
390.961	99.44
391.186	89.44
391.411	93.44
391.636	93.44
391.86	85.44
392.085	79.44
392.31	93.44
392.534	93.44
392.759	82.44
392.984	87.44
393.208	81.44
393.433	94.44
393.658	87.44
393.882	80.44
394.107	93.44
394.331	98.44
394.556	84.44
394.78	90.44
395.005	79.44
395.229	79.44
395.454	77.44
395.678	84.44
395.903	86.44
396.127	97.44
396.352	97.44
396.576	108.44
396.801	88.44
397.025	90.44
397.249	77.44
397.474	82.44
397.698	90.44
397.922	98.44
398.147	90.44
398.371	96.44
398.595	93.44
398.82	95.44
399.044	78.44
399.268	98.44
399.492	86.44
399.717	91.44
399.941	89.44
400.165	93.44
400.389	101.44
400.613	83.44
400.837	88.44
401.062	85.44
401.286	85.44
401.51	78.44
401.734	85.44
401.958	111.44
402.182	109.44
402.406	164.44
402.63	112.44
402.854	94.44
403.078	99.44
403.302	81.44
403.526	96.44
403.75	94.44
403.974	80.44
404.198	86.44
404.422	89.44
404.645	82.44
404.869	73.44
405.093	83.44
405.317	94.44
405.541	91.44
405.765	102.44
405.988	112.44
406.212	151.44
406.436	199.44
406.66	134.44
406.883	86.44
407.107	90.44
407.331	90.44
407.555	90.44
407.778	106.44
408.002	83.44
408.226	88.44
408.449	87.44
408.673	84.44
408.896	73.44
409.12	87.44
409.344	86.44
409.567	90.44
409.791	88.44
410.014	103.44
410.238	81.44
410.461	87.44
410.685	94.44
410.908	95.44
411.132	86.44
411.355	100.44
411.578	87.44
411.802	94.44
412.025	80.44
412.249	91.44
412.472	90.44
412.695	101.44
412.919	88.44
413.142	77.44
413.365	87.44
413.589	81.44
413.812	102.44
414.035	96.44
414.258	77.44
414.482	79.44
414.705	88.44
414.928	89.44
415.151	96.44
415.374	95.44
415.597	95.44
415.821	86.44
416.044	98.44
416.267	87.44
416.49	88.44
416.713	79.44
416.936	105.44
417.159	86.44
417.382	97.44
417.605	89.44
417.828	92.44
418.051	99.44
418.274	98.44
418.497	80.44
418.72	92.44
418.943	105.44
419.166	106.44
419.389	76.44
419.611	95.44
419.834	88.44
420.057	80.44
420.28	91.44
420.503	85.44
420.726	98.44
420.948	88.44
421.171	93.44
421.394	103.44
421.617	93.44
421.839	81.44
422.062	89.44
422.285	84.44
422.507	90.44
422.73	116.44
422.953	105.44
423.175	94.44
423.398	94.44
423.621	76.44
423.843	81.44
424.066	79.44
424.288	79.44
424.511	98.44
424.733	105.44
424.956	103.44
425.178	92.44
425.401	98.44
425.623	120.44
425.846	93.44
426.068	106.44
426.291	93.44
426.513	87.44
426.735	109.44
426.958	106.44
427.18	113.44
427.402	135.44
427.625	152.44
427.847	107.44
428.069	105.44
428.292	94.44
428.514	86.44
428.736	85.44
428.958	84.44
429.181	94.44
429.403	80.44
429.625	101.44
429.847	83.44
430.069	107.44
430.292	76.44
430.514	89.44
430.736	89.44
430.958	87.44
431.18	79.44
431.402	80.44
431.624	93.44
431.846	85.44
432.068	92.44
432.29	96.44
432.512	97.44
432.734	82.44
432.956	86.44
433.178	80.44
433.4	101.44
433.622	90.44
433.844	80.44
434.066	93.44
434.287	88.44
434.509	104.44
434.731	89.44
434.953	70.44
435.175	92.44
435.397	94.44
435.618	80.44
435.84	103.44
436.062	114.44
436.284	86.44
436.505	95.44
436.727	105.44
436.949	102.44
437.17	79.44
437.392	77.44
437.614	99.44
437.835	105.44
438.057	116.44
438.278	119.44
438.5	122.44
438.721	115.44
438.943	110.44
439.165	97.44
439.386	95.44
439.608	98.44
439.829	102.44
440.05	119.44
440.272	113.44
440.493	100.44
440.715	93.44
440.936	97.44
441.158	92.44
441.379	86.44
441.6	97.44
441.822	101.44
442.043	93.44
442.264	110.44
442.486	105.44
442.707	96.44
442.928	101.44
443.149	130.44
443.371	125.44
443.592	109.44
443.813	95.44
444.034	103.44
444.255	90.44
444.476	96.44
444.698	91.44
444.919	86.44
445.14	133.44
445.361	117.44
445.582	115.44
445.803	112.44
446.024	136.44
446.245	124.44
446.466	104.44
446.687	85.44
446.908	77.44
447.129	92.44
447.35	95.44
447.571	105.44
447.792	81.44
448.013	106.44
448.234	109.44
448.455	90.44
448.675	133.44
448.896	125.44
449.117	94.44
449.338	94.44
449.559	106.44
449.779	134.44
450	79.44
450.221	92.44
450.442	93.44
450.662	93.44
450.883	99.44
451.104	103.44
451.324	87.44
451.545	81.44
451.766	71.44
451.986	106.44
452.207	89.44
452.428	88.44
452.648	108.44
452.869	107.44
453.089	112.44
453.31	109.44
453.53	95.44
453.751	96.44
453.971	91.44
454.192	99.44
454.412	84.44
454.633	90.44
454.853	86.44
455.073	87.44
455.294	92.44
455.514	101.44
455.734	74.44
455.955	91.44
456.175	92.44
456.395	88.44
456.616	92.44
456.836	87.44
457.056	90.44
457.276	80.44
457.497	98.44
457.717	74.44
457.937	85.44
458.157	80.44
458.377	81.44
458.598	107.44
458.818	135.44
459.038	146.44
459.258	97.44
459.478	96.44
459.698	94.44
459.918	80.44
460.138	83.44
460.358	100.44
460.578	97.44
460.798	91.44
461.018	83.44
461.238	77.44
461.458	85.44
461.678	88.44
461.898	99.44
462.118	73.44
462.338	83.44
462.558	88.44
462.777	83.44
462.997	75.44
463.217	78.44
463.437	83.44
463.657	87.44
463.876	102.44
464.096	81.44
464.316	77.44
464.536	90.44
464.755	85.44
464.975	98.44
465.195	139.44
465.414	130.44
465.634	88.44
465.854	99.44
466.073	87.44
466.293	86.44
466.512	92.44
466.732	93.44
466.951	81.44
467.171	95.44
467.391	93.44
467.61	104.44
467.829	96.44
468.049	95.44
468.268	82.44
468.488	81.44
468.707	89.44
468.927	87.44
469.146	99.44
469.365	88.44
469.585	85.44
469.804	95.44
470.023	98.44
470.243	87.44
470.462	87.44
470.681	111.44
470.901	91.44
471.12	86.44
471.339	80.44
471.558	78.44
471.777	87.44
471.997	94.44
472.216	88.44
472.435	100.44
472.654	87.44
472.873	96.44
473.092	88.44
473.311	79.44
473.53	88.44
473.749	73.44
473.968	93.44
474.187	109.44
474.406	96.44
474.625	83.44
474.844	78.44
475.063	80.44
475.282	94.44
475.501	93.44
475.72	98.44
475.939	93.44
476.158	73.44
476.377	79.44
476.596	87.44
476.814	93.44
477.033	105.44
477.252	89.44
477.471	89.44
477.69	95.44
477.908	90.44
478.127	90.44
478.346	82.44
478.564	94.44
478.783	99.44
479.002	94.44
479.22	86.44
479.439	96.44
479.658	91.44
479.876	72.44
480.095	76.44
480.313	85.44
480.532	81.44
480.751	95.44
480.969	83.44
481.188	109.44
481.406	105.44
481.624	94.44
481.843	81.44
482.061	88.44
482.28	106.44
482.498	90.44
482.717	95.44
482.935	84.44
483.153	103.44
483.372	94.44
483.59	93.44
483.808	92.44
484.027	89.44
484.245	89.44
484.463	101.44
484.681	100.44
484.9	97.44
485.118	87.44
485.336	88.44
485.554	97.44
485.772	97.44
485.99	93.44
486.209	97.44
486.427	90.44
486.645	111.44
486.863	103.44
487.081	93.44
487.299	98.44
487.517	99.44
487.735	92.44
487.953	105.44
488.171	93.44
488.389	98.44
488.607	95.44
488.825	102.44
489.043	87.44
489.261	97.44
489.479	80.44
489.696	99.44
489.914	79.44
490.132	100.44
490.35	86.44
490.568	90.44
490.786	107.44
491.003	83.44
491.221	82.44
491.439	78.44
491.657	91.44
491.874	105.44
492.092	93.44
492.31	91.44
492.527	92.44
492.745	99.44
492.963	94.44
493.18	86.44
493.398	86.44
493.615	94.44
493.833	90.44
494.05	90.44
494.268	91.44
494.485	91.44
494.703	91.44
494.92	87.44
495.138	92.44
495.355	94.44
495.573	80.44
495.79	95.44
496.008	89.44
496.225	80.44
496.442	93.44
496.66	98.44
496.877	83.44
497.094	82.44
497.312	93.44
497.529	108.44
497.746	92.44
497.963	79.44
498.181	91.44
498.398	95.44
498.615	110.44
498.832	94.44
499.049	85.44
499.267	90.44
499.484	90.44
499.701	94.44
499.918	86.44
500.135	94.44
500.352	89.44
500.569	81.44
500.786	93.44
501.003	93.44
501.22	87.44
501.437	102.44
501.654	99.44
501.871	107.44
502.088	98.44
502.305	90.44
502.522	90.44
502.739	74.44
502.956	82.44
503.172	74.44
503.389	102.44
503.606	112.44
503.823	91.44
504.04	96.44
504.256	82.44
504.473	93.44
504.69	91.44
504.907	98.44
505.123	97.44
505.34	91.44
505.557	92.44
505.773	93.44
505.99	102.44
506.207	86.44
506.423	91.44
506.64	96.44
506.856	82.44
507.073	89.44
507.289	94.44
507.506	103.44
507.722	104.44
507.939	108.44
508.155	89.44
508.372	85.44
508.588	94.44
508.805	99.44
509.021	87.44
509.238	112.44
509.454	101.44
509.67	91.44
509.887	97.44
510.103	109.44
510.319	207.44
510.536	707.44
510.752	2056.44
510.968	578.44
511.184	135.44
511.401	112.44
511.617	96.44
511.833	88.44
512.049	86.44
512.265	82.44
512.481	85.44
512.698	83.44
512.914	114.44
513.13	86.44
513.346	89.44
513.562	84.44
513.778	87.44
513.994	83.44
514.21	102.44
514.426	105.44
514.642	125.44
514.858	112.44
515.074	153.44
515.29	390.44
515.506	1242.44
515.721	463.44
515.937	139.44
516.153	111.44
516.369	80.44
