Data from Uncirc_1998_H10_HRD10591_00051.txt Node
Date: Wed Jan 03 11:25:35 EST 2024
User: Yrep
Spectrometer: HR+D1059
Trigger mode: 1
Integration Time (sec): 1.000000E-1
Scans to average: 1
Electric dark correction enabled: true
Nonlinearity correction enabled: false
Boxcar width: 0
XAxis mode: Wavelengths
Number of Pixels in Spectrum: 2048
>>>>>Begin Spectral Data<<<<<
223.165	-24.88
223.4	-24.88
223.635	-24.88
223.869	-24.88
224.104	-18.88
224.338	-13.88
224.573	-2.88
224.808	-16.88
225.042	-12.88
225.277	-12.88
225.511	17.12
225.746	8.12
225.98	8.12
226.215	11.12
226.449	10.12
226.683	26.12
226.918	20.12
227.152	27.12
227.387	26.12
227.621	32.12
227.856	48.12
228.09	52.12
228.324	51.12
228.559	47.12
228.793	59.12
229.027	60.12
229.262	66.12
229.496	63.12
229.73	75.12
229.964	94.12
230.199	73.12
230.433	70.12
230.667	64.12
230.901	76.12
231.136	76.12
231.37	81.12
231.604	90.12
231.838	75.12
232.072	82.12
232.306	87.12
232.541	88.12
232.775	81.12
233.009	78.12
233.243	66.12
233.477	91.12
233.711	83.12
233.945	91.12
234.179	86.12
234.413	95.12
234.647	77.12
234.881	83.12
235.115	90.12
235.349	65.12
235.583	83.12
235.817	89.12
236.051	89.12
236.285	81.12
236.519	77.12
236.753	81.12
236.987	82.12
237.221	76.12
237.455	100.12
237.689	75.12
237.922	74.12
238.156	91.12
238.39	82.12
238.624	67.12
238.858	60.12
239.091	77.12
239.325	83.12
239.559	78.12
239.793	83.12
240.027	88.12
240.26	79.12
240.494	79.12
240.728	80.12
240.961	75.12
241.195	81.12
241.429	81.12
241.662	77.12
241.896	88.12
242.13	78.12
242.363	78.12
242.597	90.12
242.83	73.12
243.064	86.12
243.298	74.12
243.531	80.12
243.765	78.12
243.998	80.12
244.232	88.12
244.465	71.12
244.699	71.12
244.932	79.12
245.166	82.12
245.399	75.12
245.633	80.12
245.866	83.12
246.099	82.12
246.333	82.12
246.566	82.12
246.8	75.12
247.033	80.12
247.266	73.12
247.5	77.12
247.733	74.12
247.966	86.12
248.2	87.12
248.433	78.12
248.666	88.12
248.899	90.12
249.133	89.12
249.366	90.12
249.599	82.12
249.832	90.12
250.066	86.12
250.299	73.12
250.532	89.12
250.765	73.12
250.998	89.12
251.231	79.12
251.465	86.12
251.698	76.12
251.931	69.12
252.164	84.12
252.397	83.12
252.63	86.12
252.863	85.12
253.096	81.12
253.329	85.12
253.562	75.12
253.795	81.12
254.028	77.12
254.261	89.12
254.494	102.12
254.727	90.12
254.96	80.12
255.193	85.12
255.426	82.12
255.659	78.12
255.892	75.12
256.124	86.12
256.357	73.12
256.59	89.12
256.823	76.12
257.056	79.12
257.289	76.12
257.521	70.12
257.754	74.12
257.987	72.12
258.22	83.12
258.452	81.12
258.685	70.12
258.918	79.12
259.151	76.12
259.383	90.12
259.616	82.12
259.849	92.12
260.081	94.12
260.314	83.12
260.547	87.12
260.779	86.12
261.012	82.12
261.244	78.12
261.477	88.12
261.71	94.12
261.942	119.12
262.175	103.12
262.407	79.12
262.64	92.12
262.872	85.12
263.105	80.12
263.337	86.12
263.57	80.12
263.802	79.12
264.035	82.12
264.267	88.12
264.499	89.12
264.732	79.12
264.964	87.12
265.197	77.12
265.429	80.12
265.661	84.12
265.894	82.12
266.126	76.12
266.358	90.12
266.591	78.12
266.823	105.12
267.055	83.12
267.287	70.12
267.52	90.12
267.752	90.12
267.984	83.12
268.216	80.12
268.448	91.12
268.681	95.12
268.913	78.12
269.145	84.12
269.377	75.12
269.609	88.12
269.841	96.12
270.073	76.12
270.306	91.12
270.538	82.12
270.77	87.12
271.002	90.12
271.234	93.12
271.466	86.12
271.698	65.12
271.93	89.12
272.162	93.12
272.394	88.12
272.626	96.12
272.858	95.12
273.09	90.12
273.322	76.12
273.553	89.12
273.785	62.12
274.017	78.12
274.249	93.12
274.481	85.12
274.713	82.12
274.945	93.12
275.176	81.12
275.408	90.12
275.64	78.12
275.872	75.12
276.104	80.12
276.335	91.12
276.567	108.12
276.799	102.12
277.031	90.12
277.262	87.12
277.494	80.12
277.726	77.12
277.957	92.12
278.189	92.12
278.421	82.12
278.652	84.12
278.884	72.12
279.115	85.12
279.347	84.12
279.579	92.12
279.81	89.12
280.042	71.12
280.273	89.12
280.505	82.12
280.736	98.12
280.968	89.12
281.199	83.12
281.431	95.12
281.662	78.12
281.894	83.12
282.125	84.12
282.356	111.12
282.588	126.12
282.819	106.12
283.051	83.12
283.282	80.12
283.513	84.12
283.745	77.12
283.976	82.12
284.207	98.12
284.439	90.12
284.67	80.12
284.901	86.12
285.132	84.12
285.364	67.12
285.595	88.12
285.826	91.12
286.057	94.12
286.288	95.12
286.52	80.12
286.751	80.12
286.982	82.12
287.213	89.12
287.444	85.12
287.675	83.12
287.906	74.12
288.138	84.12
288.369	87.12
288.6	91.12
288.831	100.12
289.062	88.12
289.293	93.12
289.524	87.12
289.755	83.12
289.986	86.12
290.217	89.12
290.448	80.12
290.679	94.12
290.91	93.12
291.141	88.12
291.371	89.12
291.602	104.12
291.833	88.12
292.064	92.12
292.295	104.12
292.526	89.12
292.757	87.12
292.987	96.12
293.218	92.12
293.449	90.12
293.68	91.12
293.91	85.12
294.141	82.12
294.372	96.12
294.603	97.12
294.833	88.12
295.064	80.12
295.295	88.12
295.525	90.12
295.756	90.12
295.987	105.12
296.217	127.12
296.448	120.12
296.679	103.12
296.909	81.12
297.14	79.12
297.37	96.12
297.601	96.12
297.831	86.12
298.062	70.12
298.292	86.12
298.523	93.12
298.753	80.12
298.984	92.12
299.214	91.12
299.445	91.12
299.675	78.12
299.905	94.12
300.136	94.12
300.366	89.12
300.597	99.12
300.827	91.12
301.057	94.12
301.288	95.12
301.518	95.12
301.748	81.12
301.979	104.12
302.209	95.12
302.439	75.12
302.669	89.12
302.9	83.12
303.13	78.12
303.36	91.12
303.59	95.12
303.82	110.12
304.051	96.12
304.281	85.12
304.511	93.12
304.741	95.12
304.971	79.12
305.201	78.12
305.431	94.12
305.661	92.12
305.891	99.12
306.121	89.12
306.352	98.12
306.582	103.12
306.812	92.12
307.042	102.12
307.272	83.12
307.502	81.12
307.731	95.12
307.961	83.12
308.191	73.12
308.421	83.12
308.651	90.12
308.881	96.12
309.111	81.12
309.341	98.12
309.571	85.12
309.8	105.12
310.03	94.12
310.26	85.12
310.49	97.12
310.72	88.12
310.949	86.12
311.179	90.12
311.409	98.12
311.639	86.12
311.868	80.12
312.098	98.12
312.328	97.12
312.557	107.12
312.787	86.12
313.017	97.12
313.246	107.12
313.476	94.12
313.706	96.12
313.935	96.12
314.165	91.12
314.394	89.12
314.624	91.12
314.853	109.12
315.083	108.12
315.312	88.12
315.542	94.12
315.771	89.12
316.001	89.12
316.23	97.12
316.46	82.12
316.689	91.12
316.919	93.12
317.148	91.12
317.377	92.12
317.607	97.12
317.836	95.12
318.065	91.12
318.295	91.12
318.524	62.12
318.753	103.12
318.983	84.12
319.212	102.12
319.441	103.12
319.67	97.12
319.9	76.12
320.129	99.12
320.358	86.12
320.587	98.12
320.816	97.12
321.046	94.12
321.275	93.12
321.504	90.12
321.733	94.12
321.962	90.12
322.191	80.12
322.42	93.12
322.649	105.12
322.878	110.12
323.108	94.12
323.337	119.12
323.566	134.12
323.795	147.12
324.024	192.12
324.253	332.12
324.482	676.12
324.71	1394.12
324.939	1810.12
325.168	688.12
325.397	219.12
325.626	154.12
325.855	118.12
326.084	100.12
326.313	91.12
326.542	140.12
326.77	202.12
326.999	417.12
327.228	818.12
327.457	1471.12
327.686	1174.12
327.914	332.12
328.143	187.12
328.372	140.12
328.6	108.12
328.829	118.12
329.058	118.12
329.287	125.12
329.515	99.12
329.744	91.12
329.972	104.12
330.201	112.12
330.43	114.12
330.658	113.12
330.887	126.12
331.115	108.12
331.344	108.12
331.572	97.12
331.801	96.12
332.03	95.12
332.258	104.12
332.486	93.12
332.715	79.12
332.943	98.12
333.172	102.12
333.4	91.12
333.629	101.12
333.857	98.12
334.085	107.12
334.314	95.12
334.542	111.12
334.771	84.12
334.999	92.12
335.227	84.12
335.455	90.12
335.684	92.12
335.912	88.12
336.14	101.12
336.369	99.12
336.597	104.12
336.825	102.12
337.053	93.12
337.281	96.12
337.51	92.12
337.738	107.12
337.966	95.12
338.194	84.12
338.422	99.12
338.65	108.12
338.878	84.12
339.106	80.12
339.334	83.12
339.562	81.12
339.79	75.12
340.018	82.12
340.246	85.12
340.474	97.12
340.702	86.12
340.93	86.12
341.158	93.12
341.386	96.12
341.614	101.12
341.842	94.12
342.07	100.12
342.298	81.12
342.526	88.12
342.754	94.12
342.981	95.12
343.209	99.12
343.437	108.12
343.665	83.12
343.893	99.12
344.12	95.12
344.348	96.12
344.576	100.12
344.804	89.12
345.031	90.12
345.259	76.12
345.487	90.12
345.714	80.12
345.942	94.12
346.17	107.12
346.397	88.12
346.625	99.12
346.853	105.12
347.08	87.12
347.308	81.12
347.535	92.12
347.763	96.12
347.99	93.12
348.218	100.12
348.445	104.12
348.673	116.12
348.9	90.12
349.128	92.12
349.355	95.12
349.583	102.12
349.81	99.12
350.037	99.12
350.265	83.12
350.492	89.12
350.72	106.12
350.947	98.12
351.174	122.12
351.402	107.12
351.629	96.12
351.856	102.12
352.083	97.12
352.311	112.12
352.538	87.12
352.765	130.12
352.992	103.12
353.22	99.12
353.447	92.12
353.674	103.12
353.901	96.12
354.128	90.12
354.355	89.12
354.583	93.12
354.81	94.12
355.037	103.12
355.264	91.12
355.491	78.12
355.718	99.12
355.945	101.12
356.172	102.12
356.399	83.12
356.626	100.12
356.853	80.12
357.08	80.12
357.307	96.12
357.534	96.12
357.761	107.12
357.988	96.12
358.215	91.12
358.441	104.12
358.668	95.12
358.895	98.12
359.122	90.12
359.349	94.12
359.576	102.12
359.802	111.12
360.029	107.12
360.256	111.12
360.483	74.12
360.709	80.12
360.936	71.12
361.163	80.12
361.39	99.12
361.616	96.12
361.843	90.12
362.07	81.12
362.296	93.12
362.523	98.12
362.749	96.12
362.976	86.12
363.203	96.12
363.429	106.12
363.656	83.12
363.882	87.12
364.109	91.12
364.335	97.12
364.562	98.12
364.788	99.12
365.015	84.12
365.241	96.12
365.468	111.12
365.694	106.12
365.92	100.12
366.147	91.12
366.373	94.12
366.599	97.12
366.826	98.12
367.052	105.12
367.278	89.12
367.505	90.12
367.731	84.12
367.957	90.12
368.184	91.12
368.41	106.12
368.636	110.12
368.862	115.12
369.089	92.12
369.315	81.12
369.541	102.12
369.767	92.12
369.993	85.12
370.219	84.12
370.445	98.12
370.672	97.12
370.898	102.12
371.124	90.12
371.35	86.12
371.576	94.12
371.802	82.12
372.028	71.12
372.254	105.12
372.48	91.12
372.706	90.12
372.932	95.12
373.158	96.12
373.384	97.12
373.61	87.12
373.835	96.12
374.061	91.12
374.287	100.12
374.513	94.12
374.739	102.12
374.965	97.12
375.191	90.12
375.416	89.12
375.642	92.12
375.868	86.12
376.094	75.12
376.319	94.12
376.545	98.12
376.771	84.12
376.997	94.12
377.222	100.12
377.448	89.12
377.674	99.12
377.899	100.12
378.125	96.12
378.35	83.12
378.576	84.12
378.802	97.12
379.027	97.12
379.253	90.12
379.478	95.12
379.704	95.12
379.929	83.12
380.155	102.12
380.38	90.12
380.606	89.12
380.831	99.12
381.057	96.12
381.282	82.12
381.507	91.12
381.733	94.12
381.958	98.12
382.184	84.12
382.409	106.12
382.634	97.12
382.86	82.12
383.085	87.12
383.31	98.12
383.535	99.12
383.761	95.12
383.986	103.12
384.211	85.12
384.436	110.12
384.662	112.12
384.887	102.12
385.112	104.12
385.337	114.12
385.562	106.12
385.787	107.12
386.013	100.12
386.238	110.12
386.463	88.12
386.688	101.12
386.913	101.12
387.138	103.12
387.363	103.12
387.588	99.12
387.813	85.12
388.038	106.12
388.263	109.12
388.488	122.12
388.713	90.12
388.938	93.12
389.163	102.12
389.387	99.12
389.612	89.12
389.837	98.12
390.062	97.12
390.287	96.12
390.512	81.12
390.736	99.12
390.961	96.12
391.186	89.12
391.411	79.12
391.636	89.12
391.86	90.12
392.085	91.12
392.31	91.12
392.534	82.12
392.759	77.12
392.984	90.12
393.208	86.12
393.433	91.12
393.658	85.12
393.882	82.12
394.107	78.12
394.331	94.12
394.556	79.12
394.78	91.12
395.005	89.12
395.229	103.12
395.454	79.12
395.678	92.12
395.903	89.12
396.127	89.12
396.352	76.12
396.576	81.12
396.801	90.12
397.025	82.12
397.249	81.12
397.474	82.12
397.698	90.12
397.922	94.12
398.147	86.12
398.371	89.12
398.595	94.12
398.82	91.12
399.044	95.12
399.268	82.12
399.492	103.12
399.717	76.12
399.941	92.12
400.165	88.12
400.389	99.12
400.613	88.12
400.837	87.12
401.062	82.12
401.286	96.12
401.51	94.12
401.734	92.12
401.958	97.12
402.182	128.12
402.406	141.12
402.63	101.12
402.854	82.12
403.078	92.12
403.302	96.12
403.526	90.12
403.75	89.12
403.974	90.12
404.198	82.12
404.422	85.12
404.645	86.12
404.869	88.12
405.093	82.12
405.317	91.12
405.541	98.12
405.765	97.12
405.988	105.12
406.212	158.12
406.436	199.12
406.66	142.12
406.883	104.12
407.107	97.12
407.331	98.12
407.555	88.12
407.778	94.12
408.002	89.12
408.226	95.12
408.449	83.12
408.673	105.12
408.896	97.12
409.12	88.12
409.344	93.12
409.567	92.12
409.791	94.12
410.014	97.12
410.238	84.12
410.461	91.12
410.685	103.12
410.908	115.12
411.132	101.12
411.355	98.12
411.578	102.12
411.802	97.12
412.025	99.12
412.249	79.12
412.472	90.12
412.695	87.12
412.919	90.12
413.142	81.12
413.365	108.12
413.589	85.12
413.812	89.12
414.035	85.12
414.258	93.12
414.482	88.12
414.705	94.12
414.928	97.12
415.151	95.12
415.374	106.12
415.597	91.12
415.821	75.12
416.044	83.12
416.267	100.12
416.49	82.12
416.713	95.12
416.936	85.12
417.159	85.12
417.382	71.12
417.605	71.12
417.828	95.12
418.051	107.12
418.274	111.12
418.497	94.12
418.72	92.12
418.943	90.12
419.166	75.12
419.389	92.12
419.611	97.12
419.834	106.12
420.057	91.12
420.28	88.12
420.503	89.12
420.726	86.12
420.948	85.12
421.171	107.12
421.394	89.12
421.617	78.12
421.839	89.12
422.062	97.12
422.285	101.12
422.507	104.12
422.73	102.12
422.953	96.12
423.175	74.12
423.398	98.12
423.621	91.12
423.843	89.12
424.066	73.12
424.288	87.12
424.511	102.12
424.733	102.12
424.956	97.12
425.178	93.12
425.401	102.12
425.623	113.12
425.846	88.12
426.068	90.12
426.291	92.12
426.513	95.12
426.735	83.12
426.958	95.12
427.18	123.12
427.402	128.12
427.625	136.12
427.847	126.12
428.069	93.12
428.292	86.12
428.514	96.12
428.736	93.12
428.958	104.12
429.181	98.12
429.403	70.12
429.625	86.12
429.847	99.12
430.069	88.12
430.292	96.12
430.514	80.12
430.736	76.12
430.958	82.12
431.18	81.12
431.402	99.12
431.624	99.12
431.846	82.12
432.068	80.12
432.29	81.12
432.512	87.12
432.734	73.12
432.956	82.12
433.178	98.12
433.4	93.12
433.622	94.12
433.844	84.12
434.066	91.12
434.287	89.12
434.509	99.12
434.731	97.12
434.953	91.12
435.175	77.12
435.397	97.12
435.618	107.12
435.84	107.12
436.062	115.12
436.284	110.12
436.505	96.12
436.727	87.12
436.949	94.12
437.17	92.12
437.392	88.12
437.614	86.12
437.835	93.12
438.057	116.12
438.278	94.12
438.5	100.12
438.721	125.12
438.943	104.12
439.165	103.12
439.386	87.12
439.608	101.12
439.829	98.12
440.05	119.12
440.272	112.12
440.493	103.12
440.715	84.12
440.936	81.12
441.158	87.12
441.379	83.12
441.6	91.12
441.822	92.12
442.043	99.12
442.264	89.12
442.486	110.12
442.707	99.12
442.928	108.12
443.149	134.12
443.371	117.12
443.592	101.12
443.813	114.12
444.034	103.12
444.255	76.12
444.476	94.12
444.698	78.12
444.919	77.12
445.14	120.12
445.361	123.12
445.582	116.12
445.803	118.12
446.024	137.12
446.245	130.12
446.466	107.12
446.687	80.12
446.908	94.12
447.129	92.12
447.35	105.12
447.571	104.12
447.792	102.12
448.013	100.12
448.234	87.12
448.455	106.12
448.675	102.12
448.896	117.12
449.117	92.12
449.338	112.12
449.559	123.12
449.779	127.12
450	105.12
450.221	88.12
450.442	91.12
450.662	98.12
450.883	106.12
451.104	109.12
451.324	97.12
451.545	85.12
451.766	81.12
451.986	65.12
452.207	92.12
452.428	80.12
452.648	83.12
452.869	100.12
453.089	115.12
453.31	98.12
453.53	88.12
453.751	93.12
453.971	97.12
454.192	105.12
454.412	99.12
454.633	94.12
454.853	86.12
455.073	78.12
455.294	93.12
455.514	108.12
455.734	98.12
455.955	92.12
456.175	82.12
456.395	83.12
456.616	82.12
456.836	101.12
457.056	94.12
457.276	89.12
457.497	101.12
457.717	84.12
457.937	107.12
458.157	77.12
458.377	90.12
458.598	104.12
458.818	130.12
459.038	137.12
459.258	113.12
459.478	80.12
459.698	83.12
459.918	67.12
460.138	89.12
460.358	87.12
460.578	99.12
460.798	88.12
461.018	95.12
461.238	94.12
461.458	97.12
461.678	67.12
461.898	99.12
462.118	87.12
462.338	78.12
462.558	87.12
462.777	75.12
462.997	87.12
463.217	87.12
463.437	97.12
463.657	81.12
463.876	91.12
464.096	89.12
464.316	92.12
464.536	84.12
464.755	88.12
464.975	104.12
465.195	140.12
465.414	152.12
465.634	92.12
465.854	90.12
466.073	87.12
466.293	85.12
466.512	88.12
466.732	94.12
466.951	82.12
467.171	80.12
467.391	99.12
467.61	104.12
467.829	78.12
468.049	91.12
468.268	92.12
468.488	89.12
468.707	88.12
468.927	92.12
469.146	76.12
469.365	89.12
469.585	101.12
469.804	102.12
470.023	106.12
470.243	90.12
470.462	107.12
470.681	97.12
470.901	95.12
471.12	80.12
471.339	87.12
471.558	76.12
471.777	100.12
471.997	80.12
472.216	83.12
472.435	94.12
472.654	90.12
472.873	92.12
473.092	87.12
473.311	91.12
473.53	86.12
473.749	80.12
473.968	86.12
474.187	104.12
474.406	99.12
474.625	82.12
474.844	81.12
475.063	78.12
475.282	85.12
475.501	90.12
475.72	80.12
475.939	76.12
476.158	85.12
476.377	96.12
476.596	86.12
476.814	97.12
477.033	88.12
477.252	83.12
477.471	95.12
477.69	79.12
477.908	84.12
478.127	78.12
478.346	79.12
478.564	74.12
478.783	85.12
479.002	83.12
479.22	93.12
479.439	98.12
479.658	92.12
479.876	89.12
480.095	91.12
480.313	81.12
480.532	95.12
480.751	92.12
480.969	87.12
481.188	109.12
481.406	99.12
481.624	100.12
481.843	81.12
482.061	83.12
482.28	80.12
482.498	102.12
482.717	94.12
482.935	95.12
483.153	100.12
483.372	74.12
483.59	78.12
483.808	94.12
484.027	96.12
484.245	93.12
484.463	89.12
484.681	101.12
484.9	108.12
485.118	103.12
485.336	108.12
485.554	105.12
485.772	92.12
485.99	107.12
486.209	102.12
486.427	102.12
486.645	109.12
486.863	106.12
487.081	92.12
487.299	100.12
487.517	99.12
487.735	103.12
487.953	100.12
488.171	96.12
488.389	93.12
488.607	110.12
488.825	88.12
489.043	99.12
489.261	89.12
489.479	86.12
489.696	91.12
489.914	77.12
490.132	80.12
490.35	86.12
490.568	86.12
490.786	88.12
491.003	97.12
491.221	97.12
491.439	97.12
491.657	84.12
491.874	87.12
492.092	94.12
492.31	82.12
492.527	89.12
492.745	115.12
492.963	98.12
493.18	91.12
493.398	94.12
493.615	87.12
493.833	106.12
494.05	92.12
494.268	96.12
494.485	83.12
494.703	90.12
494.92	85.12
495.138	89.12
495.355	82.12
495.573	86.12
495.79	81.12
496.008	93.12
496.225	87.12
496.442	96.12
496.66	98.12
496.877	86.12
497.094	86.12
497.312	88.12
497.529	73.12
497.746	99.12
497.963	94.12
498.181	95.12
498.398	90.12
498.615	85.12
498.832	97.12
499.049	111.12
499.267	108.12
499.484	106.12
499.701	95.12
499.918	91.12
500.135	84.12
500.352	83.12
500.569	101.12
500.786	98.12
501.003	95.12
501.22	93.12
501.437	95.12
501.654	82.12
501.871	99.12
502.088	94.12
502.305	102.12
502.522	83.12
502.739	93.12
502.956	94.12
503.172	98.12
503.389	81.12
503.606	97.12
503.823	83.12
504.04	96.12
504.256	79.12
504.473	88.12
504.69	89.12
504.907	96.12
505.123	96.12
505.34	99.12
505.557	80.12
505.773	97.12
505.99	92.12
506.207	100.12
506.423	87.12
506.64	99.12
506.856	95.12
507.073	88.12
507.289	88.12
507.506	83.12
507.722	106.12
507.939	94.12
508.155	85.12
508.372	88.12
508.588	86.12
508.805	109.12
509.021	81.12
509.238	107.12
509.454	101.12
509.67	94.12
509.887	100.12
510.103	120.12
510.319	193.12
510.536	683.12
510.752	2018.12
510.968	584.12
511.184	147.12
511.401	86.12
511.617	86.12
511.833	92.12
512.049	89.12
512.265	88.12
512.481	81.12
512.698	94.12
512.914	71.12
513.13	94.12
513.346	89.12
513.562	97.12
513.778	104.12
513.994	101.12
514.21	99.12
514.426	119.12
514.642	117.12
514.858	111.12
515.074	158.12
515.29	371.12
515.506	1192.12
515.721	440.12
515.937	146.12
516.153	111.12
