Data from Uncirc_1998_H10_HRD10591_00015.txt Node
Date: Wed Jan 03 11:25:27 EST 2024
User: Yrep
Spectrometer: HR+D1059
Trigger mode: 1
Integration Time (sec): 1.000000E-1
Scans to average: 1
Electric dark correction enabled: true
Nonlinearity correction enabled: false
Boxcar width: 0
XAxis mode: Wavelengths
Number of Pixels in Spectrum: 2048
>>>>>Begin Spectral Data<<<<<
223.165	-27.44
223.4	-27.44
223.635	-27.44
223.869	-26.44
224.104	-26.44
224.338	-8.44
224.573	-21.44
224.808	-5.44
225.042	-2.44
225.277	-10.44
225.511	9.56
225.746	8.56
225.98	-5.44
226.215	13.56
226.449	13.56
226.683	24.56
226.918	30.56
227.152	33.56
227.387	28.56
227.621	43.56
227.856	39.56
228.09	37.56
228.324	53.56
228.559	49.56
228.793	47.56
229.027	73.56
229.262	70.56
229.496	67.56
229.73	90.56
229.964	90.56
230.199	70.56
230.433	68.56
230.667	88.56
230.901	79.56
231.136	65.56
231.37	72.56
231.604	76.56
231.838	82.56
232.072	73.56
232.306	73.56
232.541	76.56
232.775	70.56
233.009	78.56
233.243	64.56
233.477	76.56
233.711	63.56
233.945	65.56
234.179	65.56
234.413	88.56
234.647	68.56
234.881	72.56
235.115	68.56
235.349	66.56
235.583	69.56
235.817	73.56
236.051	70.56
236.285	82.56
236.519	74.56
236.753	74.56
236.987	84.56
237.221	78.56
237.455	57.56
237.689	74.56
237.922	71.56
238.156	60.56
238.39	58.56
238.624	66.56
238.858	68.56
239.091	70.56
239.325	63.56
239.559	78.56
239.793	68.56
240.027	70.56
240.26	63.56
240.494	74.56
240.728	73.56
240.961	69.56
241.195	74.56
241.429	77.56
241.662	85.56
241.896	66.56
242.13	67.56
242.363	71.56
242.597	68.56
242.83	76.56
243.064	66.56
243.298	87.56
243.531	77.56
243.765	67.56
243.998	67.56
244.232	77.56
244.465	76.56
244.699	59.56
244.932	85.56
245.166	83.56
245.399	66.56
245.633	76.56
245.866	77.56
246.099	58.56
246.333	74.56
246.566	83.56
246.8	62.56
247.033	81.56
247.266	74.56
247.5	69.56
247.733	76.56
247.966	71.56
248.2	73.56
248.433	85.56
248.666	63.56
248.899	77.56
249.133	77.56
249.366	88.56
249.599	91.56
249.832	72.56
250.066	69.56
250.299	68.56
250.532	70.56
250.765	83.56
250.998	76.56
251.231	68.56
251.465	81.56
251.698	70.56
251.931	74.56
252.164	79.56
252.397	70.56
252.63	79.56
252.863	73.56
253.096	72.56
253.329	77.56
253.562	82.56
253.795	72.56
254.028	73.56
254.261	79.56
254.494	86.56
254.727	69.56
254.96	77.56
255.193	73.56
255.426	62.56
255.659	89.56
255.892	89.56
256.124	74.56
256.357	85.56
256.59	72.56
256.823	82.56
257.056	87.56
257.289	82.56
257.521	73.56
257.754	81.56
257.987	71.56
258.22	75.56
258.452	72.56
258.685	71.56
258.918	68.56
259.151	74.56
259.383	94.56
259.616	78.56
259.849	80.56
260.081	74.56
260.314	78.56
260.547	68.56
260.779	98.56
261.012	84.56
261.244	77.56
261.477	77.56
261.71	80.56
261.942	100.56
262.175	99.56
262.407	74.56
262.64	69.56
262.872	87.56
263.105	75.56
263.337	92.56
263.57	98.56
263.802	69.56
264.035	87.56
264.267	88.56
264.499	85.56
264.732	86.56
264.964	83.56
265.197	89.56
265.429	75.56
265.661	75.56
265.894	80.56
266.126	82.56
266.358	78.56
266.591	74.56
266.823	76.56
267.055	71.56
267.287	67.56
267.52	71.56
267.752	69.56
267.984	88.56
268.216	84.56
268.448	87.56
268.681	60.56
268.913	71.56
269.145	77.56
269.377	80.56
269.609	75.56
269.841	73.56
270.073	84.56
270.306	90.56
270.538	84.56
270.77	70.56
271.002	79.56
271.234	82.56
271.466	60.56
271.698	93.56
271.93	91.56
272.162	81.56
272.394	83.56
272.626	81.56
272.858	86.56
273.09	77.56
273.322	70.56
273.553	66.56
273.785	98.56
274.017	65.56
274.249	85.56
274.481	78.56
274.713	91.56
274.945	80.56
275.176	76.56
275.408	90.56
275.64	74.56
275.872	91.56
276.104	69.56
276.335	94.56
276.567	87.56
276.799	99.56
277.031	85.56
277.262	81.56
277.494	86.56
277.726	101.56
277.957	88.56
278.189	86.56
278.421	84.56
278.652	76.56
278.884	74.56
279.115	75.56
279.347	89.56
279.579	87.56
279.81	68.56
280.042	79.56
280.273	77.56
280.505	79.56
280.736	83.56
280.968	87.56
281.199	84.56
281.431	67.56
281.662	89.56
281.894	101.56
282.125	95.56
282.356	94.56
282.588	105.56
282.819	93.56
283.051	76.56
283.282	82.56
283.513	78.56
283.745	94.56
283.976	101.56
284.207	77.56
284.439	89.56
284.67	82.56
284.901	76.56
285.132	88.56
285.364	79.56
285.595	81.56
285.826	78.56
286.057	88.56
286.288	71.56
286.52	88.56
286.751	77.56
286.982	69.56
287.213	90.56
287.444	77.56
287.675	77.56
287.906	82.56
288.138	82.56
288.369	83.56
288.6	81.56
288.831	82.56
289.062	86.56
289.293	96.56
289.524	85.56
289.755	81.56
289.986	91.56
290.217	84.56
290.448	64.56
290.679	98.56
290.91	79.56
291.141	73.56
291.371	81.56
291.602	76.56
291.833	75.56
292.064	99.56
292.295	87.56
292.526	93.56
292.757	77.56
292.987	85.56
293.218	82.56
293.449	72.56
293.68	84.56
293.91	72.56
294.141	79.56
294.372	82.56
294.603	93.56
294.833	81.56
295.064	79.56
295.295	92.56
295.525	82.56
295.756	101.56
295.987	111.56
296.217	111.56
296.448	109.56
296.679	86.56
296.909	84.56
297.14	91.56
297.37	85.56
297.601	74.56
297.831	86.56
298.062	71.56
298.292	84.56
298.523	85.56
298.753	87.56
298.984	86.56
299.214	94.56
299.445	93.56
299.675	84.56
299.905	92.56
300.136	82.56
300.366	86.56
300.597	85.56
300.827	84.56
301.057	81.56
301.288	103.56
301.518	91.56
301.748	91.56
301.979	83.56
302.209	101.56
302.439	74.56
302.669	86.56
302.9	79.56
303.13	86.56
303.36	85.56
303.59	77.56
303.82	80.56
304.051	79.56
304.281	85.56
304.511	64.56
304.741	87.56
304.971	86.56
305.201	93.56
305.431	87.56
305.661	78.56
305.891	88.56
306.121	97.56
306.352	101.56
306.582	99.56
306.812	86.56
307.042	78.56
307.272	83.56
307.502	88.56
307.731	86.56
307.961	86.56
308.191	92.56
308.421	94.56
308.651	105.56
308.881	74.56
309.111	93.56
309.341	82.56
309.571	92.56
309.8	99.56
310.03	102.56
310.26	83.56
310.49	93.56
310.72	90.56
310.949	74.56
311.179	94.56
311.409	91.56
311.639	104.56
311.868	91.56
312.098	90.56
312.328	85.56
312.557	91.56
312.787	95.56
313.017	98.56
313.246	89.56
313.476	78.56
313.706	102.56
313.935	95.56
314.165	94.56
314.394	103.56
314.624	88.56
314.853	93.56
315.083	83.56
315.312	94.56
315.542	77.56
315.771	90.56
316.001	93.56
316.23	86.56
316.46	80.56
316.689	93.56
316.919	91.56
317.148	94.56
317.377	91.56
317.607	93.56
317.836	92.56
318.065	90.56
318.295	96.56
318.524	86.56
318.753	85.56
318.983	95.56
319.212	86.56
319.441	102.56
319.67	98.56
319.9	101.56
320.129	103.56
320.358	84.56
320.587	93.56
320.816	78.56
321.046	100.56
321.275	82.56
321.504	89.56
321.733	95.56
321.962	95.56
322.191	96.56
322.42	106.56
322.649	93.56
322.878	95.56
323.108	95.56
323.337	107.56
323.566	121.56
323.795	135.56
324.024	177.56
324.253	332.56
324.482	707.56
324.71	1394.56
324.939	1785.56
325.168	673.56
325.397	205.56
325.626	133.56
325.855	109.56
326.084	117.56
326.313	120.56
326.542	134.56
326.77	186.56
326.999	401.56
327.228	798.56
327.457	1431.56
327.686	1173.56
327.914	319.56
328.143	173.56
328.372	154.56
328.6	115.56
328.829	113.56
329.058	110.56
329.287	119.56
329.515	105.56
329.744	95.56
329.972	88.56
330.201	99.56
330.43	107.56
330.658	97.56
330.887	115.56
331.115	108.56
331.344	81.56
331.572	85.56
331.801	90.56
332.03	103.56
332.258	104.56
332.486	93.56
332.715	87.56
332.943	83.56
333.172	108.56
333.4	88.56
333.629	99.56
333.857	103.56
334.085	92.56
334.314	105.56
334.542	92.56
334.771	94.56
334.999	86.56
335.227	83.56
335.455	89.56
335.684	101.56
335.912	91.56
336.14	94.56
336.369	91.56
336.597	101.56
336.825	79.56
337.053	74.56
337.281	99.56
337.51	82.56
337.738	86.56
337.966	108.56
338.194	99.56
338.422	103.56
338.65	97.56
338.878	81.56
339.106	84.56
339.334	87.56
339.562	99.56
339.79	90.56
340.018	81.56
340.246	89.56
340.474	95.56
340.702	83.56
340.93	90.56
341.158	83.56
341.386	87.56
341.614	98.56
341.842	95.56
342.07	87.56
342.298	90.56
342.526	80.56
342.754	76.56
342.981	81.56
343.209	100.56
343.437	105.56
343.665	80.56
343.893	87.56
344.12	92.56
344.348	92.56
344.576	79.56
344.804	77.56
345.031	91.56
345.259	87.56
345.487	87.56
345.714	56.56
345.942	80.56
346.17	85.56
346.397	81.56
346.625	86.56
346.853	77.56
347.08	90.56
347.308	94.56
347.535	91.56
347.763	100.56
347.99	97.56
348.218	99.56
348.445	93.56
348.673	84.56
348.9	94.56
349.128	100.56
349.355	88.56
349.583	87.56
349.81	79.56
350.037	87.56
350.265	82.56
350.492	107.56
350.72	92.56
350.947	89.56
351.174	98.56
351.402	94.56
351.629	83.56
351.856	93.56
352.083	95.56
352.311	100.56
352.538	88.56
352.765	101.56
352.992	114.56
353.22	108.56
353.447	110.56
353.674	97.56
353.901	90.56
354.128	83.56
354.355	89.56
354.583	77.56
354.81	82.56
355.037	86.56
355.264	75.56
355.491	89.56
355.718	82.56
355.945	103.56
356.172	100.56
356.399	84.56
356.626	90.56
356.853	84.56
357.08	96.56
357.307	92.56
357.534	72.56
357.761	83.56
357.988	91.56
358.215	98.56
358.441	102.56
358.668	81.56
358.895	94.56
359.122	92.56
359.349	83.56
359.576	80.56
359.802	92.56
360.029	98.56
360.256	94.56
360.483	88.56
360.709	84.56
360.936	82.56
361.163	81.56
361.39	94.56
361.616	86.56
361.843	84.56
362.07	90.56
362.296	73.56
362.523	94.56
362.749	101.56
362.976	75.56
363.203	82.56
363.429	80.56
363.656	88.56
363.882	99.56
364.109	93.56
364.335	71.56
364.562	73.56
364.788	82.56
365.015	92.56
365.241	101.56
365.468	104.56
365.694	90.56
365.92	72.56
366.147	96.56
366.373	86.56
366.599	81.56
366.826	75.56
367.052	72.56
367.278	81.56
367.505	83.56
367.731	77.56
367.957	66.56
368.184	84.56
368.41	91.56
368.636	95.56
368.862	98.56
369.089	103.56
369.315	86.56
369.541	90.56
369.767	75.56
369.993	85.56
370.219	73.56
370.445	74.56
370.672	90.56
370.898	89.56
371.124	85.56
371.35	95.56
371.576	92.56
371.802	85.56
372.028	76.56
372.254	95.56
372.48	92.56
372.706	96.56
372.932	66.56
373.158	83.56
373.384	88.56
373.61	82.56
373.835	91.56
374.061	84.56
374.287	86.56
374.513	81.56
374.739	104.56
374.965	90.56
375.191	81.56
375.416	89.56
375.642	73.56
375.868	91.56
376.094	87.56
376.319	81.56
376.545	96.56
376.771	92.56
376.997	83.56
377.222	85.56
377.448	90.56
377.674	79.56
377.899	82.56
378.125	94.56
378.35	94.56
378.576	79.56
378.802	83.56
379.027	110.56
379.253	91.56
379.478	96.56
379.704	93.56
379.929	88.56
380.155	95.56
380.38	88.56
380.606	89.56
380.831	86.56
381.057	102.56
381.282	93.56
381.507	85.56
381.733	90.56
381.958	87.56
382.184	91.56
382.409	95.56
382.634	92.56
382.86	91.56
383.085	105.56
383.31	99.56
383.535	104.56
383.761	90.56
383.986	95.56
384.211	82.56
384.436	91.56
384.662	103.56
384.887	89.56
385.112	110.56
385.337	81.56
385.562	88.56
385.787	105.56
386.013	100.56
386.238	105.56
386.463	99.56
386.688	99.56
386.913	97.56
387.138	103.56
387.363	92.56
387.588	99.56
387.813	85.56
388.038	97.56
388.263	112.56
388.488	105.56
388.713	86.56
388.938	104.56
389.163	89.56
389.387	85.56
389.612	82.56
389.837	90.56
390.062	87.56
390.287	87.56
390.512	76.56
390.736	78.56
390.961	74.56
391.186	84.56
391.411	92.56
391.636	91.56
391.86	85.56
392.085	77.56
392.31	70.56
392.534	73.56
392.759	93.56
392.984	86.56
393.208	76.56
393.433	86.56
393.658	90.56
393.882	79.56
394.107	82.56
394.331	81.56
394.556	91.56
394.78	87.56
395.005	89.56
395.229	85.56
395.454	87.56
395.678	74.56
395.903	89.56
396.127	89.56
396.352	88.56
396.576	79.56
396.801	91.56
397.025	82.56
397.249	91.56
397.474	79.56
397.698	82.56
397.922	81.56
398.147	75.56
398.371	79.56
398.595	85.56
398.82	81.56
399.044	77.56
399.268	88.56
399.492	78.56
399.717	71.56
399.941	86.56
400.165	85.56
400.389	82.56
400.613	92.56
400.837	76.56
401.062	70.56
401.286	103.56
401.51	85.56
401.734	91.56
401.958	103.56
402.182	95.56
402.406	118.56
402.63	102.56
402.854	91.56
403.078	75.56
403.302	75.56
403.526	69.56
403.75	71.56
403.974	79.56
404.198	81.56
404.422	86.56
404.645	85.56
404.869	91.56
405.093	91.56
405.317	108.56
405.541	111.56
405.765	91.56
405.988	93.56
406.212	147.56
406.436	174.56
406.66	132.56
406.883	91.56
407.107	67.56
407.331	82.56
407.555	92.56
407.778	93.56
408.002	81.56
408.226	90.56
408.449	84.56
408.673	91.56
408.896	81.56
409.12	92.56
409.344	90.56
409.567	81.56
409.791	89.56
410.014	83.56
410.238	87.56
410.461	95.56
410.685	93.56
410.908	87.56
411.132	105.56
411.355	79.56
411.578	75.56
411.802	92.56
412.025	83.56
412.249	90.56
412.472	84.56
412.695	93.56
412.919	81.56
413.142	89.56
413.365	70.56
413.589	92.56
413.812	92.56
414.035	96.56
414.258	82.56
414.482	85.56
414.705	88.56
414.928	85.56
415.151	91.56
415.374	84.56
415.597	93.56
415.821	79.56
416.044	82.56
416.267	73.56
416.49	84.56
416.713	79.56
416.936	86.56
417.159	82.56
417.382	73.56
417.605	76.56
417.828	88.56
418.051	79.56
418.274	72.56
418.497	75.56
418.72	72.56
418.943	69.56
419.166	85.56
419.389	88.56
419.611	85.56
419.834	73.56
420.057	90.56
420.28	87.56
420.503	87.56
420.726	87.56
420.948	95.56
421.171	91.56
421.394	84.56
421.617	84.56
421.839	81.56
422.062	91.56
422.285	92.56
422.507	81.56
422.73	94.56
422.953	91.56
423.175	92.56
423.398	76.56
423.621	95.56
423.843	91.56
424.066	68.56
424.288	87.56
424.511	90.56
424.733	86.56
424.956	106.56
425.178	89.56
425.401	78.56
425.623	86.56
425.846	78.56
426.068	73.56
426.291	84.56
426.513	90.56
426.735	88.56
426.958	90.56
427.18	109.56
427.402	99.56
427.625	128.56
427.847	109.56
428.069	106.56
428.292	92.56
428.514	83.56
428.736	82.56
428.958	66.56
429.181	92.56
429.403	86.56
429.625	73.56
429.847	90.56
430.069	85.56
430.292	96.56
430.514	93.56
430.736	88.56
430.958	82.56
431.18	79.56
431.402	69.56
431.624	86.56
431.846	90.56
432.068	82.56
432.29	88.56
432.512	92.56
432.734	72.56
432.956	85.56
433.178	92.56
433.4	89.56
433.622	89.56
433.844	92.56
434.066	94.56
434.287	81.56
434.509	94.56
434.731	78.56
434.953	77.56
435.175	87.56
435.397	78.56
435.618	81.56
435.84	81.56
436.062	103.56
436.284	103.56
436.505	100.56
436.727	94.56
436.949	79.56
437.17	78.56
437.392	74.56
437.614	93.56
437.835	95.56
438.057	101.56
438.278	101.56
438.5	93.56
438.721	114.56
438.943	84.56
439.165	96.56
439.386	85.56
439.608	84.56
439.829	90.56
440.05	107.56
440.272	108.56
440.493	88.56
440.715	85.56
440.936	89.56
441.158	86.56
441.379	77.56
441.6	99.56
441.822	86.56
442.043	93.56
442.264	90.56
442.486	102.56
442.707	98.56
442.928	98.56
443.149	108.56
443.371	115.56
443.592	97.56
443.813	91.56
444.034	89.56
444.255	90.56
444.476	83.56
444.698	74.56
444.919	79.56
445.14	130.56
445.361	108.56
445.582	106.56
445.803	119.56
446.024	121.56
446.245	135.56
446.466	93.56
446.687	96.56
446.908	90.56
447.129	88.56
447.35	81.56
447.571	85.56
447.792	89.56
448.013	91.56
448.234	69.56
448.455	75.56
448.675	118.56
448.896	115.56
449.117	92.56
449.338	97.56
449.559	118.56
449.779	122.56
450	95.56
450.221	73.56
450.442	80.56
450.662	93.56
450.883	97.56
451.104	91.56
451.324	106.56
451.545	89.56
451.766	90.56
451.986	93.56
452.207	84.56
452.428	77.56
452.648	85.56
452.869	111.56
453.089	105.56
453.31	103.56
453.53	93.56
453.751	95.56
453.971	85.56
454.192	110.56
454.412	83.56
454.633	78.56
454.853	75.56
455.073	85.56
455.294	88.56
455.514	83.56
455.734	90.56
455.955	77.56
456.175	87.56
456.395	83.56
456.616	78.56
456.836	83.56
457.056	72.56
457.276	81.56
457.497	77.56
457.717	73.56
457.937	82.56
458.157	78.56
458.377	81.56
458.598	107.56
458.818	129.56
459.038	125.56
459.258	85.56
459.478	83.56
459.698	87.56
459.918	90.56
460.138	81.56
460.358	66.56
460.578	91.56
460.798	79.56
461.018	99.56
461.238	81.56
461.458	75.56
461.678	72.56
461.898	85.56
462.118	80.56
462.338	80.56
462.558	71.56
462.777	78.56
462.997	84.56
463.217	83.56
463.437	84.56
463.657	89.56
463.876	90.56
464.096	88.56
464.316	90.56
464.536	85.56
464.755	87.56
464.975	99.56
465.195	129.56
465.414	138.56
465.634	83.56
465.854	79.56
466.073	86.56
466.293	82.56
466.512	99.56
466.732	89.56
466.951	61.56
467.171	84.56
467.391	84.56
467.61	94.56
467.829	96.56
468.049	75.56
468.268	91.56
468.488	86.56
468.707	72.56
468.927	73.56
469.146	76.56
469.365	77.56
469.585	85.56
469.804	84.56
470.023	71.56
470.243	74.56
470.462	102.56
470.681	99.56
470.901	79.56
471.12	78.56
471.339	96.56
471.558	86.56
471.777	91.56
471.997	80.56
472.216	79.56
472.435	86.56
472.654	86.56
472.873	87.56
473.092	63.56
473.311	84.56
473.53	76.56
473.749	85.56
473.968	98.56
474.187	91.56
474.406	89.56
474.625	101.56
474.844	91.56
475.063	93.56
475.282	60.56
475.501	93.56
475.72	81.56
475.939	91.56
476.158	81.56
476.377	86.56
476.596	81.56
476.814	91.56
477.033	73.56
477.252	87.56
477.471	81.56
477.69	79.56
477.908	82.56
478.127	91.56
478.346	91.56
478.564	87.56
478.783	90.56
479.002	70.56
479.22	85.56
479.439	98.56
479.658	81.56
479.876	81.56
480.095	86.56
480.313	85.56
480.532	82.56
480.751	98.56
480.969	86.56
481.188	93.56
481.406	91.56
481.624	83.56
481.843	79.56
482.061	95.56
482.28	99.56
482.498	91.56
482.717	88.56
482.935	82.56
483.153	73.56
483.372	77.56
483.59	85.56
483.808	82.56
484.027	79.56
484.245	98.56
484.463	83.56
484.681	95.56
484.9	100.56
485.118	81.56
485.336	86.56
485.554	89.56
485.772	90.56
485.99	99.56
486.209	87.56
486.427	99.56
486.645	92.56
486.863	95.56
487.081	95.56
487.299	91.56
487.517	97.56
487.735	73.56
487.953	78.56
488.171	82.56
488.389	100.56
488.607	73.56
488.825	84.56
489.043	72.56
489.261	81.56
489.479	77.56
489.696	92.56
489.914	91.56
490.132	80.56
490.35	93.56
490.568	77.56
490.786	85.56
491.003	93.56
491.221	90.56
491.439	89.56
491.657	97.56
491.874	87.56
492.092	89.56
492.31	72.56
492.527	81.56
492.745	89.56
492.963	82.56
493.18	83.56
493.398	86.56
493.615	95.56
493.833	82.56
494.05	88.56
494.268	97.56
494.485	82.56
494.703	95.56
494.92	94.56
495.138	84.56
495.355	98.56
495.573	86.56
495.79	91.56
496.008	89.56
496.225	91.56
496.442	70.56
496.66	68.56
496.877	83.56
497.094	84.56
497.312	87.56
497.529	85.56
497.746	95.56
497.963	79.56
498.181	85.56
498.398	95.56
498.615	97.56
498.832	109.56
499.049	109.56
499.267	78.56
499.484	96.56
499.701	76.56
499.918	91.56
500.135	83.56
500.352	71.56
500.569	92.56
500.786	73.56
501.003	78.56
501.22	92.56
501.437	88.56
501.654	82.56
501.871	107.56
502.088	84.56
502.305	77.56
502.522	87.56
502.739	83.56
502.956	85.56
503.172	90.56
503.389	97.56
503.606	93.56
503.823	84.56
504.04	93.56
504.256	86.56
504.473	82.56
504.69	92.56
504.907	88.56
505.123	79.56
505.34	84.56
505.557	87.56
505.773	92.56
505.99	87.56
506.207	86.56
506.423	88.56
506.64	91.56
506.856	90.56
507.073	67.56
507.289	102.56
507.506	92.56
507.722	95.56
507.939	101.56
508.155	92.56
508.372	90.56
508.588	92.56
508.805	90.56
509.021	90.56
509.238	90.56
509.454	73.56
509.67	85.56
509.887	103.56
510.103	112.56
510.319	176.56
510.536	593.56
510.752	1862.56
510.968	535.56
511.184	136.56
511.401	101.56
511.617	97.56
511.833	101.56
512.049	94.56
512.265	83.56
512.481	89.56
512.698	75.56
512.914	92.56
513.13	82.56
513.346	93.56
513.562	93.56
513.778	99.56
513.994	86.56
514.21	95.56
514.426	118.56
514.642	118.56
514.858	95.56
515.074	141.56
515.29	354.56
515.506	1126.56
515.721	419.56
515.937	122.56
516.153	91.56
516.369	95.56
516.585	93.56
516.801	91.56
517.016	94.56
517.232	82.56
517.448	83.56
517.664	87.56
