Data from Circ_1980_H10_HRD10591_00082.txt Node
Date: Wed Jan 03 12:38:14 EST 2024
User: Yrep
Spectrometer: HR+D1059
Trigger mode: 1
Integration Time (sec): 1.000000E-1
Scans to average: 1
Electric dark correction enabled: true
Nonlinearity correction enabled: false
Boxcar width: 0
XAxis mode: Wavelengths
Number of Pixels in Spectrum: 2048
>>>>>Begin Spectral Data<<<<<
223.165	-9.31
223.4	-9.31
223.635	-9.31
223.869	-19.31
224.104	-24.31
224.338	-15.31
224.573	-6.31
224.808	-23.31
225.042	-8.31
225.277	-10.31
225.511	9.69
225.746	5.69
225.98	9.69
226.215	-4.31
226.449	19.69
226.683	19.69
226.918	20.69
227.152	35.69
227.387	43.69
227.621	52.69
227.856	60.69
228.09	47.69
228.324	60.69
228.559	71.69
228.793	58.69
229.027	64.69
229.262	61.69
229.496	71.69
229.73	70.69
229.964	74.69
230.199	75.69
230.433	82.69
230.667	94.69
230.901	75.69
231.136	82.69
231.37	95.69
231.604	80.69
231.838	75.69
232.072	86.69
232.306	86.69
232.541	79.69
232.775	94.69
233.009	90.69
233.243	67.69
233.477	84.69
233.711	77.69
233.945	90.69
234.179	98.69
234.413	75.69
234.647	75.69
234.881	88.69
235.115	78.69
235.349	82.69
235.583	77.69
235.817	79.69
236.051	87.69
236.285	75.69
236.519	79.69
236.753	85.69
236.987	87.69
237.221	88.69
237.455	83.69
237.689	82.69
237.922	76.69
238.156	76.69
238.39	70.69
238.624	77.69
238.858	74.69
239.091	78.69
239.325	89.69
239.559	69.69
239.793	86.69
240.027	72.69
240.26	91.69
240.494	75.69
240.728	86.69
240.961	72.69
241.195	79.69
241.429	78.69
241.662	79.69
241.896	80.69
242.13	71.69
242.363	83.69
242.597	68.69
242.83	79.69
243.064	88.69
243.298	71.69
243.531	79.69
243.765	73.69
243.998	89.69
244.232	95.69
244.465	80.69
244.699	69.69
244.932	88.69
245.166	87.69
245.399	73.69
245.633	89.69
245.866	86.69
246.099	90.69
246.333	76.69
246.566	80.69
246.8	101.69
247.033	80.69
247.266	78.69
247.5	90.69
247.733	83.69
247.966	94.69
248.2	69.69
248.433	69.69
248.666	77.69
248.899	93.69
249.133	87.69
249.366	90.69
249.599	90.69
249.832	89.69
250.066	92.69
250.299	77.69
250.532	73.69
250.765	88.69
250.998	82.69
251.231	71.69
251.465	62.69
251.698	79.69
251.931	84.69
252.164	88.69
252.397	81.69
252.63	93.69
252.863	63.69
253.096	70.69
253.329	95.69
253.562	82.69
253.795	86.69
254.028	79.69
254.261	89.69
254.494	77.69
254.727	95.69
254.96	78.69
255.193	72.69
255.426	71.69
255.659	74.69
255.892	70.69
256.124	83.69
256.357	68.69
256.59	67.69
256.823	82.69
257.056	89.69
257.289	86.69
257.521	84.69
257.754	79.69
257.987	85.69
258.22	70.69
258.452	92.69
258.685	87.69
258.918	77.69
259.151	74.69
259.383	78.69
259.616	77.69
259.849	86.69
260.081	80.69
260.314	86.69
260.547	85.69
260.779	80.69
261.012	91.69
261.244	87.69
261.477	88.69
261.71	78.69
261.942	102.69
262.175	108.69
262.407	100.69
262.64	75.69
262.872	88.69
263.105	80.69
263.337	79.69
263.57	91.69
263.802	77.69
264.035	79.69
264.267	87.69
264.499	79.69
264.732	86.69
264.964	87.69
265.197	99.69
265.429	94.69
265.661	73.69
265.894	79.69
266.126	99.69
266.358	79.69
266.591	86.69
266.823	103.69
267.055	84.69
267.287	76.69
267.52	88.69
267.752	69.69
267.984	90.69
268.216	74.69
268.448	86.69
268.681	92.69
268.913	67.69
269.145	82.69
269.377	86.69
269.609	84.69
269.841	74.69
270.073	83.69
270.306	80.69
270.538	86.69
270.77	88.69
271.002	89.69
271.234	92.69
271.466	89.69
271.698	87.69
271.93	78.69
272.162	86.69
272.394	90.69
272.626	93.69
272.858	85.69
273.09	86.69
273.322	82.69
273.553	72.69
273.785	82.69
274.017	84.69
274.249	91.69
274.481	72.69
274.713	81.69
274.945	80.69
275.176	80.69
275.408	80.69
275.64	82.69
275.872	82.69
276.104	78.69
276.335	97.69
276.567	98.69
276.799	95.69
277.031	90.69
277.262	98.69
277.494	95.69
277.726	87.69
277.957	97.69
278.189	86.69
278.421	71.69
278.652	65.69
278.884	68.69
279.115	88.69
279.347	102.69
279.579	78.69
279.81	76.69
280.042	78.69
280.273	82.69
280.505	86.69
280.736	87.69
280.968	87.69
281.199	103.69
281.431	93.69
281.662	98.69
281.894	84.69
282.125	94.69
282.356	102.69
282.588	114.69
282.819	111.69
283.051	79.69
283.282	86.69
283.513	93.69
283.745	88.69
283.976	78.69
284.207	77.69
284.439	82.69
284.67	74.69
284.901	82.69
285.132	90.69
285.364	91.69
285.595	88.69
285.826	84.69
286.057	77.69
286.288	79.69
286.52	97.69
286.751	63.69
286.982	84.69
287.213	91.69
287.444	79.69
287.675	84.69
287.906	98.69
288.138	80.69
288.369	87.69
288.6	106.69
288.831	82.69
289.062	97.69
289.293	86.69
289.524	94.69
289.755	88.69
289.986	93.69
290.217	96.69
290.448	89.69
290.679	96.69
290.91	81.69
291.141	84.69
291.371	99.69
291.602	91.69
291.833	88.69
292.064	97.69
292.295	90.69
292.526	100.69
292.757	90.69
292.987	94.69
293.218	92.69
293.449	98.69
293.68	104.69
293.91	90.69
294.141	103.69
294.372	84.69
294.603	90.69
294.833	82.69
295.064	87.69
295.295	80.69
295.525	104.69
295.756	95.69
295.987	96.69
296.217	116.69
296.448	111.69
296.679	96.69
296.909	90.69
297.14	102.69
297.37	85.69
297.601	93.69
297.831	80.69
298.062	80.69
298.292	82.69
298.523	74.69
298.753	78.69
298.984	79.69
299.214	86.69
299.445	88.69
299.675	93.69
299.905	88.69
300.136	92.69
300.366	88.69
300.597	101.69
300.827	96.69
301.057	101.69
301.288	89.69
301.518	85.69
301.748	98.69
301.979	108.69
302.209	94.69
302.439	95.69
302.669	79.69
302.9	82.69
303.13	78.69
303.36	96.69
303.59	88.69
303.82	94.69
304.051	83.69
304.281	101.69
304.511	89.69
304.741	95.69
304.971	80.69
305.201	75.69
305.431	79.69
305.661	91.69
305.891	85.69
306.121	95.69
306.352	93.69
306.582	98.69
306.812	80.69
307.042	92.69
307.272	106.69
307.502	84.69
307.731	84.69
307.961	90.69
308.191	84.69
308.421	90.69
308.651	104.69
308.881	86.69
309.111	88.69
309.341	88.69
309.571	88.69
309.8	87.69
310.03	103.69
310.26	93.69
310.49	88.69
310.72	93.69
310.949	91.69
311.179	95.69
311.409	102.69
311.639	90.69
311.868	76.69
312.098	94.69
312.328	93.69
312.557	107.69
312.787	99.69
313.017	87.69
313.246	78.69
313.476	92.69
313.706	100.69
313.935	109.69
314.165	93.69
314.394	104.69
314.624	95.69
314.853	88.69
315.083	84.69
315.312	82.69
315.542	98.69
315.771	85.69
316.001	86.69
316.23	88.69
316.46	95.69
316.689	92.69
316.919	86.69
317.148	86.69
317.377	107.69
317.607	96.69
317.836	86.69
318.065	88.69
318.295	91.69
318.524	91.69
318.753	110.69
318.983	94.69
319.212	100.69
319.441	93.69
319.67	94.69
319.9	88.69
320.129	96.69
320.358	106.69
320.587	88.69
320.816	99.69
321.046	94.69
321.275	92.69
321.504	89.69
321.733	97.69
321.962	77.69
322.191	87.69
322.42	94.69
322.649	104.69
322.878	99.69
323.108	112.69
323.337	125.69
323.566	134.69
323.795	129.69
324.024	176.69
324.253	279.69
324.482	585.69
324.71	1151.69
324.939	1532.69
325.168	571.69
325.397	186.69
325.626	135.69
325.855	111.69
326.084	113.69
326.313	110.69
326.542	148.69
326.77	171.69
326.999	341.69
327.228	677.69
327.457	1218.69
327.686	935.69
327.914	276.69
328.143	157.69
328.372	127.69
328.6	98.69
328.829	118.69
329.058	112.69
329.287	118.69
329.515	114.69
329.744	101.69
329.972	96.69
330.201	114.69
330.43	123.69
330.658	111.69
330.887	139.69
331.115	108.69
331.344	80.69
331.572	101.69
331.801	104.69
332.03	105.69
332.258	107.69
332.486	99.69
332.715	95.69
332.943	99.69
333.172	95.69
333.4	84.69
333.629	105.69
333.857	91.69
334.085	107.69
334.314	119.69
334.542	125.69
334.771	131.69
334.999	106.69
335.227	86.69
335.455	93.69
335.684	93.69
335.912	89.69
336.14	90.69
336.369	106.69
336.597	103.69
336.825	90.69
337.053	90.69
337.281	85.69
337.51	78.69
337.738	92.69
337.966	83.69
338.194	95.69
338.422	93.69
338.65	80.69
338.878	85.69
339.106	92.69
339.334	86.69
339.562	75.69
339.79	81.69
340.018	92.69
340.246	85.69
340.474	99.69
340.702	91.69
340.93	95.69
341.158	96.69
341.386	91.69
341.614	100.69
341.842	90.69
342.07	92.69
342.298	93.69
342.526	104.69
342.754	88.69
342.981	82.69
343.209	95.69
343.437	100.69
343.665	77.69
343.893	109.69
344.12	95.69
344.348	83.69
344.576	87.69
344.804	93.69
345.031	94.69
345.259	101.69
345.487	104.69
345.714	84.69
345.942	92.69
346.17	109.69
346.397	95.69
346.625	97.69
346.853	79.69
347.08	81.69
347.308	101.69
347.535	85.69
347.763	90.69
347.99	93.69
348.218	81.69
348.445	103.69
348.673	99.69
348.9	100.69
349.128	94.69
349.355	91.69
349.583	93.69
349.81	94.69
350.037	104.69
350.265	94.69
350.492	86.69
350.72	100.69
350.947	97.69
351.174	111.69
351.402	102.69
351.629	116.69
351.856	95.69
352.083	95.69
352.311	95.69
352.538	108.69
352.765	103.69
352.992	112.69
353.22	114.69
353.447	97.69
353.674	108.69
353.901	96.69
354.128	103.69
354.355	101.69
354.583	104.69
354.81	99.69
355.037	108.69
355.264	104.69
355.491	94.69
355.718	90.69
355.945	86.69
356.172	94.69
356.399	101.69
356.626	101.69
356.853	97.69
357.08	103.69
357.307	86.69
357.534	90.69
357.761	89.69
357.988	87.69
358.215	108.69
358.441	77.69
358.668	89.69
358.895	94.69
359.122	85.69
359.349	91.69
359.576	89.69
359.802	88.69
360.029	107.69
360.256	96.69
360.483	108.69
360.709	86.69
360.936	90.69
361.163	92.69
361.39	96.69
361.616	91.69
361.843	106.69
362.07	88.69
362.296	93.69
362.523	88.69
362.749	89.69
362.976	85.69
363.203	93.69
363.429	96.69
363.656	87.69
363.882	91.69
364.109	96.69
364.335	86.69
364.562	82.69
364.788	93.69
365.015	96.69
365.241	98.69
365.468	102.69
365.694	96.69
365.92	93.69
366.147	79.69
366.373	90.69
366.599	82.69
366.826	89.69
367.052	99.69
367.278	88.69
367.505	88.69
367.731	83.69
367.957	85.69
368.184	84.69
368.41	100.69
368.636	94.69
368.862	118.69
369.089	90.69
369.315	86.69
369.541	93.69
369.767	88.69
369.993	104.69
370.219	95.69
370.445	80.69
370.672	88.69
370.898	102.69
371.124	76.69
371.35	103.69
371.576	96.69
371.802	85.69
372.028	90.69
372.254	84.69
372.48	89.69
372.706	85.69
372.932	87.69
373.158	86.69
373.384	100.69
373.61	86.69
373.835	94.69
374.061	79.69
374.287	76.69
374.513	89.69
374.739	84.69
374.965	86.69
375.191	94.69
375.416	86.69
375.642	95.69
375.868	86.69
376.094	89.69
376.319	93.69
376.545	88.69
376.771	90.69
376.997	94.69
377.222	89.69
377.448	91.69
377.674	95.69
377.899	89.69
378.125	96.69
378.35	99.69
378.576	84.69
378.802	82.69
379.027	88.69
379.253	94.69
379.478	91.69
379.704	105.69
379.929	95.69
380.155	98.69
380.38	94.69
380.606	84.69
380.831	93.69
381.057	98.69
381.282	109.69
381.507	98.69
381.733	96.69
381.958	103.69
382.184	88.69
382.409	113.69
382.634	107.69
382.86	95.69
383.085	86.69
383.31	96.69
383.535	102.69
383.761	86.69
383.986	100.69
384.211	88.69
384.436	100.69
384.662	98.69
384.887	98.69
385.112	101.69
385.337	116.69
385.562	78.69
385.787	88.69
386.013	94.69
386.238	104.69
386.463	97.69
386.688	101.69
386.913	93.69
387.138	103.69
387.363	94.69
387.588	90.69
387.813	95.69
388.038	99.69
388.263	110.69
388.488	104.69
388.713	106.69
388.938	84.69
389.163	100.69
389.387	90.69
389.612	92.69
389.837	87.69
390.062	88.69
390.287	90.69
390.512	99.69
390.736	82.69
390.961	101.69
391.186	83.69
391.411	81.69
391.636	77.69
391.86	92.69
392.085	82.69
392.31	89.69
392.534	86.69
392.759	96.69
392.984	78.69
393.208	77.69
393.433	86.69
393.658	94.69
393.882	74.69
394.107	99.69
394.331	94.69
394.556	96.69
394.78	83.69
395.005	94.69
395.229	87.69
395.454	100.69
395.678	86.69
395.903	88.69
396.127	96.69
396.352	96.69
396.576	90.69
396.801	89.69
397.025	90.69
397.249	79.69
397.474	84.69
397.698	86.69
397.922	87.69
398.147	77.69
398.371	96.69
398.595	88.69
398.82	107.69
399.044	94.69
399.268	79.69
399.492	101.69
399.717	83.69
399.941	89.69
400.165	95.69
400.389	93.69
400.613	86.69
400.837	86.69
401.062	85.69
401.286	87.69
401.51	103.69
401.734	88.69
401.958	96.69
402.182	102.69
402.406	123.69
402.63	113.69
402.854	95.69
403.078	86.69
403.302	84.69
403.526	98.69
403.75	96.69
403.974	90.69
404.198	87.69
404.422	84.69
404.645	79.69
404.869	90.69
405.093	92.69
405.317	88.69
405.541	87.69
405.765	95.69
405.988	106.69
406.212	132.69
406.436	162.69
406.66	112.69
406.883	94.69
407.107	83.69
407.331	90.69
407.555	102.69
407.778	98.69
408.002	85.69
408.226	94.69
408.449	87.69
408.673	86.69
408.896	96.69
409.12	80.69
409.344	91.69
409.567	88.69
409.791	91.69
410.014	97.69
410.238	82.69
410.461	99.69
410.685	86.69
410.908	98.69
411.132	88.69
411.355	95.69
411.578	100.69
411.802	78.69
412.025	92.69
412.249	86.69
412.472	90.69
412.695	92.69
412.919	93.69
413.142	104.69
413.365	66.69
413.589	80.69
413.812	93.69
414.035	102.69
414.258	79.69
414.482	88.69
414.705	89.69
414.928	95.69
415.151	94.69
415.374	96.69
415.597	84.69
415.821	77.69
416.044	87.69
416.267	75.69
416.49	105.69
416.713	97.69
416.936	101.69
417.159	90.69
417.382	83.69
417.605	83.69
417.828	99.69
418.051	86.69
418.274	98.69
418.497	85.69
418.72	85.69
418.943	84.69
419.166	85.69
419.389	82.69
419.611	86.69
419.834	83.69
420.057	103.69
420.28	88.69
420.503	92.69
420.726	92.69
420.948	91.69
421.171	87.69
421.394	83.69
421.617	92.69
421.839	82.69
422.062	86.69
422.285	84.69
422.507	96.69
422.73	99.69
422.953	92.69
423.175	106.69
423.398	79.69
423.621	82.69
423.843	79.69
424.066	93.69
424.288	79.69
424.511	92.69
424.733	88.69
424.956	106.69
425.178	100.69
425.401	100.69
425.623	93.69
425.846	84.69
426.068	102.69
426.291	86.69
426.513	87.69
426.735	86.69
426.958	95.69
427.18	78.69
427.402	115.69
427.625	138.69
427.847	116.69
428.069	108.69
428.292	98.69
428.514	91.69
428.736	93.69
428.958	77.69
429.181	79.69
429.403	67.69
429.625	87.69
429.847	92.69
430.069	88.69
430.292	99.69
430.514	83.69
430.736	80.69
430.958	68.69
431.18	69.69
431.402	87.69
431.624	88.69
431.846	79.69
432.068	94.69
432.29	89.69
432.512	93.69
432.734	89.69
432.956	91.69
433.178	90.69
433.4	110.69
433.622	88.69
433.844	103.69
434.066	89.69
434.287	101.69
434.509	90.69
434.731	72.69
434.953	76.69
435.175	92.69
435.397	98.69
435.618	86.69
435.84	112.69
436.062	107.69
436.284	101.69
436.505	91.69
436.727	109.69
436.949	90.69
437.17	85.69
437.392	91.69
437.614	93.69
437.835	98.69
438.057	100.69
438.278	104.69
438.5	103.69
438.721	103.69
438.943	88.69
439.165	92.69
439.386	101.69
439.608	103.69
439.829	104.69
440.05	120.69
440.272	122.69
440.493	94.69
440.715	84.69
440.936	96.69
441.158	90.69
441.379	82.69
441.6	90.69
441.822	92.69
442.043	103.69
442.264	94.69
442.486	85.69
442.707	86.69
442.928	97.69
443.149	101.69
443.371	103.69
443.592	114.69
443.813	93.69
444.034	100.69
444.255	100.69
444.476	79.69
444.698	98.69
444.919	79.69
445.14	137.69
445.361	103.69
445.582	108.69
445.803	112.69
446.024	115.69
446.245	109.69
446.466	106.69
446.687	78.69
446.908	82.69
447.129	82.69
447.35	93.69
447.571	82.69
447.792	79.69
448.013	102.69
448.234	110.69
448.455	99.69
448.675	108.69
448.896	104.69
449.117	79.69
449.338	91.69
449.559	103.69
449.779	109.69
450	93.69
450.221	90.69
450.442	89.69
450.662	92.69
450.883	105.69
451.104	103.69
451.324	107.69
451.545	93.69
451.766	96.69
451.986	75.69
452.207	90.69
452.428	86.69
452.648	93.69
452.869	108.69
453.089	91.69
453.31	91.69
453.53	78.69
453.751	91.69
453.971	100.69
454.192	112.69
454.412	89.69
454.633	89.69
454.853	80.69
455.073	80.69
455.294	79.69
455.514	100.69
455.734	100.69
455.955	90.69
456.175	80.69
456.395	58.69
456.616	81.69
456.836	70.69
457.056	84.69
457.276	92.69
457.497	91.69
457.717	86.69
457.937	91.69
458.157	85.69
458.377	96.69
458.598	101.69
458.818	111.69
459.038	117.69
459.258	100.69
459.478	86.69
459.698	99.69
459.918	88.69
460.138	67.69
460.358	83.69
460.578	84.69
460.798	89.69
461.018	90.69
461.238	99.69
461.458	79.69
461.678	92.69
461.898	86.69
462.118	89.69
462.338	88.69
462.558	82.69
462.777	87.69
462.997	87.69
463.217	102.69
463.437	83.69
463.657	89.69
463.876	92.69
464.096	79.69
464.316	72.69
464.536	85.69
464.755	79.69
464.975	110.69
465.195	131.69
465.414	123.69
465.634	90.69
465.854	90.69
466.073	91.69
466.293	80.69
466.512	88.69
466.732	80.69
466.951	98.69
467.171	110.69
467.391	107.69
467.61	98.69
467.829	88.69
468.049	92.69
468.268	98.69
468.488	104.69
468.707	88.69
468.927	89.69
469.146	81.69
469.365	83.69
469.585	96.69
469.804	98.69
470.023	96.69
470.243	74.69
470.462	94.69
470.681	94.69
470.901	89.69
471.12	94.69
471.339	91.69
471.558	95.69
471.777	86.69
471.997	98.69
472.216	111.69
472.435	136.69
472.654	106.69
472.873	84.69
473.092	76.69
473.311	97.69
473.53	94.69
473.749	85.69
473.968	100.69
474.187	109.69
474.406	99.69
474.625	80.69
474.844	91.69
475.063	88.69
475.282	88.69
475.501	75.69
475.72	86.69
475.939	78.69
476.158	86.69
476.377	88.69
476.596	104.69
476.814	93.69
477.033	89.69
477.252	90.69
477.471	88.69
477.69	85.69
477.908	90.69
478.127	75.69
478.346	84.69
478.564	87.69
478.783	94.69
479.002	85.69
479.22	89.69
479.439	85.69
479.658	95.69
479.876	91.69
480.095	86.69
480.313	91.69
480.532	79.69
480.751	99.69
480.969	112.69
481.188	163.69
481.406	143.69
481.624	79.69
481.843	96.69
482.061	79.69
482.28	98.69
482.498	86.69
482.717	97.69
482.935	91.69
483.153	93.69
483.372	98.69
483.59	82.69
483.808	101.69
484.027	104.69
484.245	94.69
484.463	86.69
484.681	87.69
484.9	99.69
485.118	84.69
485.336	101.69
485.554	81.69
485.772	104.69
485.99	108.69
486.209	96.69
486.427	106.69
486.645	118.69
486.863	100.69
487.081	104.69
487.299	94.69
487.517	91.69
487.735	94.69
487.953	84.69
488.171	102.69
488.389	101.69
488.607	93.69
488.825	101.69
489.043	97.69
489.261	101.69
489.479	91.69
489.696	86.69
489.914	86.69
490.132	90.69
490.35	94.69
490.568	85.69
490.786	73.69
491.003	91.69
491.221	101.69
491.439	79.69
491.657	79.69
491.874	76.69
492.092	83.69
492.31	80.69
492.527	87.69
492.745	87.69
492.963	83.69
493.18	102.69
493.398	91.69
493.615	84.69
493.833	92.69
494.05	92.69
494.268	93.69
494.485	87.69
494.703	90.69
494.92	91.69
495.138	99.69
495.355	86.69
495.573	88.69
495.79	91.69
496.008	88.69
496.225	88.69
496.442	95.69
496.66	87.69
496.877	94.69
497.094	99.69
497.312	91.69
497.529	82.69
497.746	98.69
497.963	82.69
498.181	88.69
498.398	98.69
498.615	109.69
498.832	85.69
499.049	85.69
499.267	75.69
499.484	93.69
499.701	98.69
499.918	96.69
500.135	91.69
500.352	95.69
500.569	95.69
500.786	90.69
501.003	85.69
501.22	85.69
501.437	89.69
501.654	99.69
501.871	109.69
502.088	86.69
502.305	85.69
502.522	96.69
502.739	85.69
502.956	82.69
503.172	98.69
503.389	91.69
503.606	103.69
503.823	93.69
504.04	74.69
504.256	100.69
504.473	79.69
504.69	97.69
504.907	102.69
505.123	90.69
505.34	84.69
505.557	93.69
505.773	82.69
505.99	86.69
506.207	78.69
506.423	88.69
506.64	68.69
506.856	102.69
507.073	85.69
507.289	96.69
507.506	98.69
507.722	100.69
507.939	105.69
508.155	76.69
508.372	97.69
508.588	92.69
508.805	111.69
509.021	103.69
509.238	98.69
509.454	106.69
509.67	100.69
509.887	102.69
510.103	108.69
510.319	160.69
510.536	524.69
510.752	1606.69
510.968	460.69
511.184	134.69
511.401	104.69
511.617	102.69
511.833	99.69
512.049	90.69
512.265	103.69
512.481	95.69
512.698	94.69
512.914	95.69
513.13	93.69
513.346	86.69
513.562	95.69
513.778	98.69
513.994	91.69
514.21	106.69
514.426	98.69
514.642	117.69
514.858	119.69
515.074	127.69
515.29	314.69
515.506	934.69
515.721	368.69
515.937	130.69
516.153	106.69
