Data from Circ_1980_H10_HRD10591_00057.txt Node
Date: Wed Jan 03 12:38:09 EST 2024
User: Yrep
Spectrometer: HR+D1059
Trigger mode: 1
Integration Time (sec): 1.000000E-1
Scans to average: 1
Electric dark correction enabled: true
Nonlinearity correction enabled: false
Boxcar width: 0
XAxis mode: Wavelengths
Number of Pixels in Spectrum: 2048
>>>>>Begin Spectral Data<<<<<
223.165	-10.12
223.4	-10.12
223.635	-10.12
223.869	-24.12
224.104	-30.12
224.338	-5.12
224.573	-16.12
224.808	-12.12
225.042	-1.12
225.277	-0.12
225.511	-12.12
225.746	0.88
225.98	14.88
226.215	-0.12
226.449	27.88
226.683	14.88
226.918	17.88
227.152	34.88
227.387	37.88
227.621	34.88
227.856	47.88
228.09	54.88
228.324	55.88
228.559	53.88
228.793	50.88
229.027	58.88
229.262	64.88
229.496	72.88
229.73	69.88
229.964	81.88
230.199	74.88
230.433	72.88
230.667	73.88
230.901	83.88
231.136	84.88
231.37	59.88
231.604	72.88
231.838	74.88
232.072	84.88
232.306	84.88
232.541	90.88
232.775	90.88
233.009	80.88
233.243	78.88
233.477	73.88
233.711	78.88
233.945	60.88
234.179	78.88
234.413	84.88
234.647	75.88
234.881	72.88
235.115	62.88
235.349	94.88
235.583	82.88
235.817	73.88
236.051	68.88
236.285	79.88
236.519	90.88
236.753	82.88
236.987	84.88
237.221	69.88
237.455	65.88
237.689	79.88
237.922	65.88
238.156	64.88
238.39	84.88
238.624	74.88
238.858	70.88
239.091	70.88
239.325	72.88
239.559	64.88
239.793	80.88
240.027	70.88
240.26	70.88
240.494	75.88
240.728	86.88
240.961	84.88
241.195	72.88
241.429	75.88
241.662	65.88
241.896	70.88
242.13	74.88
242.363	76.88
242.597	73.88
242.83	73.88
243.064	81.88
243.298	80.88
243.531	88.88
243.765	70.88
243.998	93.88
244.232	75.88
244.465	83.88
244.699	79.88
244.932	66.88
245.166	80.88
245.399	67.88
245.633	73.88
245.866	91.88
246.099	54.88
246.333	82.88
246.566	80.88
246.8	63.88
247.033	77.88
247.266	82.88
247.5	69.88
247.733	88.88
247.966	86.88
248.2	81.88
248.433	79.88
248.666	84.88
248.899	90.88
249.133	95.88
249.366	87.88
249.599	97.88
249.832	72.88
250.066	83.88
250.299	86.88
250.532	73.88
250.765	74.88
250.998	77.88
251.231	68.88
251.465	80.88
251.698	81.88
251.931	71.88
252.164	82.88
252.397	80.88
252.63	74.88
252.863	83.88
253.096	75.88
253.329	67.88
253.562	87.88
253.795	78.88
254.028	84.88
254.261	90.88
254.494	80.88
254.727	78.88
254.96	86.88
255.193	70.88
255.426	83.88
255.659	73.88
255.892	72.88
256.124	78.88
256.357	71.88
256.59	68.88
256.823	67.88
257.056	78.88
257.289	92.88
257.521	80.88
257.754	65.88
257.987	98.88
258.22	80.88
258.452	78.88
258.685	87.88
258.918	76.88
259.151	67.88
259.383	86.88
259.616	80.88
259.849	84.88
260.081	99.88
260.314	65.88
260.547	83.88
260.779	75.88
261.012	72.88
261.244	90.88
261.477	87.88
261.71	97.88
261.942	90.88
262.175	91.88
262.407	73.88
262.64	82.88
262.872	80.88
263.105	78.88
263.337	83.88
263.57	87.88
263.802	79.88
264.035	87.88
264.267	91.88
264.499	87.88
264.732	89.88
264.964	93.88
265.197	72.88
265.429	86.88
265.661	90.88
265.894	79.88
266.126	90.88
266.358	74.88
266.591	79.88
266.823	84.88
267.055	78.88
267.287	71.88
267.52	84.88
267.752	70.88
267.984	71.88
268.216	80.88
268.448	78.88
268.681	71.88
268.913	88.88
269.145	71.88
269.377	80.88
269.609	83.88
269.841	82.88
270.073	82.88
270.306	75.88
270.538	91.88
270.77	69.88
271.002	72.88
271.234	79.88
271.466	78.88
271.698	72.88
271.93	78.88
272.162	91.88
272.394	89.88
272.626	76.88
272.858	67.88
273.09	81.88
273.322	89.88
273.553	86.88
273.785	85.88
274.017	91.88
274.249	86.88
274.481	82.88
274.713	82.88
274.945	84.88
275.176	84.88
275.408	94.88
275.64	93.88
275.872	78.88
276.104	85.88
276.335	93.88
276.567	92.88
276.799	97.88
277.031	82.88
277.262	87.88
277.494	75.88
277.726	76.88
277.957	79.88
278.189	84.88
278.421	75.88
278.652	81.88
278.884	80.88
279.115	76.88
279.347	90.88
279.579	88.88
279.81	88.88
280.042	84.88
280.273	98.88
280.505	87.88
280.736	75.88
280.968	86.88
281.199	72.88
281.431	80.88
281.662	102.88
281.894	86.88
282.125	93.88
282.356	115.88
282.588	124.88
282.819	94.88
283.051	90.88
283.282	73.88
283.513	83.88
283.745	96.88
283.976	88.88
284.207	86.88
284.439	70.88
284.67	82.88
284.901	76.88
285.132	94.88
285.364	87.88
285.595	77.88
285.826	79.88
286.057	81.88
286.288	84.88
286.52	87.88
286.751	82.88
286.982	63.88
287.213	71.88
287.444	84.88
287.675	81.88
287.906	74.88
288.138	66.88
288.369	94.88
288.6	73.88
288.831	75.88
289.062	84.88
289.293	85.88
289.524	72.88
289.755	93.88
289.986	90.88
290.217	85.88
290.448	89.88
290.679	84.88
290.91	83.88
291.141	83.88
291.371	102.88
291.602	92.88
291.833	81.88
292.064	79.88
292.295	76.88
292.526	80.88
292.757	61.88
292.987	83.88
293.218	74.88
293.449	80.88
293.68	92.88
293.91	88.88
294.141	100.88
294.372	82.88
294.603	83.88
294.833	95.88
295.064	90.88
295.295	66.88
295.525	70.88
295.756	87.88
295.987	92.88
296.217	122.88
296.448	104.88
296.679	87.88
296.909	83.88
297.14	86.88
297.37	78.88
297.601	88.88
297.831	96.88
298.062	88.88
298.292	85.88
298.523	89.88
298.753	78.88
298.984	87.88
299.214	89.88
299.445	77.88
299.675	90.88
299.905	88.88
300.136	78.88
300.366	84.88
300.597	87.88
300.827	91.88
301.057	88.88
301.288	96.88
301.518	86.88
301.748	88.88
301.979	105.88
302.209	76.88
302.439	83.88
302.669	89.88
302.9	79.88
303.13	74.88
303.36	86.88
303.59	92.88
303.82	108.88
304.051	90.88
304.281	78.88
304.511	90.88
304.741	90.88
304.971	94.88
305.201	82.88
305.431	89.88
305.661	73.88
305.891	98.88
306.121	87.88
306.352	88.88
306.582	90.88
306.812	93.88
307.042	82.88
307.272	106.88
307.502	88.88
307.731	86.88
307.961	91.88
308.191	82.88
308.421	96.88
308.651	100.88
308.881	97.88
309.111	80.88
309.341	84.88
309.571	86.88
309.8	82.88
310.03	73.88
310.26	91.88
310.49	88.88
310.72	86.88
310.949	98.88
311.179	108.88
311.409	92.88
311.639	95.88
311.868	86.88
312.098	88.88
312.328	88.88
312.557	94.88
312.787	85.88
313.017	90.88
313.246	93.88
313.476	88.88
313.706	94.88
313.935	93.88
314.165	80.88
314.394	92.88
314.624	79.88
314.853	93.88
315.083	92.88
315.312	103.88
315.542	94.88
315.771	78.88
316.001	98.88
316.23	79.88
316.46	82.88
316.689	78.88
316.919	106.88
317.148	97.88
317.377	88.88
317.607	97.88
317.836	88.88
318.065	78.88
318.295	77.88
318.524	89.88
318.753	105.88
318.983	87.88
319.212	88.88
319.441	109.88
319.67	100.88
319.9	91.88
320.129	73.88
320.358	88.88
320.587	90.88
320.816	92.88
321.046	97.88
321.275	92.88
321.504	90.88
321.733	76.88
321.962	82.88
322.191	94.88
322.42	90.88
322.649	94.88
322.878	105.88
323.108	108.88
323.337	109.88
323.566	114.88
323.795	123.88
324.024	170.88
324.253	278.88
324.482	600.88
324.71	1193.88
324.939	1570.88
325.168	610.88
325.397	200.88
325.626	126.88
325.855	109.88
326.084	119.88
326.313	106.88
326.542	114.88
326.77	185.88
326.999	343.88
327.228	667.88
327.457	1228.88
327.686	973.88
327.914	288.88
328.143	164.88
328.372	139.88
328.6	115.88
328.829	96.88
329.058	106.88
329.287	99.88
329.515	98.88
329.744	89.88
329.972	104.88
330.201	96.88
330.43	128.88
330.658	107.88
330.887	117.88
331.115	120.88
331.344	90.88
331.572	94.88
331.801	86.88
332.03	86.88
332.258	91.88
332.486	95.88
332.715	83.88
332.943	83.88
333.172	89.88
333.4	105.88
333.629	93.88
333.857	100.88
334.085	104.88
334.314	100.88
334.542	111.88
334.771	116.88
334.999	103.88
335.227	96.88
335.455	99.88
335.684	99.88
335.912	86.88
336.14	83.88
336.369	95.88
336.597	106.88
336.825	105.88
337.053	80.88
337.281	96.88
337.51	89.88
337.738	86.88
337.966	89.88
338.194	96.88
338.422	82.88
338.65	92.88
338.878	90.88
339.106	93.88
339.334	84.88
339.562	87.88
339.79	87.88
340.018	86.88
340.246	84.88
340.474	91.88
340.702	87.88
340.93	91.88
341.158	84.88
341.386	72.88
341.614	84.88
341.842	83.88
342.07	84.88
342.298	87.88
342.526	87.88
342.754	88.88
342.981	87.88
343.209	95.88
343.437	103.88
343.665	97.88
343.893	88.88
344.12	91.88
344.348	95.88
344.576	86.88
344.804	98.88
345.031	94.88
345.259	87.88
345.487	96.88
345.714	90.88
345.942	74.88
346.17	96.88
346.397	108.88
346.625	92.88
346.853	87.88
347.08	88.88
347.308	87.88
347.535	91.88
347.763	103.88
347.99	91.88
348.218	84.88
348.445	84.88
348.673	88.88
348.9	87.88
349.128	100.88
349.355	98.88
349.583	80.88
349.81	92.88
350.037	98.88
350.265	85.88
350.492	99.88
350.72	92.88
350.947	88.88
351.174	93.88
351.402	103.88
351.629	95.88
351.856	97.88
352.083	92.88
352.311	97.88
352.538	102.88
352.765	96.88
352.992	103.88
353.22	86.88
353.447	107.88
353.674	88.88
353.901	104.88
354.128	83.88
354.355	98.88
354.583	87.88
354.81	85.88
355.037	82.88
355.264	101.88
355.491	98.88
355.718	78.88
355.945	86.88
356.172	98.88
356.399	82.88
356.626	81.88
356.853	92.88
357.08	80.88
357.307	96.88
357.534	81.88
357.761	98.88
357.988	101.88
358.215	81.88
358.441	83.88
358.668	90.88
358.895	91.88
359.122	74.88
359.349	80.88
359.576	88.88
359.802	91.88
360.029	100.88
360.256	110.88
360.483	88.88
360.709	95.88
360.936	89.88
361.163	82.88
361.39	65.88
361.616	91.88
361.843	80.88
362.07	102.88
362.296	94.88
362.523	92.88
362.749	84.88
362.976	87.88
363.203	94.88
363.429	105.88
363.656	75.88
363.882	97.88
364.109	96.88
364.335	90.88
364.562	76.88
364.788	85.88
365.015	80.88
365.241	97.88
365.468	87.88
365.694	89.88
365.92	86.88
366.147	87.88
366.373	73.88
366.599	84.88
366.826	70.88
367.052	67.88
367.278	78.88
367.505	92.88
367.731	90.88
367.957	75.88
368.184	82.88
368.41	87.88
368.636	91.88
368.862	112.88
369.089	89.88
369.315	72.88
369.541	82.88
369.767	80.88
369.993	70.88
370.219	92.88
370.445	93.88
370.672	82.88
370.898	70.88
371.124	85.88
371.35	93.88
371.576	87.88
371.802	75.88
372.028	88.88
372.254	88.88
372.48	95.88
372.706	87.88
372.932	78.88
373.158	84.88
373.384	75.88
373.61	89.88
373.835	82.88
374.061	67.88
374.287	99.88
374.513	88.88
374.739	87.88
374.965	86.88
375.191	93.88
375.416	80.88
375.642	88.88
375.868	105.88
376.094	88.88
376.319	91.88
376.545	100.88
376.771	75.88
376.997	88.88
377.222	88.88
377.448	98.88
377.674	67.88
377.899	92.88
378.125	82.88
378.35	96.88
378.576	89.88
378.802	85.88
379.027	83.88
379.253	88.88
379.478	84.88
379.704	88.88
379.929	101.88
380.155	94.88
380.38	96.88
380.606	88.88
380.831	89.88
381.057	106.88
381.282	87.88
381.507	90.88
381.733	84.88
381.958	100.88
382.184	98.88
382.409	99.88
382.634	102.88
382.86	102.88
383.085	105.88
383.31	94.88
383.535	100.88
383.761	85.88
383.986	111.88
384.211	85.88
384.436	102.88
384.662	107.88
384.887	90.88
385.112	97.88
385.337	93.88
385.562	110.88
385.787	87.88
386.013	94.88
386.238	90.88
386.463	97.88
386.688	109.88
386.913	100.88
387.138	109.88
387.363	97.88
387.588	100.88
387.813	96.88
388.038	117.88
388.263	99.88
388.488	108.88
388.713	87.88
388.938	82.88
389.163	70.88
389.387	93.88
389.612	84.88
389.837	78.88
390.062	94.88
390.287	98.88
390.512	75.88
390.736	94.88
390.961	82.88
391.186	89.88
391.411	87.88
391.636	89.88
391.86	80.88
392.085	65.88
392.31	80.88
392.534	71.88
392.759	80.88
392.984	94.88
393.208	79.88
393.433	89.88
393.658	75.88
393.882	90.88
394.107	91.88
394.331	73.88
394.556	92.88
394.78	92.88
395.005	86.88
395.229	77.88
395.454	79.88
395.678	80.88
395.903	71.88
396.127	90.88
396.352	82.88
396.576	90.88
396.801	80.88
397.025	66.88
397.249	74.88
397.474	91.88
397.698	82.88
397.922	89.88
398.147	87.88
398.371	79.88
398.595	88.88
398.82	75.88
399.044	68.88
399.268	86.88
399.492	78.88
399.717	84.88
399.941	83.88
400.165	80.88
400.389	82.88
400.613	79.88
400.837	82.88
401.062	105.88
401.286	88.88
401.51	83.88
401.734	76.88
401.958	75.88
402.182	98.88
402.406	133.88
402.63	113.88
402.854	94.88
403.078	86.88
403.302	74.88
403.526	94.88
403.75	80.88
403.974	91.88
404.198	74.88
404.422	82.88
404.645	103.88
404.869	84.88
405.093	90.88
405.317	86.88
405.541	76.88
405.765	93.88
405.988	112.88
406.212	139.88
406.436	169.88
406.66	128.88
406.883	88.88
407.107	87.88
407.331	86.88
407.555	97.88
407.778	97.88
408.002	83.88
408.226	89.88
408.449	83.88
408.673	68.88
408.896	87.88
409.12	72.88
409.344	96.88
409.567	83.88
409.791	86.88
410.014	82.88
410.238	91.88
410.461	88.88
410.685	91.88
410.908	69.88
411.132	88.88
411.355	94.88
411.578	91.88
411.802	89.88
412.025	88.88
412.249	80.88
412.472	87.88
412.695	104.88
412.919	100.88
413.142	89.88
413.365	78.88
413.589	97.88
413.812	79.88
414.035	91.88
414.258	90.88
414.482	88.88
414.705	61.88
414.928	82.88
415.151	87.88
415.374	94.88
415.597	89.88
415.821	87.88
416.044	86.88
416.267	76.88
416.49	90.88
416.713	96.88
416.936	76.88
417.159	79.88
417.382	87.88
417.605	85.88
417.828	93.88
418.051	80.88
418.274	88.88
418.497	90.88
418.72	79.88
418.943	90.88
419.166	82.88
419.389	91.88
419.611	80.88
419.834	77.88
420.057	96.88
420.28	82.88
420.503	84.88
420.726	92.88
420.948	91.88
421.171	82.88
421.394	82.88
421.617	79.88
421.839	82.88
422.062	93.88
422.285	80.88
422.507	106.88
422.73	81.88
422.953	83.88
423.175	69.88
423.398	91.88
423.621	77.88
423.843	97.88
424.066	98.88
424.288	81.88
424.511	83.88
424.733	99.88
424.956	96.88
425.178	101.88
425.401	82.88
425.623	97.88
425.846	89.88
426.068	92.88
426.291	86.88
426.513	96.88
426.735	104.88
426.958	94.88
427.18	89.88
427.402	103.88
427.625	129.88
427.847	113.88
428.069	96.88
428.292	70.88
428.514	81.88
428.736	75.88
428.958	81.88
429.181	80.88
429.403	84.88
429.625	65.88
429.847	87.88
430.069	76.88
430.292	84.88
430.514	75.88
430.736	81.88
430.958	82.88
431.18	74.88
431.402	72.88
431.624	79.88
431.846	83.88
432.068	94.88
432.29	78.88
432.512	87.88
432.734	88.88
432.956	91.88
433.178	96.88
433.4	95.88
433.622	83.88
433.844	87.88
434.066	75.88
434.287	82.88
434.509	75.88
434.731	90.88
434.953	80.88
435.175	79.88
435.397	99.88
435.618	89.88
435.84	87.88
436.062	95.88
436.284	108.88
436.505	88.88
436.727	94.88
436.949	98.88
437.17	88.88
437.392	88.88
437.614	85.88
437.835	97.88
438.057	114.88
438.278	91.88
438.5	99.88
438.721	108.88
438.943	91.88
439.165	89.88
439.386	84.88
439.608	90.88
439.829	87.88
440.05	104.88
440.272	123.88
440.493	91.88
440.715	78.88
440.936	99.88
441.158	91.88
441.379	78.88
441.6	88.88
441.822	92.88
442.043	74.88
442.264	85.88
442.486	83.88
442.707	75.88
442.928	89.88
443.149	122.88
443.371	107.88
443.592	90.88
443.813	106.88
444.034	90.88
444.255	87.88
444.476	83.88
444.698	96.88
444.919	83.88
445.14	115.88
445.361	110.88
445.582	98.88
445.803	106.88
446.024	98.88
446.245	103.88
446.466	108.88
446.687	86.88
446.908	95.88
447.129	76.88
447.35	108.88
447.571	93.88
447.792	76.88
448.013	88.88
448.234	107.88
448.455	99.88
448.675	92.88
448.896	106.88
449.117	85.88
449.338	87.88
449.559	103.88
449.779	104.88
450	87.88
450.221	94.88
450.442	85.88
450.662	85.88
450.883	96.88
451.104	84.88
451.324	91.88
451.545	69.88
451.766	86.88
451.986	83.88
452.207	96.88
452.428	82.88
452.648	81.88
452.869	107.88
453.089	101.88
453.31	112.88
453.53	88.88
453.751	81.88
453.971	88.88
454.192	92.88
454.412	84.88
454.633	88.88
454.853	71.88
455.073	78.88
455.294	62.88
455.514	96.88
455.734	81.88
455.955	76.88
456.175	86.88
456.395	82.88
456.616	86.88
456.836	90.88
457.056	83.88
457.276	67.88
457.497	90.88
457.717	80.88
457.937	73.88
458.157	90.88
458.377	84.88
458.598	98.88
458.818	131.88
459.038	128.88
459.258	98.88
459.478	98.88
459.698	81.88
459.918	88.88
460.138	75.88
460.358	71.88
460.578	81.88
460.798	102.88
461.018	74.88
461.238	74.88
461.458	76.88
461.678	74.88
461.898	94.88
462.118	99.88
462.338	83.88
462.558	73.88
462.777	73.88
462.997	74.88
463.217	91.88
463.437	88.88
463.657	86.88
463.876	87.88
464.096	88.88
464.316	81.88
464.536	69.88
464.755	91.88
464.975	90.88
465.195	139.88
465.414	137.88
465.634	91.88
465.854	75.88
466.073	75.88
466.293	94.88
466.512	82.88
466.732	87.88
466.951	85.88
467.171	89.88
467.391	77.88
467.61	87.88
467.829	90.88
468.049	87.88
468.268	87.88
468.488	81.88
468.707	70.88
468.927	84.88
469.146	72.88
469.365	100.88
469.585	111.88
469.804	91.88
470.023	90.88
470.243	79.88
470.462	87.88
470.681	96.88
470.901	104.88
471.12	75.88
471.339	92.88
471.558	99.88
471.777	92.88
471.997	86.88
472.216	106.88
472.435	115.88
472.654	86.88
472.873	78.88
473.092	91.88
473.311	77.88
473.53	83.88
473.749	83.88
473.968	91.88
474.187	87.88
474.406	90.88
474.625	82.88
474.844	88.88
475.063	86.88
475.282	84.88
475.501	85.88
475.72	79.88
475.939	81.88
476.158	79.88
476.377	80.88
476.596	67.88
476.814	79.88
477.033	94.88
477.252	100.88
477.471	97.88
477.69	80.88
477.908	90.88
478.127	66.88
478.346	86.88
478.564	85.88
478.783	92.88
479.002	102.88
479.22	89.88
479.439	89.88
479.658	99.88
479.876	96.88
480.095	92.88
480.313	92.88
480.532	81.88
480.751	84.88
480.969	114.88
481.188	180.88
481.406	123.88
481.624	85.88
481.843	72.88
482.061	89.88
482.28	80.88
482.498	80.88
482.717	86.88
482.935	85.88
483.153	86.88
483.372	96.88
483.59	90.88
483.808	83.88
484.027	79.88
484.245	77.88
484.463	91.88
484.681	88.88
484.9	86.88
485.118	94.88
485.336	86.88
485.554	102.88
485.772	94.88
485.99	98.88
486.209	108.88
486.427	94.88
486.645	90.88
486.863	95.88
487.081	100.88
487.299	92.88
487.517	86.88
487.735	86.88
487.953	99.88
488.171	99.88
488.389	87.88
488.607	85.88
488.825	95.88
489.043	84.88
489.261	93.88
489.479	82.88
489.696	68.88
489.914	82.88
490.132	86.88
490.35	88.88
490.568	78.88
490.786	85.88
491.003	80.88
491.221	83.88
491.439	83.88
491.657	106.88
491.874	92.88
492.092	92.88
492.31	86.88
492.527	75.88
492.745	89.88
492.963	98.88
493.18	84.88
493.398	89.88
493.615	90.88
493.833	101.88
494.05	79.88
494.268	81.88
494.485	83.88
494.703	96.88
494.92	87.88
495.138	83.88
495.355	89.88
495.573	83.88
495.79	88.88
496.008	81.88
496.225	94.88
496.442	89.88
496.66	77.88
496.877	93.88
497.094	92.88
497.312	101.88
497.529	95.88
497.746	89.88
497.963	81.88
498.181	85.88
498.398	102.88
498.615	101.88
498.832	87.88
499.049	88.88
499.267	97.88
499.484	88.88
499.701	90.88
499.918	88.88
500.135	79.88
500.352	88.88
500.569	90.88
500.786	80.88
501.003	89.88
501.22	74.88
501.437	80.88
501.654	90.88
501.871	102.88
502.088	98.88
502.305	85.88
502.522	84.88
502.739	87.88
502.956	73.88
503.172	88.88
503.389	82.88
503.606	95.88
503.823	83.88
504.04	95.88
504.256	88.88
504.473	110.88
504.69	80.88
504.907	95.88
505.123	89.88
505.34	80.88
505.557	82.88
505.773	88.88
505.99	89.88
506.207	82.88
506.423	83.88
506.64	86.88
506.856	91.88
507.073	81.88
507.289	86.88
507.506	87.88
507.722	99.88
507.939	97.88
508.155	79.88
508.372	70.88
508.588	78.88
508.805	101.88
509.021	91.88
509.238	84.88
509.454	100.88
509.67	98.88
509.887	82.88
510.103	113.88
510.319	192.88
510.536	569.88
510.752	1718.88
510.968	488.88
511.184	133.88
511.401	94.88
511.617	103.88
511.833	103.88
512.049	104.88
512.265	96.88
512.481	80.88
512.698	93.88
512.914	98.88
513.13	107.88
513.346	82.88
513.562	82.88
513.778	92.88
513.994	83.88
514.21	88.88
514.426	106.88
514.642	112.88
514.858	97.88
515.074	147.88
515.29	331.88
515.506	1056.88
515.721	378.88
515.937	128.88
516.153	88.88
516.369	91.88
516.585	78.88
516.801	90.88
517.016	93.88
517.232	74.88
517.448	94.88
517.664	93.88
