Data from Circ_1980_H10_HRD10591_00083.txt Node
Date: Wed Jan 03 12:38:14 EST 2024
User: Yrep
Spectrometer: HR+D1059
Trigger mode: 1
Integration Time (sec): 1.000000E-1
Scans to average: 1
Electric dark correction enabled: true
Nonlinearity correction enabled: false
Boxcar width: 0
XAxis mode: Wavelengths
Number of Pixels in Spectrum: 2048
>>>>>Begin Spectral Data<<<<<
223.165	-20
223.4	-20
223.635	-20
223.869	-29
224.104	-20
224.338	-18
224.573	-18
224.808	-20
225.042	7
225.277	-6
225.511	-6
225.746	0
225.98	9
226.215	17
226.449	22
226.683	21
226.918	21
227.152	40
227.387	47
227.621	43
227.856	47
228.09	48
228.324	60
228.559	67
228.793	62
229.027	70
229.262	66
229.496	60
229.73	85
229.964	76
230.199	87
230.433	88
230.667	76
230.901	96
231.136	89
231.37	85
231.604	77
231.838	90
232.072	79
232.306	79
232.541	77
232.775	83
233.009	82
233.243	85
233.477	88
233.711	91
233.945	76
234.179	85
234.413	72
234.647	97
234.881	77
235.115	74
235.349	74
235.583	82
235.817	86
236.051	72
236.285	63
236.519	86
236.753	82
236.987	66
237.221	77
237.455	85
237.689	77
237.922	84
238.156	82
238.39	74
238.624	79
238.858	79
239.091	74
239.325	63
239.559	72
239.793	84
240.027	78
240.26	74
240.494	82
240.728	60
240.961	77
241.195	78
241.429	72
241.662	78
241.896	99
242.13	70
242.363	63
242.597	76
242.83	79
243.064	84
243.298	87
243.531	76
243.765	82
243.998	63
244.232	88
244.465	79
244.699	80
244.932	86
245.166	89
245.399	74
245.633	76
245.866	86
246.099	87
246.333	68
246.566	68
246.8	74
247.033	74
247.266	67
247.5	82
247.733	82
247.966	92
248.2	68
248.433	84
248.666	88
248.899	84
249.133	85
249.366	80
249.599	89
249.832	91
250.066	86
250.299	79
250.532	70
250.765	62
250.998	74
251.231	86
251.465	75
251.698	79
251.931	73
252.164	78
252.397	88
252.63	85
252.863	82
253.096	69
253.329	76
253.562	82
253.795	93
254.028	76
254.261	90
254.494	74
254.727	77
254.96	71
255.193	73
255.426	85
255.659	65
255.892	80
256.124	83
256.357	79
256.59	80
256.823	67
257.056	86
257.289	89
257.521	92
257.754	62
257.987	78
258.22	82
258.452	92
258.685	91
258.918	79
259.151	70
259.383	79
259.616	90
259.849	86
260.081	76
260.314	96
260.547	83
260.779	78
261.012	92
261.244	78
261.477	88
261.71	91
261.942	92
262.175	103
262.407	90
262.64	93
262.872	86
263.105	87
263.337	76
263.57	82
263.802	83
264.035	79
264.267	72
264.499	95
264.732	74
264.964	76
265.197	84
265.429	83
265.661	92
265.894	85
266.126	88
266.358	87
266.591	83
266.823	86
267.055	77
267.287	88
267.52	88
267.752	72
267.984	91
268.216	89
268.448	76
268.681	74
268.913	84
269.145	87
269.377	77
269.609	84
269.841	79
270.073	96
270.306	77
270.538	76
270.77	100
271.002	89
271.234	87
271.466	98
271.698	89
271.93	92
272.162	86
272.394	84
272.626	91
272.858	86
273.09	72
273.322	73
273.553	88
273.785	89
274.017	80
274.249	90
274.481	106
274.713	99
274.945	83
275.176	99
275.408	77
275.64	78
275.872	95
276.104	87
276.335	101
276.567	102
276.799	98
277.031	93
277.262	98
277.494	88
277.726	92
277.957	82
278.189	99
278.421	102
278.652	94
278.884	90
279.115	83
279.347	98
279.579	82
279.81	79
280.042	75
280.273	84
280.505	83
280.736	86
280.968	90
281.199	99
281.431	74
281.662	90
281.894	90
282.125	99
282.356	113
282.588	110
282.819	108
283.051	81
283.282	70
283.513	91
283.745	80
283.976	88
284.207	86
284.439	88
284.67	99
284.901	92
285.132	82
285.364	93
285.595	87
285.826	91
286.057	94
286.288	88
286.52	74
286.751	94
286.982	66
287.213	89
287.444	86
287.675	89
287.906	83
288.138	79
288.369	93
288.6	99
288.831	82
289.062	85
289.293	83
289.524	83
289.755	78
289.986	92
290.217	93
290.448	88
290.679	92
290.91	91
291.141	96
291.371	87
291.602	93
291.833	88
292.064	86
292.295	95
292.526	87
292.757	90
292.987	108
293.218	86
293.449	79
293.68	82
293.91	90
294.141	91
294.372	109
294.603	96
294.833	93
295.064	89
295.295	94
295.525	88
295.756	68
295.987	96
296.217	102
296.448	116
296.679	96
296.909	94
297.14	98
297.37	80
297.601	77
297.831	78
298.062	98
298.292	82
298.523	86
298.753	89
298.984	95
299.214	86
299.445	90
299.675	100
299.905	84
300.136	75
300.366	98
300.597	99
300.827	82
301.057	102
301.288	87
301.518	89
301.748	86
301.979	96
302.209	88
302.439	95
302.669	84
302.9	87
303.13	95
303.36	92
303.59	84
303.82	99
304.051	89
304.281	93
304.511	101
304.741	101
304.971	75
305.201	94
305.431	83
305.661	79
305.891	88
306.121	88
306.352	96
306.582	105
306.812	79
307.042	89
307.272	83
307.502	75
307.731	92
307.961	93
308.191	86
308.421	83
308.651	79
308.881	95
309.111	86
309.341	98
309.571	97
309.8	100
310.03	91
310.26	82
310.49	104
310.72	98
310.949	108
311.179	101
311.409	117
311.639	107
311.868	95
312.098	106
312.328	94
312.557	98
312.787	86
313.017	92
313.246	94
313.476	86
313.706	100
313.935	83
314.165	96
314.394	101
314.624	100
314.853	85
315.083	94
315.312	106
315.542	82
315.771	81
316.001	90
316.23	89
316.46	87
316.689	93
316.919	88
317.148	103
317.377	89
317.607	102
317.836	87
318.065	91
318.295	89
318.524	92
318.753	82
318.983	82
319.212	95
319.441	103
319.67	100
319.9	88
320.129	85
320.358	92
320.587	91
320.816	95
321.046	96
321.275	103
321.504	90
321.733	90
321.962	104
322.191	93
322.42	92
322.649	101
322.878	109
323.108	98
323.337	119
323.566	100
323.795	127
324.024	172
324.253	300
324.482	572
324.71	1161
324.939	1479
325.168	576
325.397	187
325.626	138
325.855	104
326.084	122
326.313	111
326.542	128
326.77	181
326.999	311
327.228	670
327.457	1216
327.686	951
327.914	286
328.143	172
328.372	139
328.6	113
328.829	105
329.058	111
329.287	105
329.515	120
329.744	102
329.972	103
330.201	117
330.43	121
330.658	115
330.887	117
331.115	116
331.344	96
331.572	85
331.801	88
332.03	101
332.258	91
332.486	100
332.715	76
332.943	87
333.172	104
333.4	80
333.629	106
333.857	107
334.085	103
334.314	98
334.542	132
334.771	121
334.999	94
335.227	102
335.455	94
335.684	87
335.912	93
336.14	100
336.369	100
336.597	119
336.825	98
337.053	103
337.281	93
337.51	102
337.738	87
337.966	76
338.194	82
338.422	94
338.65	92
338.878	102
339.106	94
339.334	102
339.562	90
339.79	98
340.018	97
340.246	88
340.474	92
340.702	84
340.93	85
341.158	103
341.386	95
341.614	88
341.842	106
342.07	90
342.298	85
342.526	86
342.754	97
342.981	81
343.209	91
343.437	98
343.665	79
343.893	93
344.12	101
344.348	74
344.576	78
344.804	74
345.031	82
345.259	86
345.487	94
345.714	91
345.942	87
346.17	76
346.397	98
346.625	96
346.853	70
347.08	82
347.308	86
347.535	91
347.763	98
347.99	94
348.218	98
348.445	74
348.673	87
348.9	92
349.128	103
349.355	82
349.583	100
349.81	88
350.037	92
350.265	89
350.492	87
350.72	98
350.947	95
351.174	114
351.402	88
351.629	99
351.856	94
352.083	99
352.311	106
352.538	115
352.765	84
352.992	111
353.22	110
353.447	95
353.674	95
353.901	93
354.128	102
354.355	87
354.583	111
354.81	99
355.037	103
355.264	105
355.491	90
355.718	101
355.945	91
356.172	101
356.399	93
356.626	87
356.853	85
357.08	100
357.307	106
357.534	85
357.761	89
357.988	101
358.215	94
358.441	98
358.668	86
358.895	89
359.122	101
359.349	92
359.576	85
359.802	101
360.029	103
360.256	100
360.483	96
360.709	94
360.936	85
361.163	90
361.39	93
361.616	88
361.843	94
362.07	91
362.296	105
362.523	90
362.749	86
362.976	80
363.203	91
363.429	82
363.656	90
363.882	100
364.109	98
364.335	100
364.562	89
364.788	94
365.015	102
365.241	101
365.468	107
365.694	110
365.92	87
366.147	82
366.373	85
366.599	99
366.826	94
367.052	98
367.278	98
367.505	85
367.731	96
367.957	83
368.184	89
368.41	100
368.636	96
368.862	112
369.089	104
369.315	95
369.541	96
369.767	91
369.993	100
370.219	96
370.445	80
370.672	77
370.898	85
371.124	87
371.35	67
371.576	86
371.802	88
372.028	89
372.254	82
372.48	88
372.706	86
372.932	86
373.158	89
373.384	102
373.61	78
373.835	107
374.061	87
374.287	100
374.513	98
374.739	92
374.965	92
375.191	86
375.416	74
375.642	96
375.868	73
376.094	84
376.319	88
376.545	76
376.771	79
376.997	92
377.222	92
377.448	79
377.674	103
377.899	95
378.125	91
378.35	81
378.576	90
378.802	83
379.027	94
379.253	91
379.478	92
379.704	98
379.929	100
380.155	98
380.38	91
380.606	85
380.831	89
381.057	102
381.282	117
381.507	99
381.733	93
381.958	95
382.184	89
382.409	89
382.634	93
382.86	104
383.085	103
383.31	98
383.535	100
383.761	92
383.986	99
384.211	104
384.436	101
384.662	96
384.887	104
385.112	101
385.337	104
385.562	108
385.787	111
386.013	99
386.238	101
386.463	99
386.688	92
386.913	105
387.138	86
387.363	103
387.588	100
387.813	99
388.038	102
388.263	110
388.488	108
388.713	104
388.938	102
389.163	113
389.387	88
389.612	89
389.837	83
390.062	98
390.287	98
390.512	96
390.736	88
390.961	89
391.186	102
391.411	87
391.636	99
391.86	93
392.085	75
392.31	75
392.534	72
392.759	92
392.984	86
393.208	98
393.433	99
393.658	89
393.882	91
394.107	84
394.331	96
394.556	88
394.78	100
395.005	86
395.229	94
395.454	87
395.678	91
395.903	79
396.127	90
396.352	79
396.576	85
396.801	82
397.025	86
397.249	89
397.474	93
397.698	83
397.922	79
398.147	82
398.371	74
398.595	83
398.82	103
399.044	79
399.268	82
399.492	86
399.717	99
399.941	93
400.165	84
400.389	84
400.613	93
400.837	86
401.062	93
401.286	79
401.51	84
401.734	101
401.958	92
402.182	98
402.406	121
402.63	107
402.854	78
403.078	93
403.302	94
403.526	100
403.75	94
403.974	91
404.198	88
404.422	88
404.645	83
404.869	89
405.093	87
405.317	93
405.541	99
405.765	85
405.988	107
406.212	136
406.436	169
406.66	117
406.883	100
407.107	84
407.331	82
407.555	98
407.778	90
408.002	83
408.226	87
408.449	97
408.673	92
408.896	83
409.12	94
409.344	96
409.567	88
409.791	95
410.014	92
410.238	93
410.461	78
410.685	86
410.908	94
411.132	93
411.355	97
411.578	91
411.802	87
412.025	91
412.249	77
412.472	87
412.695	93
412.919	79
413.142	82
413.365	94
413.589	102
413.812	104
414.035	90
414.258	86
414.482	87
414.705	87
414.928	77
415.151	93
415.374	98
415.597	87
415.821	98
416.044	93
416.267	84
416.49	82
416.713	90
416.936	102
417.159	95
417.382	95
417.605	110
417.828	98
418.051	80
418.274	92
418.497	80
418.72	93
418.943	94
419.166	88
419.389	95
419.611	83
419.834	82
420.057	84
420.28	95
420.503	92
420.726	102
420.948	102
421.171	101
421.394	88
421.617	87
421.839	92
422.062	78
422.285	95
422.507	96
422.73	105
422.953	83
423.175	87
423.398	80
423.621	86
423.843	99
424.066	80
424.288	98
424.511	94
424.733	103
424.956	95
425.178	103
425.401	97
425.623	106
425.846	88
426.068	75
426.291	80
426.513	90
426.735	86
426.958	86
427.18	93
427.402	125
427.625	132
427.847	112
428.069	103
428.292	91
428.514	84
428.736	94
428.958	89
429.181	95
429.403	87
429.625	94
429.847	82
430.069	93
430.292	96
430.514	91
430.736	86
430.958	96
431.18	77
431.402	82
431.624	105
431.846	82
432.068	82
432.29	87
432.512	89
432.734	77
432.956	91
433.178	97
433.4	96
433.622	86
433.844	85
434.066	95
434.287	105
434.509	91
434.731	95
434.953	87
435.175	86
435.397	103
435.618	88
435.84	92
436.062	119
436.284	88
436.505	86
436.727	91
436.949	92
437.17	87
437.392	79
437.614	94
437.835	98
438.057	102
438.278	100
438.5	94
438.721	122
438.943	99
439.165	75
439.386	78
439.608	92
439.829	94
440.05	118
440.272	112
440.493	94
440.715	103
440.936	90
441.158	78
441.379	87
441.6	86
441.822	87
442.043	89
442.264	92
442.486	95
442.707	85
442.928	86
443.149	110
443.371	108
443.592	94
443.813	96
444.034	98
444.255	99
444.476	96
444.698	104
444.919	94
445.14	140
445.361	111
445.582	102
445.803	100
446.024	120
446.245	121
446.466	110
446.687	87
446.908	87
447.129	113
447.35	72
447.571	96
447.792	90
448.013	86
448.234	105
448.455	97
448.675	106
448.896	102
449.117	101
449.338	87
449.559	123
449.779	119
450	102
450.221	94
450.442	84
450.662	83
450.883	94
451.104	94
451.324	98
451.545	87
451.766	90
451.986	77
452.207	95
452.428	82
452.648	80
452.869	100
453.089	107
453.31	105
453.53	75
453.751	91
453.971	93
454.192	100
454.412	87
454.633	96
454.853	95
455.073	77
455.294	78
455.514	94
455.734	77
455.955	89
456.175	88
456.395	80
456.616	95
456.836	95
457.056	88
457.276	85
457.497	82
457.717	97
457.937	92
458.157	87
458.377	76
458.598	106
458.818	119
459.038	122
459.258	103
459.478	86
459.698	76
459.918	101
460.138	86
460.358	77
460.578	71
460.798	87
461.018	89
461.238	82
461.458	83
461.678	92
461.898	73
462.118	87
462.338	77
462.558	79
462.777	82
462.997	76
463.217	78
463.437	85
463.657	77
463.876	94
464.096	85
464.316	99
464.536	92
464.755	100
464.975	107
465.195	133
465.414	104
465.634	94
465.854	91
466.073	89
466.293	94
466.512	95
466.732	100
466.951	98
467.171	87
467.391	94
467.61	92
467.829	83
468.049	90
468.268	105
468.488	87
468.707	84
468.927	71
469.146	80
469.365	90
469.585	92
469.804	112
470.023	91
470.243	78
470.462	79
470.681	104
470.901	83
471.12	84
471.339	87
471.558	87
471.777	91
471.997	86
472.216	103
472.435	138
472.654	103
472.873	91
473.092	84
473.311	76
473.53	82
473.749	99
473.968	96
474.187	73
474.406	86
474.625	76
474.844	78
475.063	94
475.282	83
475.501	86
475.72	95
475.939	91
476.158	95
476.377	87
476.596	95
476.814	90
477.033	82
477.252	98
477.471	74
477.69	99
477.908	86
478.127	88
478.346	88
478.564	96
478.783	96
479.002	93
479.22	83
479.439	85
479.658	82
479.876	94
480.095	97
480.313	90
480.532	99
480.751	93
480.969	104
481.188	174
481.406	142
481.624	102
481.843	79
482.061	87
482.28	87
482.498	94
482.717	93
482.935	74
483.153	96
483.372	87
483.59	89
483.808	98
484.027	86
484.245	92
484.463	87
484.681	102
484.9	100
485.118	108
485.336	98
485.554	79
485.772	107
485.99	103
486.209	100
486.427	109
486.645	110
486.863	103
487.081	105
487.299	105
487.517	85
487.735	102
487.953	93
488.171	90
488.389	95
488.607	97
488.825	95
489.043	84
489.261	103
489.479	99
489.696	89
489.914	92
490.132	93
490.35	82
490.568	86
490.786	88
491.003	86
491.221	83
491.439	86
491.657	101
491.874	105
492.092	98
492.31	91
492.527	101
492.745	81
492.963	89
493.18	107
493.398	95
493.615	106
493.833	94
494.05	79
494.268	91
494.485	87
494.703	89
494.92	97
495.138	102
495.355	93
495.573	105
495.79	91
496.008	89
496.225	79
496.442	93
496.66	84
496.877	101
497.094	93
497.312	90
497.529	88
497.746	85
497.963	86
498.181	84
498.398	83
498.615	91
498.832	93
499.049	84
499.267	97
499.484	106
499.701	97
499.918	92
500.135	85
500.352	98
500.569	102
500.786	84
501.003	90
501.22	87
501.437	87
501.654	98
501.871	94
502.088	86
502.305	97
502.522	89
502.739	92
502.956	97
503.172	106
503.389	90
503.606	96
503.823	92
504.04	100
504.256	92
504.473	78
504.69	100
504.907	104
505.123	94
505.34	85
505.557	96
505.773	88
505.99	91
506.207	82
506.423	92
506.64	105
506.856	85
507.073	101
507.289	89
507.506	91
507.722	94
507.939	108
508.155	98
508.372	93
508.588	103
508.805	106
509.021	98
509.238	89
509.454	99
509.67	93
509.887	110
510.103	122
510.319	176
510.536	527
510.752	1618
510.968	466
511.184	128
511.401	93
511.617	86
511.833	88
512.049	85
512.265	96
512.481	89
512.698	85
512.914	85
513.13	96
513.346	92
513.562	83
513.778	93
513.994	90
514.21	102
514.426	98
514.642	115
514.858	109
515.074	139
515.29	320
515.506	961
515.721	372
515.937	126
516.153	96
516.369	85
516.585	93
516.801	88
517.016	96
517.232	94
517.448	107
517.664	100
517.879	109
518.095	94
518.311	86
518.527	103
518.742	90
518.958	85
519.173	91
519.389	92
519.605	96
519.82	101
520.036	92
520.251	111
520.467	111
520.682	101
520.898	93
521.113	115
521.329	112
521.544	141
521.76	377
521.975	1580
522.19	944
522.406	229
522.621	106
522.836	88
523.052	75
523.267	90
523.482	86
523.698	84
523.913	118
524.128	103
524.343	90
524.559	95
524.774	92
524.989	82
525.204	97
525.419	97
525.634	83
525.849	105
526.064	109
526.28	101
526.495	90
526.71	93
526.925	88
527.14	98
527.355	89
527.57	90
527.785	88
527.999	83
528.214	88
528.429	94
528.644	96
528.859	87
529.074	104
529.289	111
529.503	146
529.718	109
529.933	86
530.148	98
530.363	111
530.577	88
530.792	84
531.007	93
531.221	99
531.436	84
531.651	112
531.865	90
532.08	85
532.295	93
532.509	85
532.724	85
532.938	111
533.153	90
533.367	96
533.582	99
533.796	79
534.011	99
534.225	95
534.44	90
534.654	90
534.868	96
535.083	83
535.297	93
535.511	98
535.726	106
535.94	113
536.154	95
536.369	70
536.583	103
536.797	68
537.011	97
537.225	93
537.44	94
537.654	109
537.868	100
538.082	103
538.296	86
538.51	99
538.724	93
538.938	96
539.153	98
539.367	110
539.581	89
539.795	75
540.009	97
540.222	91
540.436	89
540.65	95
540.864	65
541.078	101
541.292	99
541.506	86
541.72	99
541.934	84
542.147	84
542.361	91
542.575	103
542.789	87
543.002	98
543.216	90
543.43	103
543.644	90
543.857	90
544.071	87
544.285	100
544.498	71
544.712	99
544.925	84
545.139	82
545.352	88
545.566	90
545.779	86
545.993	99
546.206	74
546.42	103
546.633	90
546.847	74
547.06	95
547.274	93
547.487	79
547.7	83
547.914	92
548.127	86
548.34	77
548.554	96
548.767	94
548.98	102
549.193	84
549.407	84
549.62	95
549.833	99
550.046	90
550.259	100
550.473	94
550.686	91
550.899	89
551.112	88
551.325	87
551.538	80
551.751	87
551.964	100
552.177	88
552.39	89
552.603	91
552.816	85
553.029	98
553.242	89
553.455	94
553.667	92
553.88	92
554.093	97
554.306	93
554.519	101
554.732	98
554.944	88
555.157	87
555.37	87
555.583	90
555.795	84
556.008	93
556.221	102
556.433	103
556.646	93
556.859	88
557.071	106
557.284	92
557.496	88
557.709	78
557.921	89
558.134	89
558.346	100
558.559	95
558.771	99
558.984	102
559.196	88
559.409	91
559.621	91
559.833	92
560.046	85
560.258	90
560.47	85
560.683	94
560.895	90
561.107	86
561.32	87
561.532	86
561.744	96
561.956	88
562.168	101
562.381	88
562.593	96
562.805	88
563.017	88
563.229	90
563.441	85
563.653	88
563.865	89
564.077	79
564.289	84
564.501	77
564.713	84
564.925	88
565.137	98
565.349	94
565.561	93
565.773	87
565.985	84
566.197	90
566.408	82
566.62	93
566.832	92
567.044	85
567.255	74
567.467	87
567.679	82
567.891	82
568.102	98
568.314	84
568.526	91
568.737	94
568.949	91
569.161	73
569.372	92
569.584	78
569.795	93
570.007	112
570.218	175
570.43	116
570.641	88
570.853	89
571.064	84
571.276	85
571.487	84
571.698	101
571.91	90
572.121	75
572.333	88
572.544	93
572.755	98
572.966	90
573.178	93
573.389	91
573.6	91
573.811	91
574.023	95
574.234	89
574.445	94
574.656	87
574.867	98
575.078	103
575.289	82
575.501	93
575.712	89
575.923	87
576.134	90
576.345	86
576.556	83
576.767	78
576.978	76
577.188	83
577.399	86
577.61	92
577.821	103
578.032	101
578.243	212
578.454	507
578.665	174
578.875	103
579.086	88
579.297	91
579.508	91
579.718	95
579.929	89
580.14	86
580.35	85
580.561	94
580.772	97
580.982	96
581.193	95
581.403	75
581.614	83
581.825	88
582.035	94
582.246	99
582.456	82
582.667	87
582.877	78
583.087	86
583.298	82
583.508	95
583.719	101
583.929	76
584.139	97
584.35	91
584.56	91
584.77	93
584.981	93
