Data from Circ_1980_H10_HRD10591_00023.txt Node
Date: Wed Jan 03 12:38:02 EST 2024
User: Yrep
Spectrometer: HR+D1059
Trigger mode: 1
Integration Time (sec): 1.000000E-1
Scans to average: 1
Electric dark correction enabled: true
Nonlinearity correction enabled: false
Boxcar width: 0
XAxis mode: Wavelengths
Number of Pixels in Spectrum: 2048
>>>>>Begin Spectral Data<<<<<
223.165	-12
223.4	-12
223.635	-12
223.869	-15
224.104	-16
224.338	-26
224.573	-15
224.808	-13
225.042	-11
225.277	-18
225.511	-5
225.746	15
225.98	10
226.215	15
226.449	13
226.683	19
226.918	23
227.152	36
227.387	52
227.621	53
227.856	46
228.09	48
228.324	58
228.559	55
228.793	54
229.027	56
229.262	54
229.496	62
229.73	89
229.964	80
230.199	69
230.433	82
230.667	74
230.901	75
231.136	95
231.37	94
231.604	74
231.838	78
232.072	73
232.306	70
232.541	83
232.775	81
233.009	74
233.243	86
233.477	93
233.711	91
233.945	84
234.179	80
234.413	87
234.647	106
234.881	72
235.115	80
235.349	81
235.583	81
235.817	67
236.051	74
236.285	73
236.519	84
236.753	86
236.987	78
237.221	70
237.455	78
237.689	78
237.922	60
238.156	79
238.39	80
238.624	79
238.858	66
239.091	58
239.325	70
239.559	70
239.793	80
240.027	84
240.26	82
240.494	86
240.728	82
240.961	63
241.195	75
241.429	71
241.662	72
241.896	67
242.13	92
242.363	78
242.597	75
242.83	78
243.064	86
243.298	80
243.531	70
243.765	79
243.998	73
244.232	78
244.465	71
244.699	86
244.932	76
245.166	68
245.399	77
245.633	81
245.866	86
246.099	76
246.333	94
246.566	68
246.8	78
247.033	61
247.266	73
247.5	68
247.733	92
247.966	81
248.2	89
248.433	95
248.666	83
248.899	85
249.133	76
249.366	79
249.599	92
249.832	86
250.066	75
250.299	84
250.532	83
250.765	86
250.998	74
251.231	82
251.465	75
251.698	78
251.931	78
252.164	68
252.397	84
252.63	83
252.863	84
253.096	91
253.329	86
253.562	71
253.795	76
254.028	101
254.261	90
254.494	78
254.727	95
254.96	88
255.193	85
255.426	82
255.659	70
255.892	80
256.124	64
256.357	80
256.59	101
256.823	71
257.056	75
257.289	77
257.521	84
257.754	69
257.987	73
258.22	77
258.452	88
258.685	98
258.918	81
259.151	84
259.383	87
259.616	83
259.849	65
260.081	63
260.314	77
260.547	90
260.779	92
261.012	87
261.244	75
261.477	86
261.71	88
261.942	109
262.175	105
262.407	91
262.64	80
262.872	76
263.105	80
263.337	86
263.57	82
263.802	94
264.035	80
264.267	76
264.499	82
264.732	82
264.964	95
265.197	93
265.429	85
265.661	82
265.894	76
266.126	72
266.358	84
266.591	87
266.823	73
267.055	78
267.287	76
267.52	75
267.752	80
267.984	86
268.216	82
268.448	86
268.681	92
268.913	90
269.145	87
269.377	72
269.609	86
269.841	82
270.073	79
270.306	82
270.538	88
270.77	83
271.002	71
271.234	87
271.466	93
271.698	79
271.93	80
272.162	78
272.394	106
272.626	87
272.858	82
273.09	78
273.322	78
273.553	72
273.785	74
274.017	78
274.249	78
274.481	93
274.713	88
274.945	91
275.176	82
275.408	102
275.64	91
275.872	86
276.104	89
276.335	91
276.567	87
276.799	106
277.031	92
277.262	98
277.494	107
277.726	104
277.957	86
278.189	95
278.421	89
278.652	85
278.884	98
279.115	80
279.347	77
279.579	82
279.81	100
280.042	90
280.273	78
280.505	76
280.736	95
280.968	88
281.199	82
281.431	86
281.662	92
281.894	89
282.125	88
282.356	103
282.588	130
282.819	103
283.051	85
283.282	84
283.513	82
283.745	84
283.976	99
284.207	82
284.439	88
284.67	67
284.901	91
285.132	84
285.364	76
285.595	91
285.826	78
286.057	79
286.288	100
286.52	84
286.751	88
286.982	76
287.213	68
287.444	96
287.675	96
287.906	95
288.138	93
288.369	95
288.6	95
288.831	70
289.062	88
289.293	94
289.524	80
289.755	93
289.986	87
290.217	94
290.448	84
290.679	79
290.91	90
291.141	100
291.371	92
291.602	87
291.833	78
292.064	84
292.295	105
292.526	76
292.757	85
292.987	90
293.218	95
293.449	102
293.68	86
293.91	89
294.141	83
294.372	94
294.603	71
294.833	87
295.064	93
295.295	75
295.525	100
295.756	103
295.987	114
296.217	117
296.448	101
296.679	98
296.909	72
297.14	89
297.37	99
297.601	97
297.831	89
298.062	75
298.292	84
298.523	82
298.753	94
298.984	90
299.214	90
299.445	89
299.675	89
299.905	97
300.136	97
300.366	83
300.597	98
300.827	86
301.057	115
301.288	102
301.518	88
301.748	83
301.979	86
302.209	83
302.439	102
302.669	92
302.9	102
303.13	92
303.36	100
303.59	96
303.82	94
304.051	89
304.281	99
304.511	90
304.741	93
304.971	101
305.201	90
305.431	88
305.661	102
305.891	95
306.121	107
306.352	96
306.582	100
306.812	101
307.042	104
307.272	95
307.502	105
307.731	100
307.961	89
308.191	88
308.421	93
308.651	86
308.881	91
309.111	96
309.341	91
309.571	101
309.8	103
310.03	104
310.26	97
310.49	88
310.72	100
310.949	98
311.179	99
311.409	91
311.639	87
311.868	107
312.098	94
312.328	98
312.557	101
312.787	104
313.017	115
313.246	100
313.476	102
313.706	85
313.935	85
314.165	94
314.394	102
314.624	95
314.853	102
315.083	87
315.312	90
315.542	101
315.771	92
316.001	98
316.23	95
316.46	93
316.689	103
316.919	89
317.148	85
317.377	106
317.607	84
317.836	86
318.065	89
318.295	89
318.524	78
318.753	88
318.983	93
319.212	98
319.441	93
319.67	94
319.9	96
320.129	92
320.358	86
320.587	116
320.816	102
321.046	87
321.275	98
321.504	93
321.733	97
321.962	112
322.191	104
322.42	104
322.649	104
322.878	105
323.108	94
323.337	111
323.566	110
323.795	141
324.024	153
324.253	308
324.482	611
324.71	1210
324.939	1607
325.168	587
325.397	206
325.626	123
325.855	114
326.084	118
326.313	111
326.542	124
326.77	190
326.999	360
327.228	726
327.457	1258
327.686	1004
327.914	308
328.143	172
328.372	126
328.6	107
328.829	122
329.058	119
329.287	120
329.515	111
329.744	100
329.972	102
330.201	118
330.43	124
330.658	104
330.887	128
331.115	103
331.344	91
331.572	107
331.801	101
332.03	99
332.258	112
332.486	98
332.715	91
332.943	99
333.172	89
333.4	97
333.629	92
333.857	107
334.085	104
334.314	110
334.542	118
334.771	119
334.999	103
335.227	94
335.455	93
335.684	99
335.912	95
336.14	88
336.369	87
336.597	94
336.825	86
337.053	85
337.281	86
337.51	100
337.738	95
337.966	99
338.194	87
338.422	96
338.65	106
338.878	69
339.106	75
339.334	92
339.562	88
339.79	87
340.018	94
340.246	97
340.474	112
340.702	84
340.93	75
341.158	94
341.386	86
341.614	97
341.842	102
342.07	92
342.298	99
342.526	103
342.754	87
342.981	104
343.209	102
343.437	94
343.665	102
343.893	74
344.12	100
344.348	79
344.576	84
344.804	80
345.031	97
345.259	98
345.487	96
345.714	96
345.942	95
346.17	86
346.397	88
346.625	96
346.853	102
347.08	89
347.308	92
347.535	87
347.763	99
347.99	82
348.218	89
348.445	110
348.673	102
348.9	113
349.128	88
349.355	78
349.583	90
349.81	88
350.037	86
350.265	94
350.492	83
350.72	93
350.947	108
351.174	106
351.402	110
351.629	111
351.856	96
352.083	107
352.311	102
352.538	103
352.765	110
352.992	111
353.22	122
353.447	101
353.674	97
353.901	100
354.128	94
354.355	91
354.583	109
354.81	90
355.037	106
355.264	95
355.491	94
355.718	94
355.945	90
356.172	85
356.399	91
356.626	96
356.853	107
357.08	97
357.307	82
357.534	96
357.761	100
357.988	118
358.215	96
358.441	107
358.668	97
358.895	91
359.122	101
359.349	91
359.576	94
359.802	97
360.029	105
360.256	101
360.483	80
360.709	91
360.936	94
361.163	96
361.39	100
361.616	94
361.843	104
362.07	91
362.296	90
362.523	96
362.749	88
362.976	93
363.203	107
363.429	82
363.656	96
363.882	90
364.109	95
364.335	101
364.562	88
364.788	94
365.015	111
365.241	99
365.468	104
365.694	106
365.92	82
366.147	83
366.373	83
366.599	94
366.826	88
367.052	96
367.278	87
367.505	86
367.731	86
367.957	101
368.184	94
368.41	94
368.636	101
368.862	99
369.089	96
369.315	100
369.541	84
369.767	87
369.993	101
370.219	97
370.445	109
370.672	75
370.898	75
371.124	86
371.35	86
371.576	77
371.802	76
372.028	112
372.254	90
372.48	100
372.706	92
372.932	90
373.158	90
373.384	83
373.61	81
373.835	94
374.061	91
374.287	93
374.513	92
374.739	85
374.965	78
375.191	76
375.416	86
375.642	94
375.868	105
376.094	103
376.319	89
376.545	80
376.771	96
376.997	96
377.222	98
377.448	100
377.674	98
377.899	101
378.125	90
378.35	98
378.576	90
378.802	98
379.027	94
379.253	88
379.478	77
379.704	78
379.929	84
380.155	93
380.38	95
380.606	103
380.831	101
381.057	91
381.282	108
381.507	96
381.733	101
381.958	101
382.184	99
382.409	103
382.634	104
382.86	100
383.085	95
383.31	97
383.535	112
383.761	98
383.986	103
384.211	98
384.436	110
384.662	96
384.887	112
385.112	104
385.337	117
385.562	135
385.787	115
386.013	126
386.238	112
386.463	104
386.688	116
386.913	112
387.138	111
387.363	118
387.588	96
387.813	101
388.038	110
388.263	116
388.488	131
388.713	110
388.938	102
389.163	105
389.387	95
389.612	94
389.837	87
390.062	97
390.287	85
390.512	85
390.736	95
390.961	84
391.186	88
391.411	87
391.636	92
391.86	82
392.085	100
392.31	85
392.534	89
392.759	88
392.984	88
393.208	91
393.433	85
393.658	74
393.882	94
394.107	93
394.331	82
394.556	82
394.78	93
395.005	73
395.229	99
395.454	93
395.678	86
395.903	82
396.127	86
396.352	91
396.576	101
396.801	79
397.025	79
397.249	87
397.474	91
397.698	94
397.922	92
398.147	83
398.371	94
398.595	87
398.82	89
399.044	99
399.268	88
399.492	88
399.717	89
399.941	105
400.165	108
400.389	91
400.613	84
400.837	96
401.062	92
401.286	87
401.51	87
401.734	85
401.958	90
402.182	116
402.406	136
402.63	107
402.854	102
403.078	69
403.302	88
403.526	73
403.75	90
403.974	73
404.198	92
404.422	93
404.645	82
404.869	95
405.093	75
405.317	82
405.541	112
405.765	88
405.988	104
406.212	155
406.436	175
406.66	126
406.883	91
407.107	104
407.331	85
407.555	102
407.778	102
408.002	88
408.226	91
408.449	80
408.673	66
408.896	102
409.12	78
409.344	85
409.567	90
409.791	79
410.014	93
410.238	94
410.461	80
410.685	91
410.908	82
411.132	98
411.355	96
411.578	83
411.802	93
412.025	98
412.249	102
412.472	100
412.695	94
412.919	98
413.142	86
413.365	72
413.589	89
413.812	90
414.035	101
414.258	106
414.482	86
414.705	92
414.928	100
415.151	80
415.374	70
415.597	94
415.821	96
416.044	92
416.267	95
416.49	78
416.713	92
416.936	89
417.159	94
417.382	94
417.605	90
417.828	91
418.051	95
418.274	96
418.497	100
418.72	90
418.943	96
419.166	96
419.389	71
419.611	92
419.834	88
420.057	96
420.28	79
420.503	84
420.726	88
420.948	102
421.171	96
421.394	92
421.617	88
421.839	86
422.062	91
422.285	94
422.507	99
422.73	94
422.953	82
423.175	91
423.398	94
423.621	85
423.843	95
424.066	82
424.288	90
424.511	74
424.733	95
424.956	93
425.178	105
425.401	90
425.623	89
425.846	84
426.068	100
426.291	95
426.513	88
426.735	96
426.958	80
427.18	79
427.402	102
427.625	137
427.847	124
428.069	118
428.292	102
428.514	89
428.736	79
428.958	96
429.181	94
429.403	75
429.625	87
429.847	93
430.069	95
430.292	79
430.514	88
430.736	73
430.958	86
431.18	98
431.402	88
431.624	88
431.846	84
432.068	90
432.29	93
432.512	83
432.734	78
432.956	90
433.178	92
433.4	101
433.622	87
433.844	91
434.066	95
434.287	87
434.509	89
434.731	77
434.953	105
435.175	79
435.397	94
435.618	100
435.84	87
436.062	117
436.284	95
436.505	91
436.727	103
436.949	81
437.17	77
437.392	90
437.614	87
437.835	88
438.057	103
438.278	104
438.5	93
438.721	103
438.943	91
439.165	89
439.386	97
439.608	96
439.829	90
440.05	118
440.272	125
440.493	93
440.715	70
440.936	88
441.158	98
441.379	94
441.6	93
441.822	98
442.043	84
442.264	85
442.486	94
442.707	96
442.928	98
443.149	104
443.371	109
443.592	99
443.813	96
444.034	101
444.255	88
444.476	92
444.698	94
444.919	79
445.14	126
445.361	118
445.582	93
445.803	114
446.024	113
446.245	121
446.466	90
446.687	81
446.908	90
447.129	95
447.35	89
447.571	84
447.792	90
448.013	93
448.234	93
448.455	95
448.675	114
448.896	113
449.117	110
449.338	92
449.559	103
449.779	115
450	102
450.221	78
450.442	94
450.662	102
450.883	110
451.104	117
451.324	98
451.545	87
451.766	86
451.986	79
452.207	77
452.428	81
452.648	82
452.869	95
453.089	92
453.31	90
453.53	79
453.751	102
453.971	93
454.192	82
454.412	82
454.633	92
454.853	77
455.073	89
455.294	91
455.514	98
455.734	82
455.955	88
456.175	71
456.395	89
456.616	108
456.836	80
457.056	86
457.276	94
457.497	79
457.717	92
457.937	94
458.157	80
458.377	77
458.598	101
458.818	100
459.038	130
459.258	106
459.478	89
459.698	87
459.918	82
460.138	84
460.358	86
460.578	78
460.798	90
461.018	73
461.238	86
461.458	87
461.678	77
461.898	91
462.118	83
462.338	79
462.558	91
462.777	82
462.997	74
463.217	94
463.437	83
463.657	86
463.876	80
464.096	90
464.316	85
464.536	84
464.755	94
464.975	104
465.195	127
465.414	140
465.634	98
465.854	83
466.073	88
466.293	92
466.512	82
466.732	89
466.951	92
467.171	97
467.391	96
467.61	88
467.829	106
468.049	92
468.268	91
468.488	82
468.707	93
468.927	80
469.146	82
469.365	77
469.585	74
469.804	96
470.023	97
470.243	82
470.462	99
470.681	100
470.901	82
471.12	92
471.339	91
471.558	83
471.777	91
471.997	104
472.216	118
472.435	152
472.654	92
472.873	77
473.092	90
473.311	97
473.53	79
473.749	92
473.968	76
474.187	89
474.406	93
474.625	95
474.844	82
475.063	84
475.282	84
475.501	82
475.72	95
475.939	93
476.158	68
476.377	102
476.596	97
476.814	107
477.033	103
477.252	86
477.471	75
477.69	101
477.908	94
478.127	79
478.346	93
478.564	88
478.783	97
479.002	89
479.22	80
479.439	99
479.658	109
479.876	82
480.095	90
480.313	87
480.532	84
480.751	94
480.969	112
481.188	183
481.406	141
481.624	84
481.843	86
482.061	77
482.28	79
482.498	78
482.717	91
482.935	90
483.153	76
483.372	70
483.59	83
483.808	94
484.027	89
484.245	86
484.463	97
484.681	84
484.9	86
485.118	94
485.336	76
485.554	92
485.772	110
485.99	94
486.209	105
486.427	102
486.645	114
486.863	117
487.081	112
487.299	97
487.517	99
487.735	88
487.953	76
488.171	103
488.389	107
488.607	102
488.825	99
489.043	102
489.261	96
489.479	93
489.696	86
489.914	86
490.132	84
490.35	96
490.568	95
490.786	92
491.003	88
491.221	86
491.439	94
491.657	86
491.874	90
492.092	85
492.31	90
492.527	92
492.745	93
492.963	92
493.18	101
493.398	90
493.615	91
493.833	94
494.05	86
494.268	89
494.485	87
494.703	83
494.92	106
495.138	89
495.355	96
495.573	92
495.79	76
496.008	101
496.225	92
496.442	91
496.66	78
496.877	96
497.094	85
497.312	84
497.529	92
497.746	102
497.963	98
498.181	86
498.398	98
498.615	98
498.832	103
499.049	86
499.267	92
499.484	78
499.701	80
499.918	94
500.135	81
500.352	90
500.569	93
500.786	88
501.003	96
501.22	92
501.437	100
501.654	98
501.871	120
502.088	99
502.305	77
502.522	74
502.739	78
502.956	92
503.172	95
503.389	98
503.606	107
503.823	96
504.04	98
504.256	86
504.473	92
504.69	101
504.907	85
505.123	87
505.34	93
505.557	98
505.773	98
505.99	79
506.207	98
506.423	77
506.64	76
506.856	84
507.073	73
507.289	88
507.506	90
507.722	102
507.939	97
508.155	109
508.372	90
508.588	89
508.805	96
509.021	99
509.238	94
509.454	108
509.67	103
509.887	100
510.103	123
510.319	177
510.536	566
510.752	1646
510.968	478
511.184	129
511.401	89
511.617	90
511.833	89
512.049	100
512.265	82
512.481	109
512.698	74
512.914	102
513.13	90
513.346	92
513.562	90
513.778	97
513.994	86
514.21	94
514.426	112
514.642	109
514.858	113
515.074	142
515.29	308
515.506	1024
515.721	371
515.937	122
516.153	99
516.369	105
516.585	105
516.801	78
517.016	86
517.232	88
517.448	80
517.664	91
517.879	86
518.095	75
518.311	96
518.527	104
518.742	98
518.958	97
519.173	104
519.389	98
519.605	90
519.82	98
520.036	93
520.251	108
520.467	100
520.682	99
520.898	106
521.113	119
521.329	128
521.544	161
521.76	413
521.975	1636
522.19	974
522.406	246
522.621	103
522.836	86
523.052	94
523.267	96
523.482	86
523.698	105
523.913	108
524.128	96
524.343	95
524.559	100
524.774	97
524.989	92
525.204	90
525.419	89
525.634	91
525.849	99
526.064	76
526.28	90
526.495	104
526.71	84
526.925	84
527.14	91
527.355	92
527.57	93
527.785	78
527.999	86
528.214	102
528.429	88
528.644	88
528.859	87
529.074	84
529.289	111
529.503	142
529.718	82
529.933	84
530.148	90
530.363	90
530.577	78
530.792	95
531.007	92
531.221	105
531.436	94
531.651	100
531.865	80
532.08	79
532.295	79
532.509	92
532.724	78
532.938	89
533.153	92
533.367	91
533.582	100
533.796	79
534.011	88
534.225	91
534.44	86
534.654	100
534.868	90
535.083	91
535.297	100
535.511	111
535.726	92
535.94	89
536.154	101
536.369	89
536.583	100
536.797	96
537.011	82
537.225	91
537.44	98
537.654	98
537.868	78
538.082	94
538.296	94
538.51	95
538.724	84
538.938	89
539.153	96
539.367	99
539.581	91
539.795	95
540.009	104
540.222	85
540.436	90
540.65	82
540.864	87
541.078	91
541.292	91
541.506	88
541.72	84
541.934	87
542.147	95
542.361	87
542.575	83
542.789	74
543.002	82
543.216	97
543.43	86
543.644	91
543.857	93
544.071	90
544.285	88
544.498	79
544.712	88
544.925	89
545.139	93
545.352	80
545.566	99
545.779	94
545.993	80
546.206	73
546.42	99
546.633	104
546.847	95
547.06	84
547.274	90
547.487	112
547.7	93
547.914	102
548.127	78
548.34	88
548.554	83
548.767	85
548.98	78
549.193	85
549.407	82
549.62	88
549.833	84
550.046	86
550.259	94
550.473	98
550.686	88
550.899	80
551.112	91
551.325	91
551.538	92
551.751	77
551.964	102
552.177	93
552.39	96
552.603	99
552.816	98
553.029	86
553.242	100
553.455	82
553.667	96
553.88	91
554.093	94
554.306	100
554.519	96
554.732	77
554.944	102
555.157	82
555.37	89
555.583	106
555.795	107
556.008	94
556.221	88
556.433	87
556.646	96
556.859	92
557.071	98
557.284	90
557.496	89
557.709	78
557.921	88
558.134	98
558.346	84
558.559	86
558.771	90
558.984	95
559.196	100
559.409	92
559.621	92
559.833	90
560.046	99
560.258	96
560.47	89
560.683	91
560.895	93
561.107	82
561.32	86
561.532	103
561.744	88
561.956	94
562.168	82
562.381	77
562.593	87
562.805	90
563.017	95
563.229	84
563.441	90
563.653	103
563.865	88
564.077	82
564.289	88
564.501	89
564.713	86
564.925	82
565.137	109
565.349	98
565.561	97
565.773	94
565.985	87
566.197	78
566.408	86
566.62	87
566.832	87
567.044	105
567.255	77
567.467	83
567.679	101
567.891	79
568.102	96
568.314	100
568.526	73
568.737	82
568.949	90
569.161	87
569.372	84
569.584	86
569.795	82
570.007	107
570.218	178
570.43	117
570.641	89
570.853	84
571.064	68
571.276	82
571.487	90
571.698	83
571.91	103
572.121	92
572.333	82
572.544	72
572.755	107
572.966	87
573.178	94
573.389	87
573.6	91
573.811	84
574.023	79
574.234	88
574.445	87
574.656	97
574.867	98
575.078	101
575.289	99
575.501	103
575.712	100
575.923	95
576.134	96
576.345	78
576.556	95
576.767	98
576.978	92
577.188	103
577.399	83
577.61	89
577.821	97
578.032	112
578.243	208
578.454	536
578.665	178
578.875	96
579.086	82
579.297	91
579.508	90
579.718	93
579.929	103
580.14	83
580.35	91
580.561	90
580.772	75
580.982	86
581.193	78
581.403	84
581.614	90
581.825	88
582.035	90
582.246	90
582.456	89
582.667	81
582.877	80
583.087	86
583.298	83
583.508	101
583.719	91
583.929	91
584.139	73
584.35	87
