Data from Circ_1980_H10_HRD10591_00093.txt Node
Date: Wed Jan 03 12:38:16 EST 2024
User: Yrep
Spectrometer: HR+D1059
Trigger mode: 1
Integration Time (sec): 1.000000E-1
Scans to average: 1
Electric dark correction enabled: true
Nonlinearity correction enabled: false
Boxcar width: 0
XAxis mode: Wavelengths
Number of Pixels in Spectrum: 2048
>>>>>Begin Spectral Data<<<<<
223.165	-24.06
223.4	-24.06
223.635	-24.06
223.869	-22.06
224.104	-22.06
224.338	-13.06
224.573	-10.06
224.808	-22.06
225.042	-9.06
225.277	-3.06
225.511	-5.06
225.746	5.94
225.98	1.94
226.215	19.94
226.449	16.94
226.683	16.94
226.918	32.94
227.152	35.94
227.387	22.94
227.621	30.94
227.856	48.94
228.09	44.94
228.324	54.94
228.559	56.94
228.793	61.94
229.027	43.94
229.262	54.94
229.496	74.94
229.73	79.94
229.964	81.94
230.199	71.94
230.433	71.94
230.667	79.94
230.901	75.94
231.136	84.94
231.37	98.94
231.604	72.94
231.838	75.94
232.072	83.94
232.306	82.94
232.541	82.94
232.775	73.94
233.009	77.94
233.243	82.94
233.477	85.94
233.711	73.94
233.945	84.94
234.179	90.94
234.413	68.94
234.647	71.94
234.881	81.94
235.115	72.94
235.349	68.94
235.583	76.94
235.817	72.94
236.051	86.94
236.285	74.94
236.519	73.94
236.753	72.94
236.987	74.94
237.221	63.94
237.455	90.94
237.689	96.94
237.922	84.94
238.156	79.94
238.39	78.94
238.624	78.94
238.858	67.94
239.091	78.94
239.325	73.94
239.559	66.94
239.793	74.94
240.027	86.94
240.26	62.94
240.494	82.94
240.728	71.94
240.961	64.94
241.195	83.94
241.429	66.94
241.662	80.94
241.896	70.94
242.13	82.94
242.363	83.94
242.597	73.94
242.83	73.94
243.064	75.94
243.298	92.94
243.531	66.94
243.765	73.94
243.998	69.94
244.232	81.94
244.465	74.94
244.699	71.94
244.932	83.94
245.166	72.94
245.399	72.94
245.633	70.94
245.866	67.94
246.099	62.94
246.333	63.94
246.566	80.94
246.8	66.94
247.033	65.94
247.266	66.94
247.5	79.94
247.733	81.94
247.966	73.94
248.2	65.94
248.433	66.94
248.666	73.94
248.899	70.94
249.133	83.94
249.366	88.94
249.599	87.94
249.832	79.94
250.066	81.94
250.299	63.94
250.532	89.94
250.765	74.94
250.998	74.94
251.231	69.94
251.465	86.94
251.698	73.94
251.931	76.94
252.164	70.94
252.397	79.94
252.63	75.94
252.863	78.94
253.096	72.94
253.329	83.94
253.562	86.94
253.795	86.94
254.028	86.94
254.261	76.94
254.494	85.94
254.727	80.94
254.96	82.94
255.193	74.94
255.426	84.94
255.659	63.94
255.892	75.94
256.124	75.94
256.357	82.94
256.59	67.94
256.823	66.94
257.056	73.94
257.289	85.94
257.521	72.94
257.754	72.94
257.987	68.94
258.22	97.94
258.452	66.94
258.685	78.94
258.918	79.94
259.151	82.94
259.383	73.94
259.616	73.94
259.849	75.94
260.081	72.94
260.314	63.94
260.547	91.94
260.779	80.94
261.012	84.94
261.244	85.94
261.477	66.94
261.71	76.94
261.942	98.94
262.175	112.94
262.407	87.94
262.64	71.94
262.872	87.94
263.105	80.94
263.337	71.94
263.57	78.94
263.802	85.94
264.035	80.94
264.267	69.94
264.499	83.94
264.732	81.94
264.964	81.94
265.197	88.94
265.429	78.94
265.661	58.94
265.894	97.94
266.126	84.94
266.358	82.94
266.591	59.94
266.823	83.94
267.055	88.94
267.287	86.94
267.52	82.94
267.752	83.94
267.984	80.94
268.216	80.94
268.448	71.94
268.681	84.94
268.913	80.94
269.145	83.94
269.377	85.94
269.609	79.94
269.841	73.94
270.073	86.94
270.306	82.94
270.538	86.94
270.77	82.94
271.002	90.94
271.234	84.94
271.466	90.94
271.698	94.94
271.93	85.94
272.162	86.94
272.394	81.94
272.626	78.94
272.858	79.94
273.09	85.94
273.322	92.94
273.553	87.94
273.785	74.94
274.017	86.94
274.249	80.94
274.481	81.94
274.713	100.94
274.945	93.94
275.176	86.94
275.408	83.94
275.64	74.94
275.872	84.94
276.104	65.94
276.335	90.94
276.567	89.94
276.799	103.94
277.031	89.94
277.262	91.94
277.494	75.94
277.726	82.94
277.957	79.94
278.189	86.94
278.421	69.94
278.652	84.94
278.884	82.94
279.115	101.94
279.347	90.94
279.579	76.94
279.81	75.94
280.042	89.94
280.273	87.94
280.505	83.94
280.736	94.94
280.968	78.94
281.199	76.94
281.431	92.94
281.662	105.94
281.894	85.94
282.125	82.94
282.356	100.94
282.588	112.94
282.819	110.94
283.051	99.94
283.282	89.94
283.513	89.94
283.745	73.94
283.976	76.94
284.207	82.94
284.439	84.94
284.67	89.94
284.901	83.94
285.132	78.94
285.364	61.94
285.595	80.94
285.826	88.94
286.057	80.94
286.288	81.94
286.52	69.94
286.751	85.94
286.982	80.94
287.213	79.94
287.444	87.94
287.675	88.94
287.906	73.94
288.138	80.94
288.369	88.94
288.6	83.94
288.831	91.94
289.062	86.94
289.293	89.94
289.524	84.94
289.755	86.94
289.986	84.94
290.217	82.94
290.448	92.94
290.679	88.94
290.91	78.94
291.141	86.94
291.371	84.94
291.602	91.94
291.833	79.94
292.064	81.94
292.295	86.94
292.526	88.94
292.757	84.94
292.987	75.94
293.218	78.94
293.449	78.94
293.68	79.94
293.91	73.94
294.141	85.94
294.372	86.94
294.603	81.94
294.833	82.94
295.064	82.94
295.295	78.94
295.525	92.94
295.756	92.94
295.987	101.94
296.217	100.94
296.448	112.94
296.679	74.94
296.909	86.94
297.14	94.94
297.37	97.94
297.601	80.94
297.831	83.94
298.062	77.94
298.292	70.94
298.523	77.94
298.753	80.94
298.984	94.94
299.214	72.94
299.445	95.94
299.675	89.94
299.905	104.94
300.136	72.94
300.366	81.94
300.597	88.94
300.827	98.94
301.057	86.94
301.288	91.94
301.518	86.94
301.748	87.94
301.979	98.94
302.209	78.94
302.439	82.94
302.669	75.94
302.9	76.94
303.13	80.94
303.36	81.94
303.59	74.94
303.82	86.94
304.051	91.94
304.281	83.94
304.511	93.94
304.741	68.94
304.971	98.94
305.201	93.94
305.431	71.94
305.661	82.94
305.891	90.94
306.121	93.94
306.352	102.94
306.582	96.94
306.812	90.94
307.042	95.94
307.272	90.94
307.502	100.94
307.731	92.94
307.961	80.94
308.191	92.94
308.421	86.94
308.651	83.94
308.881	86.94
309.111	86.94
309.341	94.94
309.571	98.94
309.8	83.94
310.03	96.94
310.26	87.94
310.49	94.94
310.72	99.94
310.949	94.94
311.179	90.94
311.409	88.94
311.639	87.94
311.868	95.94
312.098	94.94
312.328	97.94
312.557	96.94
312.787	90.94
313.017	100.94
313.246	91.94
313.476	94.94
313.706	93.94
313.935	72.94
314.165	88.94
314.394	94.94
314.624	84.94
314.853	90.94
315.083	81.94
315.312	83.94
315.542	103.94
315.771	88.94
316.001	86.94
316.23	99.94
316.46	91.94
316.689	91.94
316.919	83.94
317.148	81.94
317.377	92.94
317.607	86.94
317.836	82.94
318.065	74.94
318.295	84.94
318.524	87.94
318.753	100.94
318.983	97.94
319.212	102.94
319.441	96.94
319.67	103.94
319.9	101.94
320.129	84.94
320.358	81.94
320.587	75.94
320.816	71.94
321.046	93.94
321.275	79.94
321.504	101.94
321.733	94.94
321.962	80.94
322.191	92.94
322.42	94.94
322.649	97.94
322.878	81.94
323.108	102.94
323.337	99.94
323.566	119.94
323.795	129.94
324.024	180.94
324.253	291.94
324.482	598.94
324.71	1196.94
324.939	1512.94
325.168	577.94
325.397	186.94
325.626	141.94
325.855	119.94
326.084	128.94
326.313	120.94
326.542	122.94
326.77	172.94
326.999	331.94
327.228	690.94
327.457	1215.94
327.686	995.94
327.914	286.94
328.143	166.94
328.372	134.94
328.6	105.94
328.829	111.94
329.058	107.94
329.287	102.94
329.515	105.94
329.744	94.94
329.972	107.94
330.201	88.94
330.43	118.94
330.658	106.94
330.887	120.94
331.115	113.94
331.344	99.94
331.572	86.94
331.801	86.94
332.03	99.94
332.258	89.94
332.486	78.94
332.715	72.94
332.943	78.94
333.172	97.94
333.4	86.94
333.629	99.94
333.857	93.94
334.085	91.94
334.314	104.94
334.542	118.94
334.771	118.94
334.999	98.94
335.227	97.94
335.455	86.94
335.684	93.94
335.912	104.94
336.14	93.94
336.369	86.94
336.597	103.94
336.825	92.94
337.053	85.94
337.281	90.94
337.51	72.94
337.738	83.94
337.966	83.94
338.194	90.94
338.422	88.94
338.65	106.94
338.878	97.94
339.106	89.94
339.334	93.94
339.562	86.94
339.79	96.94
340.018	80.94
340.246	80.94
340.474	87.94
340.702	88.94
340.93	92.94
341.158	86.94
341.386	83.94
341.614	75.94
341.842	104.94
342.07	80.94
342.298	95.94
342.526	106.94
342.754	100.94
342.981	90.94
343.209	89.94
343.437	94.94
343.665	68.94
343.893	81.94
344.12	94.94
344.348	80.94
344.576	76.94
344.804	71.94
345.031	94.94
345.259	72.94
345.487	90.94
345.714	82.94
345.942	86.94
346.17	93.94
346.397	89.94
346.625	96.94
346.853	90.94
347.08	91.94
347.308	89.94
347.535	74.94
347.763	84.94
347.99	88.94
348.218	100.94
348.445	109.94
348.673	88.94
348.9	96.94
349.128	96.94
349.355	95.94
349.583	83.94
349.81	84.94
350.037	80.94
350.265	88.94
350.492	73.94
350.72	73.94
350.947	92.94
351.174	98.94
351.402	105.94
351.629	90.94
351.856	100.94
352.083	90.94
352.311	107.94
352.538	106.94
352.765	95.94
352.992	119.94
353.22	96.94
353.447	98.94
353.674	107.94
353.901	91.94
354.128	105.94
354.355	99.94
354.583	100.94
354.81	88.94
355.037	97.94
355.264	78.94
355.491	99.94
355.718	87.94
355.945	87.94
356.172	97.94
356.399	87.94
356.626	89.94
356.853	87.94
357.08	95.94
357.307	84.94
357.534	84.94
357.761	91.94
357.988	87.94
358.215	81.94
358.441	80.94
358.668	86.94
358.895	74.94
359.122	95.94
359.349	80.94
359.576	91.94
359.802	89.94
360.029	100.94
360.256	77.94
360.483	97.94
360.709	82.94
360.936	84.94
361.163	83.94
361.39	79.94
361.616	84.94
361.843	96.94
362.07	83.94
362.296	102.94
362.523	80.94
362.749	97.94
362.976	91.94
363.203	91.94
363.429	66.94
363.656	92.94
363.882	85.94
364.109	86.94
364.335	88.94
364.562	96.94
364.788	81.94
365.015	84.94
365.241	94.94
365.468	103.94
365.694	96.94
365.92	85.94
366.147	80.94
366.373	76.94
366.599	96.94
366.826	94.94
367.052	66.94
367.278	94.94
367.505	88.94
367.731	76.94
367.957	78.94
368.184	90.94
368.41	97.94
368.636	113.94
368.862	109.94
369.089	95.94
369.315	75.94
369.541	78.94
369.767	83.94
369.993	77.94
370.219	89.94
370.445	83.94
370.672	69.94
370.898	78.94
371.124	66.94
371.35	81.94
371.576	60.94
371.802	73.94
372.028	93.94
372.254	80.94
372.48	95.94
372.706	87.94
372.932	86.94
373.158	84.94
373.384	94.94
373.61	85.94
373.835	74.94
374.061	82.94
374.287	83.94
374.513	97.94
374.739	86.94
374.965	88.94
375.191	96.94
375.416	86.94
375.642	84.94
375.868	102.94
376.094	90.94
376.319	88.94
376.545	69.94
376.771	73.94
376.997	76.94
377.222	78.94
377.448	90.94
377.674	87.94
377.899	84.94
378.125	94.94
378.35	74.94
378.576	83.94
378.802	78.94
379.027	95.94
379.253	81.94
379.478	98.94
379.704	71.94
379.929	91.94
380.155	88.94
380.38	87.94
380.606	85.94
380.831	87.94
381.057	108.94
381.282	88.94
381.507	96.94
381.733	97.94
381.958	90.94
382.184	91.94
382.409	77.94
382.634	78.94
382.86	100.94
383.085	91.94
383.31	88.94
383.535	90.94
383.761	98.94
383.986	105.94
384.211	97.94
384.436	92.94
384.662	99.94
384.887	89.94
385.112	99.94
385.337	104.94
385.562	90.94
385.787	98.94
386.013	96.94
386.238	95.94
386.463	94.94
386.688	103.94
386.913	74.94
387.138	116.94
387.363	89.94
387.588	88.94
387.813	88.94
388.038	92.94
388.263	106.94
388.488	104.94
388.713	95.94
388.938	87.94
389.163	85.94
389.387	82.94
389.612	95.94
389.837	95.94
390.062	85.94
390.287	82.94
390.512	82.94
390.736	98.94
390.961	85.94
391.186	90.94
391.411	94.94
391.636	88.94
391.86	78.94
392.085	81.94
392.31	75.94
392.534	85.94
392.759	82.94
392.984	87.94
393.208	88.94
393.433	78.94
393.658	81.94
393.882	83.94
394.107	72.94
394.331	83.94
394.556	73.94
394.78	59.94
395.005	86.94
395.229	91.94
395.454	92.94
395.678	79.94
395.903	79.94
396.127	73.94
396.352	94.94
396.576	56.94
396.801	75.94
397.025	83.94
397.249	80.94
397.474	92.94
397.698	89.94
397.922	75.94
398.147	82.94
398.371	93.94
398.595	93.94
398.82	80.94
399.044	86.94
399.268	85.94
399.492	90.94
399.717	71.94
399.941	86.94
400.165	73.94
400.389	92.94
400.613	74.94
400.837	82.94
401.062	83.94
401.286	88.94
401.51	93.94
401.734	107.94
401.958	105.94
402.182	110.94
402.406	126.94
402.63	107.94
402.854	93.94
403.078	77.94
403.302	79.94
403.526	70.94
403.75	94.94
403.974	69.94
404.198	83.94
404.422	99.94
404.645	80.94
404.869	88.94
405.093	82.94
405.317	87.94
405.541	94.94
405.765	84.94
405.988	104.94
406.212	139.94
406.436	147.94
406.66	122.94
406.883	95.94
407.107	84.94
407.331	87.94
407.555	95.94
407.778	88.94
408.002	83.94
408.226	76.94
408.449	80.94
408.673	81.94
408.896	91.94
409.12	94.94
409.344	84.94
409.567	83.94
409.791	90.94
410.014	83.94
410.238	89.94
410.461	87.94
410.685	81.94
410.908	90.94
411.132	83.94
411.355	89.94
411.578	97.94
411.802	84.94
412.025	78.94
412.249	87.94
412.472	85.94
412.695	93.94
412.919	82.94
413.142	91.94
413.365	86.94
413.589	73.94
413.812	87.94
414.035	97.94
414.258	94.94
414.482	83.94
414.705	89.94
414.928	86.94
415.151	91.94
415.374	85.94
415.597	88.94
415.821	81.94
416.044	78.94
416.267	103.94
416.49	97.94
416.713	89.94
416.936	81.94
417.159	99.94
417.382	91.94
417.605	85.94
417.828	87.94
418.051	79.94
418.274	81.94
418.497	82.94
418.72	78.94
418.943	85.94
419.166	69.94
419.389	114.94
419.611	82.94
419.834	72.94
420.057	83.94
420.28	88.94
420.503	96.94
420.726	83.94
420.948	88.94
421.171	90.94
421.394	80.94
421.617	76.94
421.839	86.94
422.062	82.94
422.285	74.94
422.507	97.94
422.73	80.94
422.953	84.94
423.175	78.94
423.398	94.94
423.621	95.94
423.843	94.94
424.066	84.94
424.288	87.94
424.511	65.94
424.733	88.94
424.956	105.94
425.178	78.94
425.401	79.94
425.623	75.94
425.846	80.94
426.068	100.94
426.291	74.94
426.513	85.94
426.735	91.94
426.958	81.94
427.18	88.94
427.402	112.94
427.625	121.94
427.847	112.94
428.069	88.94
428.292	92.94
428.514	74.94
428.736	71.94
428.958	76.94
429.181	83.94
429.403	82.94
429.625	72.94
429.847	96.94
430.069	81.94
430.292	79.94
430.514	88.94
430.736	83.94
430.958	71.94
431.18	83.94
431.402	84.94
431.624	89.94
431.846	86.94
432.068	79.94
432.29	73.94
432.512	80.94
432.734	94.94
432.956	103.94
433.178	97.94
433.4	94.94
433.622	97.94
433.844	81.94
434.066	75.94
434.287	93.94
434.509	94.94
434.731	85.94
434.953	74.94
435.175	86.94
435.397	78.94
435.618	83.94
435.84	84.94
436.062	105.94
436.284	102.94
436.505	105.94
436.727	92.94
436.949	73.94
437.17	92.94
437.392	75.94
437.614	86.94
437.835	86.94
438.057	97.94
438.278	98.94
438.5	79.94
438.721	90.94
438.943	85.94
439.165	84.94
439.386	80.94
439.608	77.94
439.829	96.94
440.05	108.94
440.272	108.94
440.493	84.94
440.715	95.94
440.936	86.94
441.158	88.94
441.379	69.94
441.6	104.94
441.822	83.94
442.043	82.94
442.264	102.94
442.486	103.94
442.707	69.94
442.928	86.94
443.149	123.94
443.371	96.94
443.592	84.94
443.813	104.94
444.034	105.94
444.255	80.94
444.476	87.94
444.698	73.94
444.919	95.94
445.14	127.94
445.361	105.94
445.582	102.94
445.803	105.94
446.024	117.94
446.245	120.94
446.466	106.94
446.687	87.94
446.908	68.94
447.129	90.94
447.35	78.94
447.571	74.94
447.792	81.94
448.013	91.94
448.234	95.94
448.455	91.94
448.675	90.94
448.896	108.94
449.117	93.94
449.338	86.94
449.559	111.94
449.779	109.94
450	79.94
450.221	76.94
450.442	77.94
450.662	75.94
450.883	86.94
451.104	100.94
451.324	97.94
451.545	81.94
451.766	85.94
451.986	74.94
452.207	68.94
452.428	90.94
452.648	93.94
452.869	82.94
453.089	94.94
453.31	106.94
453.53	88.94
453.751	91.94
453.971	91.94
454.192	98.94
454.412	80.94
454.633	89.94
454.853	78.94
455.073	76.94
455.294	96.94
455.514	86.94
455.734	81.94
455.955	82.94
456.175	87.94
456.395	82.94
456.616	77.94
456.836	74.94
457.056	84.94
457.276	84.94
457.497	79.94
457.717	83.94
457.937	80.94
458.157	68.94
458.377	84.94
458.598	79.94
458.818	108.94
459.038	122.94
459.258	110.94
459.478	89.94
459.698	69.94
459.918	88.94
460.138	77.94
460.358	88.94
460.578	87.94
460.798	91.94
461.018	86.94
461.238	87.94
461.458	85.94
461.678	79.94
461.898	94.94
462.118	80.94
462.338	97.94
462.558	88.94
462.777	79.94
462.997	83.94
463.217	82.94
463.437	84.94
463.657	70.94
463.876	75.94
464.096	71.94
464.316	82.94
464.536	107.94
464.755	98.94
464.975	84.94
465.195	122.94
465.414	140.94
465.634	85.94
465.854	86.94
466.073	80.94
466.293	80.94
466.512	88.94
466.732	79.94
466.951	72.94
467.171	84.94
467.391	90.94
467.61	94.94
467.829	90.94
468.049	92.94
468.268	87.94
468.488	84.94
468.707	86.94
468.927	77.94
469.146	86.94
469.365	83.94
469.585	74.94
469.804	81.94
470.023	88.94
470.243	92.94
470.462	95.94
470.681	88.94
470.901	78.94
471.12	80.94
471.339	79.94
471.558	89.94
471.777	84.94
471.997	74.94
472.216	119.94
472.435	139.94
472.654	83.94
472.873	85.94
473.092	76.94
473.311	92.94
473.53	86.94
473.749	79.94
473.968	90.94
474.187	88.94
474.406	91.94
474.625	103.94
474.844	91.94
475.063	79.94
475.282	89.94
475.501	96.94
475.72	76.94
475.939	92.94
476.158	81.94
476.377	82.94
476.596	90.94
476.814	95.94
477.033	93.94
477.252	99.94
477.471	73.94
477.69	92.94
477.908	102.94
478.127	76.94
478.346	72.94
478.564	89.94
478.783	92.94
479.002	80.94
479.22	88.94
479.439	90.94
479.658	92.94
479.876	84.94
480.095	86.94
480.313	87.94
480.532	87.94
480.751	95.94
480.969	111.94
481.188	184.94
481.406	134.94
481.624	92.94
481.843	82.94
482.061	70.94
482.28	78.94
482.498	75.94
482.717	85.94
482.935	85.94
483.153	93.94
483.372	85.94
483.59	78.94
483.808	79.94
484.027	95.94
484.245	88.94
484.463	90.94
484.681	96.94
484.9	80.94
485.118	89.94
485.336	71.94
485.554	83.94
485.772	98.94
485.99	104.94
486.209	102.94
486.427	105.94
486.645	109.94
486.863	107.94
487.081	98.94
487.299	102.94
487.517	98.94
487.735	78.94
487.953	98.94
488.171	91.94
488.389	105.94
488.607	91.94
488.825	101.94
489.043	74.94
489.261	84.94
489.479	88.94
489.696	90.94
489.914	92.94
490.132	81.94
490.35	89.94
490.568	92.94
490.786	90.94
491.003	87.94
491.221	75.94
491.439	86.94
491.657	88.94
491.874	80.94
492.092	80.94
492.31	96.94
492.527	97.94
492.745	66.94
492.963	88.94
493.18	94.94
493.398	80.94
493.615	102.94
493.833	80.94
494.05	99.94
494.268	92.94
494.485	87.94
494.703	66.94
494.92	85.94
495.138	87.94
495.355	75.94
495.573	82.94
495.79	88.94
496.008	83.94
496.225	82.94
496.442	98.94
496.66	91.94
496.877	94.94
497.094	73.94
497.312	73.94
497.529	99.94
497.746	76.94
497.963	89.94
498.181	82.94
498.398	83.94
498.615	91.94
498.832	99.94
499.049	82.94
499.267	92.94
499.484	82.94
499.701	91.94
499.918	86.94
500.135	75.94
500.352	86.94
500.569	85.94
500.786	88.94
501.003	76.94
501.22	73.94
501.437	101.94
501.654	94.94
501.871	96.94
502.088	82.94
502.305	104.94
502.522	80.94
502.739	83.94
502.956	87.94
503.172	78.94
503.389	85.94
503.606	86.94
503.823	94.94
504.04	84.94
504.256	90.94
504.473	91.94
504.69	92.94
504.907	91.94
505.123	83.94
505.34	79.94
505.557	91.94
505.773	90.94
505.99	87.94
506.207	84.94
506.423	95.94
506.64	102.94
506.856	95.94
507.073	90.94
507.289	82.94
507.506	90.94
507.722	96.94
507.939	96.94
508.155	105.94
508.372	90.94
508.588	75.94
508.805	95.94
509.021	78.94
509.238	71.94
509.454	93.94
509.67	105.94
509.887	98.94
510.103	116.94
510.319	178.94
510.536	544.94
510.752	1642.94
510.968	475.94
511.184	142.94
511.401	111.94
511.617	94.94
511.833	73.94
512.049	78.94
512.265	80.94
512.481	88.94
512.698	87.94
512.914	89.94
513.13	84.94
513.346	82.94
513.562	94.94
513.778	101.94
513.994	98.94
514.21	106.94
514.426	105.94
514.642	103.94
514.858	128.94
515.074	136.94
515.29	323.94
515.506	936.94
515.721	358.94
515.937	143.94
516.153	108.94
516.369	84.94
516.585	80.94
516.801	85.94
517.016	87.94
517.232	90.94
517.448	95.94
517.664	90.94
