Data from Circ_1980_H10_HRD10591_00040.txt Node
Date: Wed Jan 03 12:38:06 EST 2024
User: Yrep
Spectrometer: HR+D1059
Trigger mode: 1
Integration Time (sec): 1.000000E-1
Scans to average: 1
Electric dark correction enabled: true
Nonlinearity correction enabled: false
Boxcar width: 0
XAxis mode: Wavelengths
Number of Pixels in Spectrum: 2048
>>>>>Begin Spectral Data<<<<<
223.165	-29.62
223.4	-29.62
223.635	-29.62
223.869	-23.62
224.104	-15.62
224.338	-19.62
224.573	-14.62
224.808	-9.62
225.042	-18.62
225.277	-3.62
225.511	-6.62
225.746	6.38
225.98	13.38
226.215	21.38
226.449	31.38
226.683	12.38
226.918	23.38
227.152	33.38
227.387	35.38
227.621	25.38
227.856	33.38
228.09	40.38
228.324	51.38
228.559	52.38
228.793	56.38
229.027	52.38
229.262	59.38
229.496	68.38
229.73	72.38
229.964	76.38
230.199	65.38
230.433	89.38
230.667	73.38
230.901	77.38
231.136	78.38
231.37	74.38
231.604	80.38
231.838	72.38
232.072	73.38
232.306	78.38
232.541	65.38
232.775	68.38
233.009	74.38
233.243	67.38
233.477	71.38
233.711	70.38
233.945	86.38
234.179	80.38
234.413	68.38
234.647	72.38
234.881	78.38
235.115	51.38
235.349	60.38
235.583	67.38
235.817	68.38
236.051	65.38
236.285	77.38
236.519	87.38
236.753	71.38
236.987	66.38
237.221	81.38
237.455	84.38
237.689	69.38
237.922	84.38
238.156	64.38
238.39	73.38
238.624	64.38
238.858	64.38
239.091	73.38
239.325	69.38
239.559	70.38
239.793	80.38
240.027	74.38
240.26	76.38
240.494	78.38
240.728	82.38
240.961	78.38
241.195	70.38
241.429	69.38
241.662	71.38
241.896	74.38
242.13	72.38
242.363	72.38
242.597	64.38
242.83	77.38
243.064	65.38
243.298	85.38
243.531	73.38
243.765	80.38
243.998	73.38
244.232	70.38
244.465	84.38
244.699	84.38
244.932	64.38
245.166	73.38
245.399	65.38
245.633	74.38
245.866	68.38
246.099	69.38
246.333	61.38
246.566	73.38
246.8	72.38
247.033	77.38
247.266	77.38
247.5	69.38
247.733	66.38
247.966	65.38
248.2	69.38
248.433	70.38
248.666	72.38
248.899	65.38
249.133	67.38
249.366	80.38
249.599	86.38
249.832	73.38
250.066	64.38
250.299	73.38
250.532	88.38
250.765	82.38
250.998	87.38
251.231	82.38
251.465	72.38
251.698	77.38
251.931	74.38
252.164	65.38
252.397	67.38
252.63	66.38
252.863	58.38
253.096	70.38
253.329	75.38
253.562	82.38
253.795	75.38
254.028	62.38
254.261	88.38
254.494	67.38
254.727	62.38
254.96	83.38
255.193	72.38
255.426	82.38
255.659	80.38
255.892	88.38
256.124	88.38
256.357	77.38
256.59	79.38
256.823	84.38
257.056	78.38
257.289	67.38
257.521	71.38
257.754	66.38
257.987	71.38
258.22	68.38
258.452	64.38
258.685	80.38
258.918	71.38
259.151	80.38
259.383	82.38
259.616	73.38
259.849	84.38
260.081	69.38
260.314	69.38
260.547	79.38
260.779	78.38
261.012	84.38
261.244	63.38
261.477	78.38
261.71	86.38
261.942	104.38
262.175	90.38
262.407	84.38
262.64	82.38
262.872	92.38
263.105	70.38
263.337	74.38
263.57	86.38
263.802	75.38
264.035	82.38
264.267	84.38
264.499	78.38
264.732	72.38
264.964	76.38
265.197	69.38
265.429	79.38
265.661	83.38
265.894	86.38
266.126	82.38
266.358	87.38
266.591	73.38
266.823	69.38
267.055	80.38
267.287	68.38
267.52	76.38
267.752	93.38
267.984	86.38
268.216	85.38
268.448	83.38
268.681	68.38
268.913	80.38
269.145	89.38
269.377	73.38
269.609	82.38
269.841	78.38
270.073	77.38
270.306	65.38
270.538	78.38
270.77	84.38
271.002	79.38
271.234	70.38
271.466	84.38
271.698	73.38
271.93	69.38
272.162	87.38
272.394	78.38
272.626	87.38
272.858	84.38
273.09	68.38
273.322	78.38
273.553	74.38
273.785	99.38
274.017	86.38
274.249	81.38
274.481	80.38
274.713	81.38
274.945	82.38
275.176	84.38
275.408	85.38
275.64	77.38
275.872	81.38
276.104	69.38
276.335	86.38
276.567	94.38
276.799	95.38
277.031	95.38
277.262	84.38
277.494	76.38
277.726	78.38
277.957	74.38
278.189	86.38
278.421	84.38
278.652	70.38
278.884	79.38
279.115	90.38
279.347	79.38
279.579	83.38
279.81	77.38
280.042	92.38
280.273	93.38
280.505	89.38
280.736	81.38
280.968	64.38
281.199	88.38
281.431	86.38
281.662	82.38
281.894	78.38
282.125	88.38
282.356	108.38
282.588	124.38
282.819	93.38
283.051	101.38
283.282	97.38
283.513	79.38
283.745	67.38
283.976	82.38
284.207	68.38
284.439	85.38
284.67	84.38
284.901	81.38
285.132	74.38
285.364	80.38
285.595	80.38
285.826	65.38
286.057	76.38
286.288	79.38
286.52	85.38
286.751	85.38
286.982	84.38
287.213	80.38
287.444	92.38
287.675	80.38
287.906	91.38
288.138	94.38
288.369	96.38
288.6	79.38
288.831	76.38
289.062	91.38
289.293	77.38
289.524	72.38
289.755	79.38
289.986	71.38
290.217	88.38
290.448	87.38
290.679	84.38
290.91	87.38
291.141	95.38
291.371	76.38
291.602	84.38
291.833	78.38
292.064	88.38
292.295	72.38
292.526	80.38
292.757	72.38
292.987	89.38
293.218	84.38
293.449	88.38
293.68	77.38
293.91	76.38
294.141	85.38
294.372	73.38
294.603	88.38
294.833	88.38
295.064	86.38
295.295	74.38
295.525	65.38
295.756	87.38
295.987	102.38
296.217	114.38
296.448	92.38
296.679	88.38
296.909	70.38
297.14	86.38
297.37	80.38
297.601	88.38
297.831	86.38
298.062	89.38
298.292	76.38
298.523	89.38
298.753	74.38
298.984	86.38
299.214	90.38
299.445	85.38
299.675	78.38
299.905	89.38
300.136	91.38
300.366	96.38
300.597	89.38
300.827	81.38
301.057	85.38
301.288	86.38
301.518	97.38
301.748	86.38
301.979	92.38
302.209	96.38
302.439	89.38
302.669	71.38
302.9	80.38
303.13	79.38
303.36	93.38
303.59	88.38
303.82	84.38
304.051	83.38
304.281	86.38
304.511	85.38
304.741	88.38
304.971	78.38
305.201	88.38
305.431	70.38
305.661	81.38
305.891	84.38
306.121	76.38
306.352	97.38
306.582	105.38
306.812	99.38
307.042	94.38
307.272	85.38
307.502	78.38
307.731	93.38
307.961	76.38
308.191	78.38
308.421	92.38
308.651	85.38
308.881	92.38
309.111	98.38
309.341	99.38
309.571	87.38
309.8	74.38
310.03	79.38
310.26	78.38
310.49	98.38
310.72	92.38
310.949	90.38
311.179	87.38
311.409	88.38
311.639	95.38
311.868	99.38
312.098	86.38
312.328	88.38
312.557	93.38
312.787	101.38
313.017	84.38
313.246	90.38
313.476	77.38
313.706	73.38
313.935	101.38
314.165	100.38
314.394	95.38
314.624	83.38
314.853	92.38
315.083	90.38
315.312	88.38
315.542	70.38
315.771	80.38
316.001	82.38
316.23	84.38
316.46	76.38
316.689	73.38
316.919	69.38
317.148	76.38
317.377	84.38
317.607	85.38
317.836	83.38
318.065	77.38
318.295	74.38
318.524	87.38
318.753	92.38
318.983	80.38
319.212	82.38
319.441	85.38
319.67	88.38
319.9	88.38
320.129	98.38
320.358	84.38
320.587	94.38
320.816	104.38
321.046	86.38
321.275	83.38
321.504	96.38
321.733	86.38
321.962	90.38
322.191	106.38
322.42	101.38
322.649	92.38
322.878	114.38
323.108	112.38
323.337	94.38
323.566	112.38
323.795	123.38
324.024	176.38
324.253	281.38
324.482	581.38
324.71	1197.38
324.939	1631.38
325.168	606.38
325.397	206.38
325.626	119.38
325.855	110.38
326.084	122.38
326.313	104.38
326.542	128.38
326.77	180.38
326.999	345.38
327.228	690.38
327.457	1225.38
327.686	986.38
327.914	288.38
328.143	179.38
328.372	132.38
328.6	96.38
328.829	104.38
329.058	109.38
329.287	123.38
329.515	104.38
329.744	95.38
329.972	73.38
330.201	97.38
330.43	110.38
330.658	111.38
330.887	118.38
331.115	106.38
331.344	88.38
331.572	91.38
331.801	86.38
332.03	102.38
332.258	85.38
332.486	86.38
332.715	87.38
332.943	89.38
333.172	83.38
333.4	97.38
333.629	87.38
333.857	102.38
334.085	103.38
334.314	102.38
334.542	115.38
334.771	120.38
334.999	89.38
335.227	92.38
335.455	83.38
335.684	89.38
335.912	87.38
336.14	73.38
336.369	96.38
336.597	88.38
336.825	90.38
337.053	95.38
337.281	79.38
337.51	82.38
337.738	89.38
337.966	79.38
338.194	81.38
338.422	83.38
338.65	76.38
338.878	101.38
339.106	87.38
339.334	88.38
339.562	78.38
339.79	71.38
340.018	78.38
340.246	83.38
340.474	84.38
340.702	91.38
340.93	87.38
341.158	88.38
341.386	82.38
341.614	94.38
341.842	77.38
342.07	82.38
342.298	84.38
342.526	79.38
342.754	71.38
342.981	94.38
343.209	80.38
343.437	113.38
343.665	81.38
343.893	97.38
344.12	76.38
344.348	77.38
344.576	81.38
344.804	80.38
345.031	76.38
345.259	92.38
345.487	70.38
345.714	82.38
345.942	78.38
346.17	82.38
346.397	70.38
346.625	92.38
346.853	92.38
347.08	82.38
347.308	94.38
347.535	83.38
347.763	83.38
347.99	98.38
348.218	84.38
348.445	93.38
348.673	81.38
348.9	80.38
349.128	85.38
349.355	96.38
349.583	92.38
349.81	90.38
350.037	97.38
350.265	93.38
350.492	91.38
350.72	96.38
350.947	92.38
351.174	96.38
351.402	89.38
351.629	91.38
351.856	88.38
352.083	123.38
352.311	87.38
352.538	86.38
352.765	94.38
352.992	109.38
353.22	96.38
353.447	90.38
353.674	95.38
353.901	91.38
354.128	95.38
354.355	87.38
354.583	85.38
354.81	105.38
355.037	114.38
355.264	80.38
355.491	95.38
355.718	83.38
355.945	89.38
356.172	100.38
356.399	78.38
356.626	78.38
356.853	82.38
357.08	78.38
357.307	97.38
357.534	74.38
357.761	77.38
357.988	96.38
358.215	91.38
358.441	86.38
358.668	85.38
358.895	89.38
359.122	84.38
359.349	85.38
359.576	87.38
359.802	80.38
360.029	93.38
360.256	91.38
360.483	79.38
360.709	76.38
360.936	68.38
361.163	81.38
361.39	94.38
361.616	92.38
361.843	64.38
362.07	78.38
362.296	104.38
362.523	89.38
362.749	90.38
362.976	86.38
363.203	96.38
363.429	82.38
363.656	82.38
363.882	74.38
364.109	81.38
364.335	88.38
364.562	88.38
364.788	76.38
365.015	85.38
365.241	101.38
365.468	94.38
365.694	102.38
365.92	92.38
366.147	78.38
366.373	77.38
366.599	81.38
366.826	84.38
367.052	79.38
367.278	77.38
367.505	69.38
367.731	81.38
367.957	72.38
368.184	77.38
368.41	92.38
368.636	84.38
368.862	105.38
369.089	95.38
369.315	79.38
369.541	90.38
369.767	82.38
369.993	62.38
370.219	83.38
370.445	108.38
370.672	71.38
370.898	76.38
371.124	86.38
371.35	77.38
371.576	83.38
371.802	65.38
372.028	69.38
372.254	70.38
372.48	74.38
372.706	74.38
372.932	68.38
373.158	83.38
373.384	88.38
373.61	87.38
373.835	81.38
374.061	73.38
374.287	68.38
374.513	64.38
374.739	92.38
374.965	86.38
375.191	81.38
375.416	82.38
375.642	83.38
375.868	76.38
376.094	76.38
376.319	78.38
376.545	87.38
376.771	89.38
376.997	92.38
377.222	99.38
377.448	92.38
377.674	84.38
377.899	77.38
378.125	67.38
378.35	87.38
378.576	95.38
378.802	73.38
379.027	96.38
379.253	88.38
379.478	97.38
379.704	82.38
379.929	79.38
380.155	76.38
380.38	92.38
380.606	89.38
380.831	86.38
381.057	101.38
381.282	86.38
381.507	84.38
381.733	89.38
381.958	89.38
382.184	94.38
382.409	102.38
382.634	90.38
382.86	92.38
383.085	95.38
383.31	97.38
383.535	92.38
383.761	90.38
383.986	97.38
384.211	82.38
384.436	95.38
384.662	84.38
384.887	86.38
385.112	98.38
385.337	107.38
385.562	101.38
385.787	102.38
386.013	89.38
386.238	102.38
386.463	87.38
386.688	105.38
386.913	95.38
387.138	100.38
387.363	95.38
387.588	116.38
387.813	105.38
388.038	93.38
388.263	101.38
388.488	102.38
388.713	88.38
388.938	86.38
389.163	67.38
389.387	80.38
389.612	98.38
389.837	88.38
390.062	90.38
390.287	74.38
390.512	83.38
390.736	88.38
390.961	82.38
391.186	90.38
391.411	86.38
391.636	86.38
391.86	85.38
392.085	82.38
392.31	83.38
392.534	72.38
392.759	81.38
392.984	99.38
393.208	88.38
393.433	73.38
393.658	92.38
393.882	73.38
394.107	88.38
394.331	81.38
394.556	72.38
394.78	73.38
395.005	74.38
395.229	84.38
395.454	80.38
395.678	73.38
395.903	61.38
396.127	83.38
396.352	86.38
396.576	71.38
396.801	78.38
397.025	84.38
397.249	81.38
397.474	76.38
397.698	74.38
397.922	74.38
398.147	68.38
398.371	62.38
398.595	81.38
398.82	82.38
399.044	70.38
399.268	71.38
399.492	81.38
399.717	75.38
399.941	98.38
400.165	62.38
400.389	79.38
400.613	79.38
400.837	83.38
401.062	81.38
401.286	86.38
401.51	78.38
401.734	75.38
401.958	79.38
402.182	104.38
402.406	135.38
402.63	109.38
402.854	86.38
403.078	81.38
403.302	88.38
403.526	68.38
403.75	94.38
403.974	82.38
404.198	74.38
404.422	82.38
404.645	80.38
404.869	86.38
405.093	84.38
405.317	100.38
405.541	80.38
405.765	96.38
405.988	98.38
406.212	142.38
406.436	182.38
406.66	120.38
406.883	77.38
407.107	81.38
407.331	88.38
407.555	77.38
407.778	82.38
408.002	76.38
408.226	68.38
408.449	83.38
408.673	70.38
408.896	88.38
409.12	100.38
409.344	90.38
409.567	88.38
409.791	89.38
410.014	77.38
410.238	87.38
410.461	86.38
410.685	104.38
410.908	90.38
411.132	88.38
411.355	87.38
411.578	74.38
411.802	77.38
412.025	86.38
412.249	78.38
412.472	77.38
412.695	84.38
412.919	78.38
413.142	87.38
413.365	85.38
413.589	78.38
413.812	71.38
414.035	86.38
414.258	77.38
414.482	66.38
414.705	86.38
414.928	85.38
415.151	85.38
415.374	92.38
415.597	83.38
415.821	78.38
416.044	80.38
416.267	76.38
416.49	88.38
416.713	99.38
416.936	76.38
417.159	80.38
417.382	69.38
417.605	78.38
417.828	71.38
418.051	80.38
418.274	76.38
418.497	81.38
418.72	76.38
418.943	87.38
419.166	67.38
419.389	74.38
419.611	67.38
419.834	76.38
420.057	79.38
420.28	83.38
420.503	72.38
420.726	76.38
420.948	87.38
421.171	94.38
421.394	103.38
421.617	95.38
421.839	72.38
422.062	76.38
422.285	81.38
422.507	105.38
422.73	88.38
422.953	92.38
423.175	77.38
423.398	85.38
423.621	80.38
423.843	78.38
424.066	70.38
424.288	81.38
424.511	81.38
424.733	66.38
424.956	91.38
425.178	95.38
425.401	92.38
425.623	82.38
425.846	66.38
426.068	72.38
426.291	80.38
426.513	90.38
426.735	90.38
426.958	84.38
427.18	93.38
427.402	129.38
427.625	137.38
427.847	113.38
428.069	94.38
428.292	77.38
428.514	83.38
428.736	71.38
428.958	73.38
429.181	93.38
429.403	70.38
429.625	78.38
429.847	89.38
430.069	90.38
430.292	73.38
430.514	81.38
430.736	86.38
430.958	85.38
431.18	67.38
431.402	69.38
431.624	63.38
431.846	82.38
432.068	89.38
432.29	72.38
432.512	80.38
432.734	71.38
432.956	87.38
433.178	86.38
433.4	93.38
433.622	81.38
433.844	92.38
434.066	79.38
434.287	77.38
434.509	72.38
434.731	84.38
434.953	100.38
435.175	78.38
435.397	86.38
435.618	79.38
435.84	99.38
436.062	110.38
436.284	93.38
436.505	79.38
436.727	96.38
436.949	96.38
437.17	86.38
437.392	79.38
437.614	77.38
437.835	75.38
438.057	96.38
438.278	86.38
438.5	82.38
438.721	100.38
438.943	88.38
439.165	79.38
439.386	72.38
439.608	68.38
439.829	88.38
440.05	93.38
440.272	113.38
440.493	93.38
440.715	80.38
440.936	73.38
441.158	77.38
441.379	92.38
441.6	84.38
441.822	89.38
442.043	90.38
442.264	85.38
442.486	90.38
442.707	67.38
442.928	107.38
443.149	112.38
443.371	93.38
443.592	85.38
443.813	90.38
444.034	92.38
444.255	85.38
444.476	70.38
444.698	68.38
444.919	89.38
445.14	121.38
445.361	109.38
445.582	99.38
445.803	113.38
446.024	85.38
446.245	106.38
446.466	92.38
446.687	89.38
446.908	86.38
447.129	100.38
447.35	68.38
447.571	87.38
447.792	86.38
448.013	92.38
448.234	102.38
448.455	82.38
448.675	96.38
448.896	106.38
449.117	88.38
449.338	87.38
449.559	102.38
449.779	104.38
450	87.38
450.221	65.38
450.442	86.38
450.662	89.38
450.883	85.38
451.104	95.38
451.324	66.38
451.545	88.38
451.766	83.38
451.986	80.38
452.207	68.38
452.428	84.38
452.648	88.38
452.869	87.38
453.089	94.38
453.31	105.38
453.53	79.38
453.751	92.38
453.971	87.38
454.192	87.38
454.412	82.38
454.633	89.38
454.853	92.38
455.073	78.38
455.294	86.38
455.514	84.38
455.734	76.38
455.955	73.38
456.175	70.38
456.395	89.38
456.616	70.38
456.836	90.38
457.056	74.38
457.276	86.38
457.497	81.38
457.717	81.38
457.937	67.38
458.157	79.38
458.377	81.38
458.598	82.38
458.818	116.38
459.038	139.38
459.258	104.38
459.478	85.38
459.698	73.38
459.918	81.38
460.138	91.38
460.358	78.38
460.578	83.38
460.798	78.38
461.018	74.38
461.238	87.38
461.458	80.38
461.678	81.38
461.898	72.38
462.118	84.38
462.338	87.38
462.558	87.38
462.777	81.38
462.997	73.38
463.217	73.38
463.437	84.38
463.657	88.38
463.876	70.38
464.096	76.38
464.316	89.38
464.536	88.38
464.755	85.38
464.975	86.38
465.195	110.38
465.414	116.38
465.634	95.38
465.854	88.38
466.073	81.38
466.293	86.38
466.512	83.38
466.732	77.38
466.951	83.38
467.171	90.38
467.391	75.38
467.61	87.38
467.829	81.38
468.049	92.38
468.268	96.38
468.488	80.38
468.707	71.38
468.927	80.38
469.146	73.38
469.365	76.38
469.585	78.38
469.804	99.38
470.023	94.38
470.243	97.38
470.462	94.38
470.681	107.38
470.901	82.38
471.12	85.38
471.339	70.38
471.558	85.38
471.777	82.38
471.997	95.38
472.216	110.38
472.435	149.38
472.654	77.38
472.873	82.38
473.092	101.38
473.311	81.38
473.53	73.38
473.749	68.38
473.968	85.38
474.187	99.38
474.406	90.38
474.625	83.38
474.844	97.38
475.063	72.38
475.282	70.38
475.501	76.38
475.72	88.38
475.939	76.38
476.158	92.38
476.377	68.38
476.596	78.38
476.814	84.38
477.033	98.38
477.252	98.38
477.471	87.38
477.69	73.38
477.908	87.38
478.127	97.38
478.346	69.38
478.564	93.38
478.783	81.38
479.002	96.38
479.22	82.38
479.439	83.38
479.658	88.38
479.876	82.38
480.095	79.38
480.313	85.38
480.532	85.38
480.751	98.38
480.969	104.38
481.188	190.38
481.406	148.38
481.624	83.38
481.843	89.38
482.061	87.38
482.28	88.38
482.498	77.38
482.717	80.38
482.935	87.38
483.153	69.38
483.372	89.38
483.59	98.38
483.808	80.38
484.027	85.38
484.245	83.38
484.463	83.38
484.681	96.38
484.9	82.38
485.118	83.38
485.336	89.38
485.554	95.38
485.772	95.38
485.99	91.38
486.209	93.38
486.427	100.38
486.645	97.38
486.863	90.38
487.081	92.38
487.299	86.38
487.517	96.38
487.735	94.38
487.953	80.38
488.171	93.38
488.389	84.38
488.607	97.38
488.825	84.38
489.043	76.38
489.261	88.38
489.479	92.38
489.696	70.38
489.914	76.38
490.132	80.38
490.35	70.38
490.568	95.38
490.786	86.38
491.003	92.38
491.221	80.38
491.439	72.38
491.657	90.38
491.874	82.38
492.092	97.38
492.31	93.38
492.527	95.38
492.745	85.38
492.963	90.38
493.18	96.38
493.398	87.38
493.615	63.38
493.833	87.38
494.05	91.38
494.268	75.38
494.485	78.38
494.703	85.38
494.92	84.38
495.138	69.38
495.355	88.38
495.573	89.38
495.79	81.38
496.008	100.38
496.225	92.38
496.442	86.38
496.66	88.38
496.877	92.38
497.094	80.38
497.312	88.38
497.529	77.38
497.746	84.38
497.963	96.38
498.181	64.38
498.398	88.38
498.615	94.38
498.832	76.38
499.049	87.38
499.267	78.38
499.484	88.38
499.701	86.38
499.918	86.38
500.135	80.38
500.352	87.38
500.569	81.38
500.786	68.38
501.003	77.38
501.22	88.38
501.437	74.38
501.654	85.38
501.871	115.38
502.088	74.38
502.305	75.38
502.522	78.38
502.739	97.38
502.956	92.38
503.172	77.38
503.389	94.38
503.606	100.38
503.823	88.38
504.04	90.38
504.256	94.38
504.473	76.38
504.69	99.38
504.907	85.38
505.123	77.38
505.34	94.38
505.557	84.38
505.773	82.38
505.99	80.38
506.207	81.38
506.423	80.38
506.64	84.38
506.856	79.38
507.073	73.38
507.289	94.38
507.506	102.38
507.722	111.38
507.939	108.38
508.155	108.38
508.372	104.38
508.588	84.38
508.805	85.38
509.021	92.38
509.238	92.38
509.454	84.38
509.67	104.38
509.887	91.38
510.103	116.38
510.319	169.38
510.536	598.38
510.752	1818.38
510.968	499.38
511.184	134.38
511.401	104.38
511.617	92.38
511.833	82.38
512.049	82.38
512.265	73.38
512.481	89.38
512.698	92.38
512.914	52.38
513.13	89.38
513.346	102.38
513.562	92.38
513.778	97.38
513.994	86.38
514.21	105.38
514.426	113.38
514.642	115.38
514.858	107.38
515.074	148.38
515.29	328.38
515.506	1085.38
515.721	407.38
515.937	105.38
516.153	88.38
516.369	82.38
516.585	74.38
516.801	81.38
517.016	102.38
517.232	94.38
517.448	74.38
517.664	80.38
517.879	79.38
518.095	79.38
