Data from Circ_1980_H10_HRD10591_00034.txt Node
Date: Wed Jan 03 12:38:05 EST 2024
User: Yrep
Spectrometer: HR+D1059
Trigger mode: 1
Integration Time (sec): 1.000000E-1
Scans to average: 1
Electric dark correction enabled: true
Nonlinearity correction enabled: false
Boxcar width: 0
XAxis mode: Wavelengths
Number of Pixels in Spectrum: 2048
>>>>>Begin Spectral Data<<<<<
223.165	-6.75
223.4	-6.75
223.635	-6.75
223.869	-27.75
224.104	-20.75
224.338	-10.75
224.573	-13.75
224.808	-14.75
225.042	-20.75
225.277	-10.75
225.511	-6.75
225.746	3.25
225.98	18.25
226.215	3.25
226.449	16.25
226.683	37.25
226.918	26.25
227.152	28.25
227.387	39.25
227.621	43.25
227.856	43.25
228.09	43.25
228.324	50.25
228.559	59.25
228.793	53.25
229.027	54.25
229.262	71.25
229.496	63.25
229.73	75.25
229.964	81.25
230.199	75.25
230.433	72.25
230.667	65.25
230.901	81.25
231.136	86.25
231.37	93.25
231.604	68.25
231.838	87.25
232.072	76.25
232.306	85.25
232.541	75.25
232.775	69.25
233.009	74.25
233.243	75.25
233.477	77.25
233.711	81.25
233.945	92.25
234.179	84.25
234.413	75.25
234.647	85.25
234.881	92.25
235.115	84.25
235.349	76.25
235.583	77.25
235.817	75.25
236.051	88.25
236.285	75.25
236.519	77.25
236.753	73.25
236.987	74.25
237.221	77.25
237.455	89.25
237.689	68.25
237.922	86.25
238.156	78.25
238.39	77.25
238.624	89.25
238.858	89.25
239.091	78.25
239.325	80.25
239.559	90.25
239.793	76.25
240.027	84.25
240.26	83.25
240.494	57.25
240.728	83.25
240.961	77.25
241.195	83.25
241.429	77.25
241.662	74.25
241.896	79.25
242.13	75.25
242.363	78.25
242.597	75.25
242.83	78.25
243.064	74.25
243.298	83.25
243.531	77.25
243.765	81.25
243.998	77.25
244.232	74.25
244.465	75.25
244.699	75.25
244.932	66.25
245.166	92.25
245.399	87.25
245.633	63.25
245.866	78.25
246.099	89.25
246.333	83.25
246.566	78.25
246.8	80.25
247.033	72.25
247.266	80.25
247.5	87.25
247.733	83.25
247.966	77.25
248.2	87.25
248.433	81.25
248.666	83.25
248.899	80.25
249.133	89.25
249.366	106.25
249.599	91.25
249.832	72.25
250.066	85.25
250.299	88.25
250.532	90.25
250.765	79.25
250.998	70.25
251.231	84.25
251.465	84.25
251.698	78.25
251.931	76.25
252.164	75.25
252.397	72.25
252.63	87.25
252.863	88.25
253.096	87.25
253.329	71.25
253.562	77.25
253.795	80.25
254.028	94.25
254.261	84.25
254.494	88.25
254.727	89.25
254.96	80.25
255.193	85.25
255.426	77.25
255.659	82.25
255.892	79.25
256.124	88.25
256.357	104.25
256.59	79.25
256.823	93.25
257.056	95.25
257.289	97.25
257.521	77.25
257.754	89.25
257.987	86.25
258.22	76.25
258.452	99.25
258.685	85.25
258.918	85.25
259.151	96.25
259.383	81.25
259.616	89.25
259.849	87.25
260.081	71.25
260.314	71.25
260.547	76.25
260.779	79.25
261.012	77.25
261.244	92.25
261.477	88.25
261.71	90.25
261.942	106.25
262.175	99.25
262.407	101.25
262.64	72.25
262.872	67.25
263.105	86.25
263.337	91.25
263.57	94.25
263.802	78.25
264.035	88.25
264.267	86.25
264.499	86.25
264.732	84.25
264.964	83.25
265.197	85.25
265.429	86.25
265.661	88.25
265.894	80.25
266.126	85.25
266.358	87.25
266.591	84.25
266.823	93.25
267.055	84.25
267.287	99.25
267.52	80.25
267.752	85.25
267.984	85.25
268.216	93.25
268.448	76.25
268.681	79.25
268.913	71.25
269.145	93.25
269.377	79.25
269.609	69.25
269.841	91.25
270.073	96.25
270.306	85.25
270.538	80.25
270.77	76.25
271.002	91.25
271.234	79.25
271.466	87.25
271.698	89.25
271.93	67.25
272.162	75.25
272.394	67.25
272.626	81.25
272.858	75.25
273.09	69.25
273.322	92.25
273.553	110.25
273.785	98.25
274.017	95.25
274.249	90.25
274.481	87.25
274.713	95.25
274.945	75.25
275.176	85.25
275.408	97.25
275.64	70.25
275.872	75.25
276.104	96.25
276.335	97.25
276.567	90.25
276.799	105.25
277.031	110.25
277.262	91.25
277.494	84.25
277.726	83.25
277.957	77.25
278.189	89.25
278.421	91.25
278.652	91.25
278.884	77.25
279.115	85.25
279.347	93.25
279.579	94.25
279.81	81.25
280.042	78.25
280.273	92.25
280.505	96.25
280.736	99.25
280.968	90.25
281.199	83.25
281.431	90.25
281.662	97.25
281.894	76.25
282.125	102.25
282.356	114.25
282.588	113.25
282.819	113.25
283.051	80.25
283.282	86.25
283.513	88.25
283.745	97.25
283.976	72.25
284.207	87.25
284.439	83.25
284.67	94.25
284.901	74.25
285.132	71.25
285.364	85.25
285.595	79.25
285.826	72.25
286.057	90.25
286.288	99.25
286.52	77.25
286.751	95.25
286.982	93.25
287.213	92.25
287.444	87.25
287.675	89.25
287.906	94.25
288.138	98.25
288.369	84.25
288.6	76.25
288.831	88.25
289.062	91.25
289.293	91.25
289.524	91.25
289.755	80.25
289.986	93.25
290.217	80.25
290.448	91.25
290.679	71.25
290.91	93.25
291.141	87.25
291.371	91.25
291.602	93.25
291.833	90.25
292.064	92.25
292.295	91.25
292.526	85.25
292.757	90.25
292.987	73.25
293.218	97.25
293.449	70.25
293.68	70.25
293.91	77.25
294.141	99.25
294.372	107.25
294.603	88.25
294.833	89.25
295.064	92.25
295.295	88.25
295.525	99.25
295.756	87.25
295.987	108.25
296.217	114.25
296.448	93.25
296.679	78.25
296.909	87.25
297.14	87.25
297.37	95.25
297.601	90.25
297.831	92.25
298.062	85.25
298.292	84.25
298.523	101.25
298.753	91.25
298.984	99.25
299.214	108.25
299.445	91.25
299.675	87.25
299.905	97.25
300.136	87.25
300.366	104.25
300.597	93.25
300.827	75.25
301.057	91.25
301.288	103.25
301.518	95.25
301.748	82.25
301.979	98.25
302.209	81.25
302.439	91.25
302.669	79.25
302.9	103.25
303.13	90.25
303.36	83.25
303.59	96.25
303.82	91.25
304.051	81.25
304.281	95.25
304.511	83.25
304.741	95.25
304.971	108.25
305.201	79.25
305.431	88.25
305.661	104.25
305.891	88.25
306.121	100.25
306.352	90.25
306.582	111.25
306.812	94.25
307.042	100.25
307.272	93.25
307.502	104.25
307.731	91.25
307.961	94.25
308.191	79.25
308.421	85.25
308.651	86.25
308.881	83.25
309.111	96.25
309.341	94.25
309.571	86.25
309.8	95.25
310.03	101.25
310.26	103.25
310.49	115.25
310.72	76.25
310.949	91.25
311.179	99.25
311.409	102.25
311.639	91.25
311.868	99.25
312.098	89.25
312.328	78.25
312.557	95.25
312.787	104.25
313.017	101.25
313.246	101.25
313.476	90.25
313.706	86.25
313.935	90.25
314.165	89.25
314.394	88.25
314.624	96.25
314.853	93.25
315.083	103.25
315.312	87.25
315.542	89.25
315.771	88.25
316.001	80.25
316.23	86.25
316.46	75.25
316.689	81.25
316.919	100.25
317.148	87.25
317.377	100.25
317.607	91.25
317.836	86.25
318.065	107.25
318.295	91.25
318.524	84.25
318.753	89.25
318.983	93.25
319.212	99.25
319.441	109.25
319.67	114.25
319.9	85.25
320.129	105.25
320.358	83.25
320.587	99.25
320.816	84.25
321.046	102.25
321.275	90.25
321.504	98.25
321.733	94.25
321.962	107.25
322.191	104.25
322.42	98.25
322.649	100.25
322.878	102.25
323.108	92.25
323.337	107.25
323.566	120.25
323.795	112.25
324.024	177.25
324.253	299.25
324.482	574.25
324.71	1175.25
324.939	1567.25
325.168	591.25
325.397	207.25
325.626	128.25
325.855	131.25
326.084	133.25
326.313	126.25
326.542	118.25
326.77	188.25
326.999	371.25
327.228	699.25
327.457	1249.25
327.686	989.25
327.914	293.25
328.143	158.25
328.372	118.25
328.6	116.25
328.829	109.25
329.058	104.25
329.287	113.25
329.515	109.25
329.744	100.25
329.972	117.25
330.201	94.25
330.43	115.25
330.658	104.25
330.887	113.25
331.115	118.25
331.344	103.25
331.572	84.25
331.801	107.25
332.03	98.25
332.258	94.25
332.486	97.25
332.715	92.25
332.943	94.25
333.172	101.25
333.4	94.25
333.629	113.25
333.857	102.25
334.085	105.25
334.314	99.25
334.542	123.25
334.771	112.25
334.999	91.25
335.227	103.25
335.455	90.25
335.684	92.25
335.912	93.25
336.14	94.25
336.369	87.25
336.597	100.25
336.825	98.25
337.053	96.25
337.281	100.25
337.51	92.25
337.738	95.25
337.966	95.25
338.194	77.25
338.422	93.25
338.65	97.25
338.878	88.25
339.106	90.25
339.334	96.25
339.562	94.25
339.79	95.25
340.018	89.25
340.246	93.25
340.474	97.25
340.702	105.25
340.93	99.25
341.158	95.25
341.386	95.25
341.614	78.25
341.842	76.25
342.07	85.25
342.298	94.25
342.526	79.25
342.754	89.25
342.981	80.25
343.209	77.25
343.437	86.25
343.665	84.25
343.893	100.25
344.12	91.25
344.348	101.25
344.576	96.25
344.804	96.25
345.031	88.25
345.259	95.25
345.487	93.25
345.714	97.25
345.942	94.25
346.17	87.25
346.397	92.25
346.625	92.25
346.853	95.25
347.08	96.25
347.308	108.25
347.535	91.25
347.763	98.25
347.99	99.25
348.218	90.25
348.445	95.25
348.673	88.25
348.9	98.25
349.128	111.25
349.355	97.25
349.583	94.25
349.81	92.25
350.037	92.25
350.265	89.25
350.492	106.25
350.72	101.25
350.947	110.25
351.174	123.25
351.402	114.25
351.629	105.25
351.856	99.25
352.083	108.25
352.311	95.25
352.538	103.25
352.765	107.25
352.992	93.25
353.22	108.25
353.447	97.25
353.674	99.25
353.901	109.25
354.128	98.25
354.355	95.25
354.583	96.25
354.81	99.25
355.037	97.25
355.264	109.25
355.491	95.25
355.718	103.25
355.945	95.25
356.172	108.25
356.399	94.25
356.626	95.25
356.853	90.25
357.08	86.25
357.307	96.25
357.534	101.25
357.761	96.25
357.988	90.25
358.215	106.25
358.441	92.25
358.668	100.25
358.895	69.25
359.122	87.25
359.349	79.25
359.576	93.25
359.802	107.25
360.029	106.25
360.256	100.25
360.483	92.25
360.709	85.25
360.936	83.25
361.163	89.25
361.39	90.25
361.616	84.25
361.843	92.25
362.07	91.25
362.296	85.25
362.523	88.25
362.749	98.25
362.976	77.25
363.203	91.25
363.429	88.25
363.656	86.25
363.882	96.25
364.109	93.25
364.335	104.25
364.562	100.25
364.788	96.25
365.015	83.25
365.241	97.25
365.468	111.25
365.694	100.25
365.92	95.25
366.147	92.25
366.373	90.25
366.599	87.25
366.826	85.25
367.052	87.25
367.278	99.25
367.505	84.25
367.731	88.25
367.957	75.25
368.184	82.25
368.41	78.25
368.636	105.25
368.862	101.25
369.089	111.25
369.315	91.25
369.541	88.25
369.767	85.25
369.993	82.25
370.219	87.25
370.445	79.25
370.672	89.25
370.898	96.25
371.124	78.25
371.35	86.25
371.576	87.25
371.802	77.25
372.028	93.25
372.254	91.25
372.48	94.25
372.706	90.25
372.932	89.25
373.158	89.25
373.384	84.25
373.61	83.25
373.835	92.25
374.061	103.25
374.287	83.25
374.513	92.25
374.739	99.25
374.965	90.25
375.191	84.25
375.416	93.25
375.642	94.25
375.868	87.25
376.094	87.25
376.319	86.25
376.545	79.25
376.771	94.25
376.997	73.25
377.222	80.25
377.448	89.25
377.674	94.25
377.899	79.25
378.125	97.25
378.35	86.25
378.576	87.25
378.802	88.25
379.027	95.25
379.253	89.25
379.478	101.25
379.704	89.25
379.929	90.25
380.155	98.25
380.38	97.25
380.606	99.25
380.831	98.25
381.057	100.25
381.282	102.25
381.507	95.25
381.733	97.25
381.958	102.25
382.184	92.25
382.409	87.25
382.634	108.25
382.86	109.25
383.085	112.25
383.31	101.25
383.535	106.25
383.761	106.25
383.986	111.25
384.211	97.25
384.436	101.25
384.662	105.25
384.887	107.25
385.112	113.25
385.337	117.25
385.562	118.25
385.787	96.25
386.013	115.25
386.238	109.25
386.463	104.25
386.688	132.25
386.913	104.25
387.138	110.25
387.363	100.25
387.588	116.25
387.813	111.25
388.038	100.25
388.263	118.25
388.488	113.25
388.713	93.25
388.938	96.25
389.163	94.25
389.387	91.25
389.612	96.25
389.837	92.25
390.062	105.25
390.287	99.25
390.512	93.25
390.736	88.25
390.961	90.25
391.186	89.25
391.411	95.25
391.636	97.25
391.86	97.25
392.085	77.25
392.31	85.25
392.534	77.25
392.759	71.25
392.984	93.25
393.208	86.25
393.433	97.25
393.658	97.25
393.882	78.25
394.107	86.25
394.331	94.25
394.556	92.25
394.78	96.25
395.005	79.25
395.229	93.25
395.454	95.25
395.678	81.25
395.903	77.25
396.127	88.25
396.352	95.25
396.576	98.25
396.801	90.25
397.025	93.25
397.249	79.25
397.474	83.25
397.698	99.25
397.922	75.25
398.147	95.25
398.371	101.25
398.595	96.25
398.82	96.25
399.044	72.25
399.268	86.25
399.492	73.25
399.717	85.25
399.941	78.25
400.165	96.25
400.389	88.25
400.613	74.25
400.837	87.25
401.062	83.25
401.286	87.25
401.51	94.25
401.734	79.25
401.958	84.25
402.182	95.25
402.406	131.25
402.63	104.25
402.854	93.25
403.078	102.25
403.302	95.25
403.526	99.25
403.75	67.25
403.974	87.25
404.198	97.25
404.422	91.25
404.645	93.25
404.869	99.25
405.093	90.25
405.317	89.25
405.541	92.25
405.765	99.25
405.988	99.25
406.212	135.25
406.436	172.25
406.66	117.25
406.883	85.25
407.107	91.25
407.331	89.25
407.555	108.25
407.778	100.25
408.002	79.25
408.226	76.25
408.449	91.25
408.673	92.25
408.896	87.25
409.12	96.25
409.344	86.25
409.567	100.25
409.791	102.25
410.014	100.25
410.238	84.25
410.461	95.25
410.685	93.25
410.908	105.25
411.132	115.25
411.355	102.25
411.578	95.25
411.802	100.25
412.025	80.25
412.249	80.25
412.472	87.25
412.695	89.25
412.919	91.25
413.142	93.25
413.365	89.25
413.589	87.25
413.812	87.25
414.035	91.25
414.258	89.25
414.482	93.25
414.705	84.25
414.928	102.25
415.151	103.25
415.374	92.25
415.597	87.25
415.821	80.25
416.044	77.25
416.267	78.25
416.49	102.25
416.713	87.25
416.936	81.25
417.159	84.25
417.382	96.25
417.605	95.25
417.828	87.25
418.051	88.25
418.274	95.25
418.497	88.25
418.72	84.25
418.943	100.25
419.166	92.25
419.389	105.25
419.611	82.25
419.834	81.25
420.057	91.25
420.28	89.25
420.503	82.25
420.726	75.25
420.948	73.25
421.171	87.25
421.394	89.25
421.617	98.25
421.839	84.25
422.062	90.25
422.285	78.25
422.507	99.25
422.73	91.25
422.953	97.25
423.175	85.25
423.398	91.25
423.621	92.25
423.843	88.25
424.066	86.25
424.288	77.25
424.511	95.25
424.733	94.25
424.956	77.25
425.178	92.25
425.401	91.25
425.623	98.25
425.846	89.25
426.068	92.25
426.291	101.25
426.513	91.25
426.735	86.25
426.958	114.25
427.18	98.25
427.402	133.25
427.625	131.25
427.847	109.25
428.069	103.25
428.292	87.25
428.514	85.25
428.736	85.25
428.958	90.25
429.181	90.25
429.403	79.25
429.625	99.25
429.847	70.25
430.069	95.25
430.292	80.25
430.514	76.25
430.736	106.25
430.958	92.25
431.18	74.25
431.402	92.25
431.624	87.25
431.846	89.25
432.068	91.25
432.29	84.25
432.512	108.25
432.734	80.25
432.956	81.25
433.178	107.25
433.4	91.25
433.622	88.25
433.844	77.25
434.066	86.25
434.287	90.25
434.509	101.25
434.731	96.25
434.953	89.25
435.175	86.25
435.397	84.25
435.618	83.25
435.84	93.25
436.062	111.25
436.284	97.25
436.505	107.25
436.727	85.25
436.949	78.25
437.17	92.25
437.392	78.25
437.614	72.25
437.835	84.25
438.057	101.25
438.278	94.25
438.5	97.25
438.721	103.25
438.943	100.25
439.165	87.25
439.386	90.25
439.608	99.25
439.829	88.25
440.05	108.25
440.272	120.25
440.493	91.25
440.715	83.25
440.936	82.25
441.158	84.25
441.379	91.25
441.6	102.25
441.822	89.25
442.043	86.25
442.264	83.25
442.486	102.25
442.707	99.25
442.928	103.25
443.149	112.25
443.371	107.25
443.592	100.25
443.813	105.25
444.034	102.25
444.255	89.25
444.476	82.25
444.698	83.25
444.919	89.25
445.14	125.25
445.361	122.25
445.582	97.25
445.803	120.25
446.024	116.25
446.245	111.25
446.466	95.25
446.687	80.25
446.908	91.25
447.129	94.25
447.35	75.25
447.571	83.25
447.792	80.25
448.013	76.25
448.234	94.25
448.455	90.25
448.675	95.25
448.896	102.25
449.117	95.25
449.338	94.25
449.559	120.25
449.779	123.25
450	101.25
450.221	94.25
450.442	87.25
450.662	92.25
450.883	100.25
451.104	94.25
451.324	81.25
451.545	96.25
451.766	73.25
451.986	95.25
452.207	100.25
452.428	91.25
452.648	95.25
452.869	103.25
453.089	111.25
453.31	104.25
453.53	89.25
453.751	84.25
453.971	97.25
454.192	108.25
454.412	93.25
454.633	100.25
454.853	81.25
455.073	75.25
455.294	78.25
455.514	91.25
455.734	83.25
455.955	81.25
456.175	87.25
456.395	76.25
456.616	94.25
456.836	106.25
457.056	87.25
457.276	84.25
457.497	90.25
457.717	88.25
457.937	99.25
458.157	83.25
458.377	98.25
458.598	84.25
458.818	109.25
459.038	122.25
459.258	98.25
459.478	86.25
459.698	71.25
459.918	73.25
460.138	86.25
460.358	80.25
460.578	97.25
460.798	84.25
461.018	95.25
461.238	78.25
461.458	83.25
461.678	93.25
461.898	78.25
462.118	90.25
462.338	99.25
462.558	84.25
462.777	93.25
462.997	88.25
463.217	80.25
463.437	80.25
463.657	89.25
463.876	89.25
464.096	78.25
464.316	95.25
464.536	85.25
464.755	88.25
464.975	101.25
465.195	114.25
465.414	129.25
465.634	100.25
465.854	84.25
466.073	86.25
466.293	88.25
466.512	77.25
466.732	87.25
466.951	87.25
467.171	85.25
467.391	79.25
467.61	81.25
467.829	92.25
468.049	92.25
468.268	91.25
468.488	87.25
468.707	78.25
468.927	91.25
469.146	97.25
469.365	84.25
469.585	81.25
469.804	92.25
470.023	96.25
470.243	88.25
470.462	89.25
470.681	95.25
470.901	89.25
471.12	76.25
471.339	81.25
471.558	87.25
471.777	88.25
471.997	100.25
472.216	113.25
472.435	126.25
472.654	103.25
472.873	88.25
473.092	92.25
473.311	95.25
473.53	86.25
473.749	86.25
473.968	93.25
474.187	100.25
474.406	95.25
474.625	91.25
474.844	73.25
475.063	78.25
475.282	87.25
475.501	101.25
475.72	80.25
475.939	89.25
476.158	76.25
476.377	68.25
476.596	84.25
476.814	94.25
477.033	86.25
477.252	95.25
477.471	79.25
477.69	90.25
477.908	77.25
478.127	107.25
478.346	89.25
478.564	85.25
478.783	104.25
479.002	108.25
479.22	99.25
479.439	101.25
479.658	111.25
479.876	91.25
480.095	94.25
480.313	87.25
480.532	63.25
480.751	94.25
480.969	106.25
481.188	180.25
481.406	148.25
481.624	100.25
481.843	87.25
482.061	87.25
482.28	89.25
482.498	97.25
482.717	92.25
482.935	87.25
483.153	90.25
483.372	105.25
483.59	77.25
483.808	88.25
484.027	88.25
484.245	85.25
484.463	86.25
484.681	91.25
484.9	97.25
485.118	110.25
485.336	82.25
485.554	111.25
485.772	93.25
485.99	101.25
486.209	94.25
486.427	107.25
486.645	102.25
486.863	111.25
487.081	105.25
487.299	97.25
487.517	104.25
487.735	78.25
487.953	88.25
488.171	94.25
488.389	91.25
488.607	104.25
488.825	100.25
489.043	96.25
489.261	106.25
489.479	77.25
489.696	83.25
489.914	97.25
490.132	87.25
490.35	96.25
490.568	85.25
490.786	90.25
491.003	84.25
491.221	77.25
491.439	85.25
491.657	87.25
491.874	100.25
492.092	88.25
492.31	88.25
492.527	94.25
492.745	93.25
492.963	79.25
493.18	94.25
493.398	76.25
493.615	96.25
493.833	91.25
494.05	74.25
494.268	91.25
494.485	91.25
494.703	101.25
494.92	93.25
495.138	71.25
495.355	99.25
495.573	75.25
495.79	89.25
496.008	91.25
496.225	105.25
496.442	93.25
496.66	89.25
496.877	105.25
497.094	83.25
497.312	87.25
497.529	100.25
497.746	83.25
497.963	79.25
498.181	83.25
498.398	106.25
498.615	107.25
498.832	97.25
499.049	91.25
499.267	96.25
499.484	91.25
499.701	96.25
499.918	72.25
500.135	69.25
500.352	87.25
500.569	101.25
500.786	96.25
501.003	89.25
501.22	85.25
501.437	90.25
501.654	81.25
501.871	100.25
502.088	83.25
502.305	103.25
502.522	94.25
502.739	90.25
502.956	83.25
503.172	86.25
503.389	90.25
503.606	110.25
503.823	91.25
504.04	88.25
504.256	95.25
504.473	96.25
504.69	80.25
504.907	93.25
505.123	86.25
505.34	82.25
505.557	76.25
505.773	88.25
505.99	90.25
506.207	89.25
506.423	89.25
506.64	95.25
506.856	93.25
507.073	81.25
507.289	91.25
507.506	90.25
507.722	104.25
507.939	103.25
508.155	91.25
508.372	94.25
508.588	102.25
508.805	94.25
509.021	92.25
509.238	104.25
509.454	86.25
509.67	98.25
509.887	98.25
510.103	108.25
510.319	171.25
510.536	544.25
510.752	1611.25
510.968	468.25
511.184	132.25
511.401	105.25
511.617	102.25
511.833	99.25
512.049	86.25
512.265	92.25
512.481	91.25
512.698	85.25
512.914	93.25
513.13	86.25
513.346	85.25
513.562	99.25
513.778	94.25
513.994	106.25
514.21	87.25
514.426	109.25
514.642	109.25
514.858	106.25
515.074	138.25
515.29	318.25
515.506	919.25
515.721	349.25
515.937	128.25
516.153	85.25
