Data from Circ_1980_H10_HRD10591_00084.txt Node
Date: Wed Jan 03 12:38:15 EST 2024
User: Yrep
Spectrometer: HR+D1059
Trigger mode: 1
Integration Time (sec): 1.000000E-1
Scans to average: 1
Electric dark correction enabled: true
Nonlinearity correction enabled: false
Boxcar width: 0
XAxis mode: Wavelengths
Number of Pixels in Spectrum: 2048
>>>>>Begin Spectral Data<<<<<
223.165	-23.44
223.4	-23.44
223.635	-23.44
223.869	-6.44
224.104	-19.44
224.338	-14.44
224.573	-18.44
224.808	-9.44
225.042	-7.44
225.277	11.56
225.511	-10.44
225.746	-1.44
225.98	2.56
226.215	18.56
226.449	3.56
226.683	23.56
226.918	13.56
227.152	37.56
227.387	22.56
227.621	35.56
227.856	39.56
228.09	53.56
228.324	46.56
228.559	53.56
228.793	61.56
229.027	57.56
229.262	69.56
229.496	70.56
229.73	83.56
229.964	86.56
230.199	59.56
230.433	68.56
230.667	70.56
230.901	72.56
231.136	75.56
231.37	86.56
231.604	77.56
231.838	81.56
232.072	76.56
232.306	77.56
232.541	71.56
232.775	75.56
233.009	85.56
233.243	74.56
233.477	91.56
233.711	88.56
233.945	96.56
234.179	71.56
234.413	74.56
234.647	67.56
234.881	65.56
235.115	76.56
235.349	85.56
235.583	72.56
235.817	93.56
236.051	69.56
236.285	74.56
236.519	77.56
236.753	82.56
236.987	86.56
237.221	71.56
237.455	82.56
237.689	88.56
237.922	86.56
238.156	93.56
238.39	71.56
238.624	69.56
238.858	85.56
239.091	70.56
239.325	69.56
239.559	86.56
239.793	85.56
240.027	85.56
240.26	83.56
240.494	77.56
240.728	73.56
240.961	74.56
241.195	84.56
241.429	69.56
241.662	68.56
241.896	85.56
242.13	70.56
242.363	82.56
242.597	60.56
242.83	74.56
243.064	65.56
243.298	85.56
243.531	87.56
243.765	69.56
243.998	76.56
244.232	81.56
244.465	69.56
244.699	75.56
244.932	69.56
245.166	72.56
245.399	79.56
245.633	72.56
245.866	93.56
246.099	76.56
246.333	73.56
246.566	72.56
246.8	75.56
247.033	84.56
247.266	77.56
247.5	79.56
247.733	62.56
247.966	74.56
248.2	85.56
248.433	69.56
248.666	81.56
248.899	79.56
249.133	89.56
249.366	87.56
249.599	87.56
249.832	77.56
250.066	66.56
250.299	78.56
250.532	81.56
250.765	83.56
250.998	79.56
251.231	78.56
251.465	74.56
251.698	71.56
251.931	67.56
252.164	81.56
252.397	86.56
252.63	92.56
252.863	69.56
253.096	85.56
253.329	72.56
253.562	78.56
253.795	81.56
254.028	83.56
254.261	95.56
254.494	100.56
254.727	76.56
254.96	85.56
255.193	93.56
255.426	83.56
255.659	77.56
255.892	78.56
256.124	74.56
256.357	87.56
256.59	86.56
256.823	73.56
257.056	83.56
257.289	79.56
257.521	79.56
257.754	95.56
257.987	79.56
258.22	86.56
258.452	88.56
258.685	90.56
258.918	77.56
259.151	85.56
259.383	76.56
259.616	75.56
259.849	72.56
260.081	86.56
260.314	75.56
260.547	83.56
260.779	93.56
261.012	82.56
261.244	88.56
261.477	93.56
261.71	80.56
261.942	98.56
262.175	98.56
262.407	85.56
262.64	97.56
262.872	90.56
263.105	88.56
263.337	70.56
263.57	88.56
263.802	83.56
264.035	82.56
264.267	85.56
264.499	83.56
264.732	82.56
264.964	86.56
265.197	79.56
265.429	63.56
265.661	74.56
265.894	81.56
266.126	78.56
266.358	87.56
266.591	86.56
266.823	75.56
267.055	77.56
267.287	74.56
267.52	78.56
267.752	88.56
267.984	76.56
268.216	93.56
268.448	82.56
268.681	84.56
268.913	89.56
269.145	87.56
269.377	81.56
269.609	85.56
269.841	74.56
270.073	72.56
270.306	84.56
270.538	87.56
270.77	86.56
271.002	66.56
271.234	92.56
271.466	71.56
271.698	82.56
271.93	81.56
272.162	84.56
272.394	77.56
272.626	84.56
272.858	79.56
273.09	86.56
273.322	87.56
273.553	81.56
273.785	78.56
274.017	74.56
274.249	78.56
274.481	104.56
274.713	86.56
274.945	97.56
275.176	94.56
275.408	92.56
275.64	91.56
275.872	84.56
276.104	84.56
276.335	88.56
276.567	87.56
276.799	97.56
277.031	106.56
277.262	90.56
277.494	88.56
277.726	82.56
277.957	85.56
278.189	99.56
278.421	102.56
278.652	78.56
278.884	82.56
279.115	90.56
279.347	89.56
279.579	78.56
279.81	74.56
280.042	88.56
280.273	85.56
280.505	89.56
280.736	88.56
280.968	88.56
281.199	99.56
281.431	92.56
281.662	77.56
281.894	76.56
282.125	93.56
282.356	110.56
282.588	143.56
282.819	103.56
283.051	94.56
283.282	89.56
283.513	100.56
283.745	86.56
283.976	75.56
284.207	86.56
284.439	85.56
284.67	98.56
284.901	86.56
285.132	79.56
285.364	69.56
285.595	73.56
285.826	88.56
286.057	85.56
286.288	85.56
286.52	98.56
286.751	92.56
286.982	85.56
287.213	88.56
287.444	105.56
287.675	98.56
287.906	86.56
288.138	87.56
288.369	85.56
288.6	87.56
288.831	86.56
289.062	73.56
289.293	86.56
289.524	87.56
289.755	73.56
289.986	69.56
290.217	90.56
290.448	98.56
290.679	93.56
290.91	102.56
291.141	89.56
291.371	103.56
291.602	92.56
291.833	92.56
292.064	78.56
292.295	79.56
292.526	88.56
292.757	98.56
292.987	79.56
293.218	89.56
293.449	74.56
293.68	85.56
293.91	97.56
294.141	89.56
294.372	91.56
294.603	76.56
294.833	91.56
295.064	71.56
295.295	84.56
295.525	89.56
295.756	93.56
295.987	101.56
296.217	105.56
296.448	116.56
296.679	85.56
296.909	84.56
297.14	93.56
297.37	86.56
297.601	89.56
297.831	89.56
298.062	80.56
298.292	99.56
298.523	85.56
298.753	74.56
298.984	97.56
299.214	95.56
299.445	90.56
299.675	79.56
299.905	100.56
300.136	86.56
300.366	88.56
300.597	66.56
300.827	89.56
301.057	86.56
301.288	77.56
301.518	97.56
301.748	92.56
301.979	99.56
302.209	93.56
302.439	81.56
302.669	91.56
302.9	69.56
303.13	86.56
303.36	76.56
303.59	90.56
303.82	74.56
304.051	105.56
304.281	81.56
304.511	91.56
304.741	98.56
304.971	81.56
305.201	90.56
305.431	89.56
305.661	74.56
305.891	91.56
306.121	94.56
306.352	99.56
306.582	105.56
306.812	85.56
307.042	95.56
307.272	93.56
307.502	74.56
307.731	94.56
307.961	82.56
308.191	90.56
308.421	94.56
308.651	105.56
308.881	81.56
309.111	90.56
309.341	103.56
309.571	103.56
309.8	92.56
310.03	102.56
310.26	95.56
310.49	93.56
310.72	87.56
310.949	99.56
311.179	98.56
311.409	95.56
311.639	96.56
311.868	83.56
312.098	102.56
312.328	91.56
312.557	106.56
312.787	94.56
313.017	100.56
313.246	85.56
313.476	71.56
313.706	85.56
313.935	87.56
314.165	105.56
314.394	98.56
314.624	88.56
314.853	105.56
315.083	91.56
315.312	81.56
315.542	71.56
315.771	101.56
316.001	88.56
316.23	98.56
316.46	94.56
316.689	82.56
316.919	92.56
317.148	89.56
317.377	91.56
317.607	82.56
317.836	82.56
318.065	97.56
318.295	100.56
318.524	93.56
318.753	83.56
318.983	88.56
319.212	85.56
319.441	93.56
319.67	90.56
319.9	102.56
320.129	92.56
320.358	81.56
320.587	78.56
320.816	94.56
321.046	88.56
321.275	106.56
321.504	108.56
321.733	94.56
321.962	87.56
322.191	86.56
322.42	94.56
322.649	105.56
322.878	87.56
323.108	115.56
323.337	118.56
323.566	107.56
323.795	121.56
324.024	157.56
324.253	281.56
324.482	551.56
324.71	1133.56
324.939	1533.56
325.168	561.56
325.397	185.56
325.626	128.56
325.855	106.56
326.084	118.56
326.313	111.56
326.542	133.56
326.77	172.56
326.999	339.56
327.228	669.56
327.457	1198.56
327.686	961.56
327.914	278.56
328.143	172.56
328.372	141.56
328.6	114.56
328.829	113.56
329.058	107.56
329.287	105.56
329.515	102.56
329.744	103.56
329.972	116.56
330.201	114.56
330.43	114.56
330.658	108.56
330.887	111.56
331.115	110.56
331.344	109.56
331.572	105.56
331.801	119.56
332.03	93.56
332.258	95.56
332.486	91.56
332.715	87.56
332.943	63.56
333.172	97.56
333.4	101.56
333.629	90.56
333.857	97.56
334.085	100.56
334.314	103.56
334.542	125.56
334.771	118.56
334.999	89.56
335.227	112.56
335.455	97.56
335.684	96.56
335.912	96.56
336.14	93.56
336.369	105.56
336.597	85.56
336.825	98.56
337.053	91.56
337.281	89.56
337.51	93.56
337.738	104.56
337.966	106.56
338.194	103.56
338.422	82.56
338.65	84.56
338.878	80.56
339.106	93.56
339.334	90.56
339.562	87.56
339.79	89.56
340.018	87.56
340.246	85.56
340.474	93.56
340.702	104.56
340.93	81.56
341.158	95.56
341.386	100.56
341.614	95.56
341.842	95.56
342.07	100.56
342.298	97.56
342.526	91.56
342.754	80.56
342.981	92.56
343.209	92.56
343.437	107.56
343.665	88.56
343.893	105.56
344.12	91.56
344.348	85.56
344.576	77.56
344.804	86.56
345.031	101.56
345.259	89.56
345.487	89.56
345.714	99.56
345.942	93.56
346.17	92.56
346.397	90.56
346.625	80.56
346.853	84.56
347.08	85.56
347.308	90.56
347.535	116.56
347.763	89.56
347.99	91.56
348.218	77.56
348.445	93.56
348.673	88.56
348.9	88.56
349.128	88.56
349.355	84.56
349.583	96.56
349.81	85.56
350.037	89.56
350.265	93.56
350.492	94.56
350.72	101.56
350.947	88.56
351.174	94.56
351.402	98.56
351.629	96.56
351.856	89.56
352.083	94.56
352.311	84.56
352.538	100.56
352.765	98.56
352.992	107.56
353.22	94.56
353.447	89.56
353.674	101.56
353.901	83.56
354.128	93.56
354.355	91.56
354.583	89.56
354.81	92.56
355.037	108.56
355.264	96.56
355.491	93.56
355.718	94.56
355.945	87.56
356.172	109.56
356.399	88.56
356.626	93.56
356.853	93.56
357.08	103.56
357.307	105.56
357.534	78.56
357.761	85.56
357.988	91.56
358.215	101.56
358.441	93.56
358.668	97.56
358.895	89.56
359.122	89.56
359.349	74.56
359.576	90.56
359.802	97.56
360.029	92.56
360.256	100.56
360.483	90.56
360.709	88.56
360.936	94.56
361.163	88.56
361.39	95.56
361.616	99.56
361.843	94.56
362.07	92.56
362.296	92.56
362.523	83.56
362.749	79.56
362.976	68.56
363.203	95.56
363.429	77.56
363.656	93.56
363.882	74.56
364.109	83.56
364.335	77.56
364.562	98.56
364.788	78.56
365.015	86.56
365.241	101.56
365.468	94.56
365.694	105.56
365.92	90.56
366.147	101.56
366.373	79.56
366.599	104.56
366.826	89.56
367.052	84.56
367.278	85.56
367.505	89.56
367.731	100.56
367.957	94.56
368.184	82.56
368.41	81.56
368.636	91.56
368.862	98.56
369.089	97.56
369.315	92.56
369.541	95.56
369.767	78.56
369.993	86.56
370.219	89.56
370.445	85.56
370.672	87.56
370.898	90.56
371.124	75.56
371.35	67.56
371.576	85.56
371.802	78.56
372.028	78.56
372.254	82.56
372.48	97.56
372.706	99.56
372.932	81.56
373.158	89.56
373.384	85.56
373.61	84.56
373.835	100.56
374.061	102.56
374.287	88.56
374.513	96.56
374.739	100.56
374.965	82.56
375.191	78.56
375.416	76.56
375.642	91.56
375.868	99.56
376.094	93.56
376.319	88.56
376.545	93.56
376.771	92.56
376.997	84.56
377.222	83.56
377.448	92.56
377.674	84.56
377.899	87.56
378.125	73.56
378.35	89.56
378.576	99.56
378.802	95.56
379.027	91.56
379.253	86.56
379.478	95.56
379.704	83.56
379.929	102.56
380.155	97.56
380.38	87.56
380.606	82.56
380.831	92.56
381.057	90.56
381.282	89.56
381.507	98.56
381.733	99.56
381.958	93.56
382.184	94.56
382.409	95.56
382.634	107.56
382.86	86.56
383.085	103.56
383.31	98.56
383.535	81.56
383.761	99.56
383.986	90.56
384.211	103.56
384.436	93.56
384.662	93.56
384.887	96.56
385.112	93.56
385.337	102.56
385.562	101.56
385.787	103.56
386.013	112.56
386.238	113.56
386.463	93.56
386.688	105.56
386.913	98.56
387.138	100.56
387.363	99.56
387.588	85.56
387.813	97.56
388.038	88.56
388.263	108.56
388.488	100.56
388.713	98.56
388.938	86.56
389.163	72.56
389.387	71.56
389.612	97.56
389.837	105.56
390.062	106.56
390.287	78.56
390.512	103.56
390.736	93.56
390.961	90.56
391.186	81.56
391.411	85.56
391.636	103.56
391.86	93.56
392.085	93.56
392.31	92.56
392.534	88.56
392.759	80.56
392.984	94.56
393.208	81.56
393.433	90.56
393.658	85.56
393.882	86.56
394.107	79.56
394.331	69.56
394.556	85.56
394.78	99.56
395.005	94.56
395.229	90.56
395.454	76.56
395.678	81.56
395.903	95.56
396.127	93.56
396.352	93.56
396.576	85.56
396.801	91.56
397.025	80.56
397.249	87.56
397.474	95.56
397.698	83.56
397.922	96.56
398.147	79.56
398.371	75.56
398.595	85.56
398.82	87.56
399.044	93.56
399.268	81.56
399.492	87.56
399.717	82.56
399.941	94.56
400.165	84.56
400.389	89.56
400.613	69.56
400.837	76.56
401.062	82.56
401.286	89.56
401.51	92.56
401.734	90.56
401.958	95.56
402.182	110.56
402.406	118.56
402.63	100.56
402.854	87.56
403.078	95.56
403.302	81.56
403.526	88.56
403.75	85.56
403.974	72.56
404.198	99.56
404.422	93.56
404.645	89.56
404.869	87.56
405.093	78.56
405.317	107.56
405.541	96.56
405.765	92.56
405.988	107.56
406.212	133.56
406.436	173.56
406.66	116.56
406.883	87.56
407.107	69.56
407.331	79.56
407.555	91.56
407.778	97.56
408.002	94.56
408.226	83.56
408.449	94.56
408.673	92.56
408.896	79.56
409.12	81.56
409.344	87.56
409.567	78.56
409.791	102.56
410.014	89.56
410.238	89.56
410.461	86.56
410.685	100.56
410.908	100.56
411.132	102.56
411.355	91.56
411.578	102.56
411.802	90.56
412.025	87.56
412.249	96.56
412.472	91.56
412.695	85.56
412.919	95.56
413.142	110.56
413.365	89.56
413.589	85.56
413.812	92.56
414.035	93.56
414.258	86.56
414.482	85.56
414.705	97.56
414.928	82.56
415.151	62.56
415.374	81.56
415.597	85.56
415.821	86.56
416.044	81.56
416.267	82.56
416.49	84.56
416.713	81.56
416.936	76.56
417.159	75.56
417.382	93.56
417.605	81.56
417.828	89.56
418.051	101.56
418.274	77.56
418.497	95.56
418.72	76.56
418.943	79.56
419.166	82.56
419.389	74.56
419.611	90.56
419.834	89.56
420.057	72.56
420.28	93.56
420.503	92.56
420.726	96.56
420.948	86.56
421.171	82.56
421.394	97.56
421.617	81.56
421.839	81.56
422.062	87.56
422.285	89.56
422.507	110.56
422.73	82.56
422.953	84.56
423.175	95.56
423.398	79.56
423.621	100.56
423.843	85.56
424.066	85.56
424.288	81.56
424.511	81.56
424.733	83.56
424.956	86.56
425.178	81.56
425.401	103.56
425.623	98.56
425.846	85.56
426.068	78.56
426.291	88.56
426.513	85.56
426.735	68.56
426.958	87.56
427.18	79.56
427.402	102.56
427.625	131.56
427.847	110.56
428.069	98.56
428.292	92.56
428.514	87.56
428.736	83.56
428.958	76.56
429.181	90.56
429.403	95.56
429.625	79.56
429.847	108.56
430.069	87.56
430.292	87.56
430.514	74.56
430.736	86.56
430.958	73.56
431.18	84.56
431.402	83.56
431.624	98.56
431.846	98.56
432.068	77.56
432.29	89.56
432.512	75.56
432.734	88.56
432.956	97.56
433.178	91.56
433.4	101.56
433.622	90.56
433.844	91.56
434.066	102.56
434.287	87.56
434.509	87.56
434.731	79.56
434.953	92.56
435.175	82.56
435.397	84.56
435.618	90.56
435.84	102.56
436.062	95.56
436.284	103.56
436.505	97.56
436.727	105.56
436.949	89.56
437.17	84.56
437.392	88.56
437.614	92.56
437.835	109.56
438.057	93.56
438.278	103.56
438.5	89.56
438.721	114.56
438.943	92.56
439.165	101.56
439.386	85.56
439.608	89.56
439.829	83.56
440.05	100.56
440.272	104.56
440.493	122.56
440.715	102.56
440.936	87.56
441.158	93.56
441.379	95.56
441.6	90.56
441.822	84.56
442.043	102.56
442.264	83.56
442.486	92.56
442.707	85.56
442.928	98.56
443.149	107.56
443.371	105.56
443.592	91.56
443.813	92.56
444.034	93.56
444.255	92.56
444.476	93.56
444.698	84.56
444.919	70.56
445.14	132.56
445.361	113.56
445.582	111.56
445.803	119.56
446.024	133.56
446.245	114.56
446.466	102.56
446.687	92.56
446.908	85.56
447.129	81.56
447.35	95.56
447.571	98.56
447.792	101.56
448.013	90.56
448.234	107.56
448.455	90.56
448.675	98.56
448.896	93.56
449.117	103.56
449.338	95.56
449.559	98.56
449.779	112.56
450	93.56
450.221	89.56
450.442	89.56
450.662	87.56
450.883	106.56
451.104	100.56
451.324	85.56
451.545	94.56
451.766	78.56
451.986	75.56
452.207	89.56
452.428	90.56
452.648	97.56
452.869	90.56
453.089	94.56
453.31	86.56
453.53	95.56
453.751	97.56
453.971	91.56
454.192	99.56
454.412	83.56
454.633	91.56
454.853	88.56
455.073	76.56
455.294	89.56
455.514	90.56
455.734	102.56
455.955	82.56
456.175	70.56
456.395	90.56
456.616	73.56
456.836	89.56
457.056	86.56
457.276	75.56
457.497	87.56
457.717	81.56
457.937	87.56
458.157	75.56
458.377	102.56
458.598	110.56
458.818	116.56
459.038	121.56
459.258	93.56
459.478	91.56
459.698	83.56
459.918	97.56
460.138	85.56
460.358	87.56
460.578	82.56
460.798	101.56
461.018	79.56
461.238	85.56
461.458	85.56
461.678	71.56
461.898	79.56
462.118	73.56
462.338	84.56
462.558	81.56
462.777	91.56
462.997	79.56
463.217	90.56
463.437	82.56
463.657	87.56
463.876	80.56
464.096	92.56
464.316	90.56
464.536	85.56
464.755	85.56
464.975	79.56
465.195	131.56
465.414	121.56
465.634	85.56
465.854	75.56
466.073	83.56
466.293	83.56
466.512	85.56
466.732	95.56
466.951	81.56
467.171	99.56
467.391	94.56
467.61	95.56
467.829	110.56
468.049	92.56
468.268	84.56
468.488	82.56
468.707	77.56
468.927	83.56
469.146	99.56
469.365	88.56
469.585	91.56
469.804	88.56
470.023	77.56
470.243	92.56
470.462	96.56
470.681	111.56
470.901	79.56
471.12	86.56
471.339	77.56
471.558	99.56
471.777	85.56
471.997	91.56
472.216	107.56
472.435	134.56
472.654	93.56
472.873	78.56
473.092	87.56
473.311	85.56
473.53	69.56
473.749	75.56
473.968	93.56
474.187	89.56
474.406	95.56
474.625	81.56
474.844	87.56
475.063	85.56
475.282	84.56
475.501	94.56
475.72	73.56
475.939	87.56
476.158	98.56
476.377	94.56
476.596	93.56
476.814	105.56
477.033	78.56
477.252	93.56
477.471	81.56
477.69	88.56
477.908	95.56
478.127	86.56
478.346	89.56
478.564	83.56
478.783	93.56
479.002	89.56
479.22	95.56
479.439	87.56
479.658	89.56
479.876	94.56
480.095	86.56
480.313	83.56
480.532	97.56
480.751	92.56
480.969	104.56
481.188	185.56
481.406	134.56
481.624	90.56
481.843	85.56
482.061	91.56
482.28	100.56
482.498	89.56
482.717	95.56
482.935	102.56
483.153	80.56
483.372	83.56
483.59	84.56
483.808	74.56
484.027	89.56
484.245	97.56
484.463	97.56
484.681	114.56
484.9	85.56
485.118	105.56
485.336	98.56
485.554	99.56
485.772	107.56
485.99	100.56
486.209	103.56
486.427	97.56
486.645	100.56
486.863	98.56
487.081	103.56
487.299	105.56
487.517	99.56
487.735	110.56
487.953	86.56
488.171	86.56
488.389	90.56
488.607	100.56
488.825	93.56
489.043	74.56
489.261	77.56
489.479	77.56
489.696	85.56
489.914	87.56
490.132	98.56
490.35	89.56
490.568	88.56
490.786	93.56
491.003	87.56
491.221	74.56
491.439	85.56
491.657	86.56
491.874	91.56
492.092	79.56
492.31	106.56
492.527	78.56
492.745	101.56
492.963	86.56
493.18	95.56
493.398	102.56
493.615	101.56
493.833	98.56
494.05	89.56
494.268	85.56
494.485	91.56
494.703	108.56
494.92	77.56
495.138	89.56
495.355	88.56
495.573	90.56
495.79	89.56
496.008	77.56
496.225	94.56
496.442	91.56
496.66	86.56
496.877	89.56
497.094	100.56
497.312	92.56
497.529	95.56
497.746	76.56
497.963	89.56
498.181	100.56
498.398	89.56
498.615	89.56
498.832	102.56
499.049	85.56
499.267	91.56
499.484	88.56
499.701	91.56
499.918	92.56
500.135	90.56
500.352	72.56
500.569	89.56
500.786	98.56
501.003	90.56
501.22	93.56
501.437	93.56
501.654	92.56
501.871	107.56
502.088	89.56
502.305	75.56
502.522	83.56
502.739	88.56
502.956	94.56
503.172	93.56
503.389	97.56
503.606	101.56
503.823	89.56
504.04	81.56
504.256	93.56
504.473	90.56
504.69	90.56
504.907	78.56
505.123	89.56
505.34	97.56
505.557	96.56
505.773	90.56
505.99	94.56
506.207	83.56
506.423	91.56
506.64	88.56
506.856	95.56
507.073	83.56
507.289	90.56
507.506	86.56
507.722	110.56
507.939	104.56
508.155	82.56
508.372	92.56
508.588	92.56
508.805	88.56
509.021	87.56
509.238	87.56
509.454	98.56
509.67	82.56
509.887	102.56
510.103	119.56
510.319	173.56
510.536	535.56
510.752	1573.56
510.968	466.56
511.184	129.56
511.401	101.56
511.617	107.56
511.833	88.56
512.049	95.56
512.265	99.56
512.481	101.56
512.698	86.56
512.914	88.56
513.13	96.56
513.346	102.56
513.562	92.56
513.778	92.56
513.994	93.56
514.21	95.56
514.426	99.56
514.642	118.56
514.858	106.56
515.074	128.56
515.29	311.56
515.506	913.56
515.721	350.56
515.937	120.56
516.153	93.56
516.369	92.56
516.585	100.56
516.801	95.56
