Data from Circ_1980_H10_HRD10591_00046.txt Node
Date: Wed Jan 03 12:38:07 EST 2024
User: Yrep
Spectrometer: HR+D1059
Trigger mode: 1
Integration Time (sec): 1.000000E-1
Scans to average: 1
Electric dark correction enabled: true
Nonlinearity correction enabled: false
Boxcar width: 0
XAxis mode: Wavelengths
Number of Pixels in Spectrum: 2048
>>>>>Begin Spectral Data<<<<<
223.165	-16.12
223.4	-16.12
223.635	-16.12
223.869	-28.12
224.104	-29.12
224.338	-19.12
224.573	-18.12
224.808	-7.12
225.042	-9.12
225.277	-3.12
225.511	7.88
225.746	-2.12
225.98	6.88
226.215	21.88
226.449	14.88
226.683	26.88
226.918	20.88
227.152	32.88
227.387	46.88
227.621	37.88
227.856	39.88
228.09	41.88
228.324	55.88
228.559	53.88
228.793	47.88
229.027	61.88
229.262	56.88
229.496	64.88
229.73	68.88
229.964	78.88
230.199	66.88
230.433	64.88
230.667	78.88
230.901	75.88
231.136	85.88
231.37	85.88
231.604	79.88
231.838	76.88
232.072	86.88
232.306	70.88
232.541	69.88
232.775	72.88
233.009	77.88
233.243	67.88
233.477	89.88
233.711	74.88
233.945	78.88
234.179	83.88
234.413	74.88
234.647	72.88
234.881	65.88
235.115	77.88
235.349	85.88
235.583	84.88
235.817	63.88
236.051	80.88
236.285	76.88
236.519	70.88
236.753	94.88
236.987	71.88
237.221	91.88
237.455	86.88
237.689	62.88
237.922	77.88
238.156	77.88
238.39	80.88
238.624	77.88
238.858	74.88
239.091	92.88
239.325	77.88
239.559	70.88
239.793	75.88
240.027	73.88
240.26	82.88
240.494	75.88
240.728	67.88
240.961	86.88
241.195	61.88
241.429	68.88
241.662	74.88
241.896	72.88
242.13	89.88
242.363	76.88
242.597	68.88
242.83	83.88
243.064	75.88
243.298	76.88
243.531	69.88
243.765	70.88
243.998	82.88
244.232	86.88
244.465	88.88
244.699	68.88
244.932	73.88
245.166	73.88
245.399	84.88
245.633	86.88
245.866	84.88
246.099	87.88
246.333	66.88
246.566	70.88
246.8	67.88
247.033	72.88
247.266	60.88
247.5	63.88
247.733	82.88
247.966	69.88
248.2	92.88
248.433	66.88
248.666	68.88
248.899	84.88
249.133	86.88
249.366	93.88
249.599	86.88
249.832	66.88
250.066	92.88
250.299	64.88
250.532	78.88
250.765	75.88
250.998	69.88
251.231	80.88
251.465	82.88
251.698	99.88
251.931	75.88
252.164	74.88
252.397	89.88
252.63	75.88
252.863	67.88
253.096	76.88
253.329	77.88
253.562	81.88
253.795	65.88
254.028	83.88
254.261	80.88
254.494	61.88
254.727	74.88
254.96	84.88
255.193	80.88
255.426	80.88
255.659	83.88
255.892	84.88
256.124	77.88
256.357	88.88
256.59	71.88
256.823	75.88
257.056	80.88
257.289	75.88
257.521	83.88
257.754	67.88
257.987	91.88
258.22	74.88
258.452	86.88
258.685	74.88
258.918	75.88
259.151	79.88
259.383	80.88
259.616	96.88
259.849	82.88
260.081	78.88
260.314	75.88
260.547	81.88
260.779	63.88
261.012	90.88
261.244	80.88
261.477	87.88
261.71	91.88
261.942	101.88
262.175	113.88
262.407	86.88
262.64	62.88
262.872	84.88
263.105	96.88
263.337	78.88
263.57	81.88
263.802	89.88
264.035	61.88
264.267	88.88
264.499	95.88
264.732	67.88
264.964	92.88
265.197	85.88
265.429	96.88
265.661	92.88
265.894	90.88
266.126	82.88
266.358	91.88
266.591	75.88
266.823	80.88
267.055	92.88
267.287	84.88
267.52	73.88
267.752	93.88
267.984	92.88
268.216	89.88
268.448	93.88
268.681	86.88
268.913	77.88
269.145	72.88
269.377	84.88
269.609	65.88
269.841	96.88
270.073	93.88
270.306	86.88
270.538	81.88
270.77	72.88
271.002	92.88
271.234	88.88
271.466	93.88
271.698	88.88
271.93	85.88
272.162	85.88
272.394	85.88
272.626	89.88
272.858	94.88
273.09	91.88
273.322	81.88
273.553	75.88
273.785	84.88
274.017	84.88
274.249	77.88
274.481	81.88
274.713	96.88
274.945	87.88
275.176	82.88
275.408	83.88
275.64	86.88
275.872	95.88
276.104	85.88
276.335	86.88
276.567	90.88
276.799	101.88
277.031	107.88
277.262	102.88
277.494	84.88
277.726	90.88
277.957	93.88
278.189	91.88
278.421	77.88
278.652	84.88
278.884	91.88
279.115	85.88
279.347	77.88
279.579	86.88
279.81	84.88
280.042	77.88
280.273	88.88
280.505	89.88
280.736	90.88
280.968	86.88
281.199	80.88
281.431	91.88
281.662	80.88
281.894	85.88
282.125	90.88
282.356	100.88
282.588	116.88
282.819	111.88
283.051	91.88
283.282	86.88
283.513	76.88
283.745	83.88
283.976	97.88
284.207	76.88
284.439	88.88
284.67	85.88
284.901	82.88
285.132	78.88
285.364	84.88
285.595	89.88
285.826	90.88
286.057	90.88
286.288	93.88
286.52	91.88
286.751	92.88
286.982	94.88
287.213	69.88
287.444	86.88
287.675	86.88
287.906	88.88
288.138	81.88
288.369	89.88
288.6	94.88
288.831	75.88
289.062	85.88
289.293	73.88
289.524	82.88
289.755	80.88
289.986	84.88
290.217	83.88
290.448	83.88
290.679	93.88
290.91	88.88
291.141	85.88
291.371	86.88
291.602	99.88
291.833	84.88
292.064	81.88
292.295	62.88
292.526	94.88
292.757	90.88
292.987	96.88
293.218	80.88
293.449	74.88
293.68	89.88
293.91	80.88
294.141	73.88
294.372	92.88
294.603	88.88
294.833	100.88
295.064	85.88
295.295	102.88
295.525	88.88
295.756	97.88
295.987	99.88
296.217	112.88
296.448	96.88
296.679	87.88
296.909	82.88
297.14	90.88
297.37	94.88
297.601	91.88
297.831	88.88
298.062	90.88
298.292	89.88
298.523	94.88
298.753	100.88
298.984	97.88
299.214	84.88
299.445	86.88
299.675	82.88
299.905	98.88
300.136	105.88
300.366	105.88
300.597	80.88
300.827	94.88
301.057	85.88
301.288	77.88
301.518	92.88
301.748	81.88
301.979	105.88
302.209	91.88
302.439	102.88
302.669	81.88
302.9	94.88
303.13	77.88
303.36	93.88
303.59	100.88
303.82	95.88
304.051	106.88
304.281	78.88
304.511	91.88
304.741	90.88
304.971	88.88
305.201	100.88
305.431	92.88
305.661	84.88
305.891	99.88
306.121	89.88
306.352	98.88
306.582	103.88
306.812	82.88
307.042	95.88
307.272	102.88
307.502	86.88
307.731	98.88
307.961	76.88
308.191	93.88
308.421	75.88
308.651	101.88
308.881	92.88
309.111	101.88
309.341	103.88
309.571	90.88
309.8	90.88
310.03	106.88
310.26	87.88
310.49	95.88
310.72	110.88
310.949	98.88
311.179	82.88
311.409	91.88
311.639	85.88
311.868	88.88
312.098	98.88
312.328	104.88
312.557	109.88
312.787	100.88
313.017	100.88
313.246	103.88
313.476	81.88
313.706	66.88
313.935	86.88
314.165	89.88
314.394	92.88
314.624	98.88
314.853	96.88
315.083	92.88
315.312	87.88
315.542	82.88
315.771	94.88
316.001	79.88
316.23	93.88
316.46	73.88
316.689	90.88
316.919	89.88
317.148	102.88
317.377	92.88
317.607	102.88
317.836	89.88
318.065	84.88
318.295	88.88
318.524	82.88
318.753	85.88
318.983	95.88
319.212	95.88
319.441	93.88
319.67	88.88
319.9	92.88
320.129	82.88
320.358	97.88
320.587	98.88
320.816	101.88
321.046	113.88
321.275	107.88
321.504	92.88
321.733	101.88
321.962	88.88
322.191	87.88
322.42	94.88
322.649	100.88
322.878	100.88
323.108	89.88
323.337	109.88
323.566	123.88
323.795	113.88
324.024	173.88
324.253	290.88
324.482	595.88
324.71	1196.88
324.939	1566.88
325.168	586.88
325.397	192.88
325.626	118.88
325.855	112.88
326.084	118.88
326.313	111.88
326.542	113.88
326.77	175.88
326.999	330.88
327.228	678.88
327.457	1218.88
327.686	926.88
327.914	273.88
328.143	156.88
328.372	129.88
328.6	109.88
328.829	105.88
329.058	97.88
329.287	102.88
329.515	104.88
329.744	103.88
329.972	100.88
330.201	120.88
330.43	120.88
330.658	102.88
330.887	123.88
331.115	88.88
331.344	86.88
331.572	106.88
331.801	93.88
332.03	94.88
332.258	97.88
332.486	95.88
332.715	82.88
332.943	95.88
333.172	91.88
333.4	105.88
333.629	96.88
333.857	118.88
334.085	101.88
334.314	114.88
334.542	119.88
334.771	113.88
334.999	102.88
335.227	107.88
335.455	105.88
335.684	99.88
335.912	90.88
336.14	90.88
336.369	101.88
336.597	107.88
336.825	101.88
337.053	98.88
337.281	81.88
337.51	83.88
337.738	100.88
337.966	98.88
338.194	110.88
338.422	97.88
338.65	99.88
338.878	114.88
339.106	83.88
339.334	88.88
339.562	89.88
339.79	90.88
340.018	68.88
340.246	88.88
340.474	88.88
340.702	83.88
340.93	94.88
341.158	91.88
341.386	83.88
341.614	94.88
341.842	83.88
342.07	75.88
342.298	98.88
342.526	83.88
342.754	89.88
342.981	86.88
343.209	92.88
343.437	99.88
343.665	95.88
343.893	98.88
344.12	88.88
344.348	90.88
344.576	90.88
344.804	90.88
345.031	95.88
345.259	92.88
345.487	92.88
345.714	96.88
345.942	75.88
346.17	93.88
346.397	78.88
346.625	94.88
346.853	93.88
347.08	87.88
347.308	88.88
347.535	90.88
347.763	101.88
347.99	88.88
348.218	88.88
348.445	98.88
348.673	88.88
348.9	106.88
349.128	98.88
349.355	98.88
349.583	91.88
349.81	92.88
350.037	93.88
350.265	86.88
350.492	101.88
350.72	87.88
350.947	90.88
351.174	98.88
351.402	108.88
351.629	90.88
351.856	102.88
352.083	89.88
352.311	90.88
352.538	101.88
352.765	101.88
352.992	103.88
353.22	104.88
353.447	94.88
353.674	110.88
353.901	109.88
354.128	94.88
354.355	91.88
354.583	94.88
354.81	119.88
355.037	100.88
355.264	97.88
355.491	93.88
355.718	95.88
355.945	97.88
356.172	99.88
356.399	104.88
356.626	93.88
356.853	96.88
357.08	81.88
357.307	84.88
357.534	85.88
357.761	80.88
357.988	99.88
358.215	98.88
358.441	88.88
358.668	104.88
358.895	91.88
359.122	87.88
359.349	88.88
359.576	108.88
359.802	90.88
360.029	92.88
360.256	98.88
360.483	82.88
360.709	91.88
360.936	89.88
361.163	89.88
361.39	113.88
361.616	89.88
361.843	84.88
362.07	76.88
362.296	107.88
362.523	73.88
362.749	94.88
362.976	83.88
363.203	81.88
363.429	94.88
363.656	88.88
363.882	84.88
364.109	87.88
364.335	92.88
364.562	98.88
364.788	83.88
365.015	90.88
365.241	96.88
365.468	110.88
365.694	90.88
365.92	94.88
366.147	88.88
366.373	79.88
366.599	91.88
366.826	75.88
367.052	87.88
367.278	84.88
367.505	75.88
367.731	86.88
367.957	84.88
368.184	88.88
368.41	86.88
368.636	100.88
368.862	113.88
369.089	108.88
369.315	88.88
369.541	93.88
369.767	99.88
369.993	95.88
370.219	69.88
370.445	83.88
370.672	90.88
370.898	78.88
371.124	98.88
371.35	92.88
371.576	92.88
371.802	75.88
372.028	74.88
372.254	90.88
372.48	88.88
372.706	94.88
372.932	89.88
373.158	90.88
373.384	89.88
373.61	101.88
373.835	94.88
374.061	92.88
374.287	86.88
374.513	88.88
374.739	88.88
374.965	70.88
375.191	94.88
375.416	102.88
375.642	89.88
375.868	89.88
376.094	96.88
376.319	80.88
376.545	95.88
376.771	86.88
376.997	93.88
377.222	91.88
377.448	103.88
377.674	94.88
377.899	93.88
378.125	85.88
378.35	84.88
378.576	81.88
378.802	77.88
379.027	98.88
379.253	82.88
379.478	90.88
379.704	96.88
379.929	88.88
380.155	81.88
380.38	92.88
380.606	90.88
380.831	96.88
381.057	96.88
381.282	91.88
381.507	93.88
381.733	102.88
381.958	105.88
382.184	105.88
382.409	104.88
382.634	92.88
382.86	89.88
383.085	110.88
383.31	101.88
383.535	103.88
383.761	90.88
383.986	104.88
384.211	93.88
384.436	92.88
384.662	97.88
384.887	99.88
385.112	114.88
385.337	112.88
385.562	106.88
385.787	110.88
386.013	95.88
386.238	115.88
386.463	101.88
386.688	97.88
386.913	107.88
387.138	107.88
387.363	113.88
387.588	103.88
387.813	109.88
388.038	91.88
388.263	109.88
388.488	101.88
388.713	83.88
388.938	105.88
389.163	90.88
389.387	91.88
389.612	103.88
389.837	97.88
390.062	102.88
390.287	90.88
390.512	97.88
390.736	96.88
390.961	96.88
391.186	73.88
391.411	82.88
391.636	94.88
391.86	85.88
392.085	98.88
392.31	96.88
392.534	78.88
392.759	81.88
392.984	87.88
393.208	86.88
393.433	69.88
393.658	97.88
393.882	94.88
394.107	82.88
394.331	94.88
394.556	93.88
394.78	92.88
395.005	82.88
395.229	82.88
395.454	81.88
395.678	88.88
395.903	83.88
396.127	66.88
396.352	71.88
396.576	72.88
396.801	97.88
397.025	89.88
397.249	86.88
397.474	84.88
397.698	95.88
397.922	90.88
398.147	84.88
398.371	100.88
398.595	82.88
398.82	94.88
399.044	104.88
399.268	103.88
399.492	93.88
399.717	75.88
399.941	90.88
400.165	78.88
400.389	75.88
400.613	82.88
400.837	95.88
401.062	94.88
401.286	84.88
401.51	88.88
401.734	76.88
401.958	85.88
402.182	121.88
402.406	126.88
402.63	105.88
402.854	86.88
403.078	76.88
403.302	86.88
403.526	85.88
403.75	86.88
403.974	86.88
404.198	89.88
404.422	81.88
404.645	94.88
404.869	83.88
405.093	92.88
405.317	85.88
405.541	99.88
405.765	94.88
405.988	102.88
406.212	134.88
406.436	175.88
406.66	130.88
406.883	90.88
407.107	95.88
407.331	82.88
407.555	89.88
407.778	91.88
408.002	84.88
408.226	89.88
408.449	76.88
408.673	84.88
408.896	86.88
409.12	83.88
409.344	89.88
409.567	87.88
409.791	100.88
410.014	102.88
410.238	91.88
410.461	91.88
410.685	85.88
410.908	96.88
411.132	107.88
411.355	105.88
411.578	81.88
411.802	77.88
412.025	77.88
412.249	84.88
412.472	85.88
412.695	83.88
412.919	90.88
413.142	72.88
413.365	87.88
413.589	92.88
413.812	85.88
414.035	81.88
414.258	87.88
414.482	89.88
414.705	107.88
414.928	99.88
415.151	98.88
415.374	106.88
415.597	85.88
415.821	93.88
416.044	77.88
416.267	87.88
416.49	78.88
416.713	80.88
416.936	92.88
417.159	68.88
417.382	112.88
417.605	80.88
417.828	84.88
418.051	91.88
418.274	77.88
418.497	79.88
418.72	86.88
418.943	98.88
419.166	87.88
419.389	86.88
419.611	106.88
419.834	84.88
420.057	95.88
420.28	92.88
420.503	82.88
420.726	81.88
420.948	89.88
421.171	89.88
421.394	89.88
421.617	90.88
421.839	77.88
422.062	88.88
422.285	75.88
422.507	102.88
422.73	100.88
422.953	93.88
423.175	94.88
423.398	86.88
423.621	94.88
423.843	76.88
424.066	82.88
424.288	82.88
424.511	82.88
424.733	89.88
424.956	88.88
425.178	90.88
425.401	90.88
425.623	95.88
425.846	86.88
426.068	99.88
426.291	94.88
426.513	94.88
426.735	99.88
426.958	86.88
427.18	86.88
427.402	103.88
427.625	116.88
427.847	107.88
428.069	92.88
428.292	69.88
428.514	90.88
428.736	89.88
428.958	76.88
429.181	81.88
429.403	90.88
429.625	88.88
429.847	72.88
430.069	91.88
430.292	89.88
430.514	80.88
430.736	77.88
430.958	90.88
431.18	79.88
431.402	80.88
431.624	94.88
431.846	92.88
432.068	82.88
432.29	103.88
432.512	81.88
432.734	97.88
432.956	89.88
433.178	89.88
433.4	82.88
433.622	88.88
433.844	83.88
434.066	96.88
434.287	90.88
434.509	81.88
434.731	72.88
434.953	88.88
435.175	68.88
435.397	83.88
435.618	96.88
435.84	103.88
436.062	96.88
436.284	91.88
436.505	103.88
436.727	99.88
436.949	97.88
437.17	87.88
437.392	76.88
437.614	87.88
437.835	91.88
438.057	104.88
438.278	93.88
438.5	82.88
438.721	103.88
438.943	93.88
439.165	85.88
439.386	86.88
439.608	93.88
439.829	97.88
440.05	102.88
440.272	116.88
440.493	88.88
440.715	87.88
440.936	77.88
441.158	90.88
441.379	97.88
441.6	97.88
441.822	86.88
442.043	95.88
442.264	101.88
442.486	109.88
442.707	89.88
442.928	91.88
443.149	110.88
443.371	97.88
443.592	99.88
443.813	89.88
444.034	91.88
444.255	89.88
444.476	81.88
444.698	83.88
444.919	71.88
445.14	134.88
445.361	112.88
445.582	102.88
445.803	121.88
446.024	103.88
446.245	122.88
446.466	116.88
446.687	92.88
446.908	92.88
447.129	89.88
447.35	87.88
447.571	101.88
447.792	87.88
448.013	91.88
448.234	101.88
448.455	94.88
448.675	96.88
448.896	98.88
449.117	90.88
449.338	96.88
449.559	116.88
449.779	108.88
450	74.88
450.221	86.88
450.442	86.88
450.662	87.88
450.883	104.88
451.104	89.88
451.324	93.88
451.545	84.88
451.766	77.88
451.986	93.88
452.207	99.88
452.428	94.88
452.648	81.88
452.869	90.88
453.089	94.88
453.31	89.88
453.53	86.88
453.751	89.88
453.971	95.88
454.192	98.88
454.412	87.88
454.633	72.88
454.853	87.88
455.073	86.88
455.294	92.88
455.514	78.88
455.734	73.88
455.955	90.88
456.175	85.88
456.395	88.88
456.616	87.88
456.836	68.88
457.056	92.88
457.276	80.88
457.497	70.88
457.717	71.88
457.937	81.88
458.157	77.88
458.377	92.88
458.598	86.88
458.818	116.88
459.038	115.88
459.258	98.88
459.478	94.88
459.698	98.88
459.918	88.88
460.138	82.88
460.358	88.88
460.578	83.88
460.798	89.88
461.018	86.88
461.238	77.88
461.458	80.88
461.678	89.88
461.898	77.88
462.118	79.88
462.338	85.88
462.558	82.88
462.777	84.88
462.997	94.88
463.217	80.88
463.437	80.88
463.657	95.88
463.876	82.88
464.096	94.88
464.316	76.88
464.536	85.88
464.755	84.88
464.975	85.88
465.195	136.88
465.414	113.88
465.634	92.88
465.854	90.88
466.073	88.88
466.293	69.88
466.512	95.88
466.732	82.88
466.951	84.88
467.171	81.88
467.391	81.88
467.61	88.88
467.829	84.88
468.049	83.88
468.268	105.88
468.488	86.88
468.707	72.88
468.927	80.88
469.146	80.88
469.365	89.88
469.585	94.88
469.804	91.88
470.023	84.88
470.243	97.88
470.462	108.88
470.681	88.88
470.901	94.88
471.12	81.88
471.339	89.88
471.558	73.88
471.777	92.88
471.997	92.88
472.216	100.88
472.435	136.88
472.654	90.88
472.873	84.88
473.092	67.88
473.311	78.88
473.53	95.88
473.749	99.88
473.968	87.88
474.187	101.88
474.406	85.88
474.625	76.88
474.844	94.88
475.063	90.88
475.282	84.88
475.501	85.88
475.72	84.88
475.939	79.88
476.158	82.88
476.377	91.88
476.596	78.88
476.814	77.88
477.033	87.88
477.252	92.88
477.471	85.88
477.69	95.88
477.908	81.88
478.127	93.88
478.346	82.88
478.564	84.88
478.783	82.88
479.002	101.88
479.22	96.88
479.439	92.88
479.658	86.88
479.876	92.88
480.095	78.88
480.313	97.88
480.532	82.88
480.751	93.88
480.969	108.88
481.188	181.88
481.406	141.88
481.624	96.88
481.843	81.88
482.061	101.88
482.28	85.88
482.498	92.88
482.717	87.88
482.935	88.88
483.153	92.88
483.372	82.88
483.59	93.88
483.808	88.88
484.027	82.88
484.245	86.88
484.463	75.88
484.681	101.88
484.9	92.88
485.118	91.88
485.336	99.88
485.554	113.88
485.772	93.88
485.99	99.88
486.209	97.88
486.427	111.88
486.645	116.88
486.863	103.88
487.081	93.88
487.299	96.88
487.517	75.88
487.735	77.88
487.953	83.88
488.171	91.88
488.389	89.88
488.607	95.88
488.825	94.88
489.043	86.88
489.261	79.88
489.479	81.88
489.696	74.88
489.914	76.88
490.132	89.88
490.35	75.88
490.568	80.88
490.786	84.88
491.003	89.88
491.221	90.88
491.439	97.88
491.657	96.88
491.874	94.88
492.092	85.88
492.31	73.88
492.527	86.88
492.745	88.88
492.963	85.88
493.18	95.88
493.398	88.88
493.615	98.88
493.833	91.88
494.05	83.88
494.268	85.88
494.485	80.88
494.703	80.88
494.92	98.88
495.138	70.88
495.355	90.88
495.573	101.88
495.79	84.88
496.008	85.88
496.225	94.88
496.442	90.88
496.66	92.88
496.877	83.88
497.094	107.88
497.312	73.88
497.529	97.88
497.746	95.88
497.963	88.88
498.181	87.88
498.398	85.88
498.615	97.88
498.832	99.88
499.049	70.88
499.267	93.88
499.484	75.88
499.701	87.88
499.918	84.88
500.135	85.88
500.352	94.88
500.569	86.88
500.786	85.88
501.003	100.88
501.22	80.88
501.437	91.88
501.654	94.88
501.871	97.88
502.088	95.88
502.305	100.88
502.522	87.88
502.739	85.88
502.956	85.88
503.172	87.88
503.389	89.88
503.606	87.88
503.823	95.88
504.04	91.88
504.256	78.88
504.473	86.88
504.69	92.88
504.907	88.88
505.123	93.88
505.34	97.88
505.557	93.88
505.773	97.88
505.99	75.88
506.207	88.88
506.423	82.88
506.64	95.88
506.856	84.88
507.073	80.88
507.289	87.88
507.506	99.88
507.722	103.88
507.939	91.88
508.155	84.88
508.372	84.88
508.588	87.88
508.805	90.88
509.021	83.88
509.238	92.88
509.454	90.88
509.67	78.88
509.887	97.88
510.103	124.88
510.319	178.88
510.536	555.88
510.752	1673.88
510.968	490.88
511.184	121.88
511.401	103.88
511.617	91.88
511.833	89.88
512.049	95.88
512.265	77.88
512.481	94.88
512.698	95.88
512.914	98.88
513.13	93.88
513.346	91.88
513.562	75.88
513.778	93.88
513.994	89.88
514.21	106.88
514.426	95.88
514.642	118.88
514.858	100.88
515.074	122.88
515.29	309.88
515.506	993.88
515.721	376.88
515.937	135.88
516.153	84.88
516.369	99.88
516.585	93.88
516.801	102.88
517.016	95.88
