Data from Circ_1980_H10_HRD10591_00100.txt Node
Date: Wed Jan 03 12:38:18 EST 2024
User: Yrep
Spectrometer: HR+D1059
Trigger mode: 1
Integration Time (sec): 1.000000E-1
Scans to average: 1
Electric dark correction enabled: true
Nonlinearity correction enabled: false
Boxcar width: 0
XAxis mode: Wavelengths
Number of Pixels in Spectrum: 2048
>>>>>Begin Spectral Data<<<<<
223.165	-21.19
223.4	-21.19
223.635	-21.19
223.869	-36.19
224.104	-27.19
224.338	-8.19
224.573	-9.19
224.808	-11.19
225.042	2.81
225.277	4.81
225.511	-15.19
225.746	12.81
225.98	-2.19
226.215	17.81
226.449	23.81
226.683	19.81
226.918	20.81
227.152	27.81
227.387	26.81
227.621	33.81
227.856	32.81
228.09	64.81
228.324	38.81
228.559	61.81
228.793	50.81
229.027	56.81
229.262	69.81
229.496	53.81
229.73	67.81
229.964	68.81
230.199	66.81
230.433	82.81
230.667	68.81
230.901	74.81
231.136	67.81
231.37	84.81
231.604	68.81
231.838	66.81
232.072	84.81
232.306	78.81
232.541	80.81
232.775	90.81
233.009	75.81
233.243	69.81
233.477	88.81
233.711	83.81
233.945	94.81
234.179	72.81
234.413	67.81
234.647	78.81
234.881	83.81
235.115	89.81
235.349	68.81
235.583	78.81
235.817	76.81
236.051	70.81
236.285	82.81
236.519	81.81
236.753	82.81
236.987	86.81
237.221	84.81
237.455	75.81
237.689	64.81
237.922	66.81
238.156	68.81
238.39	69.81
238.624	63.81
238.858	67.81
239.091	82.81
239.325	78.81
239.559	74.81
239.793	81.81
240.027	73.81
240.26	69.81
240.494	65.81
240.728	57.81
240.961	71.81
241.195	74.81
241.429	72.81
241.662	65.81
241.896	90.81
242.13	78.81
242.363	63.81
242.597	66.81
242.83	72.81
243.064	83.81
243.298	71.81
243.531	73.81
243.765	80.81
243.998	83.81
244.232	74.81
244.465	68.81
244.699	78.81
244.932	71.81
245.166	79.81
245.399	74.81
245.633	60.81
245.866	86.81
246.099	81.81
246.333	83.81
246.566	73.81
246.8	72.81
247.033	75.81
247.266	78.81
247.5	73.81
247.733	78.81
247.966	75.81
248.2	68.81
248.433	86.81
248.666	71.81
248.899	84.81
249.133	69.81
249.366	88.81
249.599	87.81
249.832	82.81
250.066	71.81
250.299	71.81
250.532	86.81
250.765	78.81
250.998	86.81
251.231	88.81
251.465	81.81
251.698	89.81
251.931	81.81
252.164	74.81
252.397	62.81
252.63	67.81
252.863	83.81
253.096	79.81
253.329	63.81
253.562	87.81
253.795	91.81
254.028	72.81
254.261	78.81
254.494	82.81
254.727	84.81
254.96	58.81
255.193	90.81
255.426	73.81
255.659	78.81
255.892	86.81
256.124	85.81
256.357	71.81
256.59	60.81
256.823	70.81
257.056	82.81
257.289	70.81
257.521	65.81
257.754	64.81
257.987	87.81
258.22	80.81
258.452	81.81
258.685	80.81
258.918	86.81
259.151	66.81
259.383	70.81
259.616	79.81
259.849	80.81
260.081	74.81
260.314	75.81
260.547	69.81
260.779	81.81
261.012	75.81
261.244	68.81
261.477	80.81
261.71	103.81
261.942	83.81
262.175	91.81
262.407	64.81
262.64	86.81
262.872	80.81
263.105	80.81
263.337	70.81
263.57	73.81
263.802	79.81
264.035	76.81
264.267	73.81
264.499	86.81
264.732	81.81
264.964	78.81
265.197	94.81
265.429	70.81
265.661	78.81
265.894	78.81
266.126	74.81
266.358	69.81
266.591	88.81
266.823	77.81
267.055	74.81
267.287	80.81
267.52	83.81
267.752	84.81
267.984	93.81
268.216	87.81
268.448	83.81
268.681	71.81
268.913	84.81
269.145	89.81
269.377	90.81
269.609	86.81
269.841	79.81
270.073	74.81
270.306	83.81
270.538	67.81
270.77	80.81
271.002	90.81
271.234	95.81
271.466	92.81
271.698	74.81
271.93	79.81
272.162	80.81
272.394	86.81
272.626	74.81
272.858	84.81
273.09	74.81
273.322	68.81
273.553	67.81
273.785	74.81
274.017	83.81
274.249	81.81
274.481	79.81
274.713	82.81
274.945	74.81
275.176	64.81
275.408	78.81
275.64	81.81
275.872	63.81
276.104	86.81
276.335	84.81
276.567	92.81
276.799	88.81
277.031	104.81
277.262	88.81
277.494	85.81
277.726	87.81
277.957	99.81
278.189	92.81
278.421	69.81
278.652	82.81
278.884	86.81
279.115	78.81
279.347	76.81
279.579	86.81
279.81	84.81
280.042	86.81
280.273	69.81
280.505	86.81
280.736	82.81
280.968	88.81
281.199	86.81
281.431	95.81
281.662	75.81
281.894	79.81
282.125	102.81
282.356	114.81
282.588	122.81
282.819	101.81
283.051	78.81
283.282	84.81
283.513	90.81
283.745	81.81
283.976	90.81
284.207	85.81
284.439	81.81
284.67	80.81
284.901	96.81
285.132	76.81
285.364	72.81
285.595	89.81
285.826	74.81
286.057	81.81
286.288	72.81
286.52	82.81
286.751	80.81
286.982	78.81
287.213	81.81
287.444	88.81
287.675	79.81
287.906	76.81
288.138	91.81
288.369	92.81
288.6	80.81
288.831	79.81
289.062	98.81
289.293	88.81
289.524	86.81
289.755	97.81
289.986	95.81
290.217	87.81
290.448	72.81
290.679	89.81
290.91	88.81
291.141	84.81
291.371	80.81
291.602	79.81
291.833	72.81
292.064	88.81
292.295	93.81
292.526	90.81
292.757	83.81
292.987	89.81
293.218	83.81
293.449	76.81
293.68	78.81
293.91	75.81
294.141	82.81
294.372	92.81
294.603	89.81
294.833	91.81
295.064	97.81
295.295	81.81
295.525	88.81
295.756	96.81
295.987	107.81
296.217	103.81
296.448	106.81
296.679	101.81
296.909	89.81
297.14	85.81
297.37	96.81
297.601	98.81
297.831	93.81
298.062	67.81
298.292	94.81
298.523	76.81
298.753	85.81
298.984	83.81
299.214	80.81
299.445	87.81
299.675	87.81
299.905	102.81
300.136	83.81
300.366	75.81
300.597	83.81
300.827	92.81
301.057	83.81
301.288	78.81
301.518	90.81
301.748	90.81
301.979	69.81
302.209	84.81
302.439	72.81
302.669	73.81
302.9	78.81
303.13	64.81
303.36	90.81
303.59	76.81
303.82	86.81
304.051	83.81
304.281	75.81
304.511	83.81
304.741	79.81
304.971	81.81
305.201	101.81
305.431	82.81
305.661	70.81
305.891	84.81
306.121	86.81
306.352	97.81
306.582	104.81
306.812	103.81
307.042	80.81
307.272	106.81
307.502	88.81
307.731	85.81
307.961	92.81
308.191	96.81
308.421	94.81
308.651	84.81
308.881	98.81
309.111	98.81
309.341	95.81
309.571	98.81
309.8	80.81
310.03	91.81
310.26	91.81
310.49	95.81
310.72	91.81
310.949	96.81
311.179	100.81
311.409	101.81
311.639	89.81
311.868	90.81
312.098	83.81
312.328	99.81
312.557	92.81
312.787	83.81
313.017	86.81
313.246	104.81
313.476	89.81
313.706	83.81
313.935	98.81
314.165	86.81
314.394	82.81
314.624	95.81
314.853	90.81
315.083	78.81
315.312	97.81
315.542	89.81
315.771	78.81
316.001	98.81
316.23	93.81
316.46	91.81
316.689	73.81
316.919	85.81
317.148	90.81
317.377	72.81
317.607	86.81
317.836	85.81
318.065	82.81
318.295	89.81
318.524	100.81
318.753	86.81
318.983	90.81
319.212	96.81
319.441	90.81
319.67	93.81
319.9	88.81
320.129	94.81
320.358	83.81
320.587	88.81
320.816	96.81
321.046	103.81
321.275	76.81
321.504	94.81
321.733	107.81
321.962	98.81
322.191	98.81
322.42	90.81
322.649	100.81
322.878	103.81
323.108	103.81
323.337	105.81
323.566	115.81
323.795	114.81
324.024	147.81
324.253	292.81
324.482	594.81
324.71	1236.81
324.939	1592.81
325.168	588.81
325.397	199.81
325.626	127.81
325.855	114.81
326.084	114.81
326.313	111.81
326.542	120.81
326.77	189.81
326.999	342.81
327.228	707.81
327.457	1259.81
327.686	991.81
327.914	281.81
328.143	159.81
328.372	135.81
328.6	115.81
328.829	101.81
329.058	103.81
329.287	115.81
329.515	105.81
329.744	105.81
329.972	101.81
330.201	103.81
330.43	120.81
330.658	108.81
330.887	132.81
331.115	106.81
331.344	86.81
331.572	92.81
331.801	98.81
332.03	102.81
332.258	86.81
332.486	83.81
332.715	91.81
332.943	90.81
333.172	85.81
333.4	91.81
333.629	99.81
333.857	102.81
334.085	97.81
334.314	104.81
334.542	117.81
334.771	119.81
334.999	98.81
335.227	96.81
335.455	100.81
335.684	114.81
335.912	101.81
336.14	85.81
336.369	102.81
336.597	107.81
336.825	102.81
337.053	83.81
337.281	98.81
337.51	90.81
337.738	95.81
337.966	94.81
338.194	91.81
338.422	90.81
338.65	79.81
338.878	73.81
339.106	84.81
339.334	98.81
339.562	85.81
339.79	87.81
340.018	101.81
340.246	89.81
340.474	92.81
340.702	74.81
340.93	98.81
341.158	88.81
341.386	91.81
341.614	90.81
341.842	81.81
342.07	83.81
342.298	86.81
342.526	80.81
342.754	80.81
342.981	82.81
343.209	83.81
343.437	91.81
343.665	82.81
343.893	87.81
344.12	94.81
344.348	89.81
344.576	71.81
344.804	94.81
345.031	94.81
345.259	85.81
345.487	98.81
345.714	88.81
345.942	86.81
346.17	79.81
346.397	71.81
346.625	88.81
346.853	80.81
347.08	82.81
347.308	95.81
347.535	95.81
347.763	110.81
347.99	78.81
348.218	93.81
348.445	80.81
348.673	91.81
348.9	82.81
349.128	90.81
349.355	91.81
349.583	93.81
349.81	95.81
350.037	93.81
350.265	85.81
350.492	79.81
350.72	72.81
350.947	107.81
351.174	119.81
351.402	108.81
351.629	101.81
351.856	93.81
352.083	95.81
352.311	85.81
352.538	80.81
352.765	94.81
352.992	100.81
353.22	98.81
353.447	103.81
353.674	103.81
353.901	87.81
354.128	91.81
354.355	86.81
354.583	96.81
354.81	97.81
355.037	103.81
355.264	88.81
355.491	101.81
355.718	81.81
355.945	87.81
356.172	94.81
356.399	92.81
356.626	90.81
356.853	86.81
357.08	84.81
357.307	83.81
357.534	90.81
357.761	90.81
357.988	89.81
358.215	85.81
358.441	88.81
358.668	75.81
358.895	80.81
359.122	104.81
359.349	81.81
359.576	91.81
359.802	92.81
360.029	103.81
360.256	103.81
360.483	90.81
360.709	86.81
360.936	95.81
361.163	92.81
361.39	90.81
361.616	86.81
361.843	77.81
362.07	86.81
362.296	98.81
362.523	95.81
362.749	95.81
362.976	86.81
363.203	85.81
363.429	88.81
363.656	82.81
363.882	93.81
364.109	91.81
364.335	81.81
364.562	91.81
364.788	72.81
365.015	101.81
365.241	101.81
365.468	81.81
365.694	102.81
365.92	109.81
366.147	86.81
366.373	82.81
366.599	78.81
366.826	71.81
367.052	82.81
367.278	99.81
367.505	85.81
367.731	76.81
367.957	99.81
368.184	100.81
368.41	86.81
368.636	91.81
368.862	105.81
369.089	109.81
369.315	95.81
369.541	86.81
369.767	71.81
369.993	78.81
370.219	71.81
370.445	82.81
370.672	94.81
370.898	89.81
371.124	82.81
371.35	105.81
371.576	87.81
371.802	89.81
372.028	78.81
372.254	103.81
372.48	82.81
372.706	91.81
372.932	86.81
373.158	83.81
373.384	103.81
373.61	85.81
373.835	90.81
374.061	98.81
374.287	76.81
374.513	90.81
374.739	95.81
374.965	74.81
375.191	96.81
375.416	78.81
375.642	84.81
375.868	87.81
376.094	82.81
376.319	89.81
376.545	85.81
376.771	101.81
376.997	74.81
377.222	84.81
377.448	86.81
377.674	82.81
377.899	84.81
378.125	81.81
378.35	83.81
378.576	87.81
378.802	84.81
379.027	71.81
379.253	96.81
379.478	92.81
379.704	78.81
379.929	87.81
380.155	90.81
380.38	99.81
380.606	75.81
380.831	89.81
381.057	100.81
381.282	94.81
381.507	83.81
381.733	95.81
381.958	101.81
382.184	90.81
382.409	89.81
382.634	93.81
382.86	87.81
383.085	96.81
383.31	100.81
383.535	87.81
383.761	98.81
383.986	80.81
384.211	96.81
384.436	107.81
384.662	86.81
384.887	90.81
385.112	103.81
385.337	73.81
385.562	96.81
385.787	103.81
386.013	104.81
386.238	97.81
386.463	93.81
386.688	96.81
386.913	93.81
387.138	103.81
387.363	102.81
387.588	93.81
387.813	92.81
388.038	91.81
388.263	102.81
388.488	104.81
388.713	92.81
388.938	104.81
389.163	95.81
389.387	90.81
389.612	114.81
389.837	101.81
390.062	94.81
390.287	90.81
390.512	98.81
390.736	90.81
390.961	111.81
391.186	82.81
391.411	79.81
391.636	86.81
391.86	91.81
392.085	85.81
392.31	76.81
392.534	78.81
392.759	79.81
392.984	87.81
393.208	82.81
393.433	84.81
393.658	68.81
393.882	86.81
394.107	88.81
394.331	73.81
394.556	84.81
394.78	80.81
395.005	72.81
395.229	90.81
395.454	86.81
395.678	81.81
395.903	85.81
396.127	81.81
396.352	70.81
396.576	84.81
396.801	75.81
397.025	73.81
397.249	83.81
397.474	69.81
397.698	84.81
397.922	90.81
398.147	88.81
398.371	82.81
398.595	75.81
398.82	82.81
399.044	90.81
399.268	87.81
399.492	96.81
399.717	77.81
399.941	86.81
400.165	89.81
400.389	94.81
400.613	92.81
400.837	83.81
401.062	78.81
401.286	92.81
401.51	87.81
401.734	84.81
401.958	90.81
402.182	109.81
402.406	125.81
402.63	108.81
402.854	74.81
403.078	86.81
403.302	83.81
403.526	65.81
403.75	74.81
403.974	78.81
404.198	92.81
404.422	90.81
404.645	99.81
404.869	98.81
405.093	80.81
405.317	78.81
405.541	102.81
405.765	86.81
405.988	107.81
406.212	134.81
406.436	162.81
406.66	105.81
406.883	78.81
407.107	86.81
407.331	86.81
407.555	93.81
407.778	92.81
408.002	79.81
408.226	86.81
408.449	90.81
408.673	86.81
408.896	83.81
409.12	102.81
409.344	94.81
409.567	80.81
409.791	83.81
410.014	82.81
410.238	84.81
410.461	79.81
410.685	95.81
410.908	85.81
411.132	104.81
411.355	80.81
411.578	87.81
411.802	91.81
412.025	72.81
412.249	73.81
412.472	77.81
412.695	90.81
412.919	93.81
413.142	96.81
413.365	82.81
413.589	82.81
413.812	80.81
414.035	89.81
414.258	78.81
414.482	78.81
414.705	86.81
414.928	75.81
415.151	99.81
415.374	90.81
415.597	78.81
415.821	75.81
416.044	89.81
416.267	87.81
416.49	75.81
416.713	98.81
416.936	85.81
417.159	92.81
417.382	80.81
417.605	92.81
417.828	81.81
418.051	86.81
418.274	84.81
418.497	98.81
418.72	75.81
418.943	67.81
419.166	92.81
419.389	75.81
419.611	84.81
419.834	91.81
420.057	86.81
420.28	94.81
420.503	72.81
420.726	84.81
420.948	84.81
421.171	90.81
421.394	97.81
421.617	87.81
421.839	86.81
422.062	80.81
422.285	84.81
422.507	90.81
422.73	98.81
422.953	99.81
423.175	91.81
423.398	88.81
423.621	74.81
423.843	82.81
424.066	71.81
424.288	88.81
424.511	90.81
424.733	82.81
424.956	110.81
425.178	102.81
425.401	95.81
425.623	90.81
425.846	70.81
426.068	85.81
426.291	70.81
426.513	101.81
426.735	104.81
426.958	97.81
427.18	87.81
427.402	114.81
427.625	127.81
427.847	97.81
428.069	88.81
428.292	94.81
428.514	88.81
428.736	84.81
428.958	76.81
429.181	82.81
429.403	86.81
429.625	87.81
429.847	82.81
430.069	75.81
430.292	89.81
430.514	86.81
430.736	76.81
430.958	86.81
431.18	76.81
431.402	82.81
431.624	70.81
431.846	68.81
432.068	59.81
432.29	87.81
432.512	79.81
432.734	88.81
432.956	97.81
433.178	93.81
433.4	107.81
433.622	88.81
433.844	81.81
434.066	84.81
434.287	91.81
434.509	85.81
434.731	80.81
434.953	86.81
435.175	89.81
435.397	84.81
435.618	83.81
435.84	98.81
436.062	105.81
436.284	96.81
436.505	96.81
436.727	85.81
436.949	82.81
437.17	70.81
437.392	76.81
437.614	92.81
437.835	97.81
438.057	88.81
438.278	91.81
438.5	78.81
438.721	107.81
438.943	93.81
439.165	81.81
439.386	84.81
439.608	83.81
439.829	98.81
440.05	115.81
440.272	116.81
440.493	88.81
440.715	78.81
440.936	81.81
441.158	78.81
441.379	81.81
441.6	86.81
441.822	83.81
442.043	97.81
442.264	94.81
442.486	92.81
442.707	88.81
442.928	98.81
443.149	107.81
443.371	116.81
443.592	97.81
443.813	89.81
444.034	90.81
444.255	91.81
444.476	87.81
444.698	73.81
444.919	89.81
445.14	121.81
445.361	115.81
445.582	102.81
445.803	113.81
446.024	101.81
446.245	115.81
446.466	87.81
446.687	85.81
446.908	83.81
447.129	98.81
447.35	90.81
447.571	93.81
447.792	77.81
448.013	96.81
448.234	98.81
448.455	95.81
448.675	101.81
448.896	97.81
449.117	97.81
449.338	94.81
449.559	116.81
449.779	103.81
450	108.81
450.221	85.81
450.442	83.81
450.662	82.81
450.883	100.81
451.104	102.81
451.324	82.81
451.545	88.81
451.766	85.81
451.986	81.81
452.207	83.81
452.428	81.81
452.648	94.81
452.869	110.81
453.089	92.81
453.31	97.81
453.53	84.81
453.751	78.81
453.971	98.81
454.192	108.81
454.412	92.81
454.633	90.81
454.853	80.81
455.073	73.81
455.294	87.81
455.514	88.81
455.734	79.81
455.955	82.81
456.175	72.81
456.395	100.81
456.616	70.81
456.836	75.81
457.056	94.81
457.276	81.81
457.497	82.81
457.717	74.81
457.937	92.81
458.157	84.81
458.377	95.81
458.598	103.81
458.818	112.81
459.038	123.81
459.258	102.81
459.478	79.81
459.698	69.81
459.918	80.81
460.138	66.81
460.358	80.81
460.578	84.81
460.798	80.81
461.018	90.81
461.238	76.81
461.458	88.81
461.678	73.81
461.898	94.81
462.118	92.81
462.338	82.81
462.558	98.81
462.777	98.81
462.997	76.81
463.217	84.81
463.437	88.81
463.657	91.81
463.876	71.81
464.096	86.81
464.316	82.81
464.536	89.81
464.755	99.81
464.975	98.81
465.195	121.81
465.414	118.81
465.634	82.81
465.854	78.81
466.073	81.81
466.293	73.81
466.512	78.81
466.732	82.81
466.951	88.81
467.171	79.81
467.391	98.81
467.61	89.81
467.829	86.81
468.049	91.81
468.268	99.81
468.488	75.81
468.707	80.81
468.927	89.81
469.146	88.81
469.365	67.81
469.585	70.81
469.804	95.81
470.023	94.81
470.243	87.81
470.462	95.81
470.681	110.81
470.901	97.81
471.12	75.81
471.339	81.81
471.558	78.81
471.777	90.81
471.997	83.81
472.216	103.81
472.435	120.81
472.654	79.81
472.873	71.81
473.092	94.81
473.311	103.81
473.53	81.81
473.749	87.81
473.968	78.81
474.187	79.81
474.406	79.81
474.625	67.81
474.844	96.81
475.063	104.81
475.282	87.81
475.501	80.81
475.72	97.81
475.939	82.81
476.158	100.81
476.377	78.81
476.596	82.81
476.814	67.81
477.033	90.81
477.252	82.81
477.471	79.81
477.69	84.81
477.908	87.81
478.127	82.81
478.346	90.81
478.564	93.81
478.783	90.81
479.002	90.81
479.22	84.81
479.439	101.81
479.658	92.81
479.876	91.81
480.095	103.81
480.313	75.81
480.532	72.81
480.751	92.81
480.969	105.81
481.188	169.81
481.406	135.81
481.624	76.81
481.843	90.81
482.061	69.81
482.28	80.81
482.498	71.81
482.717	96.81
482.935	83.81
483.153	80.81
483.372	87.81
483.59	86.81
483.808	81.81
484.027	92.81
484.245	85.81
484.463	88.81
484.681	86.81
484.9	92.81
485.118	95.81
485.336	89.81
485.554	90.81
485.772	99.81
485.99	91.81
486.209	97.81
486.427	99.81
486.645	110.81
486.863	106.81
487.081	95.81
487.299	96.81
487.517	83.81
487.735	105.81
487.953	98.81
488.171	91.81
488.389	83.81
488.607	87.81
488.825	90.81
489.043	80.81
489.261	95.81
489.479	86.81
489.696	74.81
489.914	80.81
490.132	84.81
490.35	97.81
490.568	80.81
490.786	84.81
491.003	88.81
491.221	80.81
491.439	89.81
491.657	99.81
491.874	90.81
492.092	88.81
492.31	112.81
492.527	93.81
492.745	81.81
492.963	105.81
493.18	81.81
493.398	87.81
493.615	94.81
493.833	88.81
494.05	80.81
494.268	87.81
494.485	84.81
494.703	82.81
494.92	85.81
495.138	99.81
495.355	78.81
495.573	93.81
495.79	101.81
496.008	84.81
496.225	86.81
496.442	81.81
496.66	85.81
496.877	90.81
497.094	100.81
497.312	78.81
497.529	87.81
497.746	84.81
497.963	86.81
498.181	91.81
498.398	80.81
498.615	89.81
498.832	94.81
499.049	80.81
499.267	82.81
499.484	73.81
499.701	98.81
499.918	92.81
500.135	82.81
500.352	86.81
500.569	83.81
500.786	81.81
501.003	92.81
501.22	88.81
501.437	83.81
501.654	89.81
501.871	79.81
502.088	103.81
502.305	84.81
502.522	80.81
502.739	95.81
502.956	91.81
503.172	96.81
503.389	89.81
503.606	86.81
503.823	96.81
504.04	89.81
504.256	95.81
504.473	91.81
504.69	91.81
504.907	94.81
505.123	98.81
505.34	83.81
505.557	78.81
505.773	86.81
505.99	85.81
506.207	98.81
506.423	90.81
506.64	100.81
506.856	96.81
507.073	85.81
507.289	96.81
507.506	73.81
507.722	90.81
507.939	98.81
508.155	81.81
508.372	87.81
508.588	87.81
508.805	78.81
509.021	89.81
509.238	97.81
509.454	99.81
509.67	84.81
509.887	84.81
510.103	96.81
510.319	165.81
510.536	569.81
510.752	1663.81
510.968	481.81
511.184	139.81
511.401	102.81
511.617	77.81
511.833	91.81
512.049	88.81
512.265	75.81
512.481	85.81
512.698	72.81
512.914	88.81
513.13	92.81
513.346	91.81
513.562	86.81
513.778	97.81
513.994	91.81
514.21	87.81
514.426	101.81
514.642	117.81
514.858	94.81
515.074	118.81
515.29	307.81
515.506	1013.81
515.721	391.81
515.937	137.81
516.153	89.81
516.369	89.81
516.585	94.81
516.801	89.81
517.016	80.81
517.232	80.81
517.448	93.81
