Data from Circ_1980_H10_HRD10591_00016.txt Node
Date: Wed Jan 03 12:38:01 EST 2024
User: Yrep
Spectrometer: HR+D1059
Trigger mode: 1
Integration Time (sec): 1.000000E-1
Scans to average: 1
Electric dark correction enabled: true
Nonlinearity correction enabled: false
Boxcar width: 0
XAxis mode: Wavelengths
Number of Pixels in Spectrum: 2048
>>>>>Begin Spectral Data<<<<<
223.165	-15
223.4	-15
223.635	-15
223.869	-11
224.104	-18
224.338	-10
224.573	-16
224.808	-4
225.042	-11
225.277	-14
225.511	-2
225.746	13
225.98	11
226.215	12
226.449	4
226.683	12
226.918	23
227.152	26
227.387	30
227.621	35
227.856	45
228.09	46
228.324	52
228.559	68
228.793	71
229.027	81
229.262	91
229.496	74
229.73	76
229.964	78
230.199	80
230.433	83
230.667	97
230.901	96
231.136	73
231.37	71
231.604	77
231.838	82
232.072	62
232.306	90
232.541	86
232.775	83
233.009	79
233.243	96
233.477	88
233.711	76
233.945	104
234.179	83
234.413	93
234.647	90
234.881	75
235.115	79
235.349	72
235.583	83
235.817	89
236.051	82
236.285	83
236.519	86
236.753	70
236.987	75
237.221	86
237.455	82
237.689	81
237.922	88
238.156	93
238.39	88
238.624	77
238.858	75
239.091	87
239.325	86
239.559	76
239.793	76
240.027	93
240.26	83
240.494	85
240.728	84
240.961	82
241.195	80
241.429	83
241.662	65
241.896	67
242.13	79
242.363	89
242.597	81
242.83	80
243.064	73
243.298	91
243.531	77
243.765	92
243.998	99
244.232	101
244.465	82
244.699	78
244.932	94
245.166	74
245.399	66
245.633	82
245.866	66
246.099	86
246.333	81
246.566	74
246.8	97
247.033	83
247.266	87
247.5	78
247.733	87
247.966	86
248.2	86
248.433	71
248.666	82
248.899	97
249.133	93
249.366	94
249.599	88
249.832	102
250.066	87
250.299	84
250.532	73
250.765	89
250.998	89
251.231	82
251.465	94
251.698	87
251.931	86
252.164	93
252.397	107
252.63	107
252.863	84
253.096	85
253.329	90
253.562	75
253.795	79
254.028	73
254.261	75
254.494	96
254.727	97
254.96	83
255.193	86
255.426	88
255.659	77
255.892	91
256.124	80
256.357	85
256.59	81
256.823	88
257.056	94
257.289	97
257.521	92
257.754	94
257.987	68
258.22	82
258.452	98
258.685	86
258.918	86
259.151	86
259.383	87
259.616	91
259.849	88
260.081	83
260.314	94
260.547	82
260.779	82
261.012	83
261.244	89
261.477	79
261.71	96
261.942	94
262.175	107
262.407	86
262.64	77
262.872	83
263.105	85
263.337	89
263.57	81
263.802	104
264.035	74
264.267	92
264.499	85
264.732	80
264.964	88
265.197	90
265.429	88
265.661	94
265.894	90
266.126	97
266.358	72
266.591	82
266.823	86
267.055	75
267.287	86
267.52	107
267.752	81
267.984	81
268.216	92
268.448	100
268.681	89
268.913	101
269.145	88
269.377	83
269.609	105
269.841	93
270.073	77
270.306	84
270.538	98
270.77	83
271.002	91
271.234	79
271.466	102
271.698	83
271.93	80
272.162	88
272.394	75
272.626	95
272.858	100
273.09	96
273.322	75
273.553	94
273.785	97
274.017	93
274.249	92
274.481	79
274.713	88
274.945	86
275.176	91
275.408	96
275.64	96
275.872	91
276.104	94
276.335	95
276.567	98
276.799	102
277.031	92
277.262	94
277.494	86
277.726	85
277.957	94
278.189	86
278.421	98
278.652	84
278.884	78
279.115	88
279.347	98
279.579	88
279.81	95
280.042	90
280.273	86
280.505	69
280.736	102
280.968	92
281.199	78
281.431	104
281.662	76
281.894	93
282.125	95
282.356	124
282.588	111
282.819	100
283.051	98
283.282	103
283.513	101
283.745	97
283.976	96
284.207	102
284.439	86
284.67	92
284.901	83
285.132	90
285.364	82
285.595	90
285.826	85
286.057	89
286.288	78
286.52	84
286.751	105
286.982	106
287.213	97
287.444	97
287.675	94
287.906	106
288.138	103
288.369	98
288.6	97
288.831	77
289.062	86
289.293	94
289.524	102
289.755	84
289.986	94
290.217	94
290.448	88
290.679	93
290.91	108
291.141	90
291.371	93
291.602	99
291.833	94
292.064	95
292.295	102
292.526	99
292.757	98
292.987	86
293.218	95
293.449	87
293.68	100
293.91	87
294.141	78
294.372	83
294.603	97
294.833	108
295.064	99
295.295	101
295.525	81
295.756	102
295.987	98
296.217	104
296.448	111
296.679	87
296.909	98
297.14	92
297.37	95
297.601	76
297.831	94
298.062	88
298.292	92
298.523	87
298.753	86
298.984	99
299.214	97
299.445	97
299.675	102
299.905	90
300.136	79
300.366	99
300.597	82
300.827	99
301.057	102
301.288	106
301.518	107
301.748	91
301.979	111
302.209	113
302.439	105
302.669	98
302.9	94
303.13	88
303.36	93
303.59	94
303.82	106
304.051	86
304.281	91
304.511	96
304.741	97
304.971	83
305.201	90
305.431	94
305.661	89
305.891	102
306.121	93
306.352	105
306.582	103
306.812	83
307.042	82
307.272	92
307.502	93
307.731	110
307.961	86
308.191	93
308.421	87
308.651	106
308.881	100
309.111	113
309.341	102
309.571	111
309.8	99
310.03	89
310.26	83
310.49	108
310.72	95
310.949	99
311.179	102
311.409	83
311.639	86
311.868	103
312.098	93
312.328	102
312.557	83
312.787	104
313.017	86
313.246	94
313.476	94
313.706	103
313.935	91
314.165	97
314.394	99
314.624	101
314.853	98
315.083	90
315.312	81
315.542	89
315.771	98
316.001	86
316.23	113
316.46	103
316.689	94
316.919	100
317.148	107
317.377	83
317.607	102
317.836	84
318.065	85
318.295	92
318.524	94
318.753	99
318.983	107
319.212	96
319.441	96
319.67	111
319.9	92
320.129	98
320.358	101
320.587	100
320.816	92
321.046	105
321.275	108
321.504	112
321.733	76
321.962	100
322.191	102
322.42	107
322.649	110
322.878	105
323.108	110
323.337	105
323.566	114
323.795	120
324.024	181
324.253	284
324.482	575
324.71	1176
324.939	1512
325.168	583
325.397	206
325.626	126
325.855	112
326.084	116
326.313	125
326.542	138
326.77	190
326.999	333
327.228	675
327.457	1204
327.686	962
327.914	308
328.143	165
328.372	138
328.6	99
328.829	100
329.058	123
329.287	108
329.515	112
329.744	110
329.972	104
330.201	109
330.43	112
330.658	109
330.887	121
331.115	116
331.344	120
331.572	116
331.801	97
332.03	82
332.258	98
332.486	104
332.715	100
332.943	104
333.172	98
333.4	108
333.629	106
333.857	105
334.085	106
334.314	91
334.542	112
334.771	135
334.999	114
335.227	94
335.455	99
335.684	115
335.912	102
336.14	104
336.369	108
336.597	102
336.825	99
337.053	106
337.281	92
337.51	100
337.738	88
337.966	83
338.194	98
338.422	97
338.65	105
338.878	89
339.106	106
339.334	96
339.562	83
339.79	102
340.018	91
340.246	97
340.474	89
340.702	99
340.93	97
341.158	103
341.386	103
341.614	86
341.842	86
342.07	89
342.298	90
342.526	90
342.754	83
342.981	103
343.209	98
343.437	110
343.665	93
343.893	76
344.12	94
344.348	97
344.576	102
344.804	106
345.031	96
345.259	102
345.487	102
345.714	102
345.942	96
346.17	92
346.397	93
346.625	87
346.853	97
347.08	92
347.308	109
347.535	107
347.763	111
347.99	90
348.218	100
348.445	121
348.673	99
348.9	110
349.128	106
349.355	96
349.583	98
349.81	97
350.037	91
350.265	88
350.492	102
350.72	105
350.947	92
351.174	109
351.402	106
351.629	99
351.856	106
352.083	98
352.311	105
352.538	94
352.765	99
352.992	113
353.22	122
353.447	113
353.674	93
353.901	97
354.128	99
354.355	103
354.583	106
354.81	98
355.037	98
355.264	91
355.491	100
355.718	103
355.945	102
356.172	97
356.399	94
356.626	103
356.853	102
357.08	103
357.307	102
357.534	96
357.761	107
357.988	106
358.215	106
358.441	92
358.668	109
358.895	110
359.122	103
359.349	106
359.576	82
359.802	82
360.029	93
360.256	106
360.483	119
360.709	91
360.936	96
361.163	92
361.39	98
361.616	107
361.843	84
362.07	100
362.296	91
362.523	92
362.749	91
362.976	110
363.203	119
363.429	91
363.656	74
363.882	97
364.109	90
364.335	106
364.562	111
364.788	110
365.015	96
365.241	108
365.468	101
365.694	92
365.92	105
366.147	109
366.373	98
366.599	106
366.826	92
367.052	98
367.278	96
367.505	89
367.731	92
367.957	107
368.184	102
368.41	96
368.636	117
368.862	113
369.089	98
369.315	96
369.541	98
369.767	96
369.993	106
370.219	97
370.445	90
370.672	90
370.898	100
371.124	96
371.35	93
371.576	104
371.802	113
372.028	98
372.254	92
372.48	96
372.706	97
372.932	99
373.158	92
373.384	85
373.61	87
373.835	100
374.061	88
374.287	105
374.513	110
374.739	88
374.965	100
375.191	92
375.416	99
375.642	105
375.868	91
376.094	99
376.319	80
376.545	104
376.771	95
376.997	103
377.222	98
377.448	105
377.674	103
377.899	103
378.125	98
378.35	111
378.576	95
378.802	82
379.027	106
379.253	99
379.478	110
379.704	99
379.929	120
380.155	100
380.38	103
380.606	104
380.831	107
381.057	108
381.282	104
381.507	105
381.733	106
381.958	112
382.184	110
382.409	105
382.634	110
382.86	113
383.085	125
383.31	112
383.535	117
383.761	115
383.986	107
384.211	98
384.436	120
384.662	123
384.887	118
385.112	119
385.337	129
385.562	122
385.787	115
386.013	112
386.238	124
386.463	126
386.688	114
386.913	106
387.138	125
387.363	119
387.588	116
387.813	109
388.038	135
388.263	122
388.488	110
388.713	102
388.938	98
389.163	102
389.387	107
389.612	95
389.837	92
390.062	91
390.287	107
390.512	112
390.736	104
390.961	101
391.186	94
391.411	110
391.636	94
391.86	90
392.085	84
392.31	104
392.534	97
392.759	96
392.984	114
393.208	100
393.433	95
393.658	80
393.882	90
394.107	92
394.331	105
394.556	93
394.78	106
395.005	91
395.229	93
395.454	95
395.678	86
395.903	92
396.127	80
396.352	92
396.576	99
396.801	84
397.025	81
397.249	108
397.474	106
397.698	77
397.922	87
398.147	102
398.371	99
398.595	99
398.82	88
399.044	86
399.268	89
399.492	100
399.717	99
399.941	90
400.165	90
400.389	95
400.613	81
400.837	96
401.062	92
401.286	92
401.51	90
401.734	96
401.958	112
402.182	120
402.406	138
402.63	112
402.854	96
403.078	91
403.302	86
403.526	77
403.75	91
403.974	87
404.198	91
404.422	81
404.645	84
404.869	92
405.093	107
405.317	89
405.541	95
405.765	90
405.988	113
406.212	146
406.436	156
406.66	116
406.883	92
407.107	93
407.331	95
407.555	93
407.778	98
408.002	91
408.226	102
408.449	88
408.673	80
408.896	98
409.12	98
409.344	99
409.567	89
409.791	86
410.014	100
410.238	97
410.461	97
410.685	99
410.908	103
411.132	98
411.355	112
411.578	96
411.802	93
412.025	91
412.249	81
412.472	95
412.695	91
412.919	97
413.142	91
413.365	102
413.589	105
413.812	103
414.035	86
414.258	98
414.482	106
414.705	89
414.928	98
415.151	95
415.374	94
415.597	91
415.821	110
416.044	96
416.267	83
416.49	92
416.713	91
416.936	104
417.159	86
417.382	84
417.605	100
417.828	105
418.051	96
418.274	96
418.497	83
418.72	99
418.943	97
419.166	105
419.389	90
419.611	89
419.834	96
420.057	95
420.28	108
420.503	93
420.726	98
420.948	89
421.171	94
421.394	98
421.617	97
421.839	98
422.062	96
422.285	83
422.507	99
422.73	88
422.953	99
423.175	92
423.398	86
423.621	103
423.843	86
424.066	92
424.288	92
424.511	100
424.733	96
424.956	88
425.178	103
425.401	89
425.623	98
425.846	83
426.068	81
426.291	96
426.513	98
426.735	88
426.958	103
427.18	95
427.402	132
427.625	139
427.847	123
428.069	86
428.292	90
428.514	93
428.736	86
428.958	99
429.181	97
429.403	89
429.625	88
429.847	77
430.069	96
430.292	83
430.514	94
430.736	95
430.958	86
431.18	93
431.402	89
431.624	93
431.846	106
432.068	99
432.29	98
432.512	106
432.734	90
432.956	99
433.178	90
433.4	100
433.622	108
433.844	103
434.066	108
434.287	98
434.509	103
434.731	86
434.953	94
435.175	80
435.397	114
435.618	96
435.84	113
436.062	109
436.284	122
436.505	106
436.727	106
436.949	90
437.17	104
437.392	91
437.614	98
437.835	108
438.057	114
438.278	95
438.5	98
438.721	106
438.943	96
439.165	92
439.386	96
439.608	86
439.829	89
440.05	124
440.272	125
440.493	95
440.715	86
440.936	80
441.158	88
441.379	95
441.6	97
441.822	90
442.043	99
442.264	114
442.486	90
442.707	103
442.928	91
443.149	104
443.371	109
443.592	110
443.813	106
444.034	103
444.255	110
444.476	74
444.698	86
444.919	62
445.14	121
445.361	106
445.582	100
445.803	120
446.024	115
446.245	120
446.466	117
446.687	93
446.908	88
447.129	92
447.35	81
447.571	102
447.792	102
448.013	85
448.234	111
448.455	91
448.675	113
448.896	98
449.117	100
449.338	97
449.559	122
449.779	119
450	91
450.221	92
450.442	103
450.662	93
450.883	98
451.104	97
451.324	102
451.545	90
451.766	90
451.986	87
452.207	83
452.428	98
452.648	111
452.869	89
453.089	114
453.31	111
453.53	106
453.751	95
453.971	101
454.192	93
454.412	101
454.633	91
454.853	88
455.073	90
455.294	80
455.514	88
455.734	89
455.955	98
456.175	89
456.395	86
456.616	100
456.836	89
457.056	90
457.276	97
457.497	90
457.717	90
457.937	89
458.157	86
458.377	93
458.598	107
458.818	126
459.038	123
459.258	110
459.478	94
459.698	90
459.918	104
460.138	92
460.358	80
460.578	95
460.798	102
461.018	98
461.238	94
461.458	71
461.678	79
461.898	98
462.118	96
462.338	94
462.558	89
462.777	96
462.997	97
463.217	90
463.437	91
463.657	88
463.876	101
464.096	80
464.316	76
464.536	94
464.755	99
464.975	97
465.195	128
465.414	124
465.634	107
465.854	80
466.073	86
466.293	82
466.512	88
466.732	104
466.951	97
467.171	104
467.391	94
467.61	106
467.829	110
468.049	87
468.268	95
468.488	92
468.707	90
468.927	95
469.146	89
469.365	97
469.585	108
469.804	97
470.023	115
470.243	89
470.462	99
470.681	94
470.901	90
471.12	100
471.339	95
471.558	89
471.777	92
471.997	81
472.216	111
472.435	140
472.654	110
472.873	109
473.092	92
473.311	96
473.53	95
473.749	103
473.968	101
474.187	95
474.406	106
474.625	86
474.844	87
475.063	88
475.282	103
475.501	84
475.72	87
475.939	77
476.158	102
476.377	86
476.596	95
476.814	93
477.033	89
477.252	88
477.471	94
477.69	92
477.908	94
478.127	93
478.346	102
478.564	90
478.783	94
479.002	80
479.22	106
479.439	102
479.658	94
479.876	106
480.095	104
480.313	87
480.532	92
480.751	105
480.969	112
481.188	178
481.406	142
481.624	82
481.843	89
482.061	86
482.28	87
482.498	92
482.717	98
482.935	86
483.153	99
483.372	86
483.59	102
483.808	100
484.027	84
484.245	99
484.463	98
484.681	98
484.9	100
485.118	104
485.336	79
485.554	98
485.772	111
485.99	123
486.209	99
486.427	102
486.645	114
486.863	109
487.081	115
487.299	106
487.517	105
487.735	95
487.953	96
488.171	96
488.389	92
488.607	97
488.825	97
489.043	79
489.261	94
489.479	99
489.696	92
489.914	94
490.132	89
490.35	94
490.568	98
490.786	96
491.003	103
491.221	104
491.439	80
491.657	99
491.874	89
492.092	93
492.31	88
492.527	92
492.745	103
492.963	92
493.18	82
493.398	85
493.615	90
493.833	98
494.05	99
494.268	102
494.485	102
494.703	89
494.92	94
495.138	90
495.355	75
495.573	85
495.79	82
496.008	98
496.225	92
496.442	87
496.66	95
496.877	95
497.094	95
497.312	81
497.529	90
497.746	100
497.963	94
498.181	88
498.398	101
498.615	115
498.832	100
499.049	95
499.267	100
499.484	98
499.701	108
499.918	90
500.135	92
500.352	87
500.569	98
500.786	95
501.003	96
501.22	107
501.437	90
501.654	95
501.871	115
502.088	107
502.305	88
502.522	90
502.739	97
502.956	97
503.172	96
503.389	94
503.606	103
503.823	97
504.04	99
504.256	80
504.473	86
504.69	80
504.907	102
505.123	91
505.34	96
505.557	90
505.773	106
505.99	88
506.207	96
506.423	97
506.64	82
506.856	108
507.073	84
507.289	95
507.506	93
507.722	108
507.939	107
508.155	108
508.372	104
508.588	107
508.805	91
509.021	98
509.238	92
509.454	92
509.67	103
509.887	101
510.103	118
510.319	168
510.536	526
510.752	1553
510.968	448
511.184	136
511.401	108
511.617	89
511.833	88
512.049	111
512.265	113
512.481	78
512.698	91
512.914	97
513.13	104
513.346	104
513.562	94
513.778	88
513.994	101
514.21	94
514.426	128
514.642	125
514.858	114
515.074	140
515.29	310
515.506	868
515.721	373
515.937	133
516.153	108
516.369	104
516.585	102
516.801	86
517.016	111
517.232	90
517.448	110
517.664	86
517.879	103
518.095	84
518.311	97
518.527	89
518.742	95
518.958	97
519.173	77
519.389	88
519.605	98
519.82	93
520.036	95
520.251	111
520.467	104
520.682	98
520.898	90
521.113	115
521.329	128
521.544	146
521.76	366
521.975	1441
522.19	880
522.406	208
522.621	109
522.836	76
523.052	94
523.267	80
523.482	105
523.698	107
523.913	118
524.128	115
524.343	106
524.559	86
524.774	83
524.989	102
525.204	91
525.419	82
525.634	95
525.849	98
526.064	82
526.28	86
526.495	104
526.71	95
526.925	101
527.14	88
527.355	92
527.57	95
527.785	90
527.999	82
528.214	92
528.429	106
528.644	99
528.859	94
529.074	97
529.289	122
529.503	138
529.718	96
529.933	90
530.148	88
530.363	96
530.577	106
530.792	78
531.007	88
531.221	90
531.436	91
531.651	98
531.865	85
532.08	107
532.295	94
532.509	98
532.724	108
532.938	104
533.153	106
533.367	91
533.582	108
533.796	88
534.011	86
534.225	91
534.44	86
534.654	87
534.868	111
535.083	99
535.297	97
535.511	102
535.726	111
535.94	95
536.154	104
536.369	91
536.583	89
536.797	99
537.011	96
537.225	79
537.44	96
537.654	92
537.868	81
538.082	86
538.296	97
538.51	100
538.724	96
538.938	93
539.153	87
539.367	103
539.581	91
539.795	78
540.009	88
540.222	93
540.436	106
540.65	86
540.864	82
541.078	95
541.292	97
541.506	99
541.72	90
541.934	97
542.147	92
542.361	81
542.575	88
542.789	90
543.002	98
543.216	99
543.43	94
543.644	96
543.857	70
544.071	82
544.285	87
544.498	96
544.712	98
544.925	112
545.139	93
545.352	97
545.566	104
545.779	88
545.993	95
546.206	78
546.42	101
546.633	87
546.847	100
547.06	112
547.274	97
547.487	99
547.7	92
547.914	95
548.127	86
548.34	96
548.554	88
548.767	93
548.98	91
549.193	94
549.407	91
549.62	100
549.833	85
550.046	83
550.259	95
550.473	94
550.686	80
550.899	104
551.112	97
551.325	91
551.538	74
551.751	95
551.964	104
552.177	109
552.39	91
552.603	79
552.816	96
553.029	100
553.242	83
553.455	109
553.667	109
553.88	103
554.093	94
554.306	99
554.519	95
554.732	100
554.944	105
555.157	81
555.37	102
555.583	91
555.795	82
556.008	83
556.221	108
556.433	99
556.646	106
556.859	103
557.071	93
557.284	100
557.496	89
557.709	91
557.921	91
558.134	96
558.346	80
558.559	111
558.771	94
558.984	97
559.196	86
559.409	91
559.621	97
559.833	105
560.046	86
560.258	83
560.47	90
560.683	96
560.895	82
561.107	89
561.32	91
561.532	89
561.744	82
561.956	96
562.168	98
562.381	98
562.593	99
562.805	112
563.017	94
563.229	92
563.441	105
563.653	94
563.865	107
564.077	105
564.289	97
564.501	99
564.713	95
564.925	104
565.137	107
565.349	94
565.561	81
565.773	97
565.985	87
566.197	81
566.408	96
566.62	90
566.832	103
567.044	90
567.255	88
567.467	89
567.679	99
567.891	91
568.102	88
568.314	98
568.526	109
568.737	81
568.949	88
569.161	98
569.372	91
569.584	94
569.795	94
570.007	110
570.218	175
570.43	124
570.641	102
570.853	87
571.064	96
571.276	87
571.487	84
571.698	102
571.91	90
572.121	100
572.333	90
572.544	90
572.755	84
572.966	94
573.178	87
573.389	84
573.6	100
573.811	103
574.023	100
574.234	90
574.445	89
574.656	88
574.867	96
575.078	94
575.289	103
575.501	106
575.712	89
575.923	76
576.134	95
576.345	93
576.556	89
576.767	86
576.978	109
577.188	95
577.399	99
577.61	96
577.821	104
578.032	107
578.243	205
578.454	469
578.665	166
578.875	99
579.086	96
579.297	88
579.508	102
579.718	94
579.929	97
580.14	97
580.35	86
580.561	95
580.772	92
580.982	88
581.193	95
581.403	99
581.614	98
