Data from Circ_1980_H10_HRD10591_00096.txt Node
Date: Wed Jan 03 12:38:17 EST 2024
User: Yrep
Spectrometer: HR+D1059
Trigger mode: 1
Integration Time (sec): 1.000000E-1
Scans to average: 1
Electric dark correction enabled: true
Nonlinearity correction enabled: false
Boxcar width: 0
XAxis mode: Wavelengths
Number of Pixels in Spectrum: 2048
>>>>>Begin Spectral Data<<<<<
223.165	-19.94
223.4	-19.94
223.635	-19.94
223.869	-19.94
224.104	-17.94
224.338	-16.94
224.573	-13.94
224.808	-18.94
225.042	-17.94
225.277	-5.94
225.511	5.06
225.746	12.06
225.98	12.06
226.215	4.06
226.449	11.06
226.683	45.06
226.918	24.06
227.152	18.06
227.387	46.06
227.621	37.06
227.856	65.06
228.09	58.06
228.324	29.06
228.559	54.06
228.793	48.06
229.027	65.06
229.262	66.06
229.496	55.06
229.73	85.06
229.964	60.06
230.199	66.06
230.433	76.06
230.667	68.06
230.901	77.06
231.136	73.06
231.37	76.06
231.604	82.06
231.838	63.06
232.072	67.06
232.306	83.06
232.541	86.06
232.775	93.06
233.009	68.06
233.243	79.06
233.477	83.06
233.711	69.06
233.945	76.06
234.179	69.06
234.413	85.06
234.647	60.06
234.881	66.06
235.115	87.06
235.349	68.06
235.583	67.06
235.817	85.06
236.051	72.06
236.285	81.06
236.519	93.06
236.753	78.06
236.987	81.06
237.221	74.06
237.455	77.06
237.689	75.06
237.922	76.06
238.156	62.06
238.39	71.06
238.624	81.06
238.858	83.06
239.091	84.06
239.325	73.06
239.559	83.06
239.793	75.06
240.027	66.06
240.26	88.06
240.494	77.06
240.728	81.06
240.961	71.06
241.195	87.06
241.429	78.06
241.662	78.06
241.896	83.06
242.13	73.06
242.363	83.06
242.597	89.06
242.83	79.06
243.064	73.06
243.298	74.06
243.531	78.06
243.765	81.06
243.998	68.06
244.232	69.06
244.465	90.06
244.699	87.06
244.932	89.06
245.166	64.06
245.399	72.06
245.633	59.06
245.866	79.06
246.099	74.06
246.333	78.06
246.566	81.06
246.8	87.06
247.033	77.06
247.266	71.06
247.5	81.06
247.733	87.06
247.966	86.06
248.2	77.06
248.433	81.06
248.666	95.06
248.899	85.06
249.133	82.06
249.366	87.06
249.599	96.06
249.832	76.06
250.066	78.06
250.299	76.06
250.532	74.06
250.765	79.06
250.998	91.06
251.231	83.06
251.465	79.06
251.698	79.06
251.931	86.06
252.164	71.06
252.397	75.06
252.63	84.06
252.863	92.06
253.096	86.06
253.329	79.06
253.562	67.06
253.795	87.06
254.028	72.06
254.261	71.06
254.494	75.06
254.727	92.06
254.96	83.06
255.193	85.06
255.426	84.06
255.659	78.06
255.892	95.06
256.124	91.06
256.357	85.06
256.59	90.06
256.823	86.06
257.056	85.06
257.289	88.06
257.521	84.06
257.754	77.06
257.987	68.06
258.22	83.06
258.452	94.06
258.685	79.06
258.918	83.06
259.151	78.06
259.383	86.06
259.616	83.06
259.849	81.06
260.081	89.06
260.314	85.06
260.547	79.06
260.779	79.06
261.012	74.06
261.244	74.06
261.477	84.06
261.71	94.06
261.942	93.06
262.175	107.06
262.407	75.06
262.64	83.06
262.872	78.06
263.105	81.06
263.337	93.06
263.57	75.06
263.802	77.06
264.035	78.06
264.267	83.06
264.499	85.06
264.732	89.06
264.964	82.06
265.197	87.06
265.429	83.06
265.661	82.06
265.894	82.06
266.126	76.06
266.358	71.06
266.591	98.06
266.823	78.06
267.055	76.06
267.287	82.06
267.52	84.06
267.752	89.06
267.984	87.06
268.216	84.06
268.448	89.06
268.681	87.06
268.913	82.06
269.145	82.06
269.377	77.06
269.609	79.06
269.841	73.06
270.073	77.06
270.306	91.06
270.538	93.06
270.77	90.06
271.002	94.06
271.234	87.06
271.466	89.06
271.698	82.06
271.93	74.06
272.162	89.06
272.394	81.06
272.626	84.06
272.858	90.06
273.09	80.06
273.322	80.06
273.553	69.06
273.785	84.06
274.017	83.06
274.249	70.06
274.481	97.06
274.713	88.06
274.945	101.06
275.176	85.06
275.408	80.06
275.64	72.06
275.872	85.06
276.104	91.06
276.335	90.06
276.567	78.06
276.799	98.06
277.031	94.06
277.262	98.06
277.494	90.06
277.726	91.06
277.957	79.06
278.189	95.06
278.421	85.06
278.652	83.06
278.884	85.06
279.115	83.06
279.347	91.06
279.579	75.06
279.81	89.06
280.042	84.06
280.273	76.06
280.505	99.06
280.736	75.06
280.968	92.06
281.199	101.06
281.431	73.06
281.662	90.06
281.894	91.06
282.125	92.06
282.356	102.06
282.588	104.06
282.819	126.06
283.051	90.06
283.282	81.06
283.513	86.06
283.745	100.06
283.976	81.06
284.207	92.06
284.439	84.06
284.67	81.06
284.901	82.06
285.132	94.06
285.364	71.06
285.595	75.06
285.826	85.06
286.057	81.06
286.288	74.06
286.52	93.06
286.751	78.06
286.982	92.06
287.213	85.06
287.444	93.06
287.675	100.06
287.906	87.06
288.138	94.06
288.369	83.06
288.6	77.06
288.831	93.06
289.062	96.06
289.293	73.06
289.524	91.06
289.755	83.06
289.986	83.06
290.217	83.06
290.448	88.06
290.679	83.06
290.91	80.06
291.141	95.06
291.371	78.06
291.602	85.06
291.833	81.06
292.064	71.06
292.295	61.06
292.526	67.06
292.757	81.06
292.987	87.06
293.218	87.06
293.449	88.06
293.68	100.06
293.91	81.06
294.141	94.06
294.372	92.06
294.603	97.06
294.833	92.06
295.064	93.06
295.295	84.06
295.525	83.06
295.756	88.06
295.987	111.06
296.217	139.06
296.448	95.06
296.679	82.06
296.909	70.06
297.14	81.06
297.37	65.06
297.601	93.06
297.831	81.06
298.062	90.06
298.292	97.06
298.523	85.06
298.753	78.06
298.984	107.06
299.214	73.06
299.445	83.06
299.675	104.06
299.905	93.06
300.136	89.06
300.366	81.06
300.597	77.06
300.827	94.06
301.057	92.06
301.288	93.06
301.518	93.06
301.748	94.06
301.979	90.06
302.209	89.06
302.439	86.06
302.669	87.06
302.9	72.06
303.13	67.06
303.36	81.06
303.59	97.06
303.82	110.06
304.051	82.06
304.281	87.06
304.511	88.06
304.741	81.06
304.971	93.06
305.201	93.06
305.431	81.06
305.661	92.06
305.891	85.06
306.121	89.06
306.352	90.06
306.582	91.06
306.812	88.06
307.042	81.06
307.272	89.06
307.502	95.06
307.731	86.06
307.961	104.06
308.191	90.06
308.421	91.06
308.651	81.06
308.881	88.06
309.111	76.06
309.341	103.06
309.571	87.06
309.8	106.06
310.03	100.06
310.26	89.06
310.49	91.06
310.72	86.06
310.949	84.06
311.179	104.06
311.409	102.06
311.639	93.06
311.868	86.06
312.098	95.06
312.328	102.06
312.557	103.06
312.787	95.06
313.017	95.06
313.246	86.06
313.476	97.06
313.706	87.06
313.935	103.06
314.165	105.06
314.394	93.06
314.624	103.06
314.853	99.06
315.083	87.06
315.312	89.06
315.542	84.06
315.771	97.06
316.001	97.06
316.23	81.06
316.46	94.06
316.689	103.06
316.919	76.06
317.148	95.06
317.377	94.06
317.607	102.06
317.836	88.06
318.065	87.06
318.295	94.06
318.524	89.06
318.753	92.06
318.983	87.06
319.212	89.06
319.441	93.06
319.67	105.06
319.9	81.06
320.129	91.06
320.358	101.06
320.587	88.06
320.816	106.06
321.046	76.06
321.275	89.06
321.504	87.06
321.733	80.06
321.962	79.06
322.191	98.06
322.42	95.06
322.649	106.06
322.878	111.06
323.108	111.06
323.337	127.06
323.566	99.06
323.795	123.06
324.024	172.06
324.253	307.06
324.482	597.06
324.71	1158.06
324.939	1555.06
325.168	589.06
325.397	195.06
325.626	112.06
325.855	117.06
326.084	117.06
326.313	132.06
326.542	127.06
326.77	169.06
326.999	343.06
327.228	684.06
327.457	1185.06
327.686	985.06
327.914	273.06
328.143	167.06
328.372	135.06
328.6	110.06
328.829	105.06
329.058	116.06
329.287	99.06
329.515	92.06
329.744	109.06
329.972	109.06
330.201	97.06
330.43	133.06
330.658	114.06
330.887	119.06
331.115	105.06
331.344	89.06
331.572	98.06
331.801	93.06
332.03	98.06
332.258	103.06
332.486	86.06
332.715	93.06
332.943	73.06
333.172	79.06
333.4	96.06
333.629	106.06
333.857	113.06
334.085	102.06
334.314	106.06
334.542	125.06
334.771	133.06
334.999	93.06
335.227	87.06
335.455	85.06
335.684	107.06
335.912	91.06
336.14	99.06
336.369	100.06
336.597	103.06
336.825	78.06
337.053	86.06
337.281	89.06
337.51	95.06
337.738	89.06
337.966	104.06
338.194	87.06
338.422	83.06
338.65	82.06
338.878	89.06
339.106	92.06
339.334	89.06
339.562	95.06
339.79	90.06
340.018	78.06
340.246	86.06
340.474	93.06
340.702	95.06
340.93	90.06
341.158	90.06
341.386	78.06
341.614	81.06
341.842	93.06
342.07	75.06
342.298	85.06
342.526	83.06
342.754	89.06
342.981	89.06
343.209	90.06
343.437	99.06
343.665	72.06
343.893	91.06
344.12	94.06
344.348	96.06
344.576	87.06
344.804	93.06
345.031	93.06
345.259	105.06
345.487	97.06
345.714	81.06
345.942	97.06
346.17	93.06
346.397	84.06
346.625	84.06
346.853	90.06
347.08	87.06
347.308	97.06
347.535	95.06
347.763	95.06
347.99	94.06
348.218	100.06
348.445	99.06
348.673	92.06
348.9	97.06
349.128	82.06
349.355	91.06
349.583	83.06
349.81	73.06
350.037	93.06
350.265	93.06
350.492	88.06
350.72	87.06
350.947	100.06
351.174	95.06
351.402	85.06
351.629	98.06
351.856	94.06
352.083	78.06
352.311	95.06
352.538	95.06
352.765	102.06
352.992	106.06
353.22	117.06
353.447	91.06
353.674	100.06
353.901	89.06
354.128	90.06
354.355	102.06
354.583	92.06
354.81	99.06
355.037	101.06
355.264	98.06
355.491	87.06
355.718	88.06
355.945	90.06
356.172	89.06
356.399	100.06
356.626	102.06
356.853	104.06
357.08	97.06
357.307	102.06
357.534	77.06
357.761	93.06
357.988	99.06
358.215	92.06
358.441	89.06
358.668	95.06
358.895	98.06
359.122	86.06
359.349	70.06
359.576	90.06
359.802	115.06
360.029	106.06
360.256	91.06
360.483	95.06
360.709	77.06
360.936	94.06
361.163	95.06
361.39	92.06
361.616	82.06
361.843	93.06
362.07	94.06
362.296	92.06
362.523	85.06
362.749	89.06
362.976	71.06
363.203	95.06
363.429	81.06
363.656	94.06
363.882	86.06
364.109	85.06
364.335	99.06
364.562	100.06
364.788	88.06
365.015	88.06
365.241	94.06
365.468	102.06
365.694	102.06
365.92	97.06
366.147	81.06
366.373	92.06
366.599	85.06
366.826	87.06
367.052	85.06
367.278	103.06
367.505	94.06
367.731	83.06
367.957	88.06
368.184	86.06
368.41	97.06
368.636	105.06
368.862	111.06
369.089	104.06
369.315	100.06
369.541	90.06
369.767	85.06
369.993	87.06
370.219	94.06
370.445	90.06
370.672	75.06
370.898	105.06
371.124	87.06
371.35	86.06
371.576	94.06
371.802	100.06
372.028	68.06
372.254	85.06
372.48	86.06
372.706	81.06
372.932	86.06
373.158	93.06
373.384	85.06
373.61	81.06
373.835	82.06
374.061	99.06
374.287	84.06
374.513	83.06
374.739	81.06
374.965	80.06
375.191	81.06
375.416	82.06
375.642	98.06
375.868	87.06
376.094	85.06
376.319	87.06
376.545	95.06
376.771	85.06
376.997	97.06
377.222	86.06
377.448	85.06
377.674	101.06
377.899	88.06
378.125	88.06
378.35	90.06
378.576	94.06
378.802	87.06
379.027	91.06
379.253	100.06
379.478	104.06
379.704	75.06
379.929	97.06
380.155	102.06
380.38	94.06
380.606	82.06
380.831	101.06
381.057	99.06
381.282	87.06
381.507	105.06
381.733	93.06
381.958	77.06
382.184	82.06
382.409	95.06
382.634	92.06
382.86	93.06
383.085	108.06
383.31	91.06
383.535	89.06
383.761	100.06
383.986	105.06
384.211	99.06
384.436	97.06
384.662	102.06
384.887	96.06
385.112	101.06
385.337	104.06
385.562	95.06
385.787	103.06
386.013	108.06
386.238	95.06
386.463	106.06
386.688	111.06
386.913	114.06
387.138	96.06
387.363	102.06
387.588	103.06
387.813	101.06
388.038	105.06
388.263	103.06
388.488	121.06
388.713	91.06
388.938	79.06
389.163	88.06
389.387	96.06
389.612	101.06
389.837	82.06
390.062	89.06
390.287	103.06
390.512	81.06
390.736	93.06
390.961	92.06
391.186	94.06
391.411	92.06
391.636	77.06
391.86	73.06
392.085	81.06
392.31	91.06
392.534	70.06
392.759	83.06
392.984	85.06
393.208	77.06
393.433	88.06
393.658	85.06
393.882	95.06
394.107	93.06
394.331	95.06
394.556	81.06
394.78	99.06
395.005	94.06
395.229	91.06
395.454	90.06
395.678	77.06
395.903	89.06
396.127	98.06
396.352	78.06
396.576	94.06
396.801	91.06
397.025	75.06
397.249	87.06
397.474	102.06
397.698	80.06
397.922	102.06
398.147	101.06
398.371	99.06
398.595	82.06
398.82	81.06
399.044	91.06
399.268	80.06
399.492	74.06
399.717	71.06
399.941	78.06
400.165	74.06
400.389	81.06
400.613	93.06
400.837	93.06
401.062	93.06
401.286	97.06
401.51	101.06
401.734	89.06
401.958	109.06
402.182	110.06
402.406	125.06
402.63	102.06
402.854	103.06
403.078	82.06
403.302	74.06
403.526	97.06
403.75	97.06
403.974	91.06
404.198	85.06
404.422	96.06
404.645	94.06
404.869	86.06
405.093	88.06
405.317	89.06
405.541	100.06
405.765	80.06
405.988	101.06
406.212	138.06
406.436	175.06
406.66	124.06
406.883	93.06
407.107	95.06
407.331	79.06
407.555	84.06
407.778	84.06
408.002	90.06
408.226	89.06
408.449	88.06
408.673	88.06
408.896	93.06
409.12	93.06
409.344	84.06
409.567	92.06
409.791	90.06
410.014	90.06
410.238	76.06
410.461	71.06
410.685	78.06
410.908	109.06
411.132	108.06
411.355	82.06
411.578	95.06
411.802	98.06
412.025	86.06
412.249	84.06
412.472	90.06
412.695	90.06
412.919	103.06
413.142	102.06
413.365	74.06
413.589	84.06
413.812	89.06
414.035	95.06
414.258	82.06
414.482	85.06
414.705	85.06
414.928	93.06
415.151	90.06
415.374	98.06
415.597	77.06
415.821	94.06
416.044	98.06
416.267	102.06
416.49	87.06
416.713	92.06
416.936	85.06
417.159	94.06
417.382	80.06
417.605	105.06
417.828	78.06
418.051	93.06
418.274	88.06
418.497	79.06
418.72	68.06
418.943	85.06
419.166	94.06
419.389	105.06
419.611	101.06
419.834	78.06
420.057	89.06
420.28	91.06
420.503	83.06
420.726	87.06
420.948	85.06
421.171	81.06
421.394	90.06
421.617	93.06
421.839	90.06
422.062	89.06
422.285	100.06
422.507	113.06
422.73	95.06
422.953	81.06
423.175	85.06
423.398	81.06
423.621	81.06
423.843	85.06
424.066	90.06
424.288	86.06
424.511	89.06
424.733	97.06
424.956	99.06
425.178	102.06
425.401	99.06
425.623	94.06
425.846	93.06
426.068	98.06
426.291	85.06
426.513	85.06
426.735	81.06
426.958	88.06
427.18	87.06
427.402	120.06
427.625	135.06
427.847	121.06
428.069	108.06
428.292	100.06
428.514	86.06
428.736	94.06
428.958	94.06
429.181	75.06
429.403	77.06
429.625	76.06
429.847	84.06
430.069	103.06
430.292	93.06
430.514	102.06
430.736	86.06
430.958	76.06
431.18	87.06
431.402	74.06
431.624	88.06
431.846	85.06
432.068	77.06
432.29	86.06
432.512	98.06
432.734	91.06
432.956	88.06
433.178	109.06
433.4	106.06
433.622	90.06
433.844	102.06
434.066	96.06
434.287	90.06
434.509	95.06
434.731	92.06
434.953	89.06
435.175	101.06
435.397	74.06
435.618	89.06
435.84	102.06
436.062	110.06
436.284	86.06
436.505	93.06
436.727	96.06
436.949	97.06
437.17	77.06
437.392	100.06
437.614	82.06
437.835	103.06
438.057	87.06
438.278	105.06
438.5	92.06
438.721	99.06
438.943	87.06
439.165	77.06
439.386	83.06
439.608	94.06
439.829	100.06
440.05	115.06
440.272	122.06
440.493	93.06
440.715	76.06
440.936	81.06
441.158	85.06
441.379	93.06
441.6	104.06
441.822	98.06
442.043	93.06
442.264	91.06
442.486	95.06
442.707	91.06
442.928	105.06
443.149	116.06
443.371	115.06
443.592	104.06
443.813	107.06
444.034	104.06
444.255	91.06
444.476	95.06
444.698	83.06
444.919	78.06
445.14	125.06
445.361	110.06
445.582	102.06
445.803	130.06
446.024	114.06
446.245	115.06
446.466	91.06
446.687	81.06
446.908	89.06
447.129	94.06
447.35	87.06
447.571	94.06
447.792	87.06
448.013	105.06
448.234	105.06
448.455	97.06
448.675	94.06
448.896	103.06
449.117	111.06
449.338	99.06
449.559	114.06
449.779	112.06
450	95.06
450.221	75.06
450.442	85.06
450.662	94.06
450.883	91.06
451.104	105.06
451.324	92.06
451.545	88.06
451.766	97.06
451.986	89.06
452.207	90.06
452.428	89.06
452.648	96.06
452.869	107.06
453.089	106.06
453.31	100.06
453.53	85.06
453.751	94.06
453.971	91.06
454.192	98.06
454.412	93.06
454.633	92.06
454.853	97.06
455.073	77.06
455.294	84.06
455.514	87.06
455.734	97.06
455.955	74.06
456.175	90.06
456.395	90.06
456.616	85.06
456.836	87.06
457.056	91.06
457.276	78.06
457.497	76.06
457.717	70.06
457.937	73.06
458.157	89.06
458.377	81.06
458.598	102.06
458.818	127.06
459.038	132.06
459.258	106.06
459.478	87.06
459.698	91.06
459.918	83.06
460.138	82.06
460.358	83.06
460.578	88.06
460.798	92.06
461.018	101.06
461.238	95.06
461.458	73.06
461.678	83.06
461.898	78.06
462.118	87.06
462.338	73.06
462.558	91.06
462.777	86.06
462.997	90.06
463.217	90.06
463.437	82.06
463.657	77.06
463.876	93.06
464.096	84.06
464.316	74.06
464.536	75.06
464.755	91.06
464.975	99.06
465.195	148.06
465.414	140.06
465.634	87.06
465.854	94.06
466.073	92.06
466.293	91.06
466.512	95.06
466.732	82.06
466.951	74.06
467.171	88.06
467.391	97.06
467.61	115.06
467.829	96.06
468.049	98.06
468.268	82.06
468.488	82.06
468.707	81.06
468.927	95.06
469.146	85.06
469.365	84.06
469.585	77.06
469.804	88.06
470.023	87.06
470.243	85.06
470.462	96.06
470.681	98.06
470.901	82.06
471.12	75.06
471.339	83.06
471.558	85.06
471.777	93.06
471.997	89.06
472.216	105.06
472.435	130.06
472.654	98.06
472.873	89.06
473.092	79.06
473.311	86.06
473.53	77.06
473.749	89.06
473.968	92.06
474.187	100.06
474.406	94.06
474.625	89.06
474.844	93.06
475.063	88.06
475.282	81.06
475.501	78.06
475.72	89.06
475.939	89.06
476.158	92.06
476.377	85.06
476.596	104.06
476.814	87.06
477.033	93.06
477.252	85.06
477.471	87.06
477.69	102.06
477.908	85.06
478.127	99.06
478.346	107.06
478.564	92.06
478.783	90.06
479.002	82.06
479.22	99.06
479.439	101.06
479.658	85.06
479.876	90.06
480.095	95.06
480.313	86.06
480.532	95.06
480.751	93.06
480.969	103.06
481.188	214.06
481.406	151.06
481.624	106.06
481.843	93.06
482.061	83.06
482.28	105.06
482.498	71.06
482.717	83.06
482.935	82.06
483.153	100.06
483.372	89.06
483.59	89.06
483.808	90.06
484.027	91.06
484.245	89.06
484.463	86.06
484.681	85.06
484.9	92.06
485.118	76.06
485.336	98.06
485.554	98.06
485.772	97.06
485.99	93.06
486.209	90.06
486.427	105.06
486.645	106.06
486.863	106.06
487.081	92.06
487.299	93.06
487.517	100.06
487.735	94.06
487.953	97.06
488.171	93.06
488.389	101.06
488.607	99.06
488.825	88.06
489.043	105.06
489.261	88.06
489.479	101.06
489.696	91.06
489.914	88.06
490.132	85.06
490.35	90.06
490.568	90.06
490.786	101.06
491.003	89.06
491.221	82.06
491.439	89.06
491.657	95.06
491.874	97.06
492.092	95.06
492.31	93.06
492.527	85.06
492.745	95.06
492.963	99.06
493.18	97.06
493.398	85.06
493.615	94.06
493.833	97.06
494.05	95.06
494.268	105.06
494.485	92.06
494.703	87.06
494.92	102.06
495.138	90.06
495.355	84.06
495.573	91.06
495.79	94.06
496.008	89.06
496.225	95.06
496.442	84.06
496.66	87.06
496.877	81.06
497.094	102.06
497.312	89.06
497.529	91.06
497.746	103.06
497.963	85.06
498.181	82.06
498.398	109.06
498.615	107.06
498.832	98.06
499.049	102.06
499.267	94.06
499.484	88.06
499.701	88.06
499.918	95.06
500.135	93.06
500.352	101.06
500.569	85.06
500.786	93.06
501.003	86.06
501.22	92.06
501.437	85.06
501.654	92.06
501.871	105.06
502.088	90.06
502.305	107.06
502.522	98.06
502.739	88.06
502.956	102.06
503.172	87.06
503.389	94.06
503.606	97.06
503.823	91.06
504.04	81.06
504.256	87.06
504.473	88.06
504.69	103.06
504.907	97.06
505.123	99.06
505.34	94.06
505.557	99.06
505.773	90.06
505.99	91.06
506.207	93.06
506.423	85.06
506.64	95.06
506.856	89.06
507.073	79.06
507.289	90.06
507.506	95.06
507.722	114.06
507.939	102.06
508.155	93.06
508.372	97.06
508.588	85.06
508.805	91.06
509.021	113.06
509.238	102.06
509.454	99.06
509.67	115.06
509.887	100.06
510.103	112.06
510.319	179.06
510.536	570.06
510.752	1816.06
510.968	501.06
511.184	141.06
511.401	101.06
511.617	93.06
511.833	83.06
512.049	78.06
512.265	93.06
512.481	70.06
512.698	84.06
512.914	83.06
513.13	95.06
513.346	93.06
513.562	104.06
513.778	109.06
513.994	87.06
514.21	94.06
514.426	109.06
514.642	111.06
514.858	113.06
515.074	138.06
515.29	318.06
515.506	1037.06
515.721	398.06
515.937	125.06
516.153	93.06
516.369	87.06
