Data from Circ_1980_H10_HRD10591_00024.txt Node
Date: Wed Jan 03 12:38:03 EST 2024
User: Yrep
Spectrometer: HR+D1059
Trigger mode: 1
Integration Time (sec): 1.000000E-1
Scans to average: 1
Electric dark correction enabled: true
Nonlinearity correction enabled: false
Boxcar width: 0
XAxis mode: Wavelengths
Number of Pixels in Spectrum: 2048
>>>>>Begin Spectral Data<<<<<
223.165	-30.38
223.4	-30.38
223.635	-30.38
223.869	-21.38
224.104	-16.38
224.338	-9.38
224.573	-10.38
224.808	-8.38
225.042	-6.38
225.277	-8.38
225.511	-11.38
225.746	3.62
225.98	4.62
226.215	24.62
226.449	17.62
226.683	16.62
226.918	30.62
227.152	24.62
227.387	38.62
227.621	51.62
227.856	43.62
228.09	40.62
228.324	46.62
228.559	56.62
228.793	59.62
229.027	67.62
229.262	63.62
229.496	81.62
229.73	67.62
229.964	67.62
230.199	89.62
230.433	92.62
230.667	73.62
230.901	78.62
231.136	78.62
231.37	76.62
231.604	92.62
231.838	72.62
232.072	76.62
232.306	94.62
232.541	91.62
232.775	77.62
233.009	77.62
233.243	81.62
233.477	86.62
233.711	91.62
233.945	70.62
234.179	81.62
234.413	82.62
234.647	69.62
234.881	79.62
235.115	84.62
235.349	70.62
235.583	104.62
235.817	99.62
236.051	90.62
236.285	72.62
236.519	83.62
236.753	85.62
236.987	90.62
237.221	102.62
237.455	83.62
237.689	76.62
237.922	84.62
238.156	86.62
238.39	80.62
238.624	87.62
238.858	72.62
239.091	79.62
239.325	73.62
239.559	87.62
239.793	87.62
240.027	66.62
240.26	78.62
240.494	75.62
240.728	68.62
240.961	79.62
241.195	79.62
241.429	81.62
241.662	76.62
241.896	68.62
242.13	78.62
242.363	80.62
242.597	69.62
242.83	91.62
243.064	75.62
243.298	77.62
243.531	71.62
243.765	75.62
243.998	83.62
244.232	74.62
244.465	77.62
244.699	88.62
244.932	75.62
245.166	73.62
245.399	89.62
245.633	84.62
245.866	93.62
246.099	79.62
246.333	75.62
246.566	75.62
246.8	80.62
247.033	65.62
247.266	78.62
247.5	77.62
247.733	86.62
247.966	93.62
248.2	80.62
248.433	88.62
248.666	83.62
248.899	90.62
249.133	85.62
249.366	91.62
249.599	99.62
249.832	84.62
250.066	92.62
250.299	69.62
250.532	91.62
250.765	81.62
250.998	84.62
251.231	81.62
251.465	90.62
251.698	71.62
251.931	72.62
252.164	85.62
252.397	79.62
252.63	89.62
252.863	79.62
253.096	89.62
253.329	85.62
253.562	73.62
253.795	107.62
254.028	92.62
254.261	83.62
254.494	84.62
254.727	81.62
254.96	76.62
255.193	87.62
255.426	83.62
255.659	87.62
255.892	87.62
256.124	83.62
256.357	85.62
256.59	80.62
256.823	85.62
257.056	90.62
257.289	80.62
257.521	86.62
257.754	75.62
257.987	88.62
258.22	90.62
258.452	72.62
258.685	85.62
258.918	93.62
259.151	73.62
259.383	95.62
259.616	76.62
259.849	81.62
260.081	71.62
260.314	70.62
260.547	76.62
260.779	78.62
261.012	83.62
261.244	83.62
261.477	93.62
261.71	83.62
261.942	95.62
262.175	105.62
262.407	85.62
262.64	89.62
262.872	83.62
263.105	88.62
263.337	81.62
263.57	90.62
263.802	80.62
264.035	68.62
264.267	76.62
264.499	91.62
264.732	84.62
264.964	91.62
265.197	79.62
265.429	92.62
265.661	78.62
265.894	69.62
266.126	79.62
266.358	72.62
266.591	99.62
266.823	73.62
267.055	91.62
267.287	63.62
267.52	68.62
267.752	95.62
267.984	87.62
268.216	82.62
268.448	84.62
268.681	90.62
268.913	81.62
269.145	87.62
269.377	84.62
269.609	79.62
269.841	86.62
270.073	70.62
270.306	87.62
270.538	92.62
270.77	73.62
271.002	80.62
271.234	87.62
271.466	81.62
271.698	83.62
271.93	83.62
272.162	81.62
272.394	89.62
272.626	78.62
272.858	80.62
273.09	86.62
273.322	89.62
273.553	94.62
273.785	93.62
274.017	87.62
274.249	85.62
274.481	83.62
274.713	87.62
274.945	76.62
275.176	75.62
275.408	78.62
275.64	90.62
275.872	86.62
276.104	89.62
276.335	75.62
276.567	83.62
276.799	99.62
277.031	79.62
277.262	94.62
277.494	87.62
277.726	100.62
277.957	91.62
278.189	70.62
278.421	85.62
278.652	93.62
278.884	79.62
279.115	85.62
279.347	94.62
279.579	90.62
279.81	87.62
280.042	93.62
280.273	88.62
280.505	96.62
280.736	63.62
280.968	93.62
281.199	92.62
281.431	101.62
281.662	80.62
281.894	110.62
282.125	97.62
282.356	107.62
282.588	121.62
282.819	98.62
283.051	91.62
283.282	85.62
283.513	85.62
283.745	102.62
283.976	91.62
284.207	77.62
284.439	79.62
284.67	89.62
284.901	85.62
285.132	99.62
285.364	92.62
285.595	80.62
285.826	88.62
286.057	96.62
286.288	93.62
286.52	74.62
286.751	91.62
286.982	89.62
287.213	95.62
287.444	97.62
287.675	99.62
287.906	84.62
288.138	98.62
288.369	93.62
288.6	75.62
288.831	93.62
289.062	94.62
289.293	90.62
289.524	98.62
289.755	89.62
289.986	98.62
290.217	80.62
290.448	83.62
290.679	94.62
290.91	87.62
291.141	88.62
291.371	80.62
291.602	94.62
291.833	102.62
292.064	79.62
292.295	89.62
292.526	84.62
292.757	91.62
292.987	88.62
293.218	84.62
293.449	70.62
293.68	89.62
293.91	90.62
294.141	94.62
294.372	75.62
294.603	91.62
294.833	74.62
295.064	92.62
295.295	91.62
295.525	81.62
295.756	96.62
295.987	103.62
296.217	115.62
296.448	113.62
296.679	99.62
296.909	70.62
297.14	97.62
297.37	100.62
297.601	71.62
297.831	86.62
298.062	101.62
298.292	87.62
298.523	79.62
298.753	75.62
298.984	97.62
299.214	96.62
299.445	92.62
299.675	83.62
299.905	90.62
300.136	96.62
300.366	85.62
300.597	76.62
300.827	88.62
301.057	90.62
301.288	109.62
301.518	93.62
301.748	90.62
301.979	97.62
302.209	92.62
302.439	93.62
302.669	93.62
302.9	94.62
303.13	92.62
303.36	97.62
303.59	103.62
303.82	91.62
304.051	93.62
304.281	91.62
304.511	91.62
304.741	94.62
304.971	85.62
305.201	93.62
305.431	76.62
305.661	87.62
305.891	99.62
306.121	83.62
306.352	84.62
306.582	96.62
306.812	93.62
307.042	85.62
307.272	93.62
307.502	102.62
307.731	100.62
307.961	85.62
308.191	84.62
308.421	90.62
308.651	91.62
308.881	99.62
309.111	109.62
309.341	92.62
309.571	93.62
309.8	86.62
310.03	103.62
310.26	100.62
310.49	85.62
310.72	102.62
310.949	96.62
311.179	86.62
311.409	80.62
311.639	87.62
311.868	98.62
312.098	101.62
312.328	90.62
312.557	90.62
312.787	95.62
313.017	97.62
313.246	90.62
313.476	91.62
313.706	84.62
313.935	88.62
314.165	105.62
314.394	91.62
314.624	85.62
314.853	76.62
315.083	77.62
315.312	88.62
315.542	98.62
315.771	93.62
316.001	88.62
316.23	81.62
316.46	91.62
316.689	87.62
316.919	93.62
317.148	95.62
317.377	99.62
317.607	85.62
317.836	76.62
318.065	85.62
318.295	99.62
318.524	100.62
318.753	88.62
318.983	80.62
319.212	97.62
319.441	96.62
319.67	104.62
319.9	92.62
320.129	96.62
320.358	107.62
320.587	104.62
320.816	87.62
321.046	97.62
321.275	97.62
321.504	92.62
321.733	90.62
321.962	97.62
322.191	91.62
322.42	113.62
322.649	112.62
322.878	95.62
323.108	104.62
323.337	96.62
323.566	112.62
323.795	141.62
324.024	176.62
324.253	297.62
324.482	576.62
324.71	1141.62
324.939	1484.62
325.168	567.62
325.397	198.62
325.626	131.62
325.855	115.62
326.084	111.62
326.313	107.62
326.542	128.62
326.77	204.62
326.999	334.62
327.228	656.62
327.457	1211.62
327.686	959.62
327.914	255.62
328.143	154.62
328.372	115.62
328.6	118.62
328.829	103.62
329.058	109.62
329.287	98.62
329.515	95.62
329.744	91.62
329.972	102.62
330.201	116.62
330.43	100.62
330.658	118.62
330.887	100.62
331.115	108.62
331.344	95.62
331.572	101.62
331.801	107.62
332.03	99.62
332.258	91.62
332.486	104.62
332.715	79.62
332.943	76.62
333.172	107.62
333.4	88.62
333.629	106.62
333.857	92.62
334.085	98.62
334.314	112.62
334.542	130.62
334.771	109.62
334.999	100.62
335.227	102.62
335.455	102.62
335.684	110.62
335.912	101.62
336.14	107.62
336.369	100.62
336.597	91.62
336.825	93.62
337.053	83.62
337.281	83.62
337.51	74.62
337.738	93.62
337.966	94.62
338.194	96.62
338.422	97.62
338.65	97.62
338.878	92.62
339.106	83.62
339.334	86.62
339.562	83.62
339.79	93.62
340.018	89.62
340.246	96.62
340.474	91.62
340.702	84.62
340.93	96.62
341.158	93.62
341.386	103.62
341.614	90.62
341.842	108.62
342.07	96.62
342.298	89.62
342.526	89.62
342.754	88.62
342.981	95.62
343.209	104.62
343.437	91.62
343.665	97.62
343.893	97.62
344.12	92.62
344.348	105.62
344.576	89.62
344.804	101.62
345.031	95.62
345.259	94.62
345.487	89.62
345.714	83.62
345.942	86.62
346.17	83.62
346.397	95.62
346.625	104.62
346.853	94.62
347.08	100.62
347.308	94.62
347.535	79.62
347.763	93.62
347.99	94.62
348.218	107.62
348.445	96.62
348.673	109.62
348.9	98.62
349.128	100.62
349.355	92.62
349.583	100.62
349.81	95.62
350.037	94.62
350.265	100.62
350.492	95.62
350.72	89.62
350.947	94.62
351.174	119.62
351.402	85.62
351.629	97.62
351.856	92.62
352.083	87.62
352.311	101.62
352.538	93.62
352.765	95.62
352.992	96.62
353.22	109.62
353.447	110.62
353.674	102.62
353.901	101.62
354.128	91.62
354.355	108.62
354.583	107.62
354.81	96.62
355.037	111.62
355.264	88.62
355.491	99.62
355.718	101.62
355.945	95.62
356.172	80.62
356.399	91.62
356.626	84.62
356.853	92.62
357.08	110.62
357.307	95.62
357.534	95.62
357.761	105.62
357.988	73.62
358.215	87.62
358.441	90.62
358.668	96.62
358.895	93.62
359.122	96.62
359.349	94.62
359.576	111.62
359.802	100.62
360.029	89.62
360.256	100.62
360.483	98.62
360.709	76.62
360.936	105.62
361.163	84.62
361.39	90.62
361.616	88.62
361.843	92.62
362.07	90.62
362.296	89.62
362.523	85.62
362.749	99.62
362.976	93.62
363.203	93.62
363.429	87.62
363.656	84.62
363.882	97.62
364.109	88.62
364.335	91.62
364.562	99.62
364.788	94.62
365.015	92.62
365.241	95.62
365.468	112.62
365.694	101.62
365.92	100.62
366.147	88.62
366.373	90.62
366.599	84.62
366.826	83.62
367.052	93.62
367.278	96.62
367.505	78.62
367.731	101.62
367.957	93.62
368.184	88.62
368.41	103.62
368.636	88.62
368.862	117.62
369.089	92.62
369.315	92.62
369.541	83.62
369.767	79.62
369.993	87.62
370.219	75.62
370.445	83.62
370.672	89.62
370.898	92.62
371.124	90.62
371.35	94.62
371.576	81.62
371.802	81.62
372.028	81.62
372.254	89.62
372.48	94.62
372.706	80.62
372.932	90.62
373.158	108.62
373.384	86.62
373.61	89.62
373.835	95.62
374.061	85.62
374.287	93.62
374.513	77.62
374.739	106.62
374.965	100.62
375.191	92.62
375.416	84.62
375.642	91.62
375.868	78.62
376.094	89.62
376.319	91.62
376.545	89.62
376.771	79.62
376.997	88.62
377.222	89.62
377.448	115.62
377.674	97.62
377.899	80.62
378.125	105.62
378.35	99.62
378.576	102.62
378.802	87.62
379.027	89.62
379.253	94.62
379.478	102.62
379.704	108.62
379.929	104.62
380.155	90.62
380.38	97.62
380.606	100.62
380.831	102.62
381.057	106.62
381.282	102.62
381.507	106.62
381.733	97.62
381.958	87.62
382.184	105.62
382.409	106.62
382.634	111.62
382.86	105.62
383.085	92.62
383.31	88.62
383.535	110.62
383.761	111.62
383.986	96.62
384.211	98.62
384.436	100.62
384.662	112.62
384.887	103.62
385.112	108.62
385.337	125.62
385.562	116.62
385.787	105.62
386.013	114.62
386.238	97.62
386.463	108.62
386.688	111.62
386.913	113.62
387.138	108.62
387.363	93.62
387.588	103.62
387.813	107.62
388.038	109.62
388.263	121.62
388.488	112.62
388.713	94.62
388.938	94.62
389.163	84.62
389.387	97.62
389.612	89.62
389.837	94.62
390.062	97.62
390.287	87.62
390.512	92.62
390.736	92.62
390.961	111.62
391.186	104.62
391.411	101.62
391.636	92.62
391.86	88.62
392.085	95.62
392.31	76.62
392.534	93.62
392.759	86.62
392.984	95.62
393.208	89.62
393.433	87.62
393.658	89.62
393.882	91.62
394.107	89.62
394.331	88.62
394.556	83.62
394.78	80.62
395.005	92.62
395.229	96.62
395.454	86.62
395.678	92.62
395.903	96.62
396.127	93.62
396.352	87.62
396.576	90.62
396.801	94.62
397.025	84.62
397.249	93.62
397.474	89.62
397.698	81.62
397.922	87.62
398.147	76.62
398.371	89.62
398.595	100.62
398.82	85.62
399.044	87.62
399.268	85.62
399.492	96.62
399.717	101.62
399.941	85.62
400.165	92.62
400.389	107.62
400.613	81.62
400.837	76.62
401.062	79.62
401.286	96.62
401.51	75.62
401.734	87.62
401.958	95.62
402.182	101.62
402.406	116.62
402.63	124.62
402.854	87.62
403.078	81.62
403.302	104.62
403.526	96.62
403.75	90.62
403.974	87.62
404.198	95.62
404.422	102.62
404.645	83.62
404.869	103.62
405.093	99.62
405.317	79.62
405.541	98.62
405.765	99.62
405.988	91.62
406.212	151.62
406.436	173.62
406.66	110.62
406.883	95.62
407.107	100.62
407.331	97.62
407.555	86.62
407.778	107.62
408.002	105.62
408.226	97.62
408.449	88.62
408.673	90.62
408.896	89.62
409.12	91.62
409.344	101.62
409.567	83.62
409.791	95.62
410.014	104.62
410.238	84.62
410.461	103.62
410.685	93.62
410.908	94.62
411.132	115.62
411.355	92.62
411.578	93.62
411.802	97.62
412.025	91.62
412.249	89.62
412.472	111.62
412.695	95.62
412.919	113.62
413.142	96.62
413.365	97.62
413.589	95.62
413.812	93.62
414.035	99.62
414.258	87.62
414.482	95.62
414.705	96.62
414.928	105.62
415.151	106.62
415.374	86.62
415.597	97.62
415.821	83.62
416.044	74.62
416.267	88.62
416.49	89.62
416.713	96.62
416.936	97.62
417.159	82.62
417.382	92.62
417.605	87.62
417.828	101.62
418.051	91.62
418.274	91.62
418.497	94.62
418.72	89.62
418.943	85.62
419.166	79.62
419.389	101.62
419.611	81.62
419.834	90.62
420.057	104.62
420.28	84.62
420.503	91.62
420.726	87.62
420.948	81.62
421.171	91.62
421.394	92.62
421.617	79.62
421.839	93.62
422.062	96.62
422.285	99.62
422.507	80.62
422.73	99.62
422.953	87.62
423.175	79.62
423.398	91.62
423.621	96.62
423.843	93.62
424.066	88.62
424.288	89.62
424.511	90.62
424.733	88.62
424.956	100.62
425.178	82.62
425.401	88.62
425.623	91.62
425.846	77.62
426.068	91.62
426.291	83.62
426.513	86.62
426.735	87.62
426.958	94.62
427.18	92.62
427.402	112.62
427.625	141.62
427.847	117.62
428.069	97.62
428.292	85.62
428.514	108.62
428.736	93.62
428.958	86.62
429.181	91.62
429.403	93.62
429.625	79.62
429.847	92.62
430.069	96.62
430.292	99.62
430.514	84.62
430.736	88.62
430.958	87.62
431.18	89.62
431.402	74.62
431.624	82.62
431.846	93.62
432.068	79.62
432.29	91.62
432.512	73.62
432.734	89.62
432.956	95.62
433.178	99.62
433.4	93.62
433.622	93.62
433.844	95.62
434.066	84.62
434.287	91.62
434.509	95.62
434.731	85.62
434.953	84.62
435.175	90.62
435.397	94.62
435.618	93.62
435.84	88.62
436.062	119.62
436.284	109.62
436.505	78.62
436.727	91.62
436.949	100.62
437.17	81.62
437.392	85.62
437.614	87.62
437.835	105.62
438.057	110.62
438.278	124.62
438.5	103.62
438.721	104.62
438.943	95.62
439.165	85.62
439.386	96.62
439.608	93.62
439.829	110.62
440.05	99.62
440.272	100.62
440.493	100.62
440.715	74.62
440.936	78.62
441.158	76.62
441.379	93.62
441.6	84.62
441.822	115.62
442.043	84.62
442.264	92.62
442.486	86.62
442.707	80.62
442.928	104.62
443.149	96.62
443.371	110.62
443.592	95.62
443.813	80.62
444.034	97.62
444.255	83.62
444.476	79.62
444.698	91.62
444.919	73.62
445.14	125.62
445.361	103.62
445.582	104.62
445.803	132.62
446.024	111.62
446.245	120.62
446.466	99.62
446.687	80.62
446.908	94.62
447.129	93.62
447.35	92.62
447.571	80.62
447.792	73.62
448.013	93.62
448.234	102.62
448.455	94.62
448.675	99.62
448.896	104.62
449.117	96.62
449.338	96.62
449.559	112.62
449.779	125.62
450	89.62
450.221	85.62
450.442	79.62
450.662	89.62
450.883	99.62
451.104	98.62
451.324	108.62
451.545	80.62
451.766	101.62
451.986	82.62
452.207	91.62
452.428	93.62
452.648	87.62
452.869	108.62
453.089	101.62
453.31	96.62
453.53	90.62
453.751	85.62
453.971	108.62
454.192	113.62
454.412	108.62
454.633	76.62
454.853	80.62
455.073	88.62
455.294	76.62
455.514	99.62
455.734	89.62
455.955	74.62
456.175	91.62
456.395	88.62
456.616	79.62
456.836	89.62
457.056	77.62
457.276	85.62
457.497	109.62
457.717	89.62
457.937	77.62
458.157	75.62
458.377	89.62
458.598	97.62
458.818	132.62
459.038	121.62
459.258	115.62
459.478	94.62
459.698	73.62
459.918	85.62
460.138	89.62
460.358	84.62
460.578	77.62
460.798	96.62
461.018	78.62
461.238	100.62
461.458	80.62
461.678	87.62
461.898	101.62
462.118	79.62
462.338	87.62
462.558	89.62
462.777	81.62
462.997	102.62
463.217	94.62
463.437	88.62
463.657	88.62
463.876	94.62
464.096	93.62
464.316	95.62
464.536	86.62
464.755	91.62
464.975	111.62
465.195	143.62
465.414	123.62
465.634	88.62
465.854	83.62
466.073	86.62
466.293	99.62
466.512	83.62
466.732	93.62
466.951	96.62
467.171	96.62
467.391	87.62
467.61	85.62
467.829	88.62
468.049	99.62
468.268	101.62
468.488	88.62
468.707	90.62
468.927	81.62
469.146	88.62
469.365	78.62
469.585	95.62
469.804	103.62
470.023	98.62
470.243	85.62
470.462	111.62
470.681	111.62
470.901	84.62
471.12	83.62
471.339	80.62
471.558	92.62
471.777	83.62
471.997	85.62
472.216	103.62
472.435	132.62
472.654	100.62
472.873	93.62
473.092	92.62
473.311	94.62
473.53	92.62
473.749	89.62
473.968	80.62
474.187	94.62
474.406	93.62
474.625	78.62
474.844	92.62
475.063	92.62
475.282	94.62
475.501	89.62
475.72	84.62
475.939	89.62
476.158	98.62
476.377	99.62
476.596	79.62
476.814	91.62
477.033	89.62
477.252	87.62
477.471	86.62
477.69	84.62
477.908	90.62
478.127	74.62
478.346	88.62
478.564	91.62
478.783	96.62
479.002	104.62
479.22	82.62
479.439	99.62
479.658	92.62
479.876	89.62
480.095	98.62
480.313	85.62
480.532	84.62
480.751	96.62
480.969	108.62
481.188	176.62
481.406	131.62
481.624	95.62
481.843	83.62
482.061	89.62
482.28	84.62
482.498	103.62
482.717	97.62
482.935	100.62
483.153	81.62
483.372	99.62
483.59	93.62
483.808	81.62
484.027	80.62
484.245	94.62
484.463	81.62
484.681	96.62
484.9	108.62
485.118	99.62
485.336	99.62
485.554	96.62
485.772	111.62
485.99	105.62
486.209	107.62
486.427	95.62
486.645	111.62
486.863	116.62
487.081	107.62
487.299	100.62
487.517	107.62
487.735	95.62
487.953	87.62
488.171	87.62
488.389	106.62
488.607	83.62
488.825	105.62
489.043	93.62
489.261	107.62
489.479	89.62
489.696	83.62
489.914	91.62
490.132	91.62
490.35	102.62
490.568	102.62
490.786	87.62
491.003	80.62
491.221	93.62
491.439	91.62
491.657	89.62
491.874	79.62
492.092	80.62
492.31	105.62
492.527	93.62
492.745	74.62
492.963	88.62
493.18	76.62
493.398	99.62
493.615	93.62
493.833	108.62
494.05	95.62
494.268	81.62
494.485	88.62
494.703	92.62
494.92	95.62
495.138	92.62
495.355	87.62
495.573	101.62
495.79	84.62
496.008	95.62
496.225	87.62
496.442	85.62
496.66	83.62
496.877	99.62
497.094	75.62
497.312	84.62
497.529	76.62
497.746	94.62
497.963	87.62
498.181	92.62
498.398	95.62
498.615	99.62
498.832	93.62
499.049	84.62
499.267	92.62
499.484	80.62
499.701	91.62
499.918	97.62
500.135	86.62
500.352	88.62
500.569	88.62
500.786	90.62
501.003	95.62
501.22	92.62
501.437	89.62
501.654	89.62
501.871	96.62
502.088	87.62
502.305	85.62
502.522	94.62
502.739	82.62
502.956	88.62
503.172	87.62
503.389	78.62
503.606	88.62
503.823	90.62
504.04	94.62
504.256	85.62
504.473	94.62
504.69	91.62
504.907	90.62
505.123	85.62
505.34	83.62
505.557	96.62
505.773	99.62
505.99	80.62
506.207	107.62
506.423	83.62
506.64	93.62
506.856	99.62
507.073	94.62
507.289	94.62
507.506	89.62
507.722	112.62
507.939	101.62
508.155	92.62
508.372	85.62
508.588	99.62
508.805	120.62
509.021	85.62
509.238	107.62
509.454	109.62
509.67	99.62
509.887	108.62
510.103	126.62
510.319	172.62
510.536	537.62
510.752	1595.62
510.968	459.62
511.184	124.62
511.401	103.62
511.617	99.62
511.833	84.62
512.049	82.62
512.265	94.62
512.481	86.62
512.698	87.62
512.914	93.62
513.13	92.62
513.346	90.62
513.562	92.62
513.778	91.62
513.994	103.62
514.21	90.62
514.426	103.62
514.642	110.62
514.858	107.62
515.074	145.62
515.29	308.62
515.506	922.62
515.721	376.62
515.937	130.62
516.153	103.62
