Data from Circ_1980_H10_HRD10591_00059.txt Node
Date: Wed Jan 03 12:38:10 EST 2024
User: Yrep
Spectrometer: HR+D1059
Trigger mode: 1
Integration Time (sec): 1.000000E-1
Scans to average: 1
Electric dark correction enabled: true
Nonlinearity correction enabled: false
Boxcar width: 0
XAxis mode: Wavelengths
Number of Pixels in Spectrum: 2048
>>>>>Begin Spectral Data<<<<<
223.165	-22.38
223.4	-22.38
223.635	-22.38
223.869	-20.38
224.104	-22.38
224.338	-17.38
224.573	-8.38
224.808	-6.38
225.042	-6.38
225.277	3.62
225.511	-3.38
225.746	10.62
225.98	-3.38
226.215	4.62
226.449	18.62
226.683	20.62
226.918	33.62
227.152	18.62
227.387	29.62
227.621	38.62
227.856	35.62
228.09	52.62
228.324	38.62
228.559	56.62
228.793	62.62
229.027	65.62
229.262	72.62
229.496	66.62
229.73	66.62
229.964	70.62
230.199	67.62
230.433	70.62
230.667	73.62
230.901	76.62
231.136	89.62
231.37	74.62
231.604	58.62
231.838	74.62
232.072	84.62
232.306	89.62
232.541	85.62
232.775	82.62
233.009	75.62
233.243	90.62
233.477	74.62
233.711	91.62
233.945	88.62
234.179	90.62
234.413	72.62
234.647	85.62
234.881	83.62
235.115	83.62
235.349	82.62
235.583	79.62
235.817	75.62
236.051	83.62
236.285	68.62
236.519	80.62
236.753	62.62
236.987	66.62
237.221	79.62
237.455	70.62
237.689	79.62
237.922	80.62
238.156	73.62
238.39	69.62
238.624	81.62
238.858	68.62
239.091	60.62
239.325	75.62
239.559	84.62
239.793	80.62
240.027	76.62
240.26	63.62
240.494	71.62
240.728	74.62
240.961	65.62
241.195	84.62
241.429	70.62
241.662	73.62
241.896	70.62
242.13	85.62
242.363	59.62
242.597	61.62
242.83	73.62
243.064	65.62
243.298	77.62
243.531	83.62
243.765	96.62
243.998	75.62
244.232	52.62
244.465	62.62
244.699	64.62
244.932	94.62
245.166	80.62
245.399	71.62
245.633	71.62
245.866	88.62
246.099	68.62
246.333	68.62
246.566	74.62
246.8	70.62
247.033	73.62
247.266	71.62
247.5	83.62
247.733	75.62
247.966	72.62
248.2	76.62
248.433	64.62
248.666	80.62
248.899	80.62
249.133	79.62
249.366	92.62
249.599	89.62
249.832	79.62
250.066	67.62
250.299	64.62
250.532	82.62
250.765	78.62
250.998	76.62
251.231	62.62
251.465	87.62
251.698	82.62
251.931	76.62
252.164	93.62
252.397	70.62
252.63	83.62
252.863	95.62
253.096	84.62
253.329	80.62
253.562	85.62
253.795	66.62
254.028	78.62
254.261	75.62
254.494	82.62
254.727	79.62
254.96	80.62
255.193	80.62
255.426	88.62
255.659	76.62
255.892	74.62
256.124	72.62
256.357	71.62
256.59	79.62
256.823	63.62
257.056	74.62
257.289	77.62
257.521	77.62
257.754	86.62
257.987	83.62
258.22	83.62
258.452	90.62
258.685	75.62
258.918	91.62
259.151	78.62
259.383	73.62
259.616	98.62
259.849	79.62
260.081	89.62
260.314	75.62
260.547	76.62
260.779	74.62
261.012	82.62
261.244	83.62
261.477	93.62
261.71	87.62
261.942	104.62
262.175	97.62
262.407	93.62
262.64	71.62
262.872	79.62
263.105	85.62
263.337	77.62
263.57	69.62
263.802	82.62
264.035	74.62
264.267	88.62
264.499	76.62
264.732	69.62
264.964	85.62
265.197	88.62
265.429	79.62
265.661	88.62
265.894	86.62
266.126	80.62
266.358	75.62
266.591	73.62
266.823	70.62
267.055	83.62
267.287	86.62
267.52	56.62
267.752	84.62
267.984	89.62
268.216	65.62
268.448	74.62
268.681	81.62
268.913	82.62
269.145	81.62
269.377	84.62
269.609	80.62
269.841	75.62
270.073	86.62
270.306	91.62
270.538	86.62
270.77	65.62
271.002	69.62
271.234	73.62
271.466	80.62
271.698	70.62
271.93	79.62
272.162	86.62
272.394	83.62
272.626	78.62
272.858	81.62
273.09	87.62
273.322	80.62
273.553	87.62
273.785	84.62
274.017	72.62
274.249	80.62
274.481	83.62
274.713	90.62
274.945	79.62
275.176	75.62
275.408	75.62
275.64	94.62
275.872	84.62
276.104	80.62
276.335	102.62
276.567	91.62
276.799	98.62
277.031	88.62
277.262	90.62
277.494	89.62
277.726	87.62
277.957	73.62
278.189	72.62
278.421	88.62
278.652	76.62
278.884	84.62
279.115	99.62
279.347	85.62
279.579	83.62
279.81	85.62
280.042	89.62
280.273	73.62
280.505	94.62
280.736	78.62
280.968	79.62
281.199	90.62
281.431	76.62
281.662	74.62
281.894	87.62
282.125	97.62
282.356	101.62
282.588	119.62
282.819	100.62
283.051	88.62
283.282	84.62
283.513	83.62
283.745	82.62
283.976	90.62
284.207	80.62
284.439	87.62
284.67	99.62
284.901	88.62
285.132	75.62
285.364	80.62
285.595	84.62
285.826	93.62
286.057	95.62
286.288	86.62
286.52	98.62
286.751	78.62
286.982	83.62
287.213	88.62
287.444	85.62
287.675	82.62
287.906	80.62
288.138	95.62
288.369	94.62
288.6	106.62
288.831	86.62
289.062	78.62
289.293	69.62
289.524	90.62
289.755	85.62
289.986	96.62
290.217	81.62
290.448	87.62
290.679	87.62
290.91	79.62
291.141	82.62
291.371	86.62
291.602	83.62
291.833	78.62
292.064	94.62
292.295	94.62
292.526	96.62
292.757	85.62
292.987	83.62
293.218	84.62
293.449	78.62
293.68	80.62
293.91	79.62
294.141	90.62
294.372	90.62
294.603	84.62
294.833	84.62
295.064	95.62
295.295	73.62
295.525	76.62
295.756	91.62
295.987	110.62
296.217	126.62
296.448	108.62
296.679	98.62
296.909	97.62
297.14	91.62
297.37	94.62
297.601	69.62
297.831	86.62
298.062	80.62
298.292	76.62
298.523	88.62
298.753	90.62
298.984	79.62
299.214	84.62
299.445	93.62
299.675	83.62
299.905	88.62
300.136	97.62
300.366	67.62
300.597	84.62
300.827	89.62
301.057	81.62
301.288	72.62
301.518	87.62
301.748	87.62
301.979	99.62
302.209	86.62
302.439	70.62
302.669	90.62
302.9	85.62
303.13	88.62
303.36	94.62
303.59	86.62
303.82	89.62
304.051	92.62
304.281	78.62
304.511	92.62
304.741	78.62
304.971	86.62
305.201	95.62
305.431	88.62
305.661	98.62
305.891	85.62
306.121	85.62
306.352	97.62
306.582	98.62
306.812	94.62
307.042	98.62
307.272	99.62
307.502	96.62
307.731	89.62
307.961	88.62
308.191	82.62
308.421	85.62
308.651	89.62
308.881	89.62
309.111	83.62
309.341	98.62
309.571	80.62
309.8	91.62
310.03	101.62
310.26	86.62
310.49	84.62
310.72	88.62
310.949	99.62
311.179	95.62
311.409	94.62
311.639	98.62
311.868	99.62
312.098	82.62
312.328	89.62
312.557	88.62
312.787	91.62
313.017	90.62
313.246	76.62
313.476	86.62
313.706	82.62
313.935	86.62
314.165	101.62
314.394	104.62
314.624	94.62
314.853	98.62
315.083	89.62
315.312	85.62
315.542	96.62
315.771	91.62
316.001	83.62
316.23	75.62
316.46	93.62
316.689	90.62
316.919	98.62
317.148	76.62
317.377	86.62
317.607	98.62
317.836	90.62
318.065	90.62
318.295	106.62
318.524	95.62
318.753	81.62
318.983	86.62
319.212	121.62
319.441	95.62
319.67	115.62
319.9	65.62
320.129	79.62
320.358	91.62
320.587	97.62
320.816	90.62
321.046	108.62
321.275	80.62
321.504	89.62
321.733	73.62
321.962	80.62
322.191	98.62
322.42	84.62
322.649	103.62
322.878	99.62
323.108	108.62
323.337	106.62
323.566	107.62
323.795	134.62
324.024	165.62
324.253	296.62
324.482	629.62
324.71	1253.62
324.939	1684.62
325.168	628.62
325.397	197.62
325.626	134.62
325.855	100.62
326.084	106.62
326.313	114.62
326.542	127.62
326.77	194.62
326.999	353.62
327.228	737.62
327.457	1330.62
327.686	1059.62
327.914	293.62
328.143	174.62
328.372	127.62
328.6	107.62
328.829	107.62
329.058	115.62
329.287	115.62
329.515	88.62
329.744	85.62
329.972	102.62
330.201	122.62
330.43	115.62
330.658	120.62
330.887	123.62
331.115	98.62
331.344	92.62
331.572	91.62
331.801	100.62
332.03	106.62
332.258	81.62
332.486	99.62
332.715	88.62
332.943	90.62
333.172	84.62
333.4	90.62
333.629	105.62
333.857	108.62
334.085	96.62
334.314	108.62
334.542	122.62
334.771	141.62
334.999	112.62
335.227	80.62
335.455	95.62
335.684	94.62
335.912	94.62
336.14	101.62
336.369	89.62
336.597	93.62
336.825	102.62
337.053	94.62
337.281	99.62
337.51	94.62
337.738	101.62
337.966	90.62
338.194	83.62
338.422	94.62
338.65	90.62
338.878	85.62
339.106	91.62
339.334	82.62
339.562	99.62
339.79	91.62
340.018	90.62
340.246	100.62
340.474	94.62
340.702	83.62
340.93	85.62
341.158	87.62
341.386	105.62
341.614	91.62
341.842	90.62
342.07	76.62
342.298	86.62
342.526	92.62
342.754	75.62
342.981	85.62
343.209	94.62
343.437	102.62
343.665	94.62
343.893	87.62
344.12	84.62
344.348	89.62
344.576	79.62
344.804	100.62
345.031	90.62
345.259	98.62
345.487	97.62
345.714	82.62
345.942	76.62
346.17	57.62
346.397	79.62
346.625	102.62
346.853	87.62
347.08	75.62
347.308	96.62
347.535	85.62
347.763	94.62
347.99	99.62
348.218	89.62
348.445	98.62
348.673	89.62
348.9	92.62
349.128	93.62
349.355	93.62
349.583	93.62
349.81	93.62
350.037	88.62
350.265	80.62
350.492	90.62
350.72	96.62
350.947	100.62
351.174	107.62
351.402	99.62
351.629	103.62
351.856	91.62
352.083	99.62
352.311	99.62
352.538	94.62
352.765	99.62
352.992	99.62
353.22	90.62
353.447	103.62
353.674	103.62
353.901	98.62
354.128	100.62
354.355	95.62
354.583	84.62
354.81	106.62
355.037	88.62
355.264	111.62
355.491	76.62
355.718	81.62
355.945	107.62
356.172	91.62
356.399	85.62
356.626	103.62
356.853	100.62
357.08	78.62
357.307	85.62
357.534	101.62
357.761	88.62
357.988	79.62
358.215	84.62
358.441	99.62
358.668	87.62
358.895	74.62
359.122	89.62
359.349	89.62
359.576	79.62
359.802	84.62
360.029	89.62
360.256	101.62
360.483	104.62
360.709	82.62
360.936	84.62
361.163	83.62
361.39	91.62
361.616	96.62
361.843	96.62
362.07	88.62
362.296	81.62
362.523	76.62
362.749	67.62
362.976	100.62
363.203	86.62
363.429	87.62
363.656	95.62
363.882	67.62
364.109	81.62
364.335	81.62
364.562	94.62
364.788	88.62
365.015	96.62
365.241	88.62
365.468	105.62
365.694	90.62
365.92	86.62
366.147	87.62
366.373	87.62
366.599	80.62
366.826	85.62
367.052	89.62
367.278	87.62
367.505	81.62
367.731	85.62
367.957	74.62
368.184	90.62
368.41	80.62
368.636	98.62
368.862	119.62
369.089	91.62
369.315	95.62
369.541	86.62
369.767	77.62
369.993	85.62
370.219	83.62
370.445	80.62
370.672	79.62
370.898	84.62
371.124	82.62
371.35	84.62
371.576	100.62
371.802	88.62
372.028	82.62
372.254	83.62
372.48	92.62
372.706	83.62
372.932	89.62
373.158	90.62
373.384	90.62
373.61	95.62
373.835	99.62
374.061	76.62
374.287	81.62
374.513	99.62
374.739	96.62
374.965	86.62
375.191	85.62
375.416	85.62
375.642	84.62
375.868	95.62
376.094	88.62
376.319	75.62
376.545	82.62
376.771	80.62
376.997	98.62
377.222	94.62
377.448	80.62
377.674	88.62
377.899	83.62
378.125	86.62
378.35	86.62
378.576	85.62
378.802	99.62
379.027	90.62
379.253	80.62
379.478	86.62
379.704	72.62
379.929	80.62
380.155	102.62
380.38	104.62
380.606	92.62
380.831	83.62
381.057	100.62
381.282	96.62
381.507	95.62
381.733	99.62
381.958	95.62
382.184	92.62
382.409	91.62
382.634	81.62
382.86	94.62
383.085	101.62
383.31	96.62
383.535	107.62
383.761	99.62
383.986	110.62
384.211	94.62
384.436	101.62
384.662	100.62
384.887	111.62
385.112	108.62
385.337	93.62
385.562	96.62
385.787	100.62
386.013	106.62
386.238	105.62
386.463	108.62
386.688	111.62
386.913	101.62
387.138	98.62
387.363	105.62
387.588	101.62
387.813	99.62
388.038	99.62
388.263	96.62
388.488	103.62
388.713	86.62
388.938	97.62
389.163	98.62
389.387	101.62
389.612	101.62
389.837	78.62
390.062	98.62
390.287	72.62
390.512	79.62
390.736	73.62
390.961	88.62
391.186	91.62
391.411	88.62
391.636	91.62
391.86	75.62
392.085	82.62
392.31	84.62
392.534	82.62
392.759	77.62
392.984	70.62
393.208	94.62
393.433	92.62
393.658	88.62
393.882	73.62
394.107	68.62
394.331	88.62
394.556	95.62
394.78	91.62
395.005	85.62
395.229	73.62
395.454	97.62
395.678	94.62
395.903	80.62
396.127	82.62
396.352	71.62
396.576	88.62
396.801	63.62
397.025	85.62
397.249	86.62
397.474	83.62
397.698	75.62
397.922	82.62
398.147	55.62
398.371	80.62
398.595	87.62
398.82	85.62
399.044	75.62
399.268	74.62
399.492	90.62
399.717	92.62
399.941	85.62
400.165	87.62
400.389	91.62
400.613	82.62
400.837	76.62
401.062	89.62
401.286	72.62
401.51	77.62
401.734	80.62
401.958	101.62
402.182	104.62
402.406	133.62
402.63	101.62
402.854	86.62
403.078	75.62
403.302	78.62
403.526	78.62
403.75	84.62
403.974	91.62
404.198	74.62
404.422	94.62
404.645	74.62
404.869	79.62
405.093	94.62
405.317	102.62
405.541	90.62
405.765	91.62
405.988	97.62
406.212	122.62
406.436	195.62
406.66	132.62
406.883	88.62
407.107	90.62
407.331	83.62
407.555	94.62
407.778	83.62
408.002	75.62
408.226	87.62
408.449	76.62
408.673	79.62
408.896	83.62
409.12	82.62
409.344	91.62
409.567	95.62
409.791	86.62
410.014	98.62
410.238	82.62
410.461	91.62
410.685	99.62
410.908	99.62
411.132	102.62
411.355	96.62
411.578	90.62
411.802	88.62
412.025	90.62
412.249	74.62
412.472	90.62
412.695	91.62
412.919	82.62
413.142	70.62
413.365	86.62
413.589	72.62
413.812	75.62
414.035	104.62
414.258	74.62
414.482	76.62
414.705	99.62
414.928	92.62
415.151	88.62
415.374	88.62
415.597	102.62
415.821	66.62
416.044	71.62
416.267	82.62
416.49	93.62
416.713	99.62
416.936	90.62
417.159	67.62
417.382	90.62
417.605	78.62
417.828	88.62
418.051	88.62
418.274	64.62
418.497	87.62
418.72	75.62
418.943	78.62
419.166	83.62
419.389	91.62
419.611	69.62
419.834	75.62
420.057	88.62
420.28	78.62
420.503	96.62
420.726	92.62
420.948	91.62
421.171	103.62
421.394	74.62
421.617	78.62
421.839	80.62
422.062	92.62
422.285	95.62
422.507	96.62
422.73	98.62
422.953	95.62
423.175	81.62
423.398	78.62
423.621	99.62
423.843	80.62
424.066	74.62
424.288	58.62
424.511	94.62
424.733	67.62
424.956	92.62
425.178	98.62
425.401	93.62
425.623	85.62
425.846	96.62
426.068	87.62
426.291	79.62
426.513	87.62
426.735	81.62
426.958	83.62
427.18	88.62
427.402	105.62
427.625	139.62
427.847	109.62
428.069	102.62
428.292	75.62
428.514	86.62
428.736	75.62
428.958	80.62
429.181	82.62
429.403	90.62
429.625	95.62
429.847	81.62
430.069	91.62
430.292	84.62
430.514	87.62
430.736	88.62
430.958	84.62
431.18	76.62
431.402	70.62
431.624	87.62
431.846	89.62
432.068	81.62
432.29	90.62
432.512	92.62
432.734	100.62
432.956	82.62
433.178	96.62
433.4	80.62
433.622	78.62
433.844	80.62
434.066	79.62
434.287	70.62
434.509	74.62
434.731	91.62
434.953	84.62
435.175	90.62
435.397	95.62
435.618	88.62
435.84	92.62
436.062	83.62
436.284	91.62
436.505	87.62
436.727	98.62
436.949	85.62
437.17	90.62
437.392	90.62
437.614	87.62
437.835	85.62
438.057	100.62
438.278	95.62
438.5	97.62
438.721	122.62
438.943	88.62
439.165	91.62
439.386	91.62
439.608	93.62
439.829	89.62
440.05	94.62
440.272	117.62
440.493	101.62
440.715	84.62
440.936	83.62
441.158	87.62
441.379	70.62
441.6	94.62
441.822	86.62
442.043	92.62
442.264	94.62
442.486	116.62
442.707	96.62
442.928	97.62
443.149	106.62
443.371	102.62
443.592	88.62
443.813	93.62
444.034	88.62
444.255	88.62
444.476	86.62
444.698	82.62
444.919	96.62
445.14	115.62
445.361	122.62
445.582	90.62
445.803	105.62
446.024	110.62
446.245	118.62
446.466	100.62
446.687	90.62
446.908	86.62
447.129	83.62
447.35	88.62
447.571	75.62
447.792	81.62
448.013	88.62
448.234	85.62
448.455	90.62
448.675	93.62
448.896	85.62
449.117	96.62
449.338	102.62
449.559	105.62
449.779	107.62
450	75.62
450.221	63.62
450.442	88.62
450.662	84.62
450.883	84.62
451.104	99.62
451.324	92.62
451.545	86.62
451.766	75.62
451.986	75.62
452.207	82.62
452.428	78.62
452.648	94.62
452.869	95.62
453.089	96.62
453.31	89.62
453.53	75.62
453.751	92.62
453.971	95.62
454.192	97.62
454.412	83.62
454.633	85.62
454.853	84.62
455.073	78.62
455.294	79.62
455.514	100.62
455.734	63.62
455.955	80.62
456.175	82.62
456.395	86.62
456.616	78.62
456.836	72.62
457.056	82.62
457.276	74.62
457.497	81.62
457.717	80.62
457.937	81.62
458.157	87.62
458.377	75.62
458.598	106.62
458.818	114.62
459.038	136.62
459.258	100.62
459.478	85.62
459.698	87.62
459.918	77.62
460.138	76.62
460.358	82.62
460.578	72.62
460.798	82.62
461.018	87.62
461.238	78.62
461.458	84.62
461.678	83.62
461.898	92.62
462.118	95.62
462.338	91.62
462.558	83.62
462.777	70.62
462.997	82.62
463.217	80.62
463.437	95.62
463.657	87.62
463.876	82.62
464.096	71.62
464.316	94.62
464.536	101.62
464.755	80.62
464.975	88.62
465.195	137.62
465.414	121.62
465.634	90.62
465.854	86.62
466.073	91.62
466.293	85.62
466.512	71.62
466.732	71.62
466.951	87.62
467.171	84.62
467.391	84.62
467.61	98.62
467.829	95.62
468.049	94.62
468.268	96.62
468.488	99.62
468.707	83.62
468.927	89.62
469.146	85.62
469.365	74.62
469.585	82.62
469.804	76.62
470.023	99.62
470.243	68.62
470.462	86.62
470.681	83.62
470.901	78.62
471.12	79.62
471.339	70.62
471.558	83.62
471.777	75.62
471.997	92.62
472.216	104.62
472.435	141.62
472.654	95.62
472.873	74.62
473.092	73.62
473.311	100.62
473.53	79.62
473.749	82.62
473.968	79.62
474.187	91.62
474.406	91.62
474.625	85.62
474.844	83.62
475.063	72.62
475.282	91.62
475.501	81.62
475.72	100.62
475.939	71.62
476.158	84.62
476.377	90.62
476.596	67.62
476.814	94.62
477.033	91.62
477.252	91.62
477.471	94.62
477.69	79.62
477.908	85.62
478.127	87.62
478.346	86.62
478.564	76.62
478.783	82.62
479.002	91.62
479.22	79.62
479.439	74.62
479.658	95.62
479.876	90.62
480.095	72.62
480.313	76.62
480.532	82.62
480.751	93.62
480.969	103.62
481.188	191.62
481.406	131.62
481.624	92.62
481.843	93.62
482.061	84.62
482.28	95.62
482.498	89.62
482.717	77.62
482.935	68.62
483.153	84.62
483.372	92.62
483.59	75.62
483.808	78.62
484.027	98.62
484.245	87.62
484.463	86.62
484.681	83.62
484.9	67.62
485.118	100.62
485.336	108.62
485.554	93.62
485.772	91.62
485.99	90.62
486.209	107.62
486.427	109.62
486.645	110.62
486.863	117.62
487.081	103.62
487.299	88.62
487.517	84.62
487.735	88.62
487.953	97.62
488.171	90.62
488.389	92.62
488.607	97.62
488.825	94.62
489.043	68.62
489.261	82.62
489.479	88.62
489.696	82.62
489.914	82.62
490.132	93.62
490.35	84.62
490.568	95.62
490.786	97.62
491.003	82.62
491.221	91.62
491.439	89.62
491.657	85.62
491.874	79.62
492.092	90.62
492.31	89.62
492.527	91.62
492.745	94.62
492.963	101.62
493.18	90.62
493.398	85.62
493.615	106.62
493.833	82.62
494.05	91.62
494.268	83.62
494.485	84.62
494.703	83.62
494.92	92.62
495.138	95.62
495.355	98.62
495.573	98.62
495.79	94.62
496.008	76.62
496.225	97.62
496.442	97.62
496.66	94.62
496.877	85.62
497.094	82.62
497.312	86.62
497.529	91.62
497.746	92.62
497.963	96.62
498.181	91.62
498.398	89.62
498.615	96.62
498.832	107.62
499.049	90.62
499.267	89.62
499.484	91.62
499.701	85.62
499.918	79.62
500.135	91.62
500.352	96.62
500.569	86.62
500.786	85.62
501.003	75.62
501.22	92.62
501.437	82.62
501.654	96.62
501.871	83.62
502.088	87.62
502.305	83.62
502.522	89.62
502.739	94.62
502.956	89.62
503.172	103.62
503.389	107.62
503.606	90.62
503.823	82.62
504.04	92.62
504.256	106.62
504.473	96.62
504.69	89.62
504.907	83.62
505.123	89.62
505.34	78.62
505.557	76.62
505.773	88.62
505.99	74.62
506.207	77.62
506.423	73.62
506.64	99.62
506.856	79.62
507.073	71.62
507.289	83.62
507.506	97.62
507.722	99.62
507.939	112.62
508.155	95.62
508.372	86.62
508.588	66.62
508.805	78.62
509.021	80.62
509.238	87.62
509.454	81.62
509.67	83.62
509.887	118.62
510.103	114.62
510.319	179.62
510.536	604.62
510.752	1768.62
510.968	510.62
511.184	128.62
511.401	95.62
511.617	91.62
511.833	91.62
512.049	87.62
512.265	86.62
512.481	103.62
512.698	96.62
512.914	81.62
513.13	97.62
513.346	79.62
513.562	93.62
513.778	92.62
513.994	98.62
514.21	79.62
514.426	88.62
514.642	118.62
514.858	106.62
515.074	131.62
515.29	362.62
515.506	1060.62
515.721	392.62
515.937	126.62
516.153	105.62
516.369	88.62
516.585	92.62
516.801	93.62
517.016	81.62
517.232	82.62
517.448	97.62
