Data from Circ_1980_H10_HRD10591_00094.txt Node
Date: Wed Jan 03 12:38:17 EST 2024
User: Yrep
Spectrometer: HR+D1059
Trigger mode: 1
Integration Time (sec): 1.000000E-1
Scans to average: 1
Electric dark correction enabled: true
Nonlinearity correction enabled: false
Boxcar width: 0
XAxis mode: Wavelengths
Number of Pixels in Spectrum: 2048
>>>>>Begin Spectral Data<<<<<
223.165	-9.88
223.4	-9.88
223.635	-9.88
223.869	-8.88
224.104	-22.88
224.338	-12.88
224.573	-20.88
224.808	-8.88
225.042	-3.88
225.277	0.12
225.511	-1.88
225.746	12.12
225.98	8.12
226.215	1.12
226.449	20.12
226.683	9.12
226.918	20.12
227.152	19.12
227.387	18.12
227.621	41.12
227.856	44.12
228.09	38.12
228.324	47.12
228.559	56.12
228.793	62.12
229.027	59.12
229.262	62.12
229.496	60.12
229.73	63.12
229.964	79.12
230.199	80.12
230.433	75.12
230.667	76.12
230.901	74.12
231.136	84.12
231.37	70.12
231.604	76.12
231.838	91.12
232.072	84.12
232.306	83.12
232.541	72.12
232.775	87.12
233.009	84.12
233.243	81.12
233.477	86.12
233.711	75.12
233.945	68.12
234.179	82.12
234.413	88.12
234.647	81.12
234.881	75.12
235.115	80.12
235.349	88.12
235.583	94.12
235.817	74.12
236.051	84.12
236.285	78.12
236.519	89.12
236.753	79.12
236.987	84.12
237.221	74.12
237.455	78.12
237.689	85.12
237.922	82.12
238.156	64.12
238.39	86.12
238.624	83.12
238.858	87.12
239.091	74.12
239.325	66.12
239.559	66.12
239.793	81.12
240.027	70.12
240.26	72.12
240.494	71.12
240.728	83.12
240.961	83.12
241.195	80.12
241.429	76.12
241.662	72.12
241.896	79.12
242.13	82.12
242.363	74.12
242.597	69.12
242.83	77.12
243.064	68.12
243.298	81.12
243.531	81.12
243.765	84.12
243.998	76.12
244.232	84.12
244.465	88.12
244.699	76.12
244.932	82.12
245.166	60.12
245.399	87.12
245.633	80.12
245.866	76.12
246.099	63.12
246.333	78.12
246.566	69.12
246.8	91.12
247.033	84.12
247.266	61.12
247.5	72.12
247.733	72.12
247.966	86.12
248.2	64.12
248.433	78.12
248.666	83.12
248.899	75.12
249.133	80.12
249.366	83.12
249.599	84.12
249.832	76.12
250.066	74.12
250.299	80.12
250.532	96.12
250.765	68.12
250.998	71.12
251.231	78.12
251.465	76.12
251.698	69.12
251.931	91.12
252.164	89.12
252.397	72.12
252.63	74.12
252.863	93.12
253.096	78.12
253.329	66.12
253.562	73.12
253.795	79.12
254.028	73.12
254.261	73.12
254.494	77.12
254.727	73.12
254.96	64.12
255.193	81.12
255.426	86.12
255.659	80.12
255.892	81.12
256.124	76.12
256.357	84.12
256.59	91.12
256.823	92.12
257.056	75.12
257.289	76.12
257.521	84.12
257.754	99.12
257.987	92.12
258.22	88.12
258.452	66.12
258.685	86.12
258.918	73.12
259.151	68.12
259.383	72.12
259.616	66.12
259.849	76.12
260.081	93.12
260.314	82.12
260.547	83.12
260.779	69.12
261.012	81.12
261.244	78.12
261.477	69.12
261.71	88.12
261.942	106.12
262.175	101.12
262.407	93.12
262.64	73.12
262.872	87.12
263.105	87.12
263.337	93.12
263.57	91.12
263.802	89.12
264.035	77.12
264.267	77.12
264.499	77.12
264.732	85.12
264.964	68.12
265.197	72.12
265.429	77.12
265.661	70.12
265.894	88.12
266.126	86.12
266.358	72.12
266.591	91.12
266.823	80.12
267.055	88.12
267.287	87.12
267.52	77.12
267.752	85.12
267.984	96.12
268.216	85.12
268.448	80.12
268.681	89.12
268.913	88.12
269.145	77.12
269.377	79.12
269.609	66.12
269.841	72.12
270.073	78.12
270.306	73.12
270.538	80.12
270.77	76.12
271.002	82.12
271.234	91.12
271.466	83.12
271.698	77.12
271.93	71.12
272.162	83.12
272.394	89.12
272.626	79.12
272.858	76.12
273.09	82.12
273.322	74.12
273.553	85.12
273.785	99.12
274.017	77.12
274.249	92.12
274.481	96.12
274.713	85.12
274.945	84.12
275.176	84.12
275.408	74.12
275.64	77.12
275.872	90.12
276.104	88.12
276.335	86.12
276.567	89.12
276.799	110.12
277.031	88.12
277.262	98.12
277.494	84.12
277.726	81.12
277.957	77.12
278.189	87.12
278.421	80.12
278.652	77.12
278.884	78.12
279.115	84.12
279.347	82.12
279.579	97.12
279.81	80.12
280.042	76.12
280.273	78.12
280.505	84.12
280.736	91.12
280.968	80.12
281.199	72.12
281.431	86.12
281.662	88.12
281.894	95.12
282.125	91.12
282.356	111.12
282.588	122.12
282.819	115.12
283.051	90.12
283.282	71.12
283.513	80.12
283.745	92.12
283.976	81.12
284.207	92.12
284.439	77.12
284.67	84.12
284.901	84.12
285.132	87.12
285.364	89.12
285.595	81.12
285.826	98.12
286.057	91.12
286.288	93.12
286.52	86.12
286.751	91.12
286.982	77.12
287.213	70.12
287.444	86.12
287.675	88.12
287.906	82.12
288.138	86.12
288.369	72.12
288.6	93.12
288.831	90.12
289.062	98.12
289.293	84.12
289.524	97.12
289.755	86.12
289.986	85.12
290.217	90.12
290.448	90.12
290.679	80.12
290.91	78.12
291.141	82.12
291.371	76.12
291.602	96.12
291.833	72.12
292.064	76.12
292.295	74.12
292.526	81.12
292.757	78.12
292.987	70.12
293.218	76.12
293.449	87.12
293.68	78.12
293.91	90.12
294.141	82.12
294.372	67.12
294.603	92.12
294.833	80.12
295.064	81.12
295.295	82.12
295.525	91.12
295.756	90.12
295.987	110.12
296.217	111.12
296.448	116.12
296.679	99.12
296.909	92.12
297.14	90.12
297.37	89.12
297.601	83.12
297.831	86.12
298.062	86.12
298.292	86.12
298.523	82.12
298.753	81.12
298.984	80.12
299.214	84.12
299.445	85.12
299.675	98.12
299.905	85.12
300.136	98.12
300.366	92.12
300.597	88.12
300.827	95.12
301.057	102.12
301.288	101.12
301.518	92.12
301.748	87.12
301.979	102.12
302.209	84.12
302.439	78.12
302.669	94.12
302.9	87.12
303.13	95.12
303.36	77.12
303.59	89.12
303.82	105.12
304.051	90.12
304.281	97.12
304.511	87.12
304.741	92.12
304.971	84.12
305.201	83.12
305.431	86.12
305.661	88.12
305.891	94.12
306.121	91.12
306.352	108.12
306.582	99.12
306.812	97.12
307.042	89.12
307.272	83.12
307.502	91.12
307.731	103.12
307.961	91.12
308.191	96.12
308.421	92.12
308.651	92.12
308.881	86.12
309.111	101.12
309.341	89.12
309.571	113.12
309.8	85.12
310.03	85.12
310.26	83.12
310.49	74.12
310.72	96.12
310.949	93.12
311.179	100.12
311.409	96.12
311.639	82.12
311.868	96.12
312.098	99.12
312.328	91.12
312.557	93.12
312.787	113.12
313.017	84.12
313.246	93.12
313.476	106.12
313.706	93.12
313.935	73.12
314.165	92.12
314.394	88.12
314.624	74.12
314.853	102.12
315.083	89.12
315.312	96.12
315.542	96.12
315.771	81.12
316.001	82.12
316.23	96.12
316.46	81.12
316.689	88.12
316.919	79.12
317.148	92.12
317.377	93.12
317.607	93.12
317.836	81.12
318.065	83.12
318.295	84.12
318.524	92.12
318.753	91.12
318.983	74.12
319.212	104.12
319.441	89.12
319.67	101.12
319.9	78.12
320.129	92.12
320.358	93.12
320.587	84.12
320.816	102.12
321.046	97.12
321.275	104.12
321.504	92.12
321.733	108.12
321.962	96.12
322.191	100.12
322.42	108.12
322.649	99.12
322.878	100.12
323.108	117.12
323.337	114.12
323.566	128.12
323.795	144.12
324.024	174.12
324.253	326.12
324.482	637.12
324.71	1322.12
324.939	1739.12
325.168	649.12
325.397	213.12
325.626	150.12
325.855	124.12
326.084	114.12
326.313	110.12
326.542	138.12
326.77	189.12
326.999	363.12
327.228	736.12
327.457	1347.12
327.686	1061.12
327.914	319.12
328.143	162.12
328.372	116.12
328.6	120.12
328.829	107.12
329.058	104.12
329.287	131.12
329.515	97.12
329.744	93.12
329.972	115.12
330.201	107.12
330.43	116.12
330.658	107.12
330.887	120.12
331.115	126.12
331.344	102.12
331.572	94.12
331.801	93.12
332.03	93.12
332.258	89.12
332.486	70.12
332.715	92.12
332.943	98.12
333.172	86.12
333.4	93.12
333.629	114.12
333.857	114.12
334.085	111.12
334.314	120.12
334.542	127.12
334.771	134.12
334.999	103.12
335.227	89.12
335.455	96.12
335.684	103.12
335.912	99.12
336.14	93.12
336.369	112.12
336.597	97.12
336.825	90.12
337.053	82.12
337.281	90.12
337.51	81.12
337.738	88.12
337.966	101.12
338.194	92.12
338.422	111.12
338.65	101.12
338.878	92.12
339.106	93.12
339.334	84.12
339.562	86.12
339.79	93.12
340.018	81.12
340.246	91.12
340.474	86.12
340.702	97.12
340.93	92.12
341.158	86.12
341.386	93.12
341.614	86.12
341.842	102.12
342.07	89.12
342.298	90.12
342.526	82.12
342.754	100.12
342.981	95.12
343.209	84.12
343.437	104.12
343.665	88.12
343.893	93.12
344.12	82.12
344.348	87.12
344.576	98.12
344.804	88.12
345.031	88.12
345.259	95.12
345.487	87.12
345.714	81.12
345.942	87.12
346.17	100.12
346.397	105.12
346.625	97.12
346.853	93.12
347.08	75.12
347.308	90.12
347.535	92.12
347.763	92.12
347.99	102.12
348.218	104.12
348.445	89.12
348.673	94.12
348.9	90.12
349.128	101.12
349.355	80.12
349.583	93.12
349.81	91.12
350.037	98.12
350.265	99.12
350.492	98.12
350.72	91.12
350.947	95.12
351.174	99.12
351.402	97.12
351.629	101.12
351.856	87.12
352.083	89.12
352.311	108.12
352.538	108.12
352.765	101.12
352.992	109.12
353.22	115.12
353.447	98.12
353.674	103.12
353.901	86.12
354.128	80.12
354.355	90.12
354.583	91.12
354.81	96.12
355.037	82.12
355.264	86.12
355.491	90.12
355.718	94.12
355.945	107.12
356.172	89.12
356.399	87.12
356.626	85.12
356.853	82.12
357.08	100.12
357.307	84.12
357.534	101.12
357.761	97.12
357.988	88.12
358.215	87.12
358.441	100.12
358.668	85.12
358.895	76.12
359.122	84.12
359.349	75.12
359.576	78.12
359.802	99.12
360.029	95.12
360.256	86.12
360.483	87.12
360.709	83.12
360.936	64.12
361.163	70.12
361.39	77.12
361.616	103.12
361.843	84.12
362.07	86.12
362.296	93.12
362.523	100.12
362.749	81.12
362.976	83.12
363.203	97.12
363.429	86.12
363.656	94.12
363.882	89.12
364.109	87.12
364.335	92.12
364.562	82.12
364.788	82.12
365.015	101.12
365.241	91.12
365.468	106.12
365.694	102.12
365.92	102.12
366.147	84.12
366.373	86.12
366.599	87.12
366.826	90.12
367.052	97.12
367.278	87.12
367.505	86.12
367.731	98.12
367.957	89.12
368.184	98.12
368.41	86.12
368.636	99.12
368.862	110.12
369.089	89.12
369.315	91.12
369.541	83.12
369.767	83.12
369.993	92.12
370.219	90.12
370.445	85.12
370.672	98.12
370.898	97.12
371.124	89.12
371.35	97.12
371.576	88.12
371.802	82.12
372.028	86.12
372.254	88.12
372.48	69.12
372.706	75.12
372.932	86.12
373.158	69.12
373.384	100.12
373.61	87.12
373.835	80.12
374.061	88.12
374.287	89.12
374.513	85.12
374.739	93.12
374.965	71.12
375.191	88.12
375.416	82.12
375.642	75.12
375.868	76.12
376.094	78.12
376.319	82.12
376.545	91.12
376.771	84.12
376.997	82.12
377.222	86.12
377.448	113.12
377.674	89.12
377.899	91.12
378.125	76.12
378.35	87.12
378.576	86.12
378.802	87.12
379.027	78.12
379.253	82.12
379.478	88.12
379.704	96.12
379.929	92.12
380.155	78.12
380.38	88.12
380.606	89.12
380.831	85.12
381.057	85.12
381.282	85.12
381.507	83.12
381.733	73.12
381.958	96.12
382.184	85.12
382.409	104.12
382.634	93.12
382.86	102.12
383.085	94.12
383.31	91.12
383.535	100.12
383.761	93.12
383.986	93.12
384.211	81.12
384.436	106.12
384.662	87.12
384.887	97.12
385.112	106.12
385.337	90.12
385.562	91.12
385.787	90.12
386.013	105.12
386.238	94.12
386.463	96.12
386.688	100.12
386.913	89.12
387.138	87.12
387.363	105.12
387.588	92.12
387.813	89.12
388.038	118.12
388.263	114.12
388.488	104.12
388.713	91.12
388.938	107.12
389.163	92.12
389.387	91.12
389.612	100.12
389.837	95.12
390.062	91.12
390.287	91.12
390.512	92.12
390.736	82.12
390.961	84.12
391.186	89.12
391.411	92.12
391.636	94.12
391.86	94.12
392.085	72.12
392.31	77.12
392.534	98.12
392.759	115.12
392.984	92.12
393.208	68.12
393.433	86.12
393.658	71.12
393.882	90.12
394.107	73.12
394.331	78.12
394.556	85.12
394.78	80.12
395.005	72.12
395.229	83.12
395.454	104.12
395.678	93.12
395.903	70.12
396.127	80.12
396.352	97.12
396.576	89.12
396.801	88.12
397.025	79.12
397.249	96.12
397.474	87.12
397.698	80.12
397.922	83.12
398.147	72.12
398.371	81.12
398.595	91.12
398.82	99.12
399.044	78.12
399.268	70.12
399.492	83.12
399.717	85.12
399.941	84.12
400.165	100.12
400.389	91.12
400.613	92.12
400.837	102.12
401.062	78.12
401.286	93.12
401.51	96.12
401.734	77.12
401.958	98.12
402.182	118.12
402.406	145.12
402.63	105.12
402.854	103.12
403.078	83.12
403.302	92.12
403.526	74.12
403.75	80.12
403.974	85.12
404.198	99.12
404.422	84.12
404.645	82.12
404.869	88.12
405.093	78.12
405.317	97.12
405.541	117.12
405.765	93.12
405.988	105.12
406.212	141.12
406.436	196.12
406.66	149.12
406.883	104.12
407.107	85.12
407.331	89.12
407.555	72.12
407.778	89.12
408.002	99.12
408.226	85.12
408.449	96.12
408.673	77.12
408.896	92.12
409.12	99.12
409.344	73.12
409.567	86.12
409.791	88.12
410.014	89.12
410.238	82.12
410.461	92.12
410.685	91.12
410.908	89.12
411.132	110.12
411.355	97.12
411.578	87.12
411.802	73.12
412.025	84.12
412.249	92.12
412.472	101.12
412.695	90.12
412.919	94.12
413.142	76.12
413.365	96.12
413.589	94.12
413.812	87.12
414.035	92.12
414.258	82.12
414.482	78.12
414.705	87.12
414.928	89.12
415.151	83.12
415.374	88.12
415.597	88.12
415.821	78.12
416.044	94.12
416.267	84.12
416.49	82.12
416.713	80.12
416.936	88.12
417.159	97.12
417.382	86.12
417.605	92.12
417.828	98.12
418.051	89.12
418.274	84.12
418.497	83.12
418.72	88.12
418.943	93.12
419.166	88.12
419.389	75.12
419.611	80.12
419.834	83.12
420.057	87.12
420.28	84.12
420.503	94.12
420.726	87.12
420.948	84.12
421.171	99.12
421.394	102.12
421.617	100.12
421.839	101.12
422.062	66.12
422.285	80.12
422.507	92.12
422.73	89.12
422.953	89.12
423.175	94.12
423.398	89.12
423.621	93.12
423.843	90.12
424.066	78.12
424.288	86.12
424.511	84.12
424.733	79.12
424.956	99.12
425.178	96.12
425.401	76.12
425.623	99.12
425.846	82.12
426.068	95.12
426.291	82.12
426.513	83.12
426.735	94.12
426.958	100.12
427.18	102.12
427.402	125.12
427.625	125.12
427.847	122.12
428.069	114.12
428.292	93.12
428.514	90.12
428.736	81.12
428.958	80.12
429.181	94.12
429.403	85.12
429.625	90.12
429.847	93.12
430.069	93.12
430.292	81.12
430.514	86.12
430.736	80.12
430.958	77.12
431.18	83.12
431.402	72.12
431.624	88.12
431.846	84.12
432.068	96.12
432.29	77.12
432.512	96.12
432.734	83.12
432.956	85.12
433.178	90.12
433.4	88.12
433.622	89.12
433.844	101.12
434.066	81.12
434.287	77.12
434.509	84.12
434.731	88.12
434.953	81.12
435.175	87.12
435.397	85.12
435.618	86.12
435.84	99.12
436.062	113.12
436.284	103.12
436.505	104.12
436.727	86.12
436.949	94.12
437.17	102.12
437.392	88.12
437.614	92.12
437.835	111.12
438.057	98.12
438.278	106.12
438.5	95.12
438.721	96.12
438.943	93.12
439.165	91.12
439.386	83.12
439.608	93.12
439.829	98.12
440.05	106.12
440.272	108.12
440.493	97.12
440.715	92.12
440.936	83.12
441.158	66.12
441.379	75.12
441.6	101.12
441.822	100.12
442.043	86.12
442.264	91.12
442.486	92.12
442.707	86.12
442.928	92.12
443.149	118.12
443.371	109.12
443.592	106.12
443.813	101.12
444.034	103.12
444.255	87.12
444.476	84.12
444.698	97.12
444.919	88.12
445.14	144.12
445.361	108.12
445.582	91.12
445.803	132.12
446.024	109.12
446.245	116.12
446.466	86.12
446.687	86.12
446.908	80.12
447.129	89.12
447.35	91.12
447.571	83.12
447.792	87.12
448.013	83.12
448.234	102.12
448.455	86.12
448.675	92.12
448.896	110.12
449.117	97.12
449.338	101.12
449.559	97.12
449.779	112.12
450	92.12
450.221	67.12
450.442	91.12
450.662	91.12
450.883	114.12
451.104	104.12
451.324	103.12
451.545	78.12
451.766	88.12
451.986	80.12
452.207	73.12
452.428	89.12
452.648	92.12
452.869	90.12
453.089	101.12
453.31	113.12
453.53	80.12
453.751	89.12
453.971	112.12
454.192	82.12
454.412	81.12
454.633	82.12
454.853	92.12
455.073	84.12
455.294	93.12
455.514	86.12
455.734	82.12
455.955	78.12
456.175	84.12
456.395	84.12
456.616	80.12
456.836	87.12
457.056	85.12
457.276	88.12
457.497	86.12
457.717	72.12
457.937	82.12
458.157	91.12
458.377	70.12
458.598	93.12
458.818	123.12
459.038	129.12
459.258	104.12
459.478	94.12
459.698	83.12
459.918	85.12
460.138	81.12
460.358	78.12
460.578	84.12
460.798	85.12
461.018	94.12
461.238	75.12
461.458	92.12
461.678	82.12
461.898	88.12
462.118	89.12
462.338	100.12
462.558	87.12
462.777	86.12
462.997	84.12
463.217	107.12
463.437	85.12
463.657	69.12
463.876	78.12
464.096	69.12
464.316	89.12
464.536	84.12
464.755	106.12
464.975	99.12
465.195	140.12
465.414	141.12
465.634	88.12
465.854	89.12
466.073	83.12
466.293	97.12
466.512	74.12
466.732	79.12
466.951	89.12
467.171	104.12
467.391	82.12
467.61	77.12
467.829	110.12
468.049	92.12
468.268	93.12
468.488	80.12
468.707	84.12
468.927	81.12
469.146	68.12
469.365	80.12
469.585	72.12
469.804	110.12
470.023	90.12
470.243	101.12
470.462	85.12
470.681	102.12
470.901	87.12
471.12	88.12
471.339	97.12
471.558	82.12
471.777	81.12
471.997	98.12
472.216	100.12
472.435	135.12
472.654	84.12
472.873	77.12
473.092	94.12
473.311	67.12
473.53	71.12
473.749	88.12
473.968	98.12
474.187	100.12
474.406	72.12
474.625	74.12
474.844	90.12
475.063	76.12
475.282	92.12
475.501	86.12
475.72	92.12
475.939	83.12
476.158	79.12
476.377	85.12
476.596	93.12
476.814	97.12
477.033	78.12
477.252	82.12
477.471	87.12
477.69	95.12
477.908	82.12
478.127	89.12
478.346	81.12
478.564	87.12
478.783	99.12
479.002	89.12
479.22	94.12
479.439	92.12
479.658	95.12
479.876	90.12
480.095	85.12
480.313	92.12
480.532	87.12
480.751	92.12
480.969	108.12
481.188	203.12
481.406	168.12
481.624	87.12
481.843	93.12
482.061	90.12
482.28	95.12
482.498	91.12
482.717	88.12
482.935	96.12
483.153	89.12
483.372	86.12
483.59	83.12
483.808	96.12
484.027	97.12
484.245	89.12
484.463	86.12
484.681	96.12
484.9	78.12
485.118	105.12
485.336	96.12
485.554	85.12
485.772	88.12
485.99	93.12
486.209	113.12
486.427	120.12
486.645	110.12
486.863	103.12
487.081	99.12
487.299	85.12
487.517	75.12
487.735	94.12
487.953	90.12
488.171	90.12
488.389	89.12
488.607	90.12
488.825	70.12
489.043	97.12
489.261	78.12
489.479	101.12
489.696	85.12
489.914	84.12
490.132	74.12
490.35	82.12
490.568	91.12
490.786	91.12
491.003	66.12
491.221	86.12
491.439	90.12
491.657	89.12
491.874	92.12
492.092	88.12
492.31	79.12
492.527	83.12
492.745	61.12
492.963	88.12
493.18	75.12
493.398	92.12
493.615	88.12
493.833	94.12
494.05	82.12
494.268	92.12
494.485	85.12
494.703	84.12
494.92	95.12
495.138	89.12
495.355	88.12
495.573	89.12
495.79	94.12
496.008	98.12
496.225	86.12
496.442	91.12
496.66	69.12
496.877	85.12
497.094	88.12
497.312	89.12
497.529	85.12
497.746	89.12
497.963	91.12
498.181	84.12
498.398	99.12
498.615	122.12
498.832	111.12
499.049	88.12
499.267	88.12
499.484	88.12
499.701	98.12
499.918	86.12
500.135	83.12
500.352	93.12
500.569	75.12
500.786	91.12
501.003	85.12
501.22	94.12
501.437	109.12
501.654	85.12
501.871	89.12
502.088	74.12
502.305	72.12
502.522	83.12
502.739	91.12
502.956	94.12
503.172	93.12
503.389	76.12
503.606	89.12
503.823	98.12
504.04	90.12
504.256	88.12
504.473	85.12
504.69	84.12
504.907	78.12
505.123	77.12
505.34	93.12
505.557	96.12
505.773	85.12
505.99	74.12
506.207	75.12
506.423	99.12
506.64	95.12
506.856	96.12
507.073	109.12
507.289	84.12
507.506	91.12
507.722	92.12
507.939	95.12
508.155	93.12
508.372	85.12
508.588	88.12
508.805	86.12
509.021	99.12
509.238	90.12
509.454	98.12
509.67	92.12
509.887	86.12
510.103	114.12
510.319	200.12
510.536	637.12
510.752	2004.12
510.968	544.12
511.184	132.12
511.401	112.12
511.617	103.12
511.833	74.12
512.049	84.12
512.265	92.12
512.481	99.12
512.698	88.12
512.914	93.12
513.13	85.12
513.346	93.12
513.562	90.12
513.778	82.12
513.994	92.12
514.21	84.12
514.426	100.12
514.642	120.12
514.858	112.12
515.074	160.12
515.29	387.12
515.506	1226.12
515.721	450.12
515.937	132.12
516.153	98.12
516.369	109.12
516.585	77.12
516.801	97.12
517.016	87.12
