Data from Circ_1980_H10_HRD10591_00044.txt Node
Date: Wed Jan 03 12:38:07 EST 2024
User: Yrep
Spectrometer: HR+D1059
Trigger mode: 1
Integration Time (sec): 1.000000E-1
Scans to average: 1
Electric dark correction enabled: true
Nonlinearity correction enabled: false
Boxcar width: 0
XAxis mode: Wavelengths
Number of Pixels in Spectrum: 2048
>>>>>Begin Spectral Data<<<<<
223.165	-14.06
223.4	-14.06
223.635	-14.06
223.869	-21.06
224.104	-10.06
224.338	-7.06
224.573	-17.06
224.808	-14.06
225.042	3.94
225.277	-5.06
225.511	-9.06
225.746	1.94
225.98	-2.06
226.215	-6.06
226.449	18.94
226.683	18.94
226.918	40.94
227.152	20.94
227.387	14.94
227.621	40.94
227.856	52.94
228.09	54.94
228.324	49.94
228.559	50.94
228.793	65.94
229.027	70.94
229.262	66.94
229.496	59.94
229.73	86.94
229.964	73.94
230.199	67.94
230.433	80.94
230.667	82.94
230.901	74.94
231.136	86.94
231.37	84.94
231.604	85.94
231.838	79.94
232.072	77.94
232.306	68.94
232.541	61.94
232.775	92.94
233.009	84.94
233.243	81.94
233.477	95.94
233.711	90.94
233.945	90.94
234.179	77.94
234.413	87.94
234.647	80.94
234.881	94.94
235.115	73.94
235.349	79.94
235.583	80.94
235.817	79.94
236.051	74.94
236.285	78.94
236.519	82.94
236.753	73.94
236.987	63.94
237.221	85.94
237.455	86.94
237.689	90.94
237.922	86.94
238.156	92.94
238.39	77.94
238.624	70.94
238.858	70.94
239.091	90.94
239.325	69.94
239.559	80.94
239.793	82.94
240.027	84.94
240.26	64.94
240.494	68.94
240.728	82.94
240.961	83.94
241.195	77.94
241.429	62.94
241.662	71.94
241.896	71.94
242.13	70.94
242.363	80.94
242.597	89.94
242.83	81.94
243.064	75.94
243.298	80.94
243.531	73.94
243.765	68.94
243.998	85.94
244.232	86.94
244.465	92.94
244.699	72.94
244.932	79.94
245.166	77.94
245.399	66.94
245.633	70.94
245.866	82.94
246.099	72.94
246.333	69.94
246.566	86.94
246.8	70.94
247.033	75.94
247.266	78.94
247.5	76.94
247.733	70.94
247.966	81.94
248.2	65.94
248.433	83.94
248.666	71.94
248.899	72.94
249.133	86.94
249.366	94.94
249.599	80.94
249.832	80.94
250.066	77.94
250.299	88.94
250.532	68.94
250.765	97.94
250.998	73.94
251.231	70.94
251.465	88.94
251.698	73.94
251.931	69.94
252.164	87.94
252.397	71.94
252.63	86.94
252.863	76.94
253.096	74.94
253.329	80.94
253.562	61.94
253.795	86.94
254.028	78.94
254.261	76.94
254.494	90.94
254.727	96.94
254.96	72.94
255.193	72.94
255.426	78.94
255.659	77.94
255.892	94.94
256.124	86.94
256.357	84.94
256.59	96.94
256.823	71.94
257.056	90.94
257.289	68.94
257.521	86.94
257.754	80.94
257.987	77.94
258.22	74.94
258.452	84.94
258.685	82.94
258.918	76.94
259.151	86.94
259.383	77.94
259.616	84.94
259.849	77.94
260.081	92.94
260.314	91.94
260.547	76.94
260.779	55.94
261.012	72.94
261.244	71.94
261.477	81.94
261.71	93.94
261.942	98.94
262.175	93.94
262.407	84.94
262.64	99.94
262.872	85.94
263.105	69.94
263.337	93.94
263.57	80.94
263.802	86.94
264.035	65.94
264.267	65.94
264.499	86.94
264.732	72.94
264.964	71.94
265.197	86.94
265.429	93.94
265.661	95.94
265.894	87.94
266.126	91.94
266.358	87.94
266.591	73.94
266.823	84.94
267.055	85.94
267.287	76.94
267.52	87.94
267.752	79.94
267.984	80.94
268.216	82.94
268.448	89.94
268.681	86.94
268.913	88.94
269.145	94.94
269.377	83.94
269.609	80.94
269.841	85.94
270.073	75.94
270.306	89.94
270.538	86.94
270.77	86.94
271.002	92.94
271.234	88.94
271.466	87.94
271.698	85.94
271.93	82.94
272.162	89.94
272.394	83.94
272.626	77.94
272.858	78.94
273.09	83.94
273.322	92.94
273.553	83.94
273.785	77.94
274.017	75.94
274.249	75.94
274.481	86.94
274.713	73.94
274.945	84.94
275.176	90.94
275.408	88.94
275.64	100.94
275.872	87.94
276.104	75.94
276.335	92.94
276.567	80.94
276.799	84.94
277.031	84.94
277.262	76.94
277.494	88.94
277.726	65.94
277.957	80.94
278.189	94.94
278.421	90.94
278.652	78.94
278.884	80.94
279.115	75.94
279.347	96.94
279.579	91.94
279.81	99.94
280.042	73.94
280.273	88.94
280.505	83.94
280.736	80.94
280.968	86.94
281.199	88.94
281.431	96.94
281.662	84.94
281.894	70.94
282.125	103.94
282.356	108.94
282.588	106.94
282.819	124.94
283.051	86.94
283.282	69.94
283.513	83.94
283.745	73.94
283.976	77.94
284.207	98.94
284.439	92.94
284.67	78.94
284.901	85.94
285.132	84.94
285.364	86.94
285.595	85.94
285.826	79.94
286.057	84.94
286.288	72.94
286.52	96.94
286.751	79.94
286.982	92.94
287.213	83.94
287.444	77.94
287.675	95.94
287.906	84.94
288.138	100.94
288.369	90.94
288.6	96.94
288.831	97.94
289.062	91.94
289.293	88.94
289.524	70.94
289.755	72.94
289.986	91.94
290.217	92.94
290.448	83.94
290.679	82.94
290.91	85.94
291.141	88.94
291.371	86.94
291.602	103.94
291.833	88.94
292.064	98.94
292.295	82.94
292.526	99.94
292.757	93.94
292.987	77.94
293.218	69.94
293.449	82.94
293.68	84.94
293.91	70.94
294.141	93.94
294.372	96.94
294.603	88.94
294.833	92.94
295.064	86.94
295.295	84.94
295.525	96.94
295.756	107.94
295.987	100.94
296.217	107.94
296.448	105.94
296.679	83.94
296.909	94.94
297.14	92.94
297.37	91.94
297.601	72.94
297.831	93.94
298.062	82.94
298.292	99.94
298.523	84.94
298.753	90.94
298.984	99.94
299.214	100.94
299.445	80.94
299.675	93.94
299.905	91.94
300.136	87.94
300.366	98.94
300.597	96.94
300.827	89.94
301.057	84.94
301.288	101.94
301.518	80.94
301.748	97.94
301.979	91.94
302.209	92.94
302.439	93.94
302.669	105.94
302.9	83.94
303.13	89.94
303.36	85.94
303.59	95.94
303.82	93.94
304.051	83.94
304.281	89.94
304.511	98.94
304.741	90.94
304.971	91.94
305.201	91.94
305.431	88.94
305.661	89.94
305.891	94.94
306.121	101.94
306.352	100.94
306.582	81.94
306.812	88.94
307.042	86.94
307.272	86.94
307.502	99.94
307.731	112.94
307.961	109.94
308.191	85.94
308.421	91.94
308.651	92.94
308.881	87.94
309.111	73.94
309.341	79.94
309.571	108.94
309.8	82.94
310.03	92.94
310.26	85.94
310.49	91.94
310.72	92.94
310.949	92.94
311.179	93.94
311.409	101.94
311.639	94.94
311.868	92.94
312.098	100.94
312.328	101.94
312.557	78.94
312.787	96.94
313.017	106.94
313.246	81.94
313.476	83.94
313.706	95.94
313.935	77.94
314.165	96.94
314.394	80.94
314.624	95.94
314.853	105.94
315.083	92.94
315.312	101.94
315.542	91.94
315.771	89.94
316.001	102.94
316.23	84.94
316.46	86.94
316.689	86.94
316.919	78.94
317.148	115.94
317.377	98.94
317.607	77.94
317.836	87.94
318.065	103.94
318.295	86.94
318.524	87.94
318.753	75.94
318.983	95.94
319.212	92.94
319.441	96.94
319.67	105.94
319.9	78.94
320.129	98.94
320.358	80.94
320.587	103.94
320.816	88.94
321.046	100.94
321.275	86.94
321.504	89.94
321.733	90.94
321.962	90.94
322.191	93.94
322.42	90.94
322.649	94.94
322.878	99.94
323.108	96.94
323.337	108.94
323.566	104.94
323.795	124.94
324.024	165.94
324.253	288.94
324.482	563.94
324.71	1139.94
324.939	1468.94
325.168	560.94
325.397	180.94
325.626	131.94
325.855	100.94
326.084	112.94
326.313	110.94
326.542	140.94
326.77	184.94
326.999	325.94
327.228	654.94
327.457	1171.94
327.686	938.94
327.914	281.94
328.143	171.94
328.372	142.94
328.6	104.94
328.829	115.94
329.058	117.94
329.287	108.94
329.515	96.94
329.744	99.94
329.972	114.94
330.201	113.94
330.43	98.94
330.658	110.94
330.887	129.94
331.115	107.94
331.344	93.94
331.572	94.94
331.801	96.94
332.03	94.94
332.258	104.94
332.486	80.94
332.715	98.94
332.943	113.94
333.172	85.94
333.4	84.94
333.629	109.94
333.857	106.94
334.085	107.94
334.314	103.94
334.542	124.94
334.771	127.94
334.999	79.94
335.227	99.94
335.455	94.94
335.684	100.94
335.912	90.94
336.14	80.94
336.369	99.94
336.597	87.94
336.825	109.94
337.053	98.94
337.281	90.94
337.51	96.94
337.738	79.94
337.966	92.94
338.194	87.94
338.422	92.94
338.65	96.94
338.878	88.94
339.106	82.94
339.334	86.94
339.562	85.94
339.79	92.94
340.018	84.94
340.246	79.94
340.474	86.94
340.702	97.94
340.93	91.94
341.158	78.94
341.386	94.94
341.614	76.94
341.842	80.94
342.07	97.94
342.298	87.94
342.526	77.94
342.754	92.94
342.981	83.94
343.209	82.94
343.437	109.94
343.665	90.94
343.893	89.94
344.12	104.94
344.348	86.94
344.576	88.94
344.804	95.94
345.031	94.94
345.259	92.94
345.487	84.94
345.714	98.94
345.942	104.94
346.17	97.94
346.397	89.94
346.625	92.94
346.853	81.94
347.08	88.94
347.308	82.94
347.535	105.94
347.763	102.94
347.99	79.94
348.218	88.94
348.445	108.94
348.673	105.94
348.9	97.94
349.128	103.94
349.355	89.94
349.583	89.94
349.81	90.94
350.037	82.94
350.265	93.94
350.492	98.94
350.72	92.94
350.947	107.94
351.174	108.94
351.402	103.94
351.629	96.94
351.856	91.94
352.083	96.94
352.311	91.94
352.538	100.94
352.765	106.94
352.992	106.94
353.22	80.94
353.447	118.94
353.674	93.94
353.901	93.94
354.128	91.94
354.355	105.94
354.583	90.94
354.81	106.94
355.037	87.94
355.264	88.94
355.491	88.94
355.718	92.94
355.945	88.94
356.172	93.94
356.399	82.94
356.626	83.94
356.853	84.94
357.08	95.94
357.307	92.94
357.534	92.94
357.761	99.94
357.988	89.94
358.215	89.94
358.441	84.94
358.668	102.94
358.895	91.94
359.122	94.94
359.349	84.94
359.576	97.94
359.802	95.94
360.029	92.94
360.256	105.94
360.483	91.94
360.709	104.94
360.936	88.94
361.163	81.94
361.39	93.94
361.616	93.94
361.843	87.94
362.07	85.94
362.296	80.94
362.523	82.94
362.749	95.94
362.976	86.94
363.203	102.94
363.429	102.94
363.656	76.94
363.882	83.94
364.109	104.94
364.335	102.94
364.562	97.94
364.788	93.94
365.015	85.94
365.241	94.94
365.468	101.94
365.694	98.94
365.92	97.94
366.147	75.94
366.373	86.94
366.599	84.94
366.826	96.94
367.052	85.94
367.278	99.94
367.505	75.94
367.731	87.94
367.957	92.94
368.184	102.94
368.41	89.94
368.636	93.94
368.862	110.94
369.089	93.94
369.315	91.94
369.541	86.94
369.767	80.94
369.993	88.94
370.219	84.94
370.445	88.94
370.672	79.94
370.898	74.94
371.124	84.94
371.35	76.94
371.576	101.94
371.802	93.94
372.028	73.94
372.254	90.94
372.48	86.94
372.706	87.94
372.932	74.94
373.158	88.94
373.384	92.94
373.61	90.94
373.835	87.94
374.061	77.94
374.287	87.94
374.513	93.94
374.739	75.94
374.965	77.94
375.191	95.94
375.416	84.94
375.642	108.94
375.868	76.94
376.094	73.94
376.319	76.94
376.545	89.94
376.771	96.94
376.997	92.94
377.222	86.94
377.448	82.94
377.674	101.94
377.899	97.94
378.125	90.94
378.35	105.94
378.576	107.94
378.802	100.94
379.027	95.94
379.253	98.94
379.478	92.94
379.704	99.94
379.929	94.94
380.155	96.94
380.38	101.94
380.606	84.94
380.831	98.94
381.057	100.94
381.282	102.94
381.507	101.94
381.733	100.94
381.958	105.94
382.184	81.94
382.409	94.94
382.634	102.94
382.86	91.94
383.085	115.94
383.31	95.94
383.535	107.94
383.761	112.94
383.986	105.94
384.211	88.94
384.436	104.94
384.662	106.94
384.887	98.94
385.112	111.94
385.337	116.94
385.562	101.94
385.787	118.94
386.013	106.94
386.238	114.94
386.463	98.94
386.688	115.94
386.913	90.94
387.138	113.94
387.363	108.94
387.588	112.94
387.813	93.94
388.038	104.94
388.263	100.94
388.488	126.94
388.713	95.94
388.938	101.94
389.163	101.94
389.387	98.94
389.612	100.94
389.837	89.94
390.062	97.94
390.287	78.94
390.512	92.94
390.736	93.94
390.961	96.94
391.186	86.94
391.411	102.94
391.636	93.94
391.86	85.94
392.085	92.94
392.31	99.94
392.534	88.94
392.759	104.94
392.984	86.94
393.208	100.94
393.433	93.94
393.658	93.94
393.882	65.94
394.107	81.94
394.331	68.94
394.556	83.94
394.78	81.94
395.005	95.94
395.229	99.94
395.454	88.94
395.678	81.94
395.903	81.94
396.127	87.94
396.352	86.94
396.576	94.94
396.801	90.94
397.025	84.94
397.249	87.94
397.474	85.94
397.698	73.94
397.922	81.94
398.147	87.94
398.371	77.94
398.595	80.94
398.82	90.94
399.044	87.94
399.268	85.94
399.492	81.94
399.717	85.94
399.941	74.94
400.165	86.94
400.389	85.94
400.613	76.94
400.837	93.94
401.062	87.94
401.286	87.94
401.51	95.94
401.734	96.94
401.958	90.94
402.182	102.94
402.406	126.94
402.63	109.94
402.854	81.94
403.078	95.94
403.302	86.94
403.526	90.94
403.75	87.94
403.974	70.94
404.198	81.94
404.422	94.94
404.645	90.94
404.869	82.94
405.093	85.94
405.317	98.94
405.541	101.94
405.765	89.94
405.988	100.94
406.212	144.94
406.436	169.94
406.66	129.94
406.883	85.94
407.107	84.94
407.331	83.94
407.555	100.94
407.778	82.94
408.002	90.94
408.226	80.94
408.449	82.94
408.673	74.94
408.896	92.94
409.12	91.94
409.344	90.94
409.567	98.94
409.791	87.94
410.014	83.94
410.238	102.94
410.461	108.94
410.685	103.94
410.908	99.94
411.132	92.94
411.355	93.94
411.578	92.94
411.802	81.94
412.025	92.94
412.249	87.94
412.472	99.94
412.695	100.94
412.919	94.94
413.142	85.94
413.365	94.94
413.589	88.94
413.812	73.94
414.035	83.94
414.258	85.94
414.482	92.94
414.705	89.94
414.928	101.94
415.151	88.94
415.374	98.94
415.597	96.94
415.821	95.94
416.044	87.94
416.267	88.94
416.49	109.94
416.713	98.94
416.936	77.94
417.159	93.94
417.382	96.94
417.605	102.94
417.828	87.94
418.051	75.94
418.274	74.94
418.497	90.94
418.72	87.94
418.943	93.94
419.166	84.94
419.389	93.94
419.611	76.94
419.834	91.94
420.057	80.94
420.28	82.94
420.503	85.94
420.726	75.94
420.948	84.94
421.171	99.94
421.394	88.94
421.617	81.94
421.839	81.94
422.062	83.94
422.285	85.94
422.507	111.94
422.73	90.94
422.953	91.94
423.175	87.94
423.398	85.94
423.621	100.94
423.843	76.94
424.066	66.94
424.288	100.94
424.511	98.94
424.733	92.94
424.956	96.94
425.178	93.94
425.401	96.94
425.623	79.94
425.846	82.94
426.068	92.94
426.291	91.94
426.513	100.94
426.735	94.94
426.958	88.94
427.18	94.94
427.402	108.94
427.625	126.94
427.847	107.94
428.069	97.94
428.292	86.94
428.514	105.94
428.736	98.94
428.958	90.94
429.181	84.94
429.403	93.94
429.625	73.94
429.847	77.94
430.069	81.94
430.292	88.94
430.514	86.94
430.736	107.94
430.958	92.94
431.18	85.94
431.402	84.94
431.624	81.94
431.846	83.94
432.068	86.94
432.29	91.94
432.512	92.94
432.734	73.94
432.956	91.94
433.178	98.94
433.4	98.94
433.622	100.94
433.844	87.94
434.066	95.94
434.287	71.94
434.509	95.94
434.731	104.94
434.953	91.94
435.175	80.94
435.397	88.94
435.618	83.94
435.84	88.94
436.062	98.94
436.284	101.94
436.505	95.94
436.727	100.94
436.949	90.94
437.17	90.94
437.392	96.94
437.614	77.94
437.835	100.94
438.057	100.94
438.278	94.94
438.5	86.94
438.721	103.94
438.943	95.94
439.165	86.94
439.386	90.94
439.608	89.94
439.829	88.94
440.05	105.94
440.272	113.94
440.493	74.94
440.715	81.94
440.936	86.94
441.158	80.94
441.379	87.94
441.6	80.94
441.822	80.94
442.043	88.94
442.264	97.94
442.486	100.94
442.707	75.94
442.928	101.94
443.149	104.94
443.371	102.94
443.592	89.94
443.813	97.94
444.034	104.94
444.255	96.94
444.476	80.94
444.698	84.94
444.919	86.94
445.14	129.94
445.361	101.94
445.582	123.94
445.803	107.94
446.024	120.94
446.245	105.94
446.466	86.94
446.687	86.94
446.908	78.94
447.129	73.94
447.35	91.94
447.571	90.94
447.792	76.94
448.013	103.94
448.234	104.94
448.455	104.94
448.675	110.94
448.896	92.94
449.117	88.94
449.338	91.94
449.559	103.94
449.779	109.94
450	84.94
450.221	73.94
450.442	86.94
450.662	87.94
450.883	80.94
451.104	94.94
451.324	84.94
451.545	88.94
451.766	83.94
451.986	70.94
452.207	98.94
452.428	91.94
452.648	91.94
452.869	87.94
453.089	84.94
453.31	82.94
453.53	85.94
453.751	91.94
453.971	94.94
454.192	102.94
454.412	79.94
454.633	86.94
454.853	92.94
455.073	85.94
455.294	99.94
455.514	84.94
455.734	91.94
455.955	84.94
456.175	83.94
456.395	87.94
456.616	88.94
456.836	88.94
457.056	74.94
457.276	87.94
457.497	88.94
457.717	97.94
457.937	81.94
458.157	82.94
458.377	78.94
458.598	101.94
458.818	121.94
459.038	129.94
459.258	104.94
459.478	86.94
459.698	90.94
459.918	82.94
460.138	89.94
460.358	77.94
460.578	90.94
460.798	97.94
461.018	86.94
461.238	75.94
461.458	80.94
461.678	82.94
461.898	90.94
462.118	82.94
462.338	99.94
462.558	75.94
462.777	89.94
462.997	73.94
463.217	92.94
463.437	90.94
463.657	76.94
463.876	88.94
464.096	82.94
464.316	87.94
464.536	83.94
464.755	100.94
464.975	82.94
465.195	124.94
465.414	123.94
465.634	86.94
465.854	82.94
466.073	90.94
466.293	82.94
466.512	86.94
466.732	97.94
466.951	67.94
467.171	107.94
467.391	91.94
467.61	102.94
467.829	96.94
468.049	77.94
468.268	100.94
468.488	83.94
468.707	75.94
468.927	86.94
469.146	91.94
469.365	78.94
469.585	79.94
469.804	81.94
470.023	92.94
470.243	83.94
470.462	88.94
470.681	84.94
470.901	88.94
471.12	69.94
471.339	90.94
471.558	84.94
471.777	92.94
471.997	86.94
472.216	105.94
472.435	133.94
472.654	108.94
472.873	84.94
473.092	82.94
473.311	93.94
473.53	70.94
473.749	89.94
473.968	80.94
474.187	110.94
474.406	80.94
474.625	84.94
474.844	69.94
475.063	78.94
475.282	74.94
475.501	90.94
475.72	97.94
475.939	86.94
476.158	83.94
476.377	82.94
476.596	72.94
476.814	94.94
477.033	97.94
477.252	93.94
477.471	80.94
477.69	80.94
477.908	104.94
478.127	94.94
478.346	83.94
478.564	97.94
478.783	69.94
479.002	91.94
479.22	84.94
479.439	102.94
479.658	101.94
479.876	99.94
480.095	85.94
480.313	87.94
480.532	94.94
480.751	82.94
480.969	99.94
481.188	175.94
481.406	128.94
481.624	90.94
481.843	101.94
482.061	82.94
482.28	70.94
482.498	80.94
482.717	92.94
482.935	87.94
483.153	80.94
483.372	98.94
483.59	85.94
483.808	106.94
484.027	93.94
484.245	82.94
484.463	86.94
484.681	108.94
484.9	93.94
485.118	83.94
485.336	101.94
485.554	96.94
485.772	91.94
485.99	110.94
486.209	110.94
486.427	93.94
486.645	120.94
486.863	116.94
487.081	112.94
487.299	81.94
487.517	93.94
487.735	82.94
487.953	99.94
488.171	86.94
488.389	90.94
488.607	95.94
488.825	92.94
489.043	92.94
489.261	99.94
489.479	93.94
489.696	90.94
489.914	70.94
490.132	97.94
490.35	84.94
490.568	92.94
490.786	92.94
491.003	89.94
491.221	81.94
491.439	80.94
491.657	100.94
491.874	94.94
492.092	91.94
492.31	83.94
492.527	96.94
492.745	78.94
492.963	80.94
493.18	90.94
493.398	81.94
493.615	98.94
493.833	96.94
494.05	86.94
494.268	87.94
494.485	91.94
494.703	87.94
494.92	85.94
495.138	71.94
495.355	82.94
495.573	94.94
495.79	97.94
496.008	97.94
496.225	85.94
496.442	89.94
496.66	88.94
496.877	99.94
497.094	103.94
497.312	89.94
497.529	88.94
497.746	94.94
497.963	87.94
498.181	85.94
498.398	94.94
498.615	100.94
498.832	106.94
499.049	93.94
499.267	92.94
499.484	79.94
499.701	93.94
499.918	77.94
500.135	80.94
500.352	72.94
500.569	74.94
500.786	91.94
501.003	88.94
501.22	88.94
501.437	81.94
501.654	92.94
501.871	105.94
502.088	91.94
502.305	90.94
502.522	81.94
502.739	90.94
502.956	75.94
503.172	92.94
503.389	89.94
503.606	86.94
503.823	87.94
504.04	83.94
504.256	90.94
504.473	111.94
504.69	88.94
504.907	99.94
505.123	82.94
505.34	82.94
505.557	88.94
505.773	105.94
505.99	86.94
506.207	92.94
506.423	91.94
506.64	93.94
506.856	92.94
507.073	81.94
507.289	86.94
507.506	102.94
507.722	102.94
507.939	92.94
508.155	81.94
508.372	92.94
508.588	105.94
508.805	76.94
509.021	98.94
509.238	82.94
509.454	80.94
509.67	98.94
509.887	102.94
510.103	104.94
510.319	165.94
510.536	537.94
510.752	1640.94
510.968	472.94
511.184	137.94
511.401	101.94
511.617	92.94
511.833	92.94
512.049	92.94
512.265	77.94
512.481	88.94
512.698	90.94
512.914	96.94
513.13	78.94
513.346	88.94
513.562	98.94
513.778	92.94
513.994	95.94
514.21	95.94
514.426	101.94
514.642	115.94
514.858	108.94
515.074	122.94
515.29	312.94
515.506	932.94
515.721	368.94
515.937	133.94
516.153	104.94
516.369	88.94
516.585	88.94
