Data from Circ_1980_H10_HRD10591_00063.txt Node
Date: Wed Jan 03 12:38:10 EST 2024
User: Yrep
Spectrometer: HR+D1059
Trigger mode: 1
Integration Time (sec): 1.000000E-1
Scans to average: 1
Electric dark correction enabled: true
Nonlinearity correction enabled: false
Boxcar width: 0
XAxis mode: Wavelengths
Number of Pixels in Spectrum: 2048
>>>>>Begin Spectral Data<<<<<
223.165	-17.12
223.4	-17.12
223.635	-17.12
223.869	-29.12
224.104	-7.12
224.338	-22.12
224.573	-16.12
224.808	-17.12
225.042	-6.12
225.277	-16.12
225.511	2.88
225.746	11.88
225.98	-1.12
226.215	10.88
226.449	11.88
226.683	34.88
226.918	26.88
227.152	32.88
227.387	38.88
227.621	35.88
227.856	41.88
228.09	47.88
228.324	41.88
228.559	57.88
228.793	58.88
229.027	67.88
229.262	70.88
229.496	62.88
229.73	75.88
229.964	76.88
230.199	82.88
230.433	64.88
230.667	71.88
230.901	70.88
231.136	73.88
231.37	59.88
231.604	79.88
231.838	93.88
232.072	83.88
232.306	81.88
232.541	69.88
232.775	87.88
233.009	87.88
233.243	69.88
233.477	85.88
233.711	93.88
233.945	67.88
234.179	86.88
234.413	82.88
234.647	74.88
234.881	76.88
235.115	67.88
235.349	77.88
235.583	83.88
235.817	74.88
236.051	87.88
236.285	77.88
236.519	79.88
236.753	75.88
236.987	61.88
237.221	82.88
237.455	86.88
237.689	77.88
237.922	69.88
238.156	70.88
238.39	87.88
238.624	88.88
238.858	76.88
239.091	71.88
239.325	68.88
239.559	76.88
239.793	70.88
240.027	77.88
240.26	73.88
240.494	73.88
240.728	85.88
240.961	65.88
241.195	66.88
241.429	83.88
241.662	78.88
241.896	77.88
242.13	66.88
242.363	88.88
242.597	73.88
242.83	78.88
243.064	87.88
243.298	81.88
243.531	57.88
243.765	57.88
243.998	65.88
244.232	76.88
244.465	71.88
244.699	85.88
244.932	81.88
245.166	82.88
245.399	81.88
245.633	82.88
245.866	78.88
246.099	81.88
246.333	93.88
246.566	70.88
246.8	75.88
247.033	76.88
247.266	81.88
247.5	77.88
247.733	72.88
247.966	85.88
248.2	85.88
248.433	79.88
248.666	78.88
248.899	89.88
249.133	83.88
249.366	97.88
249.599	105.88
249.832	86.88
250.066	83.88
250.299	94.88
250.532	74.88
250.765	81.88
250.998	93.88
251.231	98.88
251.465	85.88
251.698	89.88
251.931	80.88
252.164	82.88
252.397	74.88
252.63	85.88
252.863	79.88
253.096	70.88
253.329	92.88
253.562	73.88
253.795	78.88
254.028	83.88
254.261	71.88
254.494	63.88
254.727	79.88
254.96	86.88
255.193	81.88
255.426	63.88
255.659	84.88
255.892	70.88
256.124	78.88
256.357	69.88
256.59	75.88
256.823	76.88
257.056	74.88
257.289	85.88
257.521	83.88
257.754	88.88
257.987	91.88
258.22	74.88
258.452	71.88
258.685	82.88
258.918	90.88
259.151	70.88
259.383	74.88
259.616	82.88
259.849	86.88
260.081	84.88
260.314	90.88
260.547	87.88
260.779	81.88
261.012	82.88
261.244	90.88
261.477	95.88
261.71	78.88
261.942	94.88
262.175	86.88
262.407	86.88
262.64	81.88
262.872	76.88
263.105	79.88
263.337	86.88
263.57	78.88
263.802	90.88
264.035	91.88
264.267	74.88
264.499	74.88
264.732	82.88
264.964	89.88
265.197	77.88
265.429	87.88
265.661	90.88
265.894	84.88
266.126	82.88
266.358	75.88
266.591	81.88
266.823	85.88
267.055	91.88
267.287	86.88
267.52	87.88
267.752	74.88
267.984	79.88
268.216	90.88
268.448	85.88
268.681	83.88
268.913	75.88
269.145	87.88
269.377	84.88
269.609	79.88
269.841	77.88
270.073	91.88
270.306	85.88
270.538	74.88
270.77	78.88
271.002	84.88
271.234	94.88
271.466	86.88
271.698	77.88
271.93	83.88
272.162	85.88
272.394	92.88
272.626	78.88
272.858	88.88
273.09	82.88
273.322	93.88
273.553	90.88
273.785	84.88
274.017	83.88
274.249	85.88
274.481	78.88
274.713	83.88
274.945	79.88
275.176	87.88
275.408	85.88
275.64	80.88
275.872	104.88
276.104	98.88
276.335	88.88
276.567	94.88
276.799	91.88
277.031	95.88
277.262	93.88
277.494	68.88
277.726	88.88
277.957	96.88
278.189	76.88
278.421	86.88
278.652	87.88
278.884	82.88
279.115	84.88
279.347	88.88
279.579	73.88
279.81	88.88
280.042	92.88
280.273	89.88
280.505	89.88
280.736	93.88
280.968	83.88
281.199	96.88
281.431	90.88
281.662	81.88
281.894	90.88
282.125	89.88
282.356	111.88
282.588	109.88
282.819	118.88
283.051	91.88
283.282	94.88
283.513	93.88
283.745	98.88
283.976	86.88
284.207	91.88
284.439	89.88
284.67	85.88
284.901	88.88
285.132	92.88
285.364	83.88
285.595	89.88
285.826	73.88
286.057	82.88
286.288	90.88
286.52	83.88
286.751	96.88
286.982	102.88
287.213	89.88
287.444	97.88
287.675	91.88
287.906	95.88
288.138	71.88
288.369	97.88
288.6	83.88
288.831	77.88
289.062	85.88
289.293	82.88
289.524	78.88
289.755	105.88
289.986	97.88
290.217	76.88
290.448	89.88
290.679	81.88
290.91	92.88
291.141	80.88
291.371	86.88
291.602	93.88
291.833	94.88
292.064	80.88
292.295	94.88
292.526	91.88
292.757	68.88
292.987	93.88
293.218	83.88
293.449	85.88
293.68	93.88
293.91	78.88
294.141	109.88
294.372	97.88
294.603	86.88
294.833	97.88
295.064	89.88
295.295	89.88
295.525	88.88
295.756	78.88
295.987	109.88
296.217	119.88
296.448	118.88
296.679	72.88
296.909	85.88
297.14	89.88
297.37	98.88
297.601	93.88
297.831	83.88
298.062	83.88
298.292	91.88
298.523	92.88
298.753	87.88
298.984	89.88
299.214	77.88
299.445	101.88
299.675	94.88
299.905	101.88
300.136	81.88
300.366	98.88
300.597	97.88
300.827	97.88
301.057	82.88
301.288	95.88
301.518	93.88
301.748	90.88
301.979	105.88
302.209	90.88
302.439	76.88
302.669	99.88
302.9	94.88
303.13	89.88
303.36	82.88
303.59	112.88
303.82	105.88
304.051	85.88
304.281	90.88
304.511	87.88
304.741	87.88
304.971	78.88
305.201	89.88
305.431	85.88
305.661	84.88
305.891	111.88
306.121	96.88
306.352	96.88
306.582	87.88
306.812	93.88
307.042	85.88
307.272	95.88
307.502	84.88
307.731	92.88
307.961	90.88
308.191	95.88
308.421	89.88
308.651	93.88
308.881	87.88
309.111	96.88
309.341	90.88
309.571	90.88
309.8	94.88
310.03	92.88
310.26	88.88
310.49	101.88
310.72	95.88
310.949	99.88
311.179	94.88
311.409	94.88
311.639	100.88
311.868	90.88
312.098	85.88
312.328	86.88
312.557	94.88
312.787	99.88
313.017	101.88
313.246	100.88
313.476	90.88
313.706	98.88
313.935	92.88
314.165	103.88
314.394	99.88
314.624	100.88
314.853	91.88
315.083	75.88
315.312	100.88
315.542	88.88
315.771	92.88
316.001	86.88
316.23	84.88
316.46	98.88
316.689	74.88
316.919	88.88
317.148	92.88
317.377	104.88
317.607	88.88
317.836	88.88
318.065	81.88
318.295	104.88
318.524	87.88
318.753	90.88
318.983	81.88
319.212	99.88
319.441	85.88
319.67	107.88
319.9	81.88
320.129	89.88
320.358	88.88
320.587	94.88
320.816	84.88
321.046	98.88
321.275	76.88
321.504	89.88
321.733	95.88
321.962	87.88
322.191	90.88
322.42	104.88
322.649	100.88
322.878	115.88
323.108	120.88
323.337	115.88
323.566	115.88
323.795	131.88
324.024	185.88
324.253	324.88
324.482	639.88
324.71	1341.88
324.939	1757.88
325.168	665.88
325.397	204.88
325.626	132.88
325.855	128.88
326.084	123.88
326.313	125.88
326.542	130.88
326.77	213.88
326.999	373.88
327.228	761.88
327.457	1351.88
327.686	1095.88
327.914	311.88
328.143	171.88
328.372	135.88
328.6	117.88
328.829	116.88
329.058	124.88
329.287	117.88
329.515	108.88
329.744	99.88
329.972	110.88
330.201	109.88
330.43	126.88
330.658	129.88
330.887	134.88
331.115	110.88
331.344	101.88
331.572	104.88
331.801	103.88
332.03	108.88
332.258	96.88
332.486	90.88
332.715	97.88
332.943	95.88
333.172	91.88
333.4	93.88
333.629	116.88
333.857	114.88
334.085	119.88
334.314	129.88
334.542	120.88
334.771	124.88
334.999	105.88
335.227	99.88
335.455	91.88
335.684	113.88
335.912	115.88
336.14	107.88
336.369	99.88
336.597	79.88
336.825	100.88
337.053	98.88
337.281	88.88
337.51	91.88
337.738	98.88
337.966	89.88
338.194	97.88
338.422	108.88
338.65	108.88
338.878	87.88
339.106	93.88
339.334	99.88
339.562	74.88
339.79	87.88
340.018	71.88
340.246	81.88
340.474	87.88
340.702	98.88
340.93	83.88
341.158	99.88
341.386	82.88
341.614	92.88
341.842	78.88
342.07	91.88
342.298	95.88
342.526	106.88
342.754	81.88
342.981	89.88
343.209	92.88
343.437	112.88
343.665	97.88
343.893	92.88
344.12	92.88
344.348	88.88
344.576	99.88
344.804	97.88
345.031	99.88
345.259	98.88
345.487	94.88
345.714	94.88
345.942	100.88
346.17	91.88
346.397	76.88
346.625	99.88
346.853	88.88
347.08	85.88
347.308	97.88
347.535	101.88
347.763	93.88
347.99	94.88
348.218	87.88
348.445	91.88
348.673	97.88
348.9	86.88
349.128	97.88
349.355	97.88
349.583	94.88
349.81	75.88
350.037	97.88
350.265	90.88
350.492	93.88
350.72	91.88
350.947	100.88
351.174	111.88
351.402	110.88
351.629	108.88
351.856	96.88
352.083	99.88
352.311	109.88
352.538	105.88
352.765	103.88
352.992	109.88
353.22	108.88
353.447	100.88
353.674	86.88
353.901	88.88
354.128	95.88
354.355	89.88
354.583	91.88
354.81	94.88
355.037	96.88
355.264	85.88
355.491	89.88
355.718	94.88
355.945	100.88
356.172	95.88
356.399	94.88
356.626	106.88
356.853	102.88
357.08	107.88
357.307	98.88
357.534	94.88
357.761	103.88
357.988	94.88
358.215	94.88
358.441	96.88
358.668	90.88
358.895	80.88
359.122	86.88
359.349	86.88
359.576	84.88
359.802	99.88
360.029	81.88
360.256	104.88
360.483	98.88
360.709	99.88
360.936	102.88
361.163	96.88
361.39	93.88
361.616	93.88
361.843	94.88
362.07	95.88
362.296	91.88
362.523	95.88
362.749	93.88
362.976	96.88
363.203	78.88
363.429	85.88
363.656	83.88
363.882	82.88
364.109	75.88
364.335	100.88
364.562	85.88
364.788	83.88
365.015	90.88
365.241	100.88
365.468	106.88
365.694	105.88
365.92	99.88
366.147	101.88
366.373	83.88
366.599	97.88
366.826	100.88
367.052	87.88
367.278	91.88
367.505	86.88
367.731	91.88
367.957	99.88
368.184	107.88
368.41	91.88
368.636	92.88
368.862	132.88
369.089	97.88
369.315	103.88
369.541	101.88
369.767	99.88
369.993	92.88
370.219	97.88
370.445	97.88
370.672	98.88
370.898	87.88
371.124	84.88
371.35	85.88
371.576	102.88
371.802	61.88
372.028	83.88
372.254	85.88
372.48	75.88
372.706	83.88
372.932	93.88
373.158	95.88
373.384	96.88
373.61	97.88
373.835	79.88
374.061	91.88
374.287	90.88
374.513	96.88
374.739	104.88
374.965	95.88
375.191	82.88
375.416	71.88
375.642	92.88
375.868	80.88
376.094	90.88
376.319	87.88
376.545	91.88
376.771	91.88
376.997	78.88
377.222	87.88
377.448	97.88
377.674	96.88
377.899	82.88
378.125	91.88
378.35	107.88
378.576	105.88
378.802	85.88
379.027	106.88
379.253	99.88
379.478	81.88
379.704	96.88
379.929	90.88
380.155	83.88
380.38	99.88
380.606	108.88
380.831	87.88
381.057	108.88
381.282	83.88
381.507	91.88
381.733	97.88
381.958	94.88
382.184	97.88
382.409	105.88
382.634	106.88
382.86	98.88
383.085	117.88
383.31	109.88
383.535	89.88
383.761	104.88
383.986	87.88
384.211	102.88
384.436	96.88
384.662	95.88
384.887	90.88
385.112	98.88
385.337	121.88
385.562	102.88
385.787	114.88
386.013	97.88
386.238	114.88
386.463	106.88
386.688	109.88
386.913	110.88
387.138	89.88
387.363	90.88
387.588	89.88
387.813	87.88
388.038	101.88
388.263	85.88
388.488	95.88
388.713	99.88
388.938	91.88
389.163	92.88
389.387	89.88
389.612	90.88
389.837	87.88
390.062	81.88
390.287	97.88
390.512	116.88
390.736	99.88
390.961	85.88
391.186	93.88
391.411	99.88
391.636	89.88
391.86	88.88
392.085	82.88
392.31	67.88
392.534	86.88
392.759	95.88
392.984	100.88
393.208	85.88
393.433	103.88
393.658	78.88
393.882	92.88
394.107	79.88
394.331	76.88
394.556	93.88
394.78	86.88
395.005	81.88
395.229	98.88
395.454	93.88
395.678	71.88
395.903	85.88
396.127	92.88
396.352	91.88
396.576	81.88
396.801	95.88
397.025	84.88
397.249	85.88
397.474	102.88
397.698	92.88
397.922	87.88
398.147	93.88
398.371	89.88
398.595	86.88
398.82	87.88
399.044	86.88
399.268	90.88
399.492	90.88
399.717	79.88
399.941	98.88
400.165	103.88
400.389	91.88
400.613	75.88
400.837	74.88
401.062	90.88
401.286	72.88
401.51	87.88
401.734	87.88
401.958	93.88
402.182	95.88
402.406	135.88
402.63	105.88
402.854	97.88
403.078	87.88
403.302	79.88
403.526	85.88
403.75	94.88
403.974	82.88
404.198	81.88
404.422	88.88
404.645	87.88
404.869	96.88
405.093	90.88
405.317	98.88
405.541	90.88
405.765	92.88
405.988	105.88
406.212	143.88
406.436	163.88
406.66	131.88
406.883	100.88
407.107	105.88
407.331	96.88
407.555	94.88
407.778	87.88
408.002	100.88
408.226	93.88
408.449	94.88
408.673	92.88
408.896	94.88
409.12	100.88
409.344	100.88
409.567	98.88
409.791	96.88
410.014	91.88
410.238	94.88
410.461	101.88
410.685	94.88
410.908	105.88
411.132	95.88
411.355	81.88
411.578	91.88
411.802	100.88
412.025	89.88
412.249	96.88
412.472	90.88
412.695	93.88
412.919	101.88
413.142	88.88
413.365	91.88
413.589	91.88
413.812	85.88
414.035	91.88
414.258	89.88
414.482	89.88
414.705	101.88
414.928	84.88
415.151	97.88
415.374	94.88
415.597	77.88
415.821	65.88
416.044	78.88
416.267	81.88
416.49	95.88
416.713	86.88
416.936	76.88
417.159	75.88
417.382	81.88
417.605	90.88
417.828	94.88
418.051	83.88
418.274	97.88
418.497	93.88
418.72	86.88
418.943	82.88
419.166	79.88
419.389	65.88
419.611	89.88
419.834	81.88
420.057	86.88
420.28	92.88
420.503	93.88
420.726	87.88
420.948	93.88
421.171	87.88
421.394	93.88
421.617	88.88
421.839	98.88
422.062	95.88
422.285	83.88
422.507	93.88
422.73	86.88
422.953	91.88
423.175	94.88
423.398	70.88
423.621	97.88
423.843	77.88
424.066	86.88
424.288	86.88
424.511	92.88
424.733	92.88
424.956	104.88
425.178	86.88
425.401	95.88
425.623	83.88
425.846	92.88
426.068	83.88
426.291	93.88
426.513	96.88
426.735	105.88
426.958	94.88
427.18	87.88
427.402	120.88
427.625	146.88
427.847	118.88
428.069	97.88
428.292	80.88
428.514	101.88
428.736	86.88
428.958	82.88
429.181	87.88
429.403	93.88
429.625	88.88
429.847	88.88
430.069	91.88
430.292	83.88
430.514	87.88
430.736	79.88
430.958	89.88
431.18	78.88
431.402	89.88
431.624	83.88
431.846	74.88
432.068	85.88
432.29	84.88
432.512	83.88
432.734	82.88
432.956	87.88
433.178	100.88
433.4	91.88
433.622	79.88
433.844	82.88
434.066	93.88
434.287	86.88
434.509	90.88
434.731	91.88
434.953	79.88
435.175	87.88
435.397	94.88
435.618	95.88
435.84	85.88
436.062	100.88
436.284	100.88
436.505	98.88
436.727	88.88
436.949	84.88
437.17	92.88
437.392	93.88
437.614	101.88
437.835	105.88
438.057	106.88
438.278	93.88
438.5	107.88
438.721	127.88
438.943	88.88
439.165	76.88
439.386	78.88
439.608	82.88
439.829	76.88
440.05	117.88
440.272	129.88
440.493	109.88
440.715	88.88
440.936	89.88
441.158	101.88
441.379	91.88
441.6	94.88
441.822	97.88
442.043	102.88
442.264	87.88
442.486	94.88
442.707	93.88
442.928	89.88
443.149	118.88
443.371	133.88
443.592	98.88
443.813	117.88
444.034	103.88
444.255	87.88
444.476	92.88
444.698	92.88
444.919	86.88
445.14	118.88
445.361	106.88
445.582	108.88
445.803	116.88
446.024	109.88
446.245	120.88
446.466	97.88
446.687	81.88
446.908	82.88
447.129	82.88
447.35	85.88
447.571	95.88
447.792	85.88
448.013	96.88
448.234	106.88
448.455	82.88
448.675	105.88
448.896	113.88
449.117	98.88
449.338	87.88
449.559	111.88
449.779	120.88
450	90.88
450.221	74.88
450.442	103.88
450.662	85.88
450.883	74.88
451.104	93.88
451.324	88.88
451.545	76.88
451.766	91.88
451.986	83.88
452.207	90.88
452.428	86.88
452.648	91.88
452.869	105.88
453.089	106.88
453.31	112.88
453.53	84.88
453.751	87.88
453.971	90.88
454.192	71.88
454.412	93.88
454.633	86.88
454.853	89.88
455.073	75.88
455.294	90.88
455.514	85.88
455.734	83.88
455.955	82.88
456.175	93.88
456.395	79.88
456.616	84.88
456.836	91.88
457.056	70.88
457.276	83.88
457.497	75.88
457.717	78.88
457.937	82.88
458.157	81.88
458.377	94.88
458.598	101.88
458.818	126.88
459.038	135.88
459.258	104.88
459.478	72.88
459.698	90.88
459.918	84.88
460.138	88.88
460.358	82.88
460.578	85.88
460.798	87.88
461.018	105.88
461.238	96.88
461.458	83.88
461.678	71.88
461.898	73.88
462.118	87.88
462.338	85.88
462.558	86.88
462.777	74.88
462.997	83.88
463.217	98.88
463.437	87.88
463.657	77.88
463.876	92.88
464.096	82.88
464.316	91.88
464.536	92.88
464.755	62.88
464.975	87.88
465.195	152.88
465.414	137.88
465.634	90.88
465.854	103.88
466.073	87.88
466.293	77.88
466.512	92.88
466.732	91.88
466.951	99.88
467.171	85.88
467.391	96.88
467.61	90.88
467.829	91.88
468.049	90.88
468.268	88.88
468.488	92.88
468.707	77.88
468.927	77.88
469.146	84.88
469.365	88.88
469.585	79.88
469.804	86.88
470.023	103.88
470.243	83.88
470.462	91.88
470.681	86.88
470.901	90.88
471.12	96.88
471.339	95.88
471.558	86.88
471.777	87.88
471.997	95.88
472.216	105.88
472.435	125.88
472.654	102.88
472.873	67.88
473.092	81.88
473.311	91.88
473.53	84.88
473.749	79.88
473.968	79.88
474.187	97.88
474.406	81.88
474.625	86.88
474.844	82.88
475.063	105.88
475.282	91.88
475.501	88.88
475.72	94.88
475.939	102.88
476.158	84.88
476.377	86.88
476.596	87.88
476.814	81.88
477.033	87.88
477.252	92.88
477.471	73.88
477.69	84.88
477.908	96.88
478.127	100.88
478.346	90.88
478.564	83.88
478.783	86.88
479.002	77.88
479.22	96.88
479.439	95.88
479.658	92.88
479.876	87.88
480.095	88.88
480.313	94.88
480.532	76.88
480.751	83.88
480.969	97.88
481.188	199.88
481.406	139.88
481.624	102.88
481.843	89.88
482.061	97.88
482.28	69.88
482.498	74.88
482.717	79.88
482.935	102.88
483.153	85.88
483.372	91.88
483.59	89.88
483.808	92.88
484.027	90.88
484.245	87.88
484.463	75.88
484.681	95.88
484.9	87.88
485.118	90.88
485.336	103.88
485.554	103.88
485.772	106.88
485.99	112.88
486.209	105.88
486.427	120.88
486.645	101.88
486.863	110.88
487.081	103.88
487.299	83.88
487.517	79.88
487.735	91.88
487.953	94.88
488.171	110.88
488.389	101.88
488.607	95.88
488.825	79.88
489.043	87.88
489.261	101.88
489.479	90.88
489.696	83.88
489.914	93.88
490.132	95.88
490.35	85.88
490.568	75.88
490.786	79.88
491.003	97.88
491.221	78.88
491.439	66.88
491.657	104.88
491.874	85.88
492.092	101.88
492.31	98.88
492.527	71.88
492.745	73.88
492.963	92.88
493.18	101.88
493.398	83.88
493.615	87.88
493.833	96.88
494.05	99.88
494.268	78.88
494.485	98.88
494.703	101.88
494.92	90.88
495.138	89.88
495.355	68.88
495.573	75.88
495.79	99.88
496.008	97.88
496.225	112.88
496.442	94.88
496.66	96.88
496.877	97.88
497.094	104.88
497.312	102.88
497.529	88.88
497.746	99.88
497.963	93.88
498.181	86.88
498.398	88.88
498.615	114.88
498.832	86.88
499.049	90.88
499.267	88.88
499.484	91.88
499.701	102.88
499.918	94.88
500.135	84.88
500.352	82.88
500.569	70.88
500.786	90.88
501.003	86.88
501.22	87.88
501.437	101.88
501.654	101.88
501.871	101.88
502.088	88.88
502.305	103.88
502.522	82.88
502.739	87.88
502.956	101.88
503.172	88.88
503.389	88.88
503.606	106.88
503.823	85.88
504.04	97.88
504.256	93.88
504.473	78.88
504.69	85.88
504.907	74.88
505.123	85.88
505.34	93.88
505.557	86.88
505.773	87.88
505.99	97.88
506.207	101.88
506.423	95.88
506.64	98.88
506.856	87.88
507.073	97.88
507.289	97.88
507.506	100.88
507.722	102.88
507.939	108.88
508.155	98.88
508.372	91.88
508.588	93.88
508.805	95.88
509.021	93.88
509.238	95.88
509.454	106.88
509.67	106.88
509.887	102.88
510.103	126.88
510.319	177.88
510.536	610.88
510.752	1831.88
510.968	522.88
511.184	137.88
511.401	106.88
511.617	107.88
511.833	101.88
512.049	105.88
512.265	93.88
512.481	66.88
512.698	69.88
512.914	77.88
513.13	85.88
513.346	87.88
513.562	106.88
513.778	92.88
513.994	88.88
514.21	106.88
514.426	108.88
514.642	118.88
514.858	117.88
515.074	156.88
515.29	367.88
515.506	1129.88
515.721	430.88
515.937	125.88
516.153	97.88
516.369	94.88
