Data from Circ_1980_H10_HRD10591_00028.txt Node
Date: Wed Jan 03 12:38:03 EST 2024
User: Yrep
Spectrometer: HR+D1059
Trigger mode: 1
Integration Time (sec): 1.000000E-1
Scans to average: 1
Electric dark correction enabled: true
Nonlinearity correction enabled: false
Boxcar width: 0
XAxis mode: Wavelengths
Number of Pixels in Spectrum: 2048
>>>>>Begin Spectral Data<<<<<
223.165	-18.56
223.4	-18.56
223.635	-18.56
223.869	-22.56
224.104	-24.56
224.338	-11.56
224.573	-10.56
224.808	-10.56
225.042	-7.56
225.277	-17.56
225.511	-2.56
225.746	-7.56
225.98	12.44
226.215	11.44
226.449	25.44
226.683	27.44
226.918	29.44
227.152	27.44
227.387	28.44
227.621	37.44
227.856	58.44
228.09	58.44
228.324	58.44
228.559	59.44
228.793	66.44
229.027	74.44
229.262	62.44
229.496	64.44
229.73	74.44
229.964	76.44
230.199	64.44
230.433	66.44
230.667	85.44
230.901	56.44
231.136	86.44
231.37	79.44
231.604	70.44
231.838	92.44
232.072	88.44
232.306	72.44
232.541	86.44
232.775	88.44
233.009	84.44
233.243	91.44
233.477	75.44
233.711	85.44
233.945	82.44
234.179	94.44
234.413	83.44
234.647	90.44
234.881	70.44
235.115	81.44
235.349	64.44
235.583	75.44
235.817	81.44
236.051	85.44
236.285	79.44
236.519	77.44
236.753	75.44
236.987	62.44
237.221	93.44
237.455	70.44
237.689	90.44
237.922	66.44
238.156	77.44
238.39	70.44
238.624	67.44
238.858	76.44
239.091	86.44
239.325	85.44
239.559	90.44
239.793	75.44
240.027	80.44
240.26	75.44
240.494	81.44
240.728	68.44
240.961	77.44
241.195	73.44
241.429	77.44
241.662	73.44
241.896	79.44
242.13	79.44
242.363	66.44
242.597	68.44
242.83	66.44
243.064	91.44
243.298	80.44
243.531	85.44
243.765	77.44
243.998	68.44
244.232	77.44
244.465	82.44
244.699	76.44
244.932	77.44
245.166	66.44
245.399	85.44
245.633	84.44
245.866	65.44
246.099	73.44
246.333	68.44
246.566	87.44
246.8	83.44
247.033	79.44
247.266	73.44
247.5	74.44
247.733	77.44
247.966	89.44
248.2	72.44
248.433	82.44
248.666	73.44
248.899	66.44
249.133	76.44
249.366	95.44
249.599	80.44
249.832	80.44
250.066	70.44
250.299	76.44
250.532	85.44
250.765	89.44
250.998	85.44
251.231	94.44
251.465	85.44
251.698	67.44
251.931	82.44
252.164	88.44
252.397	85.44
252.63	84.44
252.863	101.44
253.096	82.44
253.329	82.44
253.562	89.44
253.795	83.44
254.028	75.44
254.261	62.44
254.494	84.44
254.727	90.44
254.96	98.44
255.193	76.44
255.426	80.44
255.659	86.44
255.892	80.44
256.124	86.44
256.357	77.44
256.59	76.44
256.823	80.44
257.056	74.44
257.289	84.44
257.521	97.44
257.754	92.44
257.987	102.44
258.22	75.44
258.452	78.44
258.685	92.44
258.918	75.44
259.151	82.44
259.383	77.44
259.616	80.44
259.849	84.44
260.081	86.44
260.314	83.44
260.547	85.44
260.779	72.44
261.012	78.44
261.244	75.44
261.477	91.44
261.71	90.44
261.942	101.44
262.175	78.44
262.407	99.44
262.64	68.44
262.872	80.44
263.105	71.44
263.337	70.44
263.57	77.44
263.802	62.44
264.035	83.44
264.267	84.44
264.499	78.44
264.732	99.44
264.964	86.44
265.197	69.44
265.429	86.44
265.661	88.44
265.894	84.44
266.126	78.44
266.358	93.44
266.591	84.44
266.823	75.44
267.055	91.44
267.287	79.44
267.52	84.44
267.752	91.44
267.984	86.44
268.216	75.44
268.448	86.44
268.681	84.44
268.913	77.44
269.145	89.44
269.377	76.44
269.609	62.44
269.841	67.44
270.073	92.44
270.306	77.44
270.538	79.44
270.77	95.44
271.002	85.44
271.234	93.44
271.466	94.44
271.698	83.44
271.93	82.44
272.162	101.44
272.394	86.44
272.626	85.44
272.858	88.44
273.09	71.44
273.322	74.44
273.553	85.44
273.785	102.44
274.017	97.44
274.249	102.44
274.481	91.44
274.713	93.44
274.945	85.44
275.176	83.44
275.408	101.44
275.64	102.44
275.872	98.44
276.104	92.44
276.335	86.44
276.567	87.44
276.799	90.44
277.031	104.44
277.262	84.44
277.494	88.44
277.726	97.44
277.957	74.44
278.189	97.44
278.421	72.44
278.652	72.44
278.884	73.44
279.115	84.44
279.347	90.44
279.579	99.44
279.81	94.44
280.042	83.44
280.273	79.44
280.505	82.44
280.736	94.44
280.968	75.44
281.199	90.44
281.431	74.44
281.662	78.44
281.894	79.44
282.125	89.44
282.356	122.44
282.588	114.44
282.819	102.44
283.051	80.44
283.282	86.44
283.513	74.44
283.745	72.44
283.976	78.44
284.207	80.44
284.439	77.44
284.67	83.44
284.901	79.44
285.132	80.44
285.364	84.44
285.595	89.44
285.826	78.44
286.057	84.44
286.288	99.44
286.52	93.44
286.751	74.44
286.982	88.44
287.213	79.44
287.444	78.44
287.675	89.44
287.906	100.44
288.138	93.44
288.369	84.44
288.6	94.44
288.831	91.44
289.062	98.44
289.293	89.44
289.524	84.44
289.755	76.44
289.986	84.44
290.217	95.44
290.448	73.44
290.679	92.44
290.91	92.44
291.141	100.44
291.371	88.44
291.602	89.44
291.833	91.44
292.064	94.44
292.295	95.44
292.526	88.44
292.757	73.44
292.987	100.44
293.218	80.44
293.449	80.44
293.68	83.44
293.91	84.44
294.141	91.44
294.372	109.44
294.603	77.44
294.833	98.44
295.064	85.44
295.295	87.44
295.525	79.44
295.756	99.44
295.987	107.44
296.217	128.44
296.448	120.44
296.679	88.44
296.909	71.44
297.14	87.44
297.37	110.44
297.601	77.44
297.831	81.44
298.062	78.44
298.292	93.44
298.523	78.44
298.753	97.44
298.984	92.44
299.214	106.44
299.445	85.44
299.675	79.44
299.905	98.44
300.136	88.44
300.366	100.44
300.597	103.44
300.827	97.44
301.057	82.44
301.288	99.44
301.518	75.44
301.748	82.44
301.979	94.44
302.209	89.44
302.439	78.44
302.669	84.44
302.9	92.44
303.13	82.44
303.36	91.44
303.59	90.44
303.82	97.44
304.051	90.44
304.281	97.44
304.511	94.44
304.741	85.44
304.971	92.44
305.201	94.44
305.431	79.44
305.661	87.44
305.891	78.44
306.121	93.44
306.352	98.44
306.582	98.44
306.812	85.44
307.042	91.44
307.272	87.44
307.502	74.44
307.731	94.44
307.961	98.44
308.191	78.44
308.421	79.44
308.651	86.44
308.881	87.44
309.111	84.44
309.341	81.44
309.571	100.44
309.8	82.44
310.03	95.44
310.26	93.44
310.49	109.44
310.72	99.44
310.949	93.44
311.179	91.44
311.409	79.44
311.639	92.44
311.868	95.44
312.098	77.44
312.328	105.44
312.557	86.44
312.787	102.44
313.017	100.44
313.246	105.44
313.476	92.44
313.706	95.44
313.935	75.44
314.165	75.44
314.394	98.44
314.624	96.44
314.853	98.44
315.083	95.44
315.312	88.44
315.542	79.44
315.771	74.44
316.001	92.44
316.23	94.44
316.46	87.44
316.689	89.44
316.919	93.44
317.148	104.44
317.377	93.44
317.607	87.44
317.836	87.44
318.065	95.44
318.295	91.44
318.524	80.44
318.753	85.44
318.983	99.44
319.212	96.44
319.441	96.44
319.67	89.44
319.9	97.44
320.129	85.44
320.358	98.44
320.587	90.44
320.816	89.44
321.046	105.44
321.275	108.44
321.504	99.44
321.733	83.44
321.962	85.44
322.191	99.44
322.42	93.44
322.649	95.44
322.878	96.44
323.108	110.44
323.337	111.44
323.566	121.44
323.795	127.44
324.024	157.44
324.253	292.44
324.482	594.44
324.71	1202.44
324.939	1595.44
325.168	594.44
325.397	191.44
325.626	122.44
325.855	126.44
326.084	90.44
326.313	119.44
326.542	144.44
326.77	191.44
326.999	340.44
327.228	705.44
327.457	1250.44
327.686	1021.44
327.914	286.44
328.143	149.44
328.372	132.44
328.6	119.44
328.829	102.44
329.058	109.44
329.287	119.44
329.515	103.44
329.744	104.44
329.972	87.44
330.201	103.44
330.43	131.44
330.658	110.44
330.887	125.44
331.115	100.44
331.344	93.44
331.572	99.44
331.801	94.44
332.03	103.44
332.258	92.44
332.486	98.44
332.715	95.44
332.943	83.44
333.172	102.44
333.4	117.44
333.629	109.44
333.857	96.44
334.085	108.44
334.314	111.44
334.542	115.44
334.771	128.44
334.999	87.44
335.227	106.44
335.455	89.44
335.684	93.44
335.912	87.44
336.14	87.44
336.369	96.44
336.597	97.44
336.825	93.44
337.053	102.44
337.281	92.44
337.51	91.44
337.738	97.44
337.966	85.44
338.194	90.44
338.422	93.44
338.65	87.44
338.878	106.44
339.106	81.44
339.334	96.44
339.562	86.44
339.79	88.44
340.018	79.44
340.246	94.44
340.474	92.44
340.702	95.44
340.93	88.44
341.158	88.44
341.386	95.44
341.614	94.44
341.842	82.44
342.07	91.44
342.298	101.44
342.526	92.44
342.754	102.44
342.981	86.44
343.209	90.44
343.437	100.44
343.665	82.44
343.893	78.44
344.12	97.44
344.348	86.44
344.576	80.44
344.804	95.44
345.031	101.44
345.259	111.44
345.487	85.44
345.714	80.44
345.942	98.44
346.17	94.44
346.397	103.44
346.625	99.44
346.853	101.44
347.08	88.44
347.308	82.44
347.535	93.44
347.763	79.44
347.99	102.44
348.218	87.44
348.445	104.44
348.673	87.44
348.9	85.44
349.128	104.44
349.355	108.44
349.583	90.44
349.81	87.44
350.037	107.44
350.265	96.44
350.492	99.44
350.72	96.44
350.947	102.44
351.174	88.44
351.402	128.44
351.629	100.44
351.856	98.44
352.083	100.44
352.311	88.44
352.538	101.44
352.765	93.44
352.992	103.44
353.22	119.44
353.447	112.44
353.674	106.44
353.901	107.44
354.128	88.44
354.355	101.44
354.583	93.44
354.81	110.44
355.037	95.44
355.264	102.44
355.491	91.44
355.718	93.44
355.945	93.44
356.172	94.44
356.399	90.44
356.626	79.44
356.853	109.44
357.08	96.44
357.307	102.44
357.534	90.44
357.761	93.44
357.988	83.44
358.215	95.44
358.441	102.44
358.668	87.44
358.895	100.44
359.122	90.44
359.349	92.44
359.576	77.44
359.802	86.44
360.029	96.44
360.256	85.44
360.483	94.44
360.709	82.44
360.936	86.44
361.163	92.44
361.39	96.44
361.616	98.44
361.843	92.44
362.07	103.44
362.296	85.44
362.523	89.44
362.749	90.44
362.976	88.44
363.203	92.44
363.429	91.44
363.656	88.44
363.882	83.44
364.109	84.44
364.335	87.44
364.562	78.44
364.788	67.44
365.015	96.44
365.241	99.44
365.468	115.44
365.694	98.44
365.92	88.44
366.147	91.44
366.373	93.44
366.599	85.44
366.826	87.44
367.052	76.44
367.278	84.44
367.505	84.44
367.731	85.44
367.957	76.44
368.184	80.44
368.41	98.44
368.636	104.44
368.862	95.44
369.089	90.44
369.315	90.44
369.541	67.44
369.767	92.44
369.993	99.44
370.219	71.44
370.445	96.44
370.672	80.44
370.898	96.44
371.124	99.44
371.35	84.44
371.576	92.44
371.802	94.44
372.028	94.44
372.254	88.44
372.48	95.44
372.706	91.44
372.932	92.44
373.158	90.44
373.384	102.44
373.61	90.44
373.835	88.44
374.061	96.44
374.287	79.44
374.513	87.44
374.739	75.44
374.965	86.44
375.191	105.44
375.416	102.44
375.642	90.44
375.868	86.44
376.094	73.44
376.319	78.44
376.545	90.44
376.771	78.44
376.997	73.44
377.222	84.44
377.448	91.44
377.674	88.44
377.899	100.44
378.125	98.44
378.35	89.44
378.576	90.44
378.802	95.44
379.027	80.44
379.253	99.44
379.478	93.44
379.704	86.44
379.929	93.44
380.155	99.44
380.38	78.44
380.606	101.44
380.831	103.44
381.057	93.44
381.282	110.44
381.507	96.44
381.733	109.44
381.958	105.44
382.184	109.44
382.409	105.44
382.634	95.44
382.86	95.44
383.085	91.44
383.31	110.44
383.535	116.44
383.761	103.44
383.986	98.44
384.211	107.44
384.436	117.44
384.662	103.44
384.887	107.44
385.112	107.44
385.337	112.44
385.562	105.44
385.787	104.44
386.013	110.44
386.238	120.44
386.463	97.44
386.688	111.44
386.913	111.44
387.138	106.44
387.363	110.44
387.588	95.44
387.813	93.44
388.038	105.44
388.263	117.44
388.488	95.44
388.713	96.44
388.938	93.44
389.163	94.44
389.387	99.44
389.612	101.44
389.837	100.44
390.062	94.44
390.287	100.44
390.512	88.44
390.736	90.44
390.961	99.44
391.186	101.44
391.411	89.44
391.636	71.44
391.86	85.44
392.085	91.44
392.31	90.44
392.534	85.44
392.759	92.44
392.984	89.44
393.208	90.44
393.433	88.44
393.658	80.44
393.882	89.44
394.107	86.44
394.331	86.44
394.556	82.44
394.78	95.44
395.005	96.44
395.229	99.44
395.454	88.44
395.678	79.44
395.903	96.44
396.127	97.44
396.352	98.44
396.576	83.44
396.801	77.44
397.025	86.44
397.249	82.44
397.474	84.44
397.698	91.44
397.922	95.44
398.147	96.44
398.371	92.44
398.595	83.44
398.82	94.44
399.044	90.44
399.268	80.44
399.492	76.44
399.717	103.44
399.941	99.44
400.165	83.44
400.389	95.44
400.613	92.44
400.837	93.44
401.062	94.44
401.286	80.44
401.51	79.44
401.734	100.44
401.958	103.44
402.182	106.44
402.406	138.44
402.63	115.44
402.854	94.44
403.078	84.44
403.302	84.44
403.526	95.44
403.75	84.44
403.974	86.44
404.198	94.44
404.422	85.44
404.645	93.44
404.869	75.44
405.093	88.44
405.317	94.44
405.541	92.44
405.765	98.44
405.988	109.44
406.212	140.44
406.436	168.44
406.66	122.44
406.883	97.44
407.107	100.44
407.331	83.44
407.555	83.44
407.778	105.44
408.002	89.44
408.226	89.44
408.449	84.44
408.673	79.44
408.896	93.44
409.12	88.44
409.344	91.44
409.567	78.44
409.791	66.44
410.014	99.44
410.238	98.44
410.461	74.44
410.685	92.44
410.908	91.44
411.132	108.44
411.355	95.44
411.578	89.44
411.802	93.44
412.025	89.44
412.249	78.44
412.472	94.44
412.695	107.44
412.919	82.44
413.142	83.44
413.365	86.44
413.589	80.44
413.812	75.44
414.035	98.44
414.258	85.44
414.482	88.44
414.705	103.44
414.928	82.44
415.151	93.44
415.374	89.44
415.597	88.44
415.821	85.44
416.044	77.44
416.267	76.44
416.49	95.44
416.713	102.44
416.936	79.44
417.159	88.44
417.382	97.44
417.605	84.44
417.828	83.44
418.051	86.44
418.274	87.44
418.497	90.44
418.72	82.44
418.943	87.44
419.166	85.44
419.389	98.44
419.611	91.44
419.834	85.44
420.057	82.44
420.28	94.44
420.503	80.44
420.726	95.44
420.948	75.44
421.171	95.44
421.394	78.44
421.617	99.44
421.839	82.44
422.062	77.44
422.285	86.44
422.507	94.44
422.73	115.44
422.953	92.44
423.175	86.44
423.398	88.44
423.621	96.44
423.843	90.44
424.066	80.44
424.288	98.44
424.511	66.44
424.733	94.44
424.956	78.44
425.178	95.44
425.401	90.44
425.623	91.44
425.846	93.44
426.068	95.44
426.291	93.44
426.513	89.44
426.735	99.44
426.958	103.44
427.18	84.44
427.402	111.44
427.625	117.44
427.847	113.44
428.069	107.44
428.292	85.44
428.514	79.44
428.736	83.44
428.958	85.44
429.181	88.44
429.403	87.44
429.625	87.44
429.847	91.44
430.069	95.44
430.292	80.44
430.514	83.44
430.736	84.44
430.958	81.44
431.18	87.44
431.402	74.44
431.624	93.44
431.846	80.44
432.068	77.44
432.29	89.44
432.512	80.44
432.734	81.44
432.956	92.44
433.178	90.44
433.4	90.44
433.622	82.44
433.844	76.44
434.066	89.44
434.287	86.44
434.509	78.44
434.731	92.44
434.953	89.44
435.175	96.44
435.397	93.44
435.618	92.44
435.84	92.44
436.062	103.44
436.284	118.44
436.505	92.44
436.727	100.44
436.949	72.44
437.17	92.44
437.392	76.44
437.614	78.44
437.835	94.44
438.057	111.44
438.278	99.44
438.5	112.44
438.721	103.44
438.943	90.44
439.165	90.44
439.386	86.44
439.608	96.44
439.829	95.44
440.05	90.44
440.272	110.44
440.493	88.44
440.715	86.44
440.936	88.44
441.158	91.44
441.379	92.44
441.6	82.44
441.822	86.44
442.043	87.44
442.264	101.44
442.486	89.44
442.707	81.44
442.928	103.44
443.149	118.44
443.371	100.44
443.592	92.44
443.813	107.44
444.034	91.44
444.255	75.44
444.476	74.44
444.698	60.44
444.919	90.44
445.14	148.44
445.361	128.44
445.582	103.44
445.803	119.44
446.024	100.44
446.245	119.44
446.466	95.44
446.687	89.44
446.908	84.44
447.129	97.44
447.35	95.44
447.571	86.44
447.792	98.44
448.013	95.44
448.234	100.44
448.455	93.44
448.675	95.44
448.896	86.44
449.117	88.44
449.338	93.44
449.559	121.44
449.779	112.44
450	95.44
450.221	84.44
450.442	79.44
450.662	74.44
450.883	100.44
451.104	104.44
451.324	84.44
451.545	95.44
451.766	71.44
451.986	81.44
452.207	76.44
452.428	96.44
452.648	86.44
452.869	98.44
453.089	96.44
453.31	105.44
453.53	74.44
453.751	83.44
453.971	98.44
454.192	95.44
454.412	87.44
454.633	76.44
454.853	80.44
455.073	91.44
455.294	82.44
455.514	85.44
455.734	94.44
455.955	86.44
456.175	73.44
456.395	88.44
456.616	84.44
456.836	90.44
457.056	92.44
457.276	96.44
457.497	76.44
457.717	82.44
457.937	84.44
458.157	70.44
458.377	84.44
458.598	91.44
458.818	122.44
459.038	128.44
459.258	91.44
459.478	91.44
459.698	76.44
459.918	79.44
460.138	95.44
460.358	80.44
460.578	83.44
460.798	106.44
461.018	94.44
461.238	87.44
461.458	95.44
461.678	74.44
461.898	79.44
462.118	76.44
462.338	86.44
462.558	95.44
462.777	98.44
462.997	87.44
463.217	87.44
463.437	91.44
463.657	88.44
463.876	92.44
464.096	83.44
464.316	91.44
464.536	82.44
464.755	88.44
464.975	106.44
465.195	116.44
465.414	140.44
465.634	89.44
465.854	89.44
466.073	88.44
466.293	82.44
466.512	78.44
466.732	86.44
466.951	104.44
467.171	87.44
467.391	94.44
467.61	100.44
467.829	97.44
468.049	99.44
468.268	102.44
468.488	91.44
468.707	88.44
468.927	104.44
469.146	85.44
469.365	86.44
469.585	92.44
469.804	86.44
470.023	92.44
470.243	92.44
470.462	91.44
470.681	112.44
470.901	95.44
471.12	89.44
471.339	98.44
471.558	88.44
471.777	96.44
471.997	99.44
472.216	122.44
472.435	120.44
472.654	74.44
472.873	96.44
473.092	84.44
473.311	98.44
473.53	88.44
473.749	87.44
473.968	88.44
474.187	97.44
474.406	100.44
474.625	94.44
474.844	86.44
475.063	88.44
475.282	94.44
475.501	86.44
475.72	81.44
475.939	98.44
476.158	85.44
476.377	81.44
476.596	77.44
476.814	79.44
477.033	84.44
477.252	100.44
477.471	73.44
477.69	101.44
477.908	87.44
478.127	75.44
478.346	78.44
478.564	84.44
478.783	96.44
479.002	91.44
479.22	96.44
479.439	100.44
479.658	94.44
479.876	73.44
480.095	89.44
480.313	90.44
480.532	86.44
480.751	95.44
480.969	96.44
481.188	186.44
481.406	134.44
481.624	88.44
481.843	101.44
482.061	92.44
482.28	82.44
482.498	90.44
482.717	88.44
482.935	72.44
483.153	84.44
483.372	67.44
483.59	95.44
483.808	87.44
484.027	89.44
484.245	82.44
484.463	92.44
484.681	102.44
484.9	88.44
485.118	92.44
485.336	88.44
485.554	105.44
485.772	112.44
485.99	99.44
486.209	112.44
486.427	115.44
486.645	97.44
486.863	104.44
487.081	92.44
487.299	91.44
487.517	86.44
487.735	83.44
487.953	88.44
488.171	91.44
488.389	101.44
488.607	95.44
488.825	86.44
489.043	88.44
489.261	90.44
489.479	97.44
489.696	101.44
489.914	89.44
490.132	96.44
490.35	84.44
490.568	90.44
490.786	79.44
491.003	96.44
491.221	83.44
491.439	72.44
491.657	85.44
491.874	96.44
492.092	80.44
492.31	93.44
492.527	89.44
492.745	94.44
492.963	97.44
493.18	87.44
493.398	98.44
493.615	98.44
493.833	90.44
494.05	90.44
494.268	96.44
494.485	82.44
494.703	87.44
494.92	99.44
495.138	86.44
495.355	87.44
495.573	101.44
495.79	84.44
496.008	101.44
496.225	84.44
496.442	80.44
496.66	90.44
496.877	91.44
497.094	105.44
497.312	77.44
497.529	89.44
497.746	81.44
497.963	76.44
498.181	89.44
498.398	88.44
498.615	112.44
498.832	96.44
499.049	102.44
499.267	98.44
499.484	87.44
499.701	82.44
499.918	89.44
500.135	100.44
500.352	89.44
500.569	98.44
500.786	100.44
501.003	101.44
501.22	95.44
501.437	70.44
501.654	77.44
501.871	96.44
502.088	94.44
502.305	84.44
502.522	88.44
502.739	95.44
502.956	81.44
503.172	80.44
503.389	90.44
503.606	89.44
503.823	93.44
504.04	85.44
504.256	93.44
504.473	77.44
504.69	87.44
504.907	109.44
505.123	84.44
505.34	88.44
505.557	79.44
505.773	100.44
505.99	94.44
506.207	100.44
506.423	86.44
506.64	91.44
506.856	76.44
507.073	82.44
507.289	101.44
507.506	97.44
507.722	102.44
507.939	99.44
508.155	98.44
508.372	90.44
508.588	94.44
508.805	90.44
509.021	98.44
509.238	97.44
509.454	99.44
509.67	99.44
509.887	110.44
510.103	103.44
510.319	187.44
510.536	548.44
510.752	1580.44
510.968	472.44
511.184	122.44
511.401	96.44
511.617	101.44
511.833	110.44
512.049	83.44
512.265	109.44
512.481	92.44
512.698	82.44
512.914	84.44
513.13	96.44
513.346	90.44
513.562	100.44
513.778	109.44
513.994	84.44
514.21	98.44
514.426	86.44
514.642	112.44
514.858	120.44
515.074	140.44
515.29	311.44
515.506	946.44
515.721	363.44
515.937	124.44
516.153	96.44
516.369	98.44
516.585	92.44
