Data from Circ_1980_H10_HRD10591_00050.txt Node
Date: Wed Jan 03 12:38:08 EST 2024
User: Yrep
Spectrometer: HR+D1059
Trigger mode: 1
Integration Time (sec): 1.000000E-1
Scans to average: 1
Electric dark correction enabled: true
Nonlinearity correction enabled: false
Boxcar width: 0
XAxis mode: Wavelengths
Number of Pixels in Spectrum: 2048
>>>>>Begin Spectral Data<<<<<
223.165	-15.69
223.4	-15.69
223.635	-15.69
223.869	-21.69
224.104	-11.69
224.338	-12.69
224.573	-21.69
224.808	-11.69
225.042	-11.69
225.277	-7.69
225.511	-12.69
225.746	-0.69
225.98	2.31
226.215	19.31
226.449	18.31
226.683	24.31
226.918	29.31
227.152	34.31
227.387	38.31
227.621	43.31
227.856	46.31
228.09	48.31
228.324	56.31
228.559	69.31
228.793	49.31
229.027	60.31
229.262	59.31
229.496	74.31
229.73	95.31
229.964	83.31
230.199	76.31
230.433	70.31
230.667	69.31
230.901	73.31
231.136	89.31
231.37	73.31
231.604	72.31
231.838	92.31
232.072	76.31
232.306	71.31
232.541	80.31
232.775	83.31
233.009	84.31
233.243	77.31
233.477	92.31
233.711	85.31
233.945	80.31
234.179	82.31
234.413	94.31
234.647	74.31
234.881	82.31
235.115	65.31
235.349	88.31
235.583	84.31
235.817	85.31
236.051	94.31
236.285	75.31
236.519	87.31
236.753	68.31
236.987	70.31
237.221	86.31
237.455	89.31
237.689	94.31
237.922	69.31
238.156	76.31
238.39	75.31
238.624	75.31
238.858	65.31
239.091	82.31
239.325	70.31
239.559	90.31
239.793	66.31
240.027	77.31
240.26	79.31
240.494	71.31
240.728	93.31
240.961	84.31
241.195	86.31
241.429	72.31
241.662	86.31
241.896	85.31
242.13	78.31
242.363	82.31
242.597	66.31
242.83	61.31
243.064	81.31
243.298	59.31
243.531	77.31
243.765	74.31
243.998	73.31
244.232	80.31
244.465	76.31
244.699	68.31
244.932	69.31
245.166	66.31
245.399	79.31
245.633	73.31
245.866	66.31
246.099	79.31
246.333	86.31
246.566	100.31
246.8	76.31
247.033	77.31
247.266	84.31
247.5	82.31
247.733	81.31
247.966	80.31
248.2	66.31
248.433	77.31
248.666	67.31
248.899	75.31
249.133	99.31
249.366	108.31
249.599	86.31
249.832	86.31
250.066	95.31
250.299	66.31
250.532	78.31
250.765	74.31
250.998	70.31
251.231	72.31
251.465	89.31
251.698	87.31
251.931	77.31
252.164	79.31
252.397	83.31
252.63	64.31
252.863	69.31
253.096	77.31
253.329	71.31
253.562	82.31
253.795	88.31
254.028	57.31
254.261	78.31
254.494	89.31
254.727	75.31
254.96	83.31
255.193	78.31
255.426	86.31
255.659	71.31
255.892	91.31
256.124	93.31
256.357	70.31
256.59	71.31
256.823	77.31
257.056	77.31
257.289	78.31
257.521	73.31
257.754	66.31
257.987	89.31
258.22	86.31
258.452	83.31
258.685	80.31
258.918	78.31
259.151	89.31
259.383	82.31
259.616	82.31
259.849	77.31
260.081	83.31
260.314	84.31
260.547	85.31
260.779	86.31
261.012	77.31
261.244	79.31
261.477	76.31
261.71	93.31
261.942	102.31
262.175	103.31
262.407	87.31
262.64	76.31
262.872	72.31
263.105	84.31
263.337	83.31
263.57	83.31
263.802	91.31
264.035	92.31
264.267	84.31
264.499	90.31
264.732	80.31
264.964	78.31
265.197	75.31
265.429	78.31
265.661	68.31
265.894	84.31
266.126	90.31
266.358	75.31
266.591	79.31
266.823	94.31
267.055	84.31
267.287	76.31
267.52	84.31
267.752	58.31
267.984	92.31
268.216	77.31
268.448	86.31
268.681	76.31
268.913	71.31
269.145	99.31
269.377	95.31
269.609	71.31
269.841	101.31
270.073	87.31
270.306	84.31
270.538	91.31
270.77	74.31
271.002	70.31
271.234	93.31
271.466	93.31
271.698	85.31
271.93	94.31
272.162	90.31
272.394	84.31
272.626	76.31
272.858	78.31
273.09	90.31
273.322	82.31
273.553	79.31
273.785	110.31
274.017	82.31
274.249	90.31
274.481	75.31
274.713	91.31
274.945	76.31
275.176	95.31
275.408	89.31
275.64	88.31
275.872	80.31
276.104	86.31
276.335	94.31
276.567	88.31
276.799	85.31
277.031	92.31
277.262	89.31
277.494	75.31
277.726	95.31
277.957	86.31
278.189	92.31
278.421	80.31
278.652	79.31
278.884	80.31
279.115	78.31
279.347	76.31
279.579	88.31
279.81	90.31
280.042	88.31
280.273	96.31
280.505	90.31
280.736	91.31
280.968	79.31
281.199	79.31
281.431	72.31
281.662	90.31
281.894	89.31
282.125	82.31
282.356	108.31
282.588	118.31
282.819	110.31
283.051	90.31
283.282	109.31
283.513	85.31
283.745	77.31
283.976	89.31
284.207	81.31
284.439	90.31
284.67	85.31
284.901	71.31
285.132	81.31
285.364	62.31
285.595	76.31
285.826	79.31
286.057	80.31
286.288	87.31
286.52	82.31
286.751	86.31
286.982	104.31
287.213	84.31
287.444	95.31
287.675	94.31
287.906	79.31
288.138	82.31
288.369	92.31
288.6	88.31
288.831	87.31
289.062	79.31
289.293	83.31
289.524	93.31
289.755	76.31
289.986	89.31
290.217	88.31
290.448	82.31
290.679	93.31
290.91	91.31
291.141	78.31
291.371	87.31
291.602	92.31
291.833	85.31
292.064	71.31
292.295	81.31
292.526	90.31
292.757	96.31
292.987	84.31
293.218	78.31
293.449	93.31
293.68	82.31
293.91	86.31
294.141	94.31
294.372	88.31
294.603	92.31
294.833	97.31
295.064	82.31
295.295	96.31
295.525	94.31
295.756	101.31
295.987	119.31
296.217	122.31
296.448	115.31
296.679	94.31
296.909	90.31
297.14	86.31
297.37	91.31
297.601	86.31
297.831	95.31
298.062	95.31
298.292	90.31
298.523	93.31
298.753	86.31
298.984	89.31
299.214	92.31
299.445	78.31
299.675	93.31
299.905	84.31
300.136	89.31
300.366	87.31
300.597	86.31
300.827	105.31
301.057	89.31
301.288	93.31
301.518	98.31
301.748	94.31
301.979	100.31
302.209	104.31
302.439	100.31
302.669	86.31
302.9	100.31
303.13	85.31
303.36	91.31
303.59	90.31
303.82	99.31
304.051	94.31
304.281	90.31
304.511	81.31
304.741	98.31
304.971	91.31
305.201	92.31
305.431	95.31
305.661	78.31
305.891	78.31
306.121	98.31
306.352	102.31
306.582	99.31
306.812	92.31
307.042	89.31
307.272	93.31
307.502	91.31
307.731	89.31
307.961	103.31
308.191	90.31
308.421	82.31
308.651	86.31
308.881	84.31
309.111	90.31
309.341	96.31
309.571	98.31
309.8	92.31
310.03	86.31
310.26	94.31
310.49	82.31
310.72	100.31
310.949	95.31
311.179	82.31
311.409	95.31
311.639	99.31
311.868	89.31
312.098	98.31
312.328	93.31
312.557	90.31
312.787	101.31
313.017	98.31
313.246	84.31
313.476	86.31
313.706	94.31
313.935	98.31
314.165	106.31
314.394	94.31
314.624	99.31
314.853	110.31
315.083	93.31
315.312	81.31
315.542	83.31
315.771	91.31
316.001	88.31
316.23	106.31
316.46	111.31
316.689	92.31
316.919	93.31
317.148	80.31
317.377	86.31
317.607	87.31
317.836	83.31
318.065	88.31
318.295	92.31
318.524	96.31
318.753	90.31
318.983	100.31
319.212	96.31
319.441	86.31
319.67	104.31
319.9	77.31
320.129	93.31
320.358	97.31
320.587	89.31
320.816	95.31
321.046	106.31
321.275	95.31
321.504	90.31
321.733	87.31
321.962	96.31
322.191	91.31
322.42	100.31
322.649	101.31
322.878	103.31
323.108	97.31
323.337	112.31
323.566	116.31
323.795	135.31
324.024	156.31
324.253	288.31
324.482	586.31
324.71	1190.31
324.939	1525.31
325.168	589.31
325.397	206.31
325.626	141.31
325.855	130.31
326.084	117.31
326.313	117.31
326.542	134.31
326.77	196.31
326.999	338.31
327.228	678.31
327.457	1212.31
327.686	985.31
327.914	282.31
328.143	160.31
328.372	135.31
328.6	108.31
328.829	114.31
329.058	126.31
329.287	100.31
329.515	96.31
329.744	100.31
329.972	107.31
330.201	110.31
330.43	117.31
330.658	119.31
330.887	118.31
331.115	107.31
331.344	98.31
331.572	110.31
331.801	111.31
332.03	99.31
332.258	89.31
332.486	90.31
332.715	95.31
332.943	100.31
333.172	97.31
333.4	94.31
333.629	100.31
333.857	115.31
334.085	96.31
334.314	114.31
334.542	116.31
334.771	126.31
334.999	99.31
335.227	95.31
335.455	96.31
335.684	104.31
335.912	98.31
336.14	101.31
336.369	100.31
336.597	85.31
336.825	88.31
337.053	119.31
337.281	106.31
337.51	95.31
337.738	90.31
337.966	77.31
338.194	92.31
338.422	99.31
338.65	90.31
338.878	102.31
339.106	93.31
339.334	94.31
339.562	94.31
339.79	95.31
340.018	87.31
340.246	87.31
340.474	90.31
340.702	87.31
340.93	84.31
341.158	82.31
341.386	91.31
341.614	90.31
341.842	102.31
342.07	85.31
342.298	93.31
342.526	97.31
342.754	82.31
342.981	91.31
343.209	97.31
343.437	90.31
343.665	82.31
343.893	85.31
344.12	91.31
344.348	92.31
344.576	78.31
344.804	84.31
345.031	103.31
345.259	100.31
345.487	84.31
345.714	81.31
345.942	92.31
346.17	108.31
346.397	99.31
346.625	90.31
346.853	108.31
347.08	97.31
347.308	105.31
347.535	95.31
347.763	99.31
347.99	94.31
348.218	102.31
348.445	102.31
348.673	96.31
348.9	108.31
349.128	82.31
349.355	85.31
349.583	101.31
349.81	83.31
350.037	86.31
350.265	78.31
350.492	100.31
350.72	114.31
350.947	100.31
351.174	94.31
351.402	96.31
351.629	95.31
351.856	96.31
352.083	108.31
352.311	96.31
352.538	108.31
352.765	101.31
352.992	114.31
353.22	117.31
353.447	118.31
353.674	93.31
353.901	103.31
354.128	93.31
354.355	92.31
354.583	90.31
354.81	86.31
355.037	102.31
355.264	86.31
355.491	97.31
355.718	80.31
355.945	102.31
356.172	94.31
356.399	87.31
356.626	107.31
356.853	96.31
357.08	97.31
357.307	86.31
357.534	104.31
357.761	92.31
357.988	85.31
358.215	86.31
358.441	88.31
358.668	88.31
358.895	84.31
359.122	92.31
359.349	90.31
359.576	86.31
359.802	93.31
360.029	93.31
360.256	97.31
360.483	92.31
360.709	81.31
360.936	98.31
361.163	100.31
361.39	103.31
361.616	106.31
361.843	101.31
362.07	88.31
362.296	106.31
362.523	84.31
362.749	98.31
362.976	88.31
363.203	91.31
363.429	90.31
363.656	91.31
363.882	72.31
364.109	100.31
364.335	103.31
364.562	89.31
364.788	85.31
365.015	101.31
365.241	107.31
365.468	97.31
365.694	101.31
365.92	96.31
366.147	77.31
366.373	88.31
366.599	95.31
366.826	85.31
367.052	100.31
367.278	90.31
367.505	112.31
367.731	78.31
367.957	86.31
368.184	75.31
368.41	95.31
368.636	100.31
368.862	118.31
369.089	103.31
369.315	98.31
369.541	90.31
369.767	87.31
369.993	74.31
370.219	89.31
370.445	88.31
370.672	80.31
370.898	92.31
371.124	95.31
371.35	80.31
371.576	84.31
371.802	102.31
372.028	80.31
372.254	72.31
372.48	91.31
372.706	81.31
372.932	91.31
373.158	87.31
373.384	106.31
373.61	95.31
373.835	95.31
374.061	90.31
374.287	96.31
374.513	102.31
374.739	95.31
374.965	93.31
375.191	95.31
375.416	87.31
375.642	98.31
375.868	94.31
376.094	88.31
376.319	90.31
376.545	91.31
376.771	86.31
376.997	80.31
377.222	94.31
377.448	88.31
377.674	92.31
377.899	103.31
378.125	91.31
378.35	84.31
378.576	93.31
378.802	89.31
379.027	87.31
379.253	104.31
379.478	86.31
379.704	84.31
379.929	108.31
380.155	111.31
380.38	92.31
380.606	97.31
380.831	88.31
381.057	98.31
381.282	105.31
381.507	94.31
381.733	112.31
381.958	104.31
382.184	95.31
382.409	102.31
382.634	104.31
382.86	100.31
383.085	96.31
383.31	99.31
383.535	96.31
383.761	104.31
383.986	108.31
384.211	113.31
384.436	100.31
384.662	99.31
384.887	106.31
385.112	117.31
385.337	97.31
385.562	122.31
385.787	118.31
386.013	126.31
386.238	112.31
386.463	99.31
386.688	111.31
386.913	96.31
387.138	114.31
387.363	111.31
387.588	94.31
387.813	112.31
388.038	111.31
388.263	102.31
388.488	116.31
388.713	101.31
388.938	106.31
389.163	116.31
389.387	86.31
389.612	106.31
389.837	93.31
390.062	91.31
390.287	90.31
390.512	93.31
390.736	91.31
390.961	100.31
391.186	85.31
391.411	82.31
391.636	92.31
391.86	72.31
392.085	86.31
392.31	80.31
392.534	83.31
392.759	91.31
392.984	91.31
393.208	89.31
393.433	91.31
393.658	88.31
393.882	91.31
394.107	90.31
394.331	101.31
394.556	86.31
394.78	91.31
395.005	88.31
395.229	86.31
395.454	83.31
395.678	107.31
395.903	85.31
396.127	82.31
396.352	94.31
396.576	80.31
396.801	87.31
397.025	94.31
397.249	85.31
397.474	99.31
397.698	88.31
397.922	92.31
398.147	95.31
398.371	91.31
398.595	86.31
398.82	87.31
399.044	95.31
399.268	90.31
399.492	91.31
399.717	96.31
399.941	103.31
400.165	95.31
400.389	87.31
400.613	91.31
400.837	79.31
401.062	86.31
401.286	105.31
401.51	85.31
401.734	91.31
401.958	91.31
402.182	104.31
402.406	115.31
402.63	101.31
402.854	100.31
403.078	102.31
403.302	82.31
403.526	90.31
403.75	91.31
403.974	87.31
404.198	90.31
404.422	90.31
404.645	85.31
404.869	96.31
405.093	97.31
405.317	105.31
405.541	101.31
405.765	94.31
405.988	95.31
406.212	145.31
406.436	176.31
406.66	131.31
406.883	99.31
407.107	91.31
407.331	104.31
407.555	102.31
407.778	84.31
408.002	82.31
408.226	98.31
408.449	97.31
408.673	88.31
408.896	103.31
409.12	92.31
409.344	110.31
409.567	101.31
409.791	84.31
410.014	103.31
410.238	96.31
410.461	99.31
410.685	101.31
410.908	102.31
411.132	93.31
411.355	97.31
411.578	108.31
411.802	82.31
412.025	75.31
412.249	104.31
412.472	90.31
412.695	94.31
412.919	85.31
413.142	86.31
413.365	79.31
413.589	93.31
413.812	103.31
414.035	88.31
414.258	78.31
414.482	86.31
414.705	91.31
414.928	95.31
415.151	98.31
415.374	79.31
415.597	86.31
415.821	94.31
416.044	81.31
416.267	82.31
416.49	83.31
416.713	92.31
416.936	99.31
417.159	86.31
417.382	92.31
417.605	79.31
417.828	96.31
418.051	91.31
418.274	99.31
418.497	82.31
418.72	82.31
418.943	93.31
419.166	81.31
419.389	94.31
419.611	82.31
419.834	62.31
420.057	86.31
420.28	101.31
420.503	93.31
420.726	86.31
420.948	91.31
421.171	76.31
421.394	95.31
421.617	91.31
421.839	89.31
422.062	96.31
422.285	106.31
422.507	102.31
422.73	89.31
422.953	75.31
423.175	75.31
423.398	88.31
423.621	86.31
423.843	74.31
424.066	82.31
424.288	95.31
424.511	77.31
424.733	90.31
424.956	97.31
425.178	103.31
425.401	92.31
425.623	90.31
425.846	90.31
426.068	71.31
426.291	83.31
426.513	88.31
426.735	90.31
426.958	85.31
427.18	92.31
427.402	114.31
427.625	154.31
427.847	120.31
428.069	110.31
428.292	91.31
428.514	83.31
428.736	91.31
428.958	96.31
429.181	78.31
429.403	96.31
429.625	86.31
429.847	100.31
430.069	97.31
430.292	95.31
430.514	79.31
430.736	86.31
430.958	95.31
431.18	93.31
431.402	75.31
431.624	84.31
431.846	92.31
432.068	88.31
432.29	85.31
432.512	89.31
432.734	87.31
432.956	84.31
433.178	83.31
433.4	84.31
433.622	86.31
433.844	75.31
434.066	94.31
434.287	93.31
434.509	85.31
434.731	89.31
434.953	97.31
435.175	86.31
435.397	80.31
435.618	96.31
435.84	91.31
436.062	96.31
436.284	105.31
436.505	109.31
436.727	107.31
436.949	103.31
437.17	98.31
437.392	84.31
437.614	66.31
437.835	89.31
438.057	99.31
438.278	109.31
438.5	98.31
438.721	120.31
438.943	98.31
439.165	87.31
439.386	84.31
439.608	95.31
439.829	96.31
440.05	102.31
440.272	123.31
440.493	84.31
440.715	92.31
440.936	90.31
441.158	92.31
441.379	86.31
441.6	88.31
441.822	89.31
442.043	103.31
442.264	98.31
442.486	93.31
442.707	79.31
442.928	104.31
443.149	118.31
443.371	117.31
443.592	93.31
443.813	101.31
444.034	109.31
444.255	101.31
444.476	91.31
444.698	77.31
444.919	105.31
445.14	134.31
445.361	110.31
445.582	104.31
445.803	115.31
446.024	112.31
446.245	114.31
446.466	102.31
446.687	77.31
446.908	87.31
447.129	84.31
447.35	91.31
447.571	97.31
447.792	94.31
448.013	109.31
448.234	103.31
448.455	83.31
448.675	98.31
448.896	88.31
449.117	93.31
449.338	83.31
449.559	107.31
449.779	112.31
450	80.31
450.221	84.31
450.442	83.31
450.662	83.31
450.883	106.31
451.104	111.31
451.324	98.31
451.545	92.31
451.766	82.31
451.986	75.31
452.207	77.31
452.428	77.31
452.648	93.31
452.869	85.31
453.089	91.31
453.31	105.31
453.53	85.31
453.751	90.31
453.971	90.31
454.192	100.31
454.412	93.31
454.633	86.31
454.853	86.31
455.073	72.31
455.294	78.31
455.514	99.31
455.734	84.31
455.955	91.31
456.175	92.31
456.395	75.31
456.616	88.31
456.836	71.31
457.056	86.31
457.276	73.31
457.497	95.31
457.717	83.31
457.937	101.31
458.157	80.31
458.377	84.31
458.598	97.31
458.818	127.31
459.038	146.31
459.258	100.31
459.478	91.31
459.698	85.31
459.918	95.31
460.138	73.31
460.358	82.31
460.578	95.31
460.798	100.31
461.018	84.31
461.238	83.31
461.458	92.31
461.678	92.31
461.898	88.31
462.118	86.31
462.338	89.31
462.558	88.31
462.777	85.31
462.997	86.31
463.217	87.31
463.437	76.31
463.657	79.31
463.876	75.31
464.096	79.31
464.316	96.31
464.536	79.31
464.755	73.31
464.975	91.31
465.195	142.31
465.414	130.31
465.634	95.31
465.854	96.31
466.073	94.31
466.293	83.31
466.512	91.31
466.732	79.31
466.951	82.31
467.171	95.31
467.391	91.31
467.61	88.31
467.829	87.31
468.049	97.31
468.268	103.31
468.488	94.31
468.707	85.31
468.927	84.31
469.146	75.31
469.365	88.31
469.585	92.31
469.804	79.31
470.023	88.31
470.243	91.31
470.462	88.31
470.681	83.31
470.901	89.31
471.12	88.31
471.339	79.31
471.558	83.31
471.777	102.31
471.997	89.31
472.216	116.31
472.435	133.31
472.654	102.31
472.873	82.31
473.092	95.31
473.311	94.31
473.53	90.31
473.749	95.31
473.968	85.31
474.187	99.31
474.406	99.31
474.625	89.31
474.844	71.31
475.063	78.31
475.282	92.31
475.501	81.31
475.72	89.31
475.939	87.31
476.158	70.31
476.377	76.31
476.596	76.31
476.814	77.31
477.033	99.31
477.252	86.31
477.471	92.31
477.69	92.31
477.908	101.31
478.127	104.31
478.346	79.31
478.564	73.31
478.783	103.31
479.002	93.31
479.22	87.31
479.439	97.31
479.658	97.31
479.876	85.31
480.095	98.31
480.313	85.31
480.532	88.31
480.751	102.31
480.969	103.31
481.188	172.31
481.406	135.31
481.624	98.31
481.843	89.31
482.061	83.31
482.28	91.31
482.498	84.31
482.717	77.31
482.935	98.31
483.153	92.31
483.372	98.31
483.59	96.31
483.808	100.31
484.027	102.31
484.245	111.31
484.463	80.31
484.681	103.31
484.9	106.31
485.118	88.31
485.336	81.31
485.554	102.31
485.772	101.31
485.99	95.31
486.209	112.31
486.427	108.31
486.645	111.31
486.863	115.31
487.081	96.31
487.299	99.31
487.517	97.31
487.735	87.31
487.953	96.31
488.171	91.31
488.389	87.31
488.607	102.31
488.825	102.31
489.043	89.31
489.261	91.31
489.479	86.31
489.696	99.31
489.914	91.31
490.132	86.31
490.35	88.31
490.568	94.31
490.786	100.31
491.003	92.31
491.221	92.31
491.439	87.31
491.657	95.31
491.874	70.31
492.092	103.31
492.31	84.31
492.527	87.31
492.745	93.31
492.963	96.31
493.18	85.31
493.398	98.31
493.615	87.31
493.833	84.31
494.05	101.31
494.268	90.31
494.485	87.31
494.703	97.31
494.92	91.31
495.138	81.31
495.355	90.31
495.573	86.31
495.79	80.31
496.008	86.31
496.225	81.31
496.442	99.31
496.66	101.31
496.877	87.31
497.094	90.31
497.312	91.31
497.529	98.31
497.746	92.31
497.963	94.31
498.181	93.31
498.398	79.31
498.615	108.31
498.832	96.31
499.049	88.31
499.267	77.31
499.484	80.31
499.701	90.31
499.918	103.31
500.135	88.31
500.352	80.31
500.569	87.31
500.786	94.31
501.003	86.31
501.22	91.31
501.437	92.31
501.654	103.31
501.871	98.31
502.088	99.31
502.305	95.31
502.522	90.31
502.739	96.31
502.956	88.31
503.172	94.31
503.389	85.31
503.606	101.31
503.823	96.31
504.04	82.31
504.256	98.31
504.473	96.31
504.69	103.31
504.907	79.31
505.123	84.31
505.34	86.31
505.557	87.31
505.773	70.31
505.99	82.31
506.207	92.31
506.423	83.31
506.64	93.31
506.856	85.31
507.073	87.31
507.289	110.31
507.506	94.31
507.722	104.31
507.939	101.31
508.155	97.31
508.372	78.31
508.588	90.31
508.805	88.31
509.021	93.31
509.238	91.31
509.454	84.31
509.67	91.31
509.887	98.31
510.103	124.31
510.319	176.31
510.536	560.31
510.752	1591.31
510.968	470.31
511.184	148.31
511.401	103.31
511.617	96.31
511.833	102.31
512.049	94.31
512.265	97.31
512.481	86.31
512.698	82.31
512.914	83.31
513.13	98.31
513.346	83.31
513.562	93.31
513.778	104.31
513.994	101.31
514.21	103.31
514.426	103.31
514.642	119.31
514.858	117.31
515.074	134.31
515.29	343.31
515.506	966.31
515.721	378.31
515.937	136.31
