Data from Circ_1980_H10_HRD10591_00058.txt Node
Date: Wed Jan 03 12:38:09 EST 2024
User: Yrep
Spectrometer: HR+D1059
Trigger mode: 1
Integration Time (sec): 1.000000E-1
Scans to average: 1
Electric dark correction enabled: true
Nonlinearity correction enabled: false
Boxcar width: 0
XAxis mode: Wavelengths
Number of Pixels in Spectrum: 2048
>>>>>Begin Spectral Data<<<<<
223.165	-22.25
223.4	-22.25
223.635	-22.25
223.869	-22.25
224.104	-11.25
224.338	-23.25
224.573	-24.25
224.808	-10.25
225.042	-1.25
225.277	8.75
225.511	-19.25
225.746	6.75
225.98	0.75
226.215	13.75
226.449	29.75
226.683	17.75
226.918	12.75
227.152	43.75
227.387	25.75
227.621	24.75
227.856	52.75
228.09	41.75
228.324	58.75
228.559	47.75
228.793	50.75
229.027	60.75
229.262	67.75
229.496	60.75
229.73	79.75
229.964	75.75
230.199	65.75
230.433	71.75
230.667	88.75
230.901	80.75
231.136	79.75
231.37	89.75
231.604	79.75
231.838	83.75
232.072	77.75
232.306	64.75
232.541	88.75
232.775	78.75
233.009	79.75
233.243	86.75
233.477	81.75
233.711	77.75
233.945	67.75
234.179	91.75
234.413	90.75
234.647	104.75
234.881	83.75
235.115	88.75
235.349	62.75
235.583	81.75
235.817	84.75
236.051	85.75
236.285	60.75
236.519	71.75
236.753	83.75
236.987	94.75
237.221	91.75
237.455	84.75
237.689	77.75
237.922	87.75
238.156	67.75
238.39	71.75
238.624	68.75
238.858	80.75
239.091	84.75
239.325	79.75
239.559	68.75
239.793	62.75
240.027	83.75
240.26	74.75
240.494	74.75
240.728	64.75
240.961	84.75
241.195	74.75
241.429	91.75
241.662	78.75
241.896	90.75
242.13	84.75
242.363	77.75
242.597	75.75
242.83	89.75
243.064	85.75
243.298	85.75
243.531	95.75
243.765	91.75
243.998	88.75
244.232	84.75
244.465	85.75
244.699	76.75
244.932	67.75
245.166	77.75
245.399	72.75
245.633	79.75
245.866	103.75
246.099	71.75
246.333	89.75
246.566	85.75
246.8	85.75
247.033	72.75
247.266	80.75
247.5	81.75
247.733	62.75
247.966	75.75
248.2	78.75
248.433	83.75
248.666	71.75
248.899	88.75
249.133	88.75
249.366	97.75
249.599	99.75
249.832	77.75
250.066	76.75
250.299	87.75
250.532	83.75
250.765	80.75
250.998	78.75
251.231	89.75
251.465	72.75
251.698	92.75
251.931	78.75
252.164	83.75
252.397	83.75
252.63	80.75
252.863	87.75
253.096	91.75
253.329	80.75
253.562	79.75
253.795	84.75
254.028	101.75
254.261	89.75
254.494	90.75
254.727	87.75
254.96	89.75
255.193	75.75
255.426	87.75
255.659	91.75
255.892	79.75
256.124	84.75
256.357	77.75
256.59	91.75
256.823	79.75
257.056	80.75
257.289	73.75
257.521	77.75
257.754	87.75
257.987	75.75
258.22	79.75
258.452	84.75
258.685	75.75
258.918	99.75
259.151	88.75
259.383	88.75
259.616	86.75
259.849	75.75
260.081	91.75
260.314	75.75
260.547	87.75
260.779	83.75
261.012	85.75
261.244	80.75
261.477	84.75
261.71	103.75
261.942	103.75
262.175	103.75
262.407	92.75
262.64	88.75
262.872	77.75
263.105	87.75
263.337	90.75
263.57	78.75
263.802	91.75
264.035	83.75
264.267	83.75
264.499	83.75
264.732	88.75
264.964	84.75
265.197	67.75
265.429	88.75
265.661	76.75
265.894	78.75
266.126	100.75
266.358	78.75
266.591	72.75
266.823	90.75
267.055	85.75
267.287	82.75
267.52	71.75
267.752	84.75
267.984	80.75
268.216	91.75
268.448	84.75
268.681	80.75
268.913	93.75
269.145	84.75
269.377	84.75
269.609	79.75
269.841	91.75
270.073	80.75
270.306	85.75
270.538	100.75
270.77	72.75
271.002	82.75
271.234	89.75
271.466	102.75
271.698	92.75
271.93	80.75
272.162	86.75
272.394	85.75
272.626	96.75
272.858	86.75
273.09	79.75
273.322	78.75
273.553	83.75
273.785	98.75
274.017	93.75
274.249	71.75
274.481	103.75
274.713	89.75
274.945	88.75
275.176	86.75
275.408	88.75
275.64	79.75
275.872	75.75
276.104	88.75
276.335	84.75
276.567	87.75
276.799	116.75
277.031	97.75
277.262	90.75
277.494	89.75
277.726	90.75
277.957	80.75
278.189	91.75
278.421	84.75
278.652	90.75
278.884	99.75
279.115	76.75
279.347	86.75
279.579	90.75
279.81	79.75
280.042	92.75
280.273	98.75
280.505	82.75
280.736	90.75
280.968	90.75
281.199	89.75
281.431	82.75
281.662	98.75
281.894	85.75
282.125	106.75
282.356	112.75
282.588	127.75
282.819	96.75
283.051	80.75
283.282	91.75
283.513	86.75
283.745	75.75
283.976	100.75
284.207	99.75
284.439	99.75
284.67	89.75
284.901	99.75
285.132	92.75
285.364	90.75
285.595	106.75
285.826	95.75
286.057	85.75
286.288	87.75
286.52	89.75
286.751	81.75
286.982	94.75
287.213	96.75
287.444	83.75
287.675	88.75
287.906	85.75
288.138	90.75
288.369	77.75
288.6	91.75
288.831	94.75
289.062	94.75
289.293	94.75
289.524	95.75
289.755	93.75
289.986	85.75
290.217	75.75
290.448	85.75
290.679	86.75
290.91	91.75
291.141	85.75
291.371	91.75
291.602	92.75
291.833	89.75
292.064	101.75
292.295	86.75
292.526	96.75
292.757	96.75
292.987	103.75
293.218	87.75
293.449	99.75
293.68	85.75
293.91	96.75
294.141	93.75
294.372	91.75
294.603	91.75
294.833	84.75
295.064	83.75
295.295	89.75
295.525	76.75
295.756	102.75
295.987	109.75
296.217	126.75
296.448	106.75
296.679	93.75
296.909	91.75
297.14	91.75
297.37	92.75
297.601	92.75
297.831	76.75
298.062	82.75
298.292	79.75
298.523	87.75
298.753	83.75
298.984	73.75
299.214	93.75
299.445	94.75
299.675	83.75
299.905	87.75
300.136	90.75
300.366	109.75
300.597	96.75
300.827	102.75
301.057	102.75
301.288	113.75
301.518	94.75
301.748	91.75
301.979	101.75
302.209	87.75
302.439	94.75
302.669	95.75
302.9	73.75
303.13	95.75
303.36	105.75
303.59	106.75
303.82	91.75
304.051	89.75
304.281	107.75
304.511	101.75
304.741	100.75
304.971	78.75
305.201	92.75
305.431	94.75
305.661	80.75
305.891	99.75
306.121	89.75
306.352	102.75
306.582	110.75
306.812	99.75
307.042	83.75
307.272	91.75
307.502	90.75
307.731	84.75
307.961	95.75
308.191	106.75
308.421	85.75
308.651	88.75
308.881	108.75
309.111	93.75
309.341	94.75
309.571	83.75
309.8	89.75
310.03	94.75
310.26	93.75
310.49	91.75
310.72	84.75
310.949	97.75
311.179	87.75
311.409	89.75
311.639	94.75
311.868	97.75
312.098	95.75
312.328	92.75
312.557	85.75
312.787	100.75
313.017	104.75
313.246	99.75
313.476	92.75
313.706	98.75
313.935	99.75
314.165	92.75
314.394	115.75
314.624	101.75
314.853	92.75
315.083	108.75
315.312	91.75
315.542	87.75
315.771	104.75
316.001	92.75
316.23	84.75
316.46	80.75
316.689	71.75
316.919	93.75
317.148	88.75
317.377	104.75
317.607	94.75
317.836	100.75
318.065	104.75
318.295	91.75
318.524	87.75
318.753	97.75
318.983	91.75
319.212	102.75
319.441	98.75
319.67	101.75
319.9	105.75
320.129	96.75
320.358	92.75
320.587	107.75
320.816	102.75
321.046	104.75
321.275	93.75
321.504	88.75
321.733	94.75
321.962	109.75
322.191	115.75
322.42	97.75
322.649	104.75
322.878	92.75
323.108	112.75
323.337	112.75
323.566	126.75
323.795	134.75
324.024	177.75
324.253	318.75
324.482	649.75
324.71	1248.75
324.939	1692.75
325.168	618.75
325.397	206.75
325.626	140.75
325.855	116.75
326.084	121.75
326.313	115.75
326.542	136.75
326.77	200.75
326.999	354.75
327.228	730.75
327.457	1320.75
327.686	1038.75
327.914	309.75
328.143	168.75
328.372	141.75
328.6	116.75
328.829	127.75
329.058	106.75
329.287	109.75
329.515	119.75
329.744	95.75
329.972	95.75
330.201	126.75
330.43	111.75
330.658	99.75
330.887	119.75
331.115	119.75
331.344	98.75
331.572	101.75
331.801	79.75
332.03	99.75
332.258	115.75
332.486	88.75
332.715	98.75
332.943	88.75
333.172	96.75
333.4	84.75
333.629	91.75
333.857	95.75
334.085	109.75
334.314	114.75
334.542	125.75
334.771	112.75
334.999	93.75
335.227	100.75
335.455	99.75
335.684	99.75
335.912	107.75
336.14	95.75
336.369	100.75
336.597	95.75
336.825	105.75
337.053	75.75
337.281	95.75
337.51	78.75
337.738	84.75
337.966	97.75
338.194	97.75
338.422	104.75
338.65	93.75
338.878	91.75
339.106	93.75
339.334	91.75
339.562	96.75
339.79	93.75
340.018	98.75
340.246	91.75
340.474	91.75
340.702	84.75
340.93	90.75
341.158	81.75
341.386	101.75
341.614	99.75
341.842	107.75
342.07	96.75
342.298	87.75
342.526	92.75
342.754	89.75
342.981	93.75
343.209	88.75
343.437	105.75
343.665	103.75
343.893	94.75
344.12	87.75
344.348	84.75
344.576	95.75
344.804	74.75
345.031	94.75
345.259	95.75
345.487	75.75
345.714	85.75
345.942	91.75
346.17	90.75
346.397	102.75
346.625	96.75
346.853	106.75
347.08	95.75
347.308	83.75
347.535	101.75
347.763	105.75
347.99	105.75
348.218	104.75
348.445	94.75
348.673	104.75
348.9	101.75
349.128	92.75
349.355	89.75
349.583	100.75
349.81	100.75
350.037	77.75
350.265	104.75
350.492	92.75
350.72	97.75
350.947	117.75
351.174	114.75
351.402	107.75
351.629	100.75
351.856	91.75
352.083	105.75
352.311	108.75
352.538	109.75
352.765	95.75
352.992	121.75
353.22	99.75
353.447	92.75
353.674	102.75
353.901	94.75
354.128	95.75
354.355	94.75
354.583	101.75
354.81	91.75
355.037	91.75
355.264	102.75
355.491	105.75
355.718	85.75
355.945	102.75
356.172	91.75
356.399	96.75
356.626	103.75
356.853	99.75
357.08	92.75
357.307	98.75
357.534	98.75
357.761	99.75
357.988	97.75
358.215	95.75
358.441	95.75
358.668	99.75
358.895	103.75
359.122	96.75
359.349	91.75
359.576	82.75
359.802	98.75
360.029	111.75
360.256	112.75
360.483	99.75
360.709	100.75
360.936	80.75
361.163	90.75
361.39	110.75
361.616	97.75
361.843	98.75
362.07	96.75
362.296	85.75
362.523	87.75
362.749	83.75
362.976	96.75
363.203	94.75
363.429	83.75
363.656	87.75
363.882	75.75
364.109	95.75
364.335	78.75
364.562	75.75
364.788	93.75
365.015	89.75
365.241	97.75
365.468	97.75
365.694	87.75
365.92	75.75
366.147	95.75
366.373	83.75
366.599	74.75
366.826	81.75
367.052	85.75
367.278	105.75
367.505	90.75
367.731	93.75
367.957	89.75
368.184	97.75
368.41	102.75
368.636	109.75
368.862	110.75
369.089	108.75
369.315	94.75
369.541	100.75
369.767	101.75
369.993	94.75
370.219	89.75
370.445	79.75
370.672	92.75
370.898	89.75
371.124	88.75
371.35	88.75
371.576	88.75
371.802	91.75
372.028	83.75
372.254	89.75
372.48	92.75
372.706	85.75
372.932	102.75
373.158	95.75
373.384	91.75
373.61	85.75
373.835	100.75
374.061	101.75
374.287	87.75
374.513	97.75
374.739	106.75
374.965	99.75
375.191	96.75
375.416	88.75
375.642	84.75
375.868	85.75
376.094	84.75
376.319	102.75
376.545	89.75
376.771	79.75
376.997	88.75
377.222	89.75
377.448	96.75
377.674	100.75
377.899	110.75
378.125	83.75
378.35	92.75
378.576	81.75
378.802	85.75
379.027	96.75
379.253	93.75
379.478	99.75
379.704	87.75
379.929	90.75
380.155	96.75
380.38	97.75
380.606	91.75
380.831	86.75
381.057	104.75
381.282	96.75
381.507	86.75
381.733	102.75
381.958	105.75
382.184	104.75
382.409	107.75
382.634	95.75
382.86	83.75
383.085	94.75
383.31	100.75
383.535	118.75
383.761	103.75
383.986	95.75
384.211	96.75
384.436	99.75
384.662	104.75
384.887	107.75
385.112	112.75
385.337	105.75
385.562	100.75
385.787	102.75
386.013	100.75
386.238	115.75
386.463	113.75
386.688	117.75
386.913	94.75
387.138	101.75
387.363	103.75
387.588	110.75
387.813	108.75
388.038	114.75
388.263	132.75
388.488	102.75
388.713	105.75
388.938	97.75
389.163	101.75
389.387	94.75
389.612	97.75
389.837	94.75
390.062	89.75
390.287	109.75
390.512	78.75
390.736	93.75
390.961	99.75
391.186	98.75
391.411	94.75
391.636	91.75
391.86	96.75
392.085	105.75
392.31	80.75
392.534	83.75
392.759	98.75
392.984	101.75
393.208	95.75
393.433	95.75
393.658	80.75
393.882	93.75
394.107	101.75
394.331	96.75
394.556	99.75
394.78	89.75
395.005	96.75
395.229	89.75
395.454	101.75
395.678	79.75
395.903	78.75
396.127	98.75
396.352	89.75
396.576	91.75
396.801	107.75
397.025	77.75
397.249	79.75
397.474	100.75
397.698	96.75
397.922	88.75
398.147	79.75
398.371	83.75
398.595	89.75
398.82	85.75
399.044	95.75
399.268	80.75
399.492	93.75
399.717	101.75
399.941	92.75
400.165	109.75
400.389	93.75
400.613	78.75
400.837	87.75
401.062	86.75
401.286	88.75
401.51	92.75
401.734	91.75
401.958	102.75
402.182	123.75
402.406	147.75
402.63	116.75
402.854	92.75
403.078	77.75
403.302	91.75
403.526	95.75
403.75	91.75
403.974	88.75
404.198	91.75
404.422	80.75
404.645	77.75
404.869	88.75
405.093	91.75
405.317	99.75
405.541	85.75
405.765	98.75
405.988	107.75
406.212	155.75
406.436	178.75
406.66	128.75
406.883	98.75
407.107	106.75
407.331	100.75
407.555	110.75
407.778	97.75
408.002	87.75
408.226	97.75
408.449	93.75
408.673	91.75
408.896	85.75
409.12	74.75
409.344	92.75
409.567	108.75
409.791	93.75
410.014	102.75
410.238	91.75
410.461	103.75
410.685	103.75
410.908	102.75
411.132	99.75
411.355	99.75
411.578	84.75
411.802	90.75
412.025	92.75
412.249	81.75
412.472	112.75
412.695	86.75
412.919	80.75
413.142	97.75
413.365	89.75
413.589	77.75
413.812	89.75
414.035	97.75
414.258	92.75
414.482	93.75
414.705	99.75
414.928	87.75
415.151	81.75
415.374	79.75
415.597	78.75
415.821	92.75
416.044	86.75
416.267	91.75
416.49	90.75
416.713	106.75
416.936	95.75
417.159	93.75
417.382	102.75
417.605	111.75
417.828	107.75
418.051	83.75
418.274	92.75
418.497	97.75
418.72	80.75
418.943	93.75
419.166	89.75
419.389	76.75
419.611	92.75
419.834	91.75
420.057	91.75
420.28	88.75
420.503	89.75
420.726	89.75
420.948	92.75
421.171	79.75
421.394	85.75
421.617	103.75
421.839	82.75
422.062	85.75
422.285	80.75
422.507	93.75
422.73	89.75
422.953	82.75
423.175	87.75
423.398	98.75
423.621	97.75
423.843	84.75
424.066	85.75
424.288	81.75
424.511	88.75
424.733	85.75
424.956	88.75
425.178	95.75
425.401	105.75
425.623	107.75
425.846	101.75
426.068	86.75
426.291	88.75
426.513	82.75
426.735	101.75
426.958	81.75
427.18	106.75
427.402	120.75
427.625	133.75
427.847	127.75
428.069	103.75
428.292	91.75
428.514	95.75
428.736	89.75
428.958	78.75
429.181	86.75
429.403	87.75
429.625	84.75
429.847	100.75
430.069	90.75
430.292	78.75
430.514	77.75
430.736	99.75
430.958	78.75
431.18	81.75
431.402	73.75
431.624	87.75
431.846	99.75
432.068	91.75
432.29	96.75
432.512	93.75
432.734	95.75
432.956	76.75
433.178	85.75
433.4	104.75
433.622	108.75
433.844	79.75
434.066	91.75
434.287	90.75
434.509	85.75
434.731	87.75
434.953	111.75
435.175	96.75
435.397	86.75
435.618	90.75
435.84	90.75
436.062	105.75
436.284	105.75
436.505	88.75
436.727	98.75
436.949	95.75
437.17	93.75
437.392	91.75
437.614	102.75
437.835	98.75
438.057	118.75
438.278	109.75
438.5	107.75
438.721	104.75
438.943	107.75
439.165	93.75
439.386	78.75
439.608	89.75
439.829	93.75
440.05	98.75
440.272	112.75
440.493	100.75
440.715	99.75
440.936	96.75
441.158	91.75
441.379	84.75
441.6	91.75
441.822	81.75
442.043	94.75
442.264	95.75
442.486	96.75
442.707	104.75
442.928	109.75
443.149	119.75
443.371	126.75
443.592	97.75
443.813	103.75
444.034	107.75
444.255	92.75
444.476	80.75
444.698	76.75
444.919	78.75
445.14	132.75
445.361	121.75
445.582	111.75
445.803	119.75
446.024	105.75
446.245	108.75
446.466	108.75
446.687	105.75
446.908	100.75
447.129	96.75
447.35	89.75
447.571	95.75
447.792	84.75
448.013	93.75
448.234	105.75
448.455	104.75
448.675	98.75
448.896	113.75
449.117	102.75
449.338	107.75
449.559	102.75
449.779	119.75
450	92.75
450.221	91.75
450.442	83.75
450.662	95.75
450.883	111.75
451.104	103.75
451.324	93.75
451.545	88.75
451.766	93.75
451.986	103.75
452.207	85.75
452.428	86.75
452.648	91.75
452.869	118.75
453.089	117.75
453.31	121.75
453.53	83.75
453.751	83.75
453.971	93.75
454.192	100.75
454.412	97.75
454.633	87.75
454.853	95.75
455.073	90.75
455.294	83.75
455.514	104.75
455.734	83.75
455.955	95.75
456.175	72.75
456.395	89.75
456.616	101.75
456.836	92.75
457.056	83.75
457.276	89.75
457.497	91.75
457.717	83.75
457.937	96.75
458.157	76.75
458.377	78.75
458.598	119.75
458.818	133.75
459.038	136.75
459.258	101.75
459.478	86.75
459.698	83.75
459.918	102.75
460.138	68.75
460.358	84.75
460.578	72.75
460.798	97.75
461.018	88.75
461.238	87.75
461.458	80.75
461.678	85.75
461.898	87.75
462.118	84.75
462.338	78.75
462.558	102.75
462.777	81.75
462.997	91.75
463.217	91.75
463.437	86.75
463.657	92.75
463.876	99.75
464.096	95.75
464.316	83.75
464.536	102.75
464.755	96.75
464.975	99.75
465.195	133.75
465.414	118.75
465.634	83.75
465.854	78.75
466.073	87.75
466.293	79.75
466.512	79.75
466.732	86.75
466.951	91.75
467.171	91.75
467.391	92.75
467.61	102.75
467.829	101.75
468.049	108.75
468.268	103.75
468.488	81.75
468.707	72.75
468.927	88.75
469.146	94.75
469.365	89.75
469.585	77.75
469.804	89.75
470.023	99.75
470.243	91.75
470.462	89.75
470.681	103.75
470.901	81.75
471.12	93.75
471.339	88.75
471.558	76.75
471.777	82.75
471.997	105.75
472.216	110.75
472.435	152.75
472.654	105.75
472.873	90.75
473.092	78.75
473.311	101.75
473.53	94.75
473.749	70.75
473.968	105.75
474.187	94.75
474.406	111.75
474.625	100.75
474.844	87.75
475.063	96.75
475.282	85.75
475.501	85.75
475.72	90.75
475.939	97.75
476.158	95.75
476.377	88.75
476.596	95.75
476.814	92.75
477.033	89.75
477.252	89.75
477.471	95.75
477.69	77.75
477.908	83.75
478.127	95.75
478.346	84.75
478.564	96.75
478.783	96.75
479.002	93.75
479.22	95.75
479.439	97.75
479.658	92.75
479.876	90.75
480.095	86.75
480.313	102.75
480.532	96.75
480.751	96.75
480.969	112.75
481.188	189.75
481.406	136.75
481.624	98.75
481.843	103.75
482.061	96.75
482.28	105.75
482.498	81.75
482.717	83.75
482.935	71.75
483.153	87.75
483.372	91.75
483.59	96.75
483.808	81.75
484.027	99.75
484.245	100.75
484.463	93.75
484.681	91.75
484.9	70.75
485.118	99.75
485.336	108.75
485.554	99.75
485.772	110.75
485.99	90.75
486.209	101.75
486.427	114.75
486.645	105.75
486.863	103.75
487.081	106.75
487.299	109.75
487.517	120.75
487.735	105.75
487.953	95.75
488.171	112.75
488.389	103.75
488.607	106.75
488.825	100.75
489.043	93.75
489.261	100.75
489.479	88.75
489.696	93.75
489.914	93.75
490.132	102.75
490.35	95.75
490.568	81.75
490.786	108.75
491.003	91.75
491.221	92.75
491.439	94.75
491.657	100.75
491.874	101.75
492.092	92.75
492.31	89.75
492.527	84.75
492.745	78.75
492.963	82.75
493.18	90.75
493.398	97.75
493.615	94.75
493.833	92.75
494.05	83.75
494.268	89.75
494.485	86.75
494.703	92.75
494.92	91.75
495.138	96.75
495.355	89.75
495.573	98.75
495.79	92.75
496.008	97.75
496.225	96.75
496.442	91.75
496.66	104.75
496.877	89.75
497.094	101.75
497.312	87.75
497.529	89.75
497.746	83.75
497.963	110.75
498.181	96.75
498.398	96.75
498.615	102.75
498.832	79.75
499.049	96.75
499.267	89.75
499.484	102.75
499.701	101.75
499.918	93.75
500.135	102.75
500.352	98.75
500.569	76.75
500.786	90.75
501.003	99.75
501.22	99.75
501.437	88.75
501.654	100.75
501.871	99.75
502.088	78.75
502.305	97.75
502.522	85.75
502.739	87.75
502.956	88.75
503.172	90.75
503.389	76.75
503.606	93.75
503.823	93.75
504.04	94.75
504.256	105.75
504.473	70.75
504.69	84.75
504.907	89.75
505.123	94.75
505.34	92.75
505.557	96.75
505.773	99.75
505.99	70.75
506.207	84.75
506.423	91.75
506.64	85.75
506.856	87.75
507.073	70.75
507.289	96.75
507.506	95.75
507.722	111.75
507.939	105.75
508.155	109.75
508.372	95.75
508.588	97.75
508.805	105.75
509.021	101.75
509.238	109.75
509.454	102.75
509.67	105.75
509.887	99.75
510.103	118.75
510.319	194.75
510.536	656.75
510.752	1955.75
510.968	549.75
511.184	140.75
511.401	108.75
511.617	88.75
511.833	84.75
512.049	84.75
512.265	88.75
512.481	93.75
512.698	91.75
512.914	89.75
513.13	87.75
513.346	97.75
513.562	109.75
513.778	105.75
513.994	108.75
514.21	105.75
514.426	103.75
514.642	136.75
514.858	125.75
515.074	147.75
515.29	387.75
