Data from Circ_1980_H10_HRD10591_00090.txt Node
Date: Wed Jan 03 12:38:16 EST 2024
User: Yrep
Spectrometer: HR+D1059
Trigger mode: 1
Integration Time (sec): 1.000000E-1
Scans to average: 1
Electric dark correction enabled: true
Nonlinearity correction enabled: false
Boxcar width: 0
XAxis mode: Wavelengths
Number of Pixels in Spectrum: 2048
>>>>>Begin Spectral Data<<<<<
223.165	-17.88
223.4	-17.88
223.635	-17.88
223.869	-25.88
224.104	-17.88
224.338	-10.88
224.573	0.12
224.808	-26.88
225.042	-14.88
225.277	-0.88
225.511	-6.88
225.746	3.12
225.98	13.12
226.215	4.12
226.449	27.12
226.683	18.12
226.918	22.12
227.152	34.12
227.387	40.12
227.621	40.12
227.856	33.12
228.09	44.12
228.324	54.12
228.559	67.12
228.793	61.12
229.027	53.12
229.262	70.12
229.496	87.12
229.73	68.12
229.964	82.12
230.199	80.12
230.433	98.12
230.667	82.12
230.901	69.12
231.136	82.12
231.37	86.12
231.604	73.12
231.838	84.12
232.072	81.12
232.306	92.12
232.541	79.12
232.775	86.12
233.009	73.12
233.243	95.12
233.477	80.12
233.711	78.12
233.945	78.12
234.179	92.12
234.413	96.12
234.647	86.12
234.881	79.12
235.115	77.12
235.349	82.12
235.583	80.12
235.817	84.12
236.051	66.12
236.285	72.12
236.519	84.12
236.753	79.12
236.987	74.12
237.221	80.12
237.455	86.12
237.689	65.12
237.922	70.12
238.156	77.12
238.39	74.12
238.624	84.12
238.858	75.12
239.091	74.12
239.325	76.12
239.559	68.12
239.793	78.12
240.027	72.12
240.26	73.12
240.494	76.12
240.728	75.12
240.961	85.12
241.195	98.12
241.429	71.12
241.662	70.12
241.896	80.12
242.13	72.12
242.363	74.12
242.597	83.12
242.83	78.12
243.064	88.12
243.298	76.12
243.531	70.12
243.765	62.12
243.998	94.12
244.232	76.12
244.465	71.12
244.699	92.12
244.932	76.12
245.166	73.12
245.399	79.12
245.633	71.12
245.866	87.12
246.099	80.12
246.333	72.12
246.566	73.12
246.8	82.12
247.033	82.12
247.266	86.12
247.5	78.12
247.733	80.12
247.966	68.12
248.2	81.12
248.433	78.12
248.666	64.12
248.899	87.12
249.133	95.12
249.366	98.12
249.599	82.12
249.832	82.12
250.066	89.12
250.299	80.12
250.532	77.12
250.765	79.12
250.998	72.12
251.231	79.12
251.465	90.12
251.698	75.12
251.931	70.12
252.164	77.12
252.397	72.12
252.63	71.12
252.863	93.12
253.096	94.12
253.329	67.12
253.562	79.12
253.795	77.12
254.028	70.12
254.261	82.12
254.494	71.12
254.727	86.12
254.96	79.12
255.193	86.12
255.426	76.12
255.659	74.12
255.892	87.12
256.124	77.12
256.357	103.12
256.59	76.12
256.823	88.12
257.056	84.12
257.289	87.12
257.521	84.12
257.754	89.12
257.987	72.12
258.22	81.12
258.452	89.12
258.685	79.12
258.918	69.12
259.151	73.12
259.383	71.12
259.616	80.12
259.849	77.12
260.081	101.12
260.314	98.12
260.547	79.12
260.779	78.12
261.012	92.12
261.244	78.12
261.477	67.12
261.71	94.12
261.942	107.12
262.175	104.12
262.407	93.12
262.64	82.12
262.872	88.12
263.105	74.12
263.337	78.12
263.57	80.12
263.802	89.12
264.035	86.12
264.267	87.12
264.499	84.12
264.732	77.12
264.964	77.12
265.197	80.12
265.429	95.12
265.661	69.12
265.894	88.12
266.126	71.12
266.358	75.12
266.591	84.12
266.823	73.12
267.055	85.12
267.287	82.12
267.52	86.12
267.752	74.12
267.984	76.12
268.216	92.12
268.448	86.12
268.681	77.12
268.913	82.12
269.145	73.12
269.377	80.12
269.609	89.12
269.841	94.12
270.073	76.12
270.306	90.12
270.538	75.12
270.77	88.12
271.002	80.12
271.234	84.12
271.466	85.12
271.698	89.12
271.93	80.12
272.162	87.12
272.394	98.12
272.626	92.12
272.858	93.12
273.09	106.12
273.322	84.12
273.553	95.12
273.785	90.12
274.017	82.12
274.249	88.12
274.481	88.12
274.713	75.12
274.945	82.12
275.176	86.12
275.408	89.12
275.64	84.12
275.872	79.12
276.104	91.12
276.335	88.12
276.567	90.12
276.799	95.12
277.031	98.12
277.262	74.12
277.494	90.12
277.726	82.12
277.957	80.12
278.189	84.12
278.421	86.12
278.652	102.12
278.884	77.12
279.115	81.12
279.347	73.12
279.579	75.12
279.81	89.12
280.042	92.12
280.273	91.12
280.505	85.12
280.736	84.12
280.968	80.12
281.199	86.12
281.431	90.12
281.662	83.12
281.894	90.12
282.125	102.12
282.356	116.12
282.588	120.12
282.819	91.12
283.051	82.12
283.282	77.12
283.513	96.12
283.745	84.12
283.976	86.12
284.207	89.12
284.439	85.12
284.67	81.12
284.901	86.12
285.132	86.12
285.364	74.12
285.595	83.12
285.826	83.12
286.057	94.12
286.288	75.12
286.52	89.12
286.751	84.12
286.982	81.12
287.213	79.12
287.444	84.12
287.675	98.12
287.906	90.12
288.138	97.12
288.369	100.12
288.6	87.12
288.831	86.12
289.062	90.12
289.293	90.12
289.524	88.12
289.755	87.12
289.986	90.12
290.217	87.12
290.448	79.12
290.679	76.12
290.91	88.12
291.141	101.12
291.371	83.12
291.602	100.12
291.833	82.12
292.064	92.12
292.295	76.12
292.526	93.12
292.757	81.12
292.987	86.12
293.218	75.12
293.449	82.12
293.68	74.12
293.91	86.12
294.141	80.12
294.372	84.12
294.603	88.12
294.833	92.12
295.064	78.12
295.295	87.12
295.525	97.12
295.756	93.12
295.987	115.12
296.217	110.12
296.448	107.12
296.679	99.12
296.909	94.12
297.14	78.12
297.37	85.12
297.601	82.12
297.831	76.12
298.062	86.12
298.292	103.12
298.523	78.12
298.753	88.12
298.984	82.12
299.214	98.12
299.445	95.12
299.675	104.12
299.905	95.12
300.136	96.12
300.366	84.12
300.597	88.12
300.827	91.12
301.057	86.12
301.288	96.12
301.518	75.12
301.748	104.12
301.979	118.12
302.209	93.12
302.439	90.12
302.669	88.12
302.9	79.12
303.13	89.12
303.36	90.12
303.59	94.12
303.82	92.12
304.051	82.12
304.281	83.12
304.511	94.12
304.741	91.12
304.971	83.12
305.201	82.12
305.431	101.12
305.661	86.12
305.891	84.12
306.121	90.12
306.352	112.12
306.582	105.12
306.812	92.12
307.042	90.12
307.272	95.12
307.502	91.12
307.731	95.12
307.961	92.12
308.191	80.12
308.421	88.12
308.651	117.12
308.881	91.12
309.111	86.12
309.341	87.12
309.571	92.12
309.8	109.12
310.03	76.12
310.26	88.12
310.49	95.12
310.72	90.12
310.949	83.12
311.179	89.12
311.409	93.12
311.639	92.12
311.868	96.12
312.098	90.12
312.328	91.12
312.557	87.12
312.787	92.12
313.017	100.12
313.246	89.12
313.476	84.12
313.706	94.12
313.935	93.12
314.165	107.12
314.394	93.12
314.624	101.12
314.853	102.12
315.083	92.12
315.312	86.12
315.542	98.12
315.771	95.12
316.001	84.12
316.23	87.12
316.46	80.12
316.689	70.12
316.919	93.12
317.148	87.12
317.377	108.12
317.607	88.12
317.836	93.12
318.065	91.12
318.295	101.12
318.524	87.12
318.753	79.12
318.983	91.12
319.212	101.12
319.441	98.12
319.67	96.12
319.9	100.12
320.129	100.12
320.358	92.12
320.587	103.12
320.816	87.12
321.046	109.12
321.275	100.12
321.504	96.12
321.733	94.12
321.962	91.12
322.191	89.12
322.42	86.12
322.649	105.12
322.878	97.12
323.108	102.12
323.337	109.12
323.566	107.12
323.795	148.12
324.024	162.12
324.253	294.12
324.482	596.12
324.71	1201.12
324.939	1590.12
325.168	591.12
325.397	192.12
325.626	113.12
325.855	121.12
326.084	116.12
326.313	118.12
326.542	125.12
326.77	190.12
326.999	344.12
327.228	707.12
327.457	1254.12
327.686	1000.12
327.914	288.12
328.143	171.12
328.372	141.12
328.6	104.12
328.829	111.12
329.058	118.12
329.287	114.12
329.515	112.12
329.744	109.12
329.972	99.12
330.201	116.12
330.43	133.12
330.658	121.12
330.887	111.12
331.115	100.12
331.344	96.12
331.572	90.12
331.801	112.12
332.03	104.12
332.258	86.12
332.486	106.12
332.715	89.12
332.943	99.12
333.172	103.12
333.4	86.12
333.629	99.12
333.857	112.12
334.085	106.12
334.314	124.12
334.542	131.12
334.771	121.12
334.999	109.12
335.227	97.12
335.455	86.12
335.684	97.12
335.912	91.12
336.14	87.12
336.369	110.12
336.597	91.12
336.825	106.12
337.053	96.12
337.281	101.12
337.51	87.12
337.738	101.12
337.966	86.12
338.194	86.12
338.422	97.12
338.65	88.12
338.878	90.12
339.106	76.12
339.334	88.12
339.562	84.12
339.79	78.12
340.018	86.12
340.246	89.12
340.474	97.12
340.702	89.12
340.93	87.12
341.158	99.12
341.386	95.12
341.614	91.12
341.842	89.12
342.07	88.12
342.298	86.12
342.526	88.12
342.754	91.12
342.981	91.12
343.209	98.12
343.437	104.12
343.665	86.12
343.893	91.12
344.12	100.12
344.348	90.12
344.576	84.12
344.804	109.12
345.031	98.12
345.259	89.12
345.487	102.12
345.714	90.12
345.942	95.12
346.17	102.12
346.397	88.12
346.625	96.12
346.853	92.12
347.08	103.12
347.308	86.12
347.535	84.12
347.763	91.12
347.99	92.12
348.218	100.12
348.445	107.12
348.673	84.12
348.9	83.12
349.128	101.12
349.355	88.12
349.583	89.12
349.81	88.12
350.037	103.12
350.265	109.12
350.492	85.12
350.72	87.12
350.947	115.12
351.174	101.12
351.402	105.12
351.629	102.12
351.856	107.12
352.083	103.12
352.311	95.12
352.538	119.12
352.765	98.12
352.992	99.12
353.22	104.12
353.447	106.12
353.674	102.12
353.901	95.12
354.128	89.12
354.355	107.12
354.583	101.12
354.81	106.12
355.037	93.12
355.264	85.12
355.491	90.12
355.718	102.12
355.945	88.12
356.172	93.12
356.399	112.12
356.626	101.12
356.853	94.12
357.08	92.12
357.307	84.12
357.534	98.12
357.761	82.12
357.988	87.12
358.215	91.12
358.441	94.12
358.668	91.12
358.895	87.12
359.122	94.12
359.349	76.12
359.576	77.12
359.802	97.12
360.029	93.12
360.256	86.12
360.483	90.12
360.709	97.12
360.936	80.12
361.163	89.12
361.39	108.12
361.616	90.12
361.843	91.12
362.07	87.12
362.296	81.12
362.523	98.12
362.749	94.12
362.976	90.12
363.203	86.12
363.429	90.12
363.656	102.12
363.882	105.12
364.109	94.12
364.335	85.12
364.562	90.12
364.788	108.12
365.015	97.12
365.241	93.12
365.468	107.12
365.694	106.12
365.92	104.12
366.147	102.12
366.373	80.12
366.599	70.12
366.826	88.12
367.052	99.12
367.278	97.12
367.505	94.12
367.731	86.12
367.957	78.12
368.184	93.12
368.41	108.12
368.636	98.12
368.862	99.12
369.089	105.12
369.315	92.12
369.541	105.12
369.767	91.12
369.993	99.12
370.219	76.12
370.445	87.12
370.672	97.12
370.898	104.12
371.124	82.12
371.35	98.12
371.576	75.12
371.802	90.12
372.028	99.12
372.254	92.12
372.48	96.12
372.706	88.12
372.932	92.12
373.158	86.12
373.384	98.12
373.61	91.12
373.835	94.12
374.061	74.12
374.287	88.12
374.513	92.12
374.739	86.12
374.965	79.12
375.191	94.12
375.416	84.12
375.642	92.12
375.868	89.12
376.094	102.12
376.319	79.12
376.545	86.12
376.771	95.12
376.997	94.12
377.222	83.12
377.448	79.12
377.674	86.12
377.899	98.12
378.125	81.12
378.35	91.12
378.576	102.12
378.802	80.12
379.027	91.12
379.253	94.12
379.478	94.12
379.704	101.12
379.929	73.12
380.155	96.12
380.38	112.12
380.606	97.12
380.831	82.12
381.057	103.12
381.282	86.12
381.507	104.12
381.733	101.12
381.958	88.12
382.184	101.12
382.409	107.12
382.634	98.12
382.86	105.12
383.085	110.12
383.31	91.12
383.535	111.12
383.761	107.12
383.986	91.12
384.211	82.12
384.436	100.12
384.662	98.12
384.887	101.12
385.112	106.12
385.337	115.12
385.562	112.12
385.787	100.12
386.013	118.12
386.238	117.12
386.463	111.12
386.688	115.12
386.913	101.12
387.138	106.12
387.363	115.12
387.588	95.12
387.813	92.12
388.038	110.12
388.263	110.12
388.488	122.12
388.713	99.12
388.938	95.12
389.163	102.12
389.387	78.12
389.612	79.12
389.837	87.12
390.062	111.12
390.287	112.12
390.512	88.12
390.736	90.12
390.961	98.12
391.186	94.12
391.411	92.12
391.636	82.12
391.86	75.12
392.085	101.12
392.31	88.12
392.534	77.12
392.759	98.12
392.984	84.12
393.208	95.12
393.433	79.12
393.658	74.12
393.882	78.12
394.107	92.12
394.331	90.12
394.556	93.12
394.78	92.12
395.005	78.12
395.229	81.12
395.454	74.12
395.678	86.12
395.903	90.12
396.127	98.12
396.352	78.12
396.576	95.12
396.801	94.12
397.025	102.12
397.249	78.12
397.474	94.12
397.698	91.12
397.922	91.12
398.147	99.12
398.371	91.12
398.595	99.12
398.82	83.12
399.044	86.12
399.268	96.12
399.492	79.12
399.717	84.12
399.941	88.12
400.165	96.12
400.389	86.12
400.613	97.12
400.837	103.12
401.062	84.12
401.286	85.12
401.51	85.12
401.734	84.12
401.958	101.12
402.182	111.12
402.406	144.12
402.63	125.12
402.854	87.12
403.078	82.12
403.302	86.12
403.526	99.12
403.75	91.12
403.974	99.12
404.198	93.12
404.422	86.12
404.645	86.12
404.869	90.12
405.093	95.12
405.317	106.12
405.541	95.12
405.765	100.12
405.988	98.12
406.212	147.12
406.436	179.12
406.66	120.12
406.883	116.12
407.107	78.12
407.331	90.12
407.555	108.12
407.778	100.12
408.002	101.12
408.226	101.12
408.449	89.12
408.673	84.12
408.896	84.12
409.12	94.12
409.344	87.12
409.567	86.12
409.791	102.12
410.014	97.12
410.238	99.12
410.461	84.12
410.685	101.12
410.908	101.12
411.132	92.12
411.355	94.12
411.578	103.12
411.802	84.12
412.025	88.12
412.249	91.12
412.472	95.12
412.695	101.12
412.919	74.12
413.142	96.12
413.365	88.12
413.589	96.12
413.812	87.12
414.035	93.12
414.258	90.12
414.482	93.12
414.705	83.12
414.928	100.12
415.151	103.12
415.374	111.12
415.597	87.12
415.821	99.12
416.044	88.12
416.267	96.12
416.49	91.12
416.713	87.12
416.936	102.12
417.159	92.12
417.382	89.12
417.605	85.12
417.828	90.12
418.051	86.12
418.274	85.12
418.497	92.12
418.72	84.12
418.943	85.12
419.166	82.12
419.389	79.12
419.611	90.12
419.834	88.12
420.057	94.12
420.28	83.12
420.503	91.12
420.726	93.12
420.948	84.12
421.171	75.12
421.394	74.12
421.617	93.12
421.839	88.12
422.062	88.12
422.285	94.12
422.507	96.12
422.73	104.12
422.953	91.12
423.175	94.12
423.398	83.12
423.621	94.12
423.843	82.12
424.066	94.12
424.288	91.12
424.511	102.12
424.733	94.12
424.956	99.12
425.178	84.12
425.401	110.12
425.623	89.12
425.846	92.12
426.068	100.12
426.291	95.12
426.513	90.12
426.735	98.12
426.958	99.12
427.18	86.12
427.402	107.12
427.625	125.12
427.847	115.12
428.069	103.12
428.292	91.12
428.514	96.12
428.736	90.12
428.958	83.12
429.181	94.12
429.403	68.12
429.625	92.12
429.847	92.12
430.069	109.12
430.292	93.12
430.514	94.12
430.736	95.12
430.958	84.12
431.18	93.12
431.402	100.12
431.624	100.12
431.846	92.12
432.068	89.12
432.29	88.12
432.512	82.12
432.734	87.12
432.956	88.12
433.178	100.12
433.4	94.12
433.622	87.12
433.844	88.12
434.066	91.12
434.287	86.12
434.509	89.12
434.731	87.12
434.953	90.12
435.175	103.12
435.397	92.12
435.618	90.12
435.84	99.12
436.062	117.12
436.284	108.12
436.505	91.12
436.727	90.12
436.949	94.12
437.17	89.12
437.392	98.12
437.614	89.12
437.835	102.12
438.057	101.12
438.278	86.12
438.5	101.12
438.721	116.12
438.943	104.12
439.165	98.12
439.386	83.12
439.608	98.12
439.829	88.12
440.05	121.12
440.272	117.12
440.493	96.12
440.715	82.12
440.936	89.12
441.158	92.12
441.379	82.12
441.6	95.12
441.822	94.12
442.043	92.12
442.264	89.12
442.486	86.12
442.707	86.12
442.928	92.12
443.149	101.12
443.371	118.12
443.592	89.12
443.813	108.12
444.034	108.12
444.255	88.12
444.476	79.12
444.698	98.12
444.919	94.12
445.14	137.12
445.361	117.12
445.582	112.12
445.803	111.12
446.024	120.12
446.245	107.12
446.466	100.12
446.687	95.12
446.908	91.12
447.129	91.12
447.35	94.12
447.571	88.12
447.792	99.12
448.013	94.12
448.234	102.12
448.455	104.12
448.675	107.12
448.896	96.12
449.117	94.12
449.338	104.12
449.559	104.12
449.779	113.12
450	92.12
450.221	88.12
450.442	99.12
450.662	93.12
450.883	104.12
451.104	101.12
451.324	86.12
451.545	94.12
451.766	88.12
451.986	90.12
452.207	92.12
452.428	87.12
452.648	84.12
452.869	90.12
453.089	93.12
453.31	101.12
453.53	88.12
453.751	99.12
453.971	110.12
454.192	97.12
454.412	90.12
454.633	96.12
454.853	95.12
455.073	82.12
455.294	85.12
455.514	80.12
455.734	88.12
455.955	94.12
456.175	80.12
456.395	75.12
456.616	80.12
456.836	90.12
457.056	72.12
457.276	78.12
457.497	92.12
457.717	88.12
457.937	87.12
458.157	82.12
458.377	85.12
458.598	107.12
458.818	119.12
459.038	137.12
459.258	88.12
459.478	88.12
459.698	93.12
459.918	89.12
460.138	84.12
460.358	71.12
460.578	86.12
460.798	111.12
461.018	82.12
461.238	88.12
461.458	89.12
461.678	90.12
461.898	88.12
462.118	96.12
462.338	82.12
462.558	88.12
462.777	94.12
462.997	82.12
463.217	77.12
463.437	86.12
463.657	93.12
463.876	75.12
464.096	80.12
464.316	69.12
464.536	90.12
464.755	103.12
464.975	100.12
465.195	133.12
465.414	127.12
465.634	92.12
465.854	101.12
466.073	80.12
466.293	84.12
466.512	85.12
466.732	101.12
466.951	89.12
467.171	98.12
467.391	93.12
467.61	106.12
467.829	75.12
468.049	84.12
468.268	84.12
468.488	78.12
468.707	75.12
468.927	76.12
469.146	78.12
469.365	78.12
469.585	82.12
469.804	95.12
470.023	91.12
470.243	77.12
470.462	93.12
470.681	88.12
470.901	92.12
471.12	76.12
471.339	84.12
471.558	87.12
471.777	88.12
471.997	93.12
472.216	96.12
472.435	121.12
472.654	99.12
472.873	78.12
473.092	90.12
473.311	83.12
473.53	103.12
473.749	82.12
473.968	96.12
474.187	105.12
474.406	92.12
474.625	82.12
474.844	98.12
475.063	75.12
475.282	95.12
475.501	84.12
475.72	92.12
475.939	88.12
476.158	93.12
476.377	96.12
476.596	88.12
476.814	78.12
477.033	89.12
477.252	102.12
477.471	82.12
477.69	94.12
477.908	78.12
478.127	94.12
478.346	89.12
478.564	96.12
478.783	104.12
479.002	99.12
479.22	102.12
479.439	95.12
479.658	102.12
479.876	91.12
480.095	78.12
480.313	95.12
480.532	90.12
480.751	101.12
480.969	98.12
481.188	194.12
481.406	129.12
481.624	103.12
481.843	103.12
482.061	77.12
482.28	94.12
482.498	86.12
482.717	86.12
482.935	98.12
483.153	98.12
483.372	88.12
483.59	73.12
483.808	90.12
484.027	85.12
484.245	95.12
484.463	97.12
484.681	100.12
484.9	78.12
485.118	86.12
485.336	94.12
485.554	95.12
485.772	102.12
485.99	96.12
486.209	106.12
486.427	104.12
486.645	112.12
486.863	109.12
487.081	97.12
487.299	99.12
487.517	70.12
487.735	111.12
487.953	90.12
488.171	96.12
488.389	94.12
488.607	98.12
488.825	92.12
489.043	106.12
489.261	85.12
489.479	94.12
489.696	92.12
489.914	89.12
490.132	92.12
490.35	82.12
490.568	107.12
490.786	86.12
491.003	95.12
491.221	94.12
491.439	92.12
491.657	102.12
491.874	81.12
492.092	92.12
492.31	106.12
492.527	105.12
492.745	102.12
492.963	88.12
493.18	88.12
493.398	90.12
493.615	88.12
493.833	97.12
494.05	98.12
494.268	82.12
494.485	84.12
494.703	95.12
494.92	95.12
495.138	86.12
495.355	74.12
495.573	111.12
495.79	86.12
496.008	90.12
496.225	94.12
496.442	102.12
496.66	103.12
496.877	77.12
497.094	106.12
497.312	93.12
497.529	84.12
497.746	91.12
497.963	92.12
498.181	98.12
498.398	90.12
498.615	118.12
498.832	104.12
499.049	88.12
499.267	88.12
499.484	94.12
499.701	96.12
499.918	101.12
500.135	86.12
500.352	91.12
500.569	94.12
500.786	98.12
501.003	100.12
501.22	101.12
501.437	104.12
501.654	105.12
501.871	108.12
502.088	90.12
502.305	111.12
502.522	94.12
502.739	84.12
502.956	84.12
503.172	93.12
503.389	92.12
503.606	100.12
503.823	96.12
504.04	92.12
504.256	96.12
504.473	101.12
504.69	70.12
504.907	84.12
505.123	84.12
505.34	87.12
505.557	95.12
505.773	92.12
505.99	78.12
506.207	95.12
506.423	96.12
506.64	91.12
506.856	89.12
507.073	91.12
507.289	104.12
507.506	104.12
507.722	107.12
507.939	108.12
508.155	92.12
508.372	108.12
508.588	102.12
508.805	101.12
509.021	90.12
509.238	103.12
509.454	93.12
509.67	80.12
509.887	95.12
510.103	118.12
510.319	179.12
510.536	573.12
510.752	1734.12
510.968	487.12
511.184	131.12
511.401	110.12
511.617	100.12
511.833	84.12
512.049	90.12
512.265	94.12
512.481	83.12
512.698	90.12
512.914	96.12
513.13	107.12
513.346	102.12
513.562	88.12
513.778	87.12
513.994	93.12
514.21	96.12
514.426	114.12
514.642	133.12
514.858	104.12
515.074	147.12
515.29	330.12
515.506	1031.12
515.721	392.12
