Data from Circ_1980_H10_HRD10591_00011.txt Node
Date: Wed Jan 03 12:38:00 EST 2024
User: Yrep
Spectrometer: HR+D1059
Trigger mode: 1
Integration Time (sec): 1.000000E-1
Scans to average: 1
Electric dark correction enabled: true
Nonlinearity correction enabled: false
Boxcar width: 0
XAxis mode: Wavelengths
Number of Pixels in Spectrum: 2048
>>>>>Begin Spectral Data<<<<<
223.165	-12.38
223.4	-12.38
223.635	-12.38
223.869	-15.38
224.104	-30.38
224.338	-12.38
224.573	-9.38
224.808	-9.38
225.042	-8.38
225.277	-10.38
225.511	-8.38
225.746	3.62
225.98	16.62
226.215	11.62
226.449	19.62
226.683	18.62
226.918	21.62
227.152	24.62
227.387	29.62
227.621	32.62
227.856	49.62
228.09	36.62
228.324	50.62
228.559	44.62
228.793	54.62
229.027	63.62
229.262	58.62
229.496	60.62
229.73	65.62
229.964	67.62
230.199	68.62
230.433	72.62
230.667	69.62
230.901	80.62
231.136	66.62
231.37	80.62
231.604	66.62
231.838	73.62
232.072	73.62
232.306	70.62
232.541	70.62
232.775	71.62
233.009	70.62
233.243	75.62
233.477	71.62
233.711	83.62
233.945	63.62
234.179	80.62
234.413	69.62
234.647	85.62
234.881	77.62
235.115	81.62
235.349	83.62
235.583	61.62
235.817	70.62
236.051	77.62
236.285	68.62
236.519	80.62
236.753	81.62
236.987	61.62
237.221	85.62
237.455	81.62
237.689	75.62
237.922	85.62
238.156	68.62
238.39	77.62
238.624	68.62
238.858	62.62
239.091	78.62
239.325	73.62
239.559	66.62
239.793	63.62
240.027	61.62
240.26	78.62
240.494	80.62
240.728	73.62
240.961	60.62
241.195	79.62
241.429	71.62
241.662	66.62
241.896	65.62
242.13	69.62
242.363	73.62
242.597	68.62
242.83	80.62
243.064	78.62
243.298	80.62
243.531	69.62
243.765	68.62
243.998	65.62
244.232	75.62
244.465	79.62
244.699	87.62
244.932	66.62
245.166	66.62
245.399	73.62
245.633	93.62
245.866	71.62
246.099	63.62
246.333	72.62
246.566	63.62
246.8	63.62
247.033	89.62
247.266	81.62
247.5	74.62
247.733	73.62
247.966	71.62
248.2	64.62
248.433	85.62
248.666	56.62
248.899	68.62
249.133	78.62
249.366	81.62
249.599	89.62
249.832	89.62
250.066	83.62
250.299	69.62
250.532	83.62
250.765	82.62
250.998	76.62
251.231	77.62
251.465	66.62
251.698	66.62
251.931	74.62
252.164	86.62
252.397	66.62
252.63	97.62
252.863	78.62
253.096	81.62
253.329	73.62
253.562	69.62
253.795	88.62
254.028	71.62
254.261	63.62
254.494	69.62
254.727	68.62
254.96	63.62
255.193	68.62
255.426	83.62
255.659	73.62
255.892	71.62
256.124	67.62
256.357	70.62
256.59	88.62
256.823	89.62
257.056	69.62
257.289	74.62
257.521	72.62
257.754	84.62
257.987	67.62
258.22	80.62
258.452	68.62
258.685	74.62
258.918	76.62
259.151	70.62
259.383	65.62
259.616	84.62
259.849	85.62
260.081	82.62
260.314	78.62
260.547	86.62
260.779	62.62
261.012	77.62
261.244	95.62
261.477	80.62
261.71	71.62
261.942	89.62
262.175	108.62
262.407	91.62
262.64	71.62
262.872	82.62
263.105	78.62
263.337	78.62
263.57	73.62
263.802	74.62
264.035	73.62
264.267	68.62
264.499	80.62
264.732	73.62
264.964	70.62
265.197	73.62
265.429	84.62
265.661	79.62
265.894	77.62
266.126	82.62
266.358	82.62
266.591	71.62
266.823	72.62
267.055	56.62
267.287	80.62
267.52	78.62
267.752	76.62
267.984	73.62
268.216	70.62
268.448	63.62
268.681	72.62
268.913	84.62
269.145	82.62
269.377	65.62
269.609	76.62
269.841	83.62
270.073	77.62
270.306	80.62
270.538	73.62
270.77	68.62
271.002	73.62
271.234	72.62
271.466	82.62
271.698	74.62
271.93	87.62
272.162	78.62
272.394	84.62
272.626	69.62
272.858	78.62
273.09	89.62
273.322	82.62
273.553	60.62
273.785	71.62
274.017	78.62
274.249	82.62
274.481	70.62
274.713	69.62
274.945	72.62
275.176	70.62
275.408	87.62
275.64	75.62
275.872	73.62
276.104	71.62
276.335	80.62
276.567	88.62
276.799	81.62
277.031	89.62
277.262	80.62
277.494	79.62
277.726	78.62
277.957	76.62
278.189	74.62
278.421	88.62
278.652	84.62
278.884	88.62
279.115	100.62
279.347	77.62
279.579	80.62
279.81	77.62
280.042	90.62
280.273	80.62
280.505	89.62
280.736	78.62
280.968	66.62
281.199	77.62
281.431	69.62
281.662	77.62
281.894	88.62
282.125	94.62
282.356	114.62
282.588	127.62
282.819	107.62
283.051	92.62
283.282	80.62
283.513	92.62
283.745	76.62
283.976	68.62
284.207	80.62
284.439	80.62
284.67	73.62
284.901	78.62
285.132	88.62
285.364	80.62
285.595	85.62
285.826	64.62
286.057	69.62
286.288	69.62
286.52	89.62
286.751	74.62
286.982	73.62
287.213	89.62
287.444	89.62
287.675	94.62
287.906	80.62
288.138	87.62
288.369	94.62
288.6	80.62
288.831	76.62
289.062	93.62
289.293	98.62
289.524	78.62
289.755	80.62
289.986	82.62
290.217	93.62
290.448	92.62
290.679	66.62
290.91	80.62
291.141	70.62
291.371	91.62
291.602	77.62
291.833	99.62
292.064	93.62
292.295	84.62
292.526	96.62
292.757	82.62
292.987	84.62
293.218	79.62
293.449	84.62
293.68	83.62
293.91	82.62
294.141	91.62
294.372	79.62
294.603	81.62
294.833	90.62
295.064	85.62
295.295	79.62
295.525	86.62
295.756	95.62
295.987	85.62
296.217	117.62
296.448	122.62
296.679	86.62
296.909	84.62
297.14	91.62
297.37	86.62
297.601	78.62
297.831	80.62
298.062	88.62
298.292	91.62
298.523	88.62
298.753	81.62
298.984	92.62
299.214	81.62
299.445	73.62
299.675	84.62
299.905	76.62
300.136	97.62
300.366	81.62
300.597	79.62
300.827	89.62
301.057	88.62
301.288	84.62
301.518	70.62
301.748	90.62
301.979	93.62
302.209	87.62
302.439	84.62
302.669	77.62
302.9	84.62
303.13	85.62
303.36	83.62
303.59	91.62
303.82	96.62
304.051	76.62
304.281	93.62
304.511	77.62
304.741	75.62
304.971	90.62
305.201	79.62
305.431	70.62
305.661	80.62
305.891	82.62
306.121	94.62
306.352	93.62
306.582	106.62
306.812	88.62
307.042	84.62
307.272	79.62
307.502	89.62
307.731	80.62
307.961	97.62
308.191	81.62
308.421	86.62
308.651	80.62
308.881	78.62
309.111	97.62
309.341	79.62
309.571	91.62
309.8	79.62
310.03	85.62
310.26	85.62
310.49	74.62
310.72	89.62
310.949	86.62
311.179	97.62
311.409	81.62
311.639	92.62
311.868	81.62
312.098	86.62
312.328	98.62
312.557	103.62
312.787	87.62
313.017	96.62
313.246	92.62
313.476	77.62
313.706	83.62
313.935	78.62
314.165	98.62
314.394	102.62
314.624	95.62
314.853	98.62
315.083	92.62
315.312	88.62
315.542	86.62
315.771	99.62
316.001	86.62
316.23	86.62
316.46	72.62
316.689	73.62
316.919	87.62
317.148	96.62
317.377	72.62
317.607	88.62
317.836	104.62
318.065	96.62
318.295	79.62
318.524	89.62
318.753	81.62
318.983	95.62
319.212	98.62
319.441	106.62
319.67	93.62
319.9	83.62
320.129	76.62
320.358	81.62
320.587	81.62
320.816	100.62
321.046	90.62
321.275	108.62
321.504	82.62
321.733	100.62
321.962	100.62
322.191	96.62
322.42	112.62
322.649	89.62
322.878	80.62
323.108	109.62
323.337	103.62
323.566	126.62
323.795	109.62
324.024	177.62
324.253	311.62
324.482	590.62
324.71	1196.62
324.939	1571.62
325.168	588.62
325.397	190.62
325.626	122.62
325.855	110.62
326.084	102.62
326.313	110.62
326.542	124.62
326.77	165.62
326.999	336.62
327.228	683.62
327.457	1260.62
327.686	998.62
327.914	271.62
328.143	145.62
328.372	132.62
328.6	112.62
328.829	99.62
329.058	111.62
329.287	107.62
329.515	102.62
329.744	96.62
329.972	108.62
330.201	117.62
330.43	106.62
330.658	111.62
330.887	106.62
331.115	110.62
331.344	88.62
331.572	95.62
331.801	77.62
332.03	89.62
332.258	96.62
332.486	82.62
332.715	100.62
332.943	72.62
333.172	85.62
333.4	95.62
333.629	89.62
333.857	88.62
334.085	97.62
334.314	94.62
334.542	115.62
334.771	107.62
334.999	106.62
335.227	98.62
335.455	78.62
335.684	78.62
335.912	78.62
336.14	93.62
336.369	76.62
336.597	79.62
336.825	84.62
337.053	90.62
337.281	90.62
337.51	91.62
337.738	82.62
337.966	80.62
338.194	80.62
338.422	88.62
338.65	87.62
338.878	91.62
339.106	82.62
339.334	95.62
339.562	80.62
339.79	66.62
340.018	80.62
340.246	85.62
340.474	85.62
340.702	91.62
340.93	87.62
341.158	95.62
341.386	91.62
341.614	85.62
341.842	81.62
342.07	99.62
342.298	86.62
342.526	85.62
342.754	70.62
342.981	82.62
343.209	84.62
343.437	94.62
343.665	83.62
343.893	80.62
344.12	82.62
344.348	73.62
344.576	101.62
344.804	96.62
345.031	93.62
345.259	104.62
345.487	91.62
345.714	80.62
345.942	74.62
346.17	83.62
346.397	98.62
346.625	97.62
346.853	85.62
347.08	86.62
347.308	88.62
347.535	78.62
347.763	90.62
347.99	84.62
348.218	91.62
348.445	101.62
348.673	96.62
348.9	79.62
349.128	81.62
349.355	93.62
349.583	80.62
349.81	87.62
350.037	88.62
350.265	70.62
350.492	88.62
350.72	80.62
350.947	106.62
351.174	96.62
351.402	89.62
351.629	88.62
351.856	85.62
352.083	97.62
352.311	90.62
352.538	97.62
352.765	85.62
352.992	112.62
353.22	80.62
353.447	90.62
353.674	91.62
353.901	87.62
354.128	86.62
354.355	86.62
354.583	95.62
354.81	82.62
355.037	85.62
355.264	94.62
355.491	79.62
355.718	90.62
355.945	100.62
356.172	84.62
356.399	76.62
356.626	85.62
356.853	92.62
357.08	82.62
357.307	95.62
357.534	105.62
357.761	68.62
357.988	90.62
358.215	95.62
358.441	97.62
358.668	101.62
358.895	81.62
359.122	84.62
359.349	73.62
359.576	82.62
359.802	76.62
360.029	89.62
360.256	96.62
360.483	98.62
360.709	78.62
360.936	94.62
361.163	71.62
361.39	78.62
361.616	99.62
361.843	86.62
362.07	96.62
362.296	80.62
362.523	73.62
362.749	78.62
362.976	72.62
363.203	70.62
363.429	97.62
363.656	85.62
363.882	85.62
364.109	81.62
364.335	86.62
364.562	76.62
364.788	87.62
365.015	92.62
365.241	88.62
365.468	90.62
365.694	78.62
365.92	85.62
366.147	92.62
366.373	86.62
366.599	80.62
366.826	89.62
367.052	81.62
367.278	88.62
367.505	86.62
367.731	83.62
367.957	84.62
368.184	72.62
368.41	88.62
368.636	112.62
368.862	107.62
369.089	105.62
369.315	71.62
369.541	89.62
369.767	86.62
369.993	89.62
370.219	85.62
370.445	88.62
370.672	85.62
370.898	84.62
371.124	85.62
371.35	89.62
371.576	90.62
371.802	82.62
372.028	70.62
372.254	80.62
372.48	81.62
372.706	81.62
372.932	81.62
373.158	85.62
373.384	87.62
373.61	77.62
373.835	85.62
374.061	73.62
374.287	89.62
374.513	82.62
374.739	73.62
374.965	84.62
375.191	90.62
375.416	88.62
375.642	96.62
375.868	74.62
376.094	70.62
376.319	76.62
376.545	86.62
376.771	78.62
376.997	81.62
377.222	78.62
377.448	82.62
377.674	85.62
377.899	80.62
378.125	73.62
378.35	97.62
378.576	97.62
378.802	97.62
379.027	78.62
379.253	107.62
379.478	84.62
379.704	85.62
379.929	76.62
380.155	89.62
380.38	94.62
380.606	81.62
380.831	88.62
381.057	105.62
381.282	85.62
381.507	98.62
381.733	121.62
381.958	92.62
382.184	102.62
382.409	103.62
382.634	98.62
382.86	97.62
383.085	105.62
383.31	121.62
383.535	101.62
383.761	96.62
383.986	101.62
384.211	100.62
384.436	99.62
384.662	117.62
384.887	92.62
385.112	113.62
385.337	101.62
385.562	109.62
385.787	115.62
386.013	122.62
386.238	120.62
386.463	104.62
386.688	105.62
386.913	108.62
387.138	136.62
387.363	116.62
387.588	85.62
387.813	88.62
388.038	100.62
388.263	107.62
388.488	111.62
388.713	101.62
388.938	81.62
389.163	103.62
389.387	87.62
389.612	92.62
389.837	85.62
390.062	89.62
390.287	96.62
390.512	92.62
390.736	81.62
390.961	95.62
391.186	102.62
391.411	90.62
391.636	86.62
391.86	59.62
392.085	96.62
392.31	87.62
392.534	88.62
392.759	84.62
392.984	89.62
393.208	85.62
393.433	88.62
393.658	98.62
393.882	76.62
394.107	76.62
394.331	84.62
394.556	80.62
394.78	81.62
395.005	71.62
395.229	77.62
395.454	92.62
395.678	83.62
395.903	74.62
396.127	70.62
396.352	80.62
396.576	62.62
396.801	92.62
397.025	110.62
397.249	89.62
397.474	84.62
397.698	73.62
397.922	88.62
398.147	80.62
398.371	83.62
398.595	82.62
398.82	76.62
399.044	80.62
399.268	80.62
399.492	80.62
399.717	81.62
399.941	74.62
400.165	78.62
400.389	88.62
400.613	80.62
400.837	61.62
401.062	76.62
401.286	78.62
401.51	77.62
401.734	84.62
401.958	82.62
402.182	112.62
402.406	134.62
402.63	89.62
402.854	89.62
403.078	86.62
403.302	73.62
403.526	73.62
403.75	79.62
403.974	86.62
404.198	76.62
404.422	66.62
404.645	79.62
404.869	87.62
405.093	83.62
405.317	89.62
405.541	85.62
405.765	83.62
405.988	95.62
406.212	138.62
406.436	179.62
406.66	125.62
406.883	97.62
407.107	87.62
407.331	87.62
407.555	74.62
407.778	85.62
408.002	89.62
408.226	83.62
408.449	76.62
408.673	85.62
408.896	100.62
409.12	76.62
409.344	81.62
409.567	93.62
409.791	92.62
410.014	85.62
410.238	77.62
410.461	81.62
410.685	99.62
410.908	95.62
411.132	103.62
411.355	102.62
411.578	97.62
411.802	72.62
412.025	90.62
412.249	82.62
412.472	88.62
412.695	94.62
412.919	78.62
413.142	88.62
413.365	80.62
413.589	89.62
413.812	86.62
414.035	82.62
414.258	101.62
414.482	85.62
414.705	81.62
414.928	92.62
415.151	86.62
415.374	92.62
415.597	80.62
415.821	79.62
416.044	80.62
416.267	82.62
416.49	78.62
416.713	89.62
416.936	80.62
417.159	80.62
417.382	70.62
417.605	87.62
417.828	103.62
418.051	90.62
418.274	88.62
418.497	93.62
418.72	73.62
418.943	75.62
419.166	98.62
419.389	116.62
419.611	92.62
419.834	80.62
420.057	72.62
420.28	84.62
420.503	82.62
420.726	81.62
420.948	79.62
421.171	93.62
421.394	86.62
421.617	93.62
421.839	83.62
422.062	92.62
422.285	86.62
422.507	86.62
422.73	77.62
422.953	103.62
423.175	89.62
423.398	79.62
423.621	78.62
423.843	93.62
424.066	90.62
424.288	84.62
424.511	89.62
424.733	85.62
424.956	92.62
425.178	79.62
425.401	84.62
425.623	89.62
425.846	88.62
426.068	92.62
426.291	81.62
426.513	73.62
426.735	84.62
426.958	86.62
427.18	80.62
427.402	99.62
427.625	116.62
427.847	120.62
428.069	80.62
428.292	81.62
428.514	72.62
428.736	80.62
428.958	73.62
429.181	70.62
429.403	77.62
429.625	81.62
429.847	80.62
430.069	90.62
430.292	90.62
430.514	79.62
430.736	85.62
430.958	83.62
431.18	75.62
431.402	78.62
431.624	79.62
431.846	66.62
432.068	81.62
432.29	83.62
432.512	94.62
432.734	82.62
432.956	82.62
433.178	100.62
433.4	95.62
433.622	88.62
433.844	81.62
434.066	98.62
434.287	76.62
434.509	70.62
434.731	80.62
434.953	76.62
435.175	77.62
435.397	85.62
435.618	71.62
435.84	103.62
436.062	110.62
436.284	102.62
436.505	97.62
436.727	103.62
436.949	85.62
437.17	82.62
437.392	76.62
437.614	92.62
437.835	102.62
438.057	104.62
438.278	97.62
438.5	80.62
438.721	93.62
438.943	88.62
439.165	88.62
439.386	72.62
439.608	83.62
439.829	101.62
440.05	91.62
440.272	118.62
440.493	94.62
440.715	82.62
440.936	65.62
441.158	74.62
441.379	84.62
441.6	80.62
441.822	97.62
442.043	89.62
442.264	88.62
442.486	103.62
442.707	84.62
442.928	98.62
443.149	99.62
443.371	107.62
443.592	84.62
443.813	101.62
444.034	88.62
444.255	78.62
444.476	83.62
444.698	83.62
444.919	80.62
445.14	124.62
445.361	123.62
445.582	87.62
445.803	103.62
446.024	110.62
446.245	125.62
446.466	92.62
446.687	68.62
446.908	74.62
447.129	78.62
447.35	78.62
447.571	87.62
447.792	96.62
448.013	93.62
448.234	97.62
448.455	71.62
448.675	90.62
448.896	95.62
449.117	80.62
449.338	105.62
449.559	109.62
449.779	101.62
450	90.62
450.221	91.62
450.442	88.62
450.662	85.62
450.883	92.62
451.104	77.62
451.324	88.62
451.545	96.62
451.766	78.62
451.986	82.62
452.207	78.62
452.428	78.62
452.648	82.62
452.869	95.62
453.089	95.62
453.31	91.62
453.53	85.62
453.751	87.62
453.971	101.62
454.192	101.62
454.412	76.62
454.633	83.62
454.853	69.62
455.073	79.62
455.294	79.62
455.514	81.62
455.734	79.62
455.955	73.62
456.175	86.62
456.395	69.62
456.616	88.62
456.836	78.62
457.056	80.62
457.276	77.62
457.497	62.62
457.717	82.62
457.937	97.62
458.157	96.62
458.377	79.62
458.598	86.62
458.818	111.62
459.038	114.62
459.258	98.62
459.478	89.62
459.698	75.62
459.918	89.62
460.138	73.62
460.358	85.62
460.578	78.62
460.798	87.62
461.018	94.62
461.238	81.62
461.458	80.62
461.678	84.62
461.898	74.62
462.118	80.62
462.338	72.62
462.558	65.62
462.777	83.62
462.997	85.62
463.217	77.62
463.437	81.62
463.657	67.62
463.876	87.62
464.096	78.62
464.316	80.62
464.536	84.62
464.755	89.62
464.975	84.62
465.195	122.62
465.414	128.62
465.634	84.62
465.854	90.62
466.073	87.62
466.293	77.62
466.512	62.62
466.732	73.62
466.951	89.62
467.171	80.62
467.391	75.62
467.61	99.62
467.829	102.62
468.049	94.62
468.268	95.62
468.488	82.62
468.707	80.62
468.927	85.62
469.146	60.62
469.365	78.62
469.585	70.62
469.804	90.62
470.023	83.62
470.243	81.62
470.462	82.62
470.681	81.62
470.901	95.62
471.12	90.62
471.339	87.62
471.558	78.62
471.777	70.62
471.997	81.62
472.216	101.62
472.435	133.62
472.654	88.62
472.873	80.62
473.092	80.62
473.311	68.62
473.53	81.62
473.749	78.62
473.968	88.62
474.187	94.62
474.406	80.62
474.625	84.62
474.844	87.62
475.063	76.62
475.282	79.62
475.501	74.62
475.72	75.62
475.939	88.62
476.158	73.62
476.377	63.62
476.596	73.62
476.814	93.62
477.033	81.62
477.252	72.62
477.471	70.62
477.69	92.62
477.908	81.62
478.127	95.62
478.346	79.62
478.564	88.62
478.783	93.62
479.002	93.62
479.22	88.62
479.439	98.62
479.658	103.62
479.876	91.62
480.095	80.62
480.313	90.62
480.532	89.62
480.751	83.62
480.969	93.62
481.188	177.62
481.406	136.62
481.624	73.62
481.843	85.62
482.061	64.62
482.28	95.62
482.498	90.62
482.717	84.62
482.935	78.62
483.153	83.62
483.372	81.62
483.59	90.62
483.808	77.62
484.027	87.62
484.245	95.62
484.463	81.62
484.681	93.62
484.9	86.62
485.118	85.62
485.336	85.62
485.554	84.62
485.772	95.62
485.99	96.62
486.209	112.62
486.427	103.62
486.645	98.62
486.863	104.62
487.081	93.62
487.299	99.62
487.517	93.62
487.735	66.62
487.953	84.62
488.171	103.62
488.389	88.62
488.607	99.62
488.825	72.62
489.043	87.62
489.261	110.62
489.479	89.62
489.696	80.62
489.914	90.62
490.132	85.62
490.35	85.62
490.568	93.62
490.786	87.62
491.003	89.62
491.221	80.62
491.439	73.62
491.657	78.62
491.874	85.62
492.092	85.62
492.31	87.62
492.527	94.62
492.745	70.62
492.963	93.62
493.18	91.62
493.398	97.62
493.615	90.62
493.833	93.62
494.05	97.62
494.268	83.62
494.485	86.62
494.703	95.62
494.92	77.62
495.138	82.62
495.355	83.62
495.573	71.62
495.79	80.62
496.008	92.62
496.225	80.62
496.442	84.62
496.66	92.62
496.877	89.62
497.094	90.62
497.312	92.62
497.529	91.62
497.746	95.62
497.963	73.62
498.181	84.62
498.398	77.62
498.615	96.62
498.832	94.62
499.049	101.62
499.267	71.62
499.484	75.62
499.701	72.62
499.918	90.62
500.135	86.62
500.352	88.62
500.569	102.62
500.786	84.62
501.003	78.62
501.22	74.62
501.437	71.62
501.654	89.62
501.871	100.62
502.088	74.62
502.305	80.62
502.522	85.62
502.739	82.62
502.956	108.62
503.172	78.62
503.389	84.62
503.606	82.62
503.823	72.62
504.04	94.62
504.256	88.62
504.473	84.62
504.69	92.62
504.907	86.62
505.123	85.62
505.34	73.62
505.557	81.62
505.773	74.62
505.99	90.62
506.207	71.62
506.423	69.62
506.64	88.62
506.856	98.62
507.073	85.62
507.289	81.62
507.506	68.62
507.722	88.62
507.939	101.62
508.155	93.62
508.372	85.62
508.588	76.62
508.805	77.62
509.021	88.62
509.238	90.62
509.454	96.62
509.67	111.62
509.887	97.62
510.103	115.62
510.319	160.62
510.536	564.62
510.752	1761.62
510.968	511.62
511.184	132.62
511.401	106.62
511.617	87.62
511.833	72.62
512.049	82.62
512.265	83.62
512.481	89.62
512.698	81.62
512.914	90.62
513.13	95.62
513.346	76.62
513.562	98.62
513.778	106.62
513.994	88.62
514.21	98.62
514.426	103.62
514.642	111.62
514.858	116.62
515.074	136.62
515.29	335.62
515.506	1044.62
515.721	387.62
515.937	126.62
516.153	96.62
516.369	94.62
516.585	92.62
516.801	68.62
517.016	76.62
517.232	78.62
517.448	85.62
517.664	96.62
