Data from Circ_1980_H10_HRD10591_00098.txt Node
Date: Wed Jan 03 12:38:17 EST 2024
User: Yrep
Spectrometer: HR+D1059
Trigger mode: 1
Integration Time (sec): 1.000000E-1
Scans to average: 1
Electric dark correction enabled: true
Nonlinearity correction enabled: false
Boxcar width: 0
XAxis mode: Wavelengths
Number of Pixels in Spectrum: 2048
>>>>>Begin Spectral Data<<<<<
223.165	-23.19
223.4	-23.19
223.635	-23.19
223.869	-20.19
224.104	-18.19
224.338	-28.19
224.573	-5.19
224.808	-11.19
225.042	-2.19
225.277	-10.19
225.511	-13.19
225.746	4.81
225.98	8.81
226.215	6.81
226.449	5.81
226.683	26.81
226.918	44.81
227.152	33.81
227.387	42.81
227.621	46.81
227.856	48.81
228.09	36.81
228.324	59.81
228.559	56.81
228.793	60.81
229.027	61.81
229.262	66.81
229.496	43.81
229.73	74.81
229.964	77.81
230.199	65.81
230.433	76.81
230.667	93.81
230.901	75.81
231.136	85.81
231.37	75.81
231.604	65.81
231.838	75.81
232.072	84.81
232.306	73.81
232.541	85.81
232.775	76.81
233.009	91.81
233.243	67.81
233.477	80.81
233.711	63.81
233.945	90.81
234.179	87.81
234.413	90.81
234.647	89.81
234.881	85.81
235.115	74.81
235.349	89.81
235.583	74.81
235.817	85.81
236.051	74.81
236.285	75.81
236.519	76.81
236.753	68.81
236.987	73.81
237.221	80.81
237.455	78.81
237.689	78.81
237.922	86.81
238.156	75.81
238.39	78.81
238.624	76.81
238.858	72.81
239.091	63.81
239.325	74.81
239.559	69.81
239.793	78.81
240.027	79.81
240.26	78.81
240.494	71.81
240.728	72.81
240.961	62.81
241.195	81.81
241.429	77.81
241.662	79.81
241.896	69.81
242.13	74.81
242.363	77.81
242.597	67.81
242.83	81.81
243.064	69.81
243.298	86.81
243.531	72.81
243.765	85.81
243.998	75.81
244.232	85.81
244.465	85.81
244.699	77.81
244.932	65.81
245.166	75.81
245.399	83.81
245.633	78.81
245.866	81.81
246.099	73.81
246.333	82.81
246.566	69.81
246.8	78.81
247.033	84.81
247.266	81.81
247.5	61.81
247.733	73.81
247.966	71.81
248.2	92.81
248.433	75.81
248.666	73.81
248.899	91.81
249.133	78.81
249.366	82.81
249.599	97.81
249.832	76.81
250.066	91.81
250.299	81.81
250.532	82.81
250.765	75.81
250.998	73.81
251.231	85.81
251.465	95.81
251.698	86.81
251.931	80.81
252.164	83.81
252.397	87.81
252.63	70.81
252.863	87.81
253.096	73.81
253.329	81.81
253.562	77.81
253.795	78.81
254.028	86.81
254.261	71.81
254.494	77.81
254.727	72.81
254.96	71.81
255.193	91.81
255.426	83.81
255.659	74.81
255.892	97.81
256.124	79.81
256.357	65.81
256.59	84.81
256.823	73.81
257.056	78.81
257.289	70.81
257.521	92.81
257.754	73.81
257.987	79.81
258.22	84.81
258.452	73.81
258.685	77.81
258.918	88.81
259.151	75.81
259.383	76.81
259.616	82.81
259.849	76.81
260.081	81.81
260.314	76.81
260.547	81.81
260.779	94.81
261.012	93.81
261.244	72.81
261.477	97.81
261.71	81.81
261.942	101.81
262.175	98.81
262.407	83.81
262.64	81.81
262.872	81.81
263.105	76.81
263.337	72.81
263.57	87.81
263.802	82.81
264.035	82.81
264.267	88.81
264.499	77.81
264.732	88.81
264.964	85.81
265.197	76.81
265.429	83.81
265.661	75.81
265.894	77.81
266.126	88.81
266.358	80.81
266.591	81.81
266.823	82.81
267.055	101.81
267.287	78.81
267.52	78.81
267.752	85.81
267.984	84.81
268.216	79.81
268.448	83.81
268.681	70.81
268.913	86.81
269.145	79.81
269.377	77.81
269.609	76.81
269.841	95.81
270.073	88.81
270.306	83.81
270.538	78.81
270.77	77.81
271.002	83.81
271.234	75.81
271.466	100.81
271.698	86.81
271.93	81.81
272.162	95.81
272.394	98.81
272.626	83.81
272.858	79.81
273.09	77.81
273.322	78.81
273.553	87.81
273.785	89.81
274.017	94.81
274.249	94.81
274.481	68.81
274.713	85.81
274.945	85.81
275.176	90.81
275.408	83.81
275.64	107.81
275.872	72.81
276.104	90.81
276.335	87.81
276.567	95.81
276.799	89.81
277.031	85.81
277.262	85.81
277.494	90.81
277.726	101.81
277.957	98.81
278.189	88.81
278.421	79.81
278.652	80.81
278.884	61.81
279.115	89.81
279.347	82.81
279.579	81.81
279.81	72.81
280.042	93.81
280.273	74.81
280.505	84.81
280.736	87.81
280.968	78.81
281.199	87.81
281.431	87.81
281.662	68.81
281.894	77.81
282.125	100.81
282.356	106.81
282.588	111.81
282.819	98.81
283.051	90.81
283.282	72.81
283.513	82.81
283.745	72.81
283.976	87.81
284.207	83.81
284.439	74.81
284.67	85.81
284.901	82.81
285.132	97.81
285.364	89.81
285.595	77.81
285.826	97.81
286.057	85.81
286.288	100.81
286.52	82.81
286.751	78.81
286.982	79.81
287.213	78.81
287.444	96.81
287.675	109.81
287.906	86.81
288.138	85.81
288.369	93.81
288.6	80.81
288.831	81.81
289.062	90.81
289.293	89.81
289.524	87.81
289.755	91.81
289.986	90.81
290.217	90.81
290.448	91.81
290.679	87.81
290.91	75.81
291.141	76.81
291.371	85.81
291.602	79.81
291.833	94.81
292.064	97.81
292.295	82.81
292.526	87.81
292.757	74.81
292.987	78.81
293.218	88.81
293.449	96.81
293.68	79.81
293.91	86.81
294.141	93.81
294.372	96.81
294.603	95.81
294.833	89.81
295.064	83.81
295.295	87.81
295.525	90.81
295.756	90.81
295.987	101.81
296.217	112.81
296.448	122.81
296.679	97.81
296.909	75.81
297.14	73.81
297.37	76.81
297.601	83.81
297.831	83.81
298.062	87.81
298.292	101.81
298.523	86.81
298.753	87.81
298.984	83.81
299.214	94.81
299.445	89.81
299.675	81.81
299.905	81.81
300.136	90.81
300.366	74.81
300.597	77.81
300.827	95.81
301.057	91.81
301.288	92.81
301.518	93.81
301.748	96.81
301.979	103.81
302.209	94.81
302.439	93.81
302.669	74.81
302.9	89.81
303.13	90.81
303.36	93.81
303.59	98.81
303.82	97.81
304.051	84.81
304.281	104.81
304.511	91.81
304.741	102.81
304.971	93.81
305.201	76.81
305.431	65.81
305.661	76.81
305.891	90.81
306.121	101.81
306.352	95.81
306.582	88.81
306.812	81.81
307.042	94.81
307.272	83.81
307.502	95.81
307.731	95.81
307.961	95.81
308.191	92.81
308.421	76.81
308.651	87.81
308.881	89.81
309.111	84.81
309.341	80.81
309.571	87.81
309.8	99.81
310.03	110.81
310.26	97.81
310.49	85.81
310.72	87.81
310.949	89.81
311.179	62.81
311.409	84.81
311.639	83.81
311.868	110.81
312.098	101.81
312.328	89.81
312.557	109.81
312.787	96.81
313.017	86.81
313.246	101.81
313.476	103.81
313.706	96.81
313.935	89.81
314.165	92.81
314.394	99.81
314.624	99.81
314.853	96.81
315.083	100.81
315.312	102.81
315.542	95.81
315.771	89.81
316.001	90.81
316.23	85.81
316.46	86.81
316.689	97.81
316.919	89.81
317.148	106.81
317.377	85.81
317.607	87.81
317.836	87.81
318.065	95.81
318.295	89.81
318.524	105.81
318.753	77.81
318.983	94.81
319.212	94.81
319.441	94.81
319.67	98.81
319.9	89.81
320.129	83.81
320.358	79.81
320.587	93.81
320.816	78.81
321.046	97.81
321.275	99.81
321.504	103.81
321.733	92.81
321.962	105.81
322.191	100.81
322.42	89.81
322.649	101.81
322.878	113.81
323.108	116.81
323.337	104.81
323.566	112.81
323.795	126.81
324.024	171.81
324.253	285.81
324.482	575.81
324.71	1143.81
324.939	1468.81
325.168	579.81
325.397	193.81
325.626	121.81
325.855	118.81
326.084	102.81
326.313	115.81
326.542	135.81
326.77	173.81
326.999	329.81
327.228	661.81
327.457	1214.81
327.686	942.81
327.914	279.81
328.143	163.81
328.372	123.81
328.6	115.81
328.829	111.81
329.058	100.81
329.287	117.81
329.515	107.81
329.744	107.81
329.972	98.81
330.201	101.81
330.43	118.81
330.658	117.81
330.887	116.81
331.115	115.81
331.344	103.81
331.572	103.81
331.801	93.81
332.03	110.81
332.258	89.81
332.486	105.81
332.715	102.81
332.943	93.81
333.172	90.81
333.4	102.81
333.629	103.81
333.857	98.81
334.085	103.81
334.314	108.81
334.542	125.81
334.771	126.81
334.999	99.81
335.227	100.81
335.455	84.81
335.684	102.81
335.912	93.81
336.14	104.81
336.369	94.81
336.597	92.81
336.825	99.81
337.053	94.81
337.281	97.81
337.51	87.81
337.738	89.81
337.966	79.81
338.194	104.81
338.422	96.81
338.65	89.81
338.878	89.81
339.106	102.81
339.334	104.81
339.562	91.81
339.79	84.81
340.018	92.81
340.246	97.81
340.474	92.81
340.702	89.81
340.93	83.81
341.158	91.81
341.386	94.81
341.614	89.81
341.842	101.81
342.07	98.81
342.298	109.81
342.526	94.81
342.754	85.81
342.981	74.81
343.209	89.81
343.437	100.81
343.665	85.81
343.893	93.81
344.12	84.81
344.348	111.81
344.576	100.81
344.804	97.81
345.031	86.81
345.259	99.81
345.487	99.81
345.714	81.81
345.942	88.81
346.17	96.81
346.397	95.81
346.625	101.81
346.853	90.81
347.08	83.81
347.308	92.81
347.535	88.81
347.763	78.81
347.99	100.81
348.218	100.81
348.445	86.81
348.673	100.81
348.9	109.81
349.128	92.81
349.355	92.81
349.583	103.81
349.81	82.81
350.037	113.81
350.265	104.81
350.492	91.81
350.72	96.81
350.947	99.81
351.174	89.81
351.402	111.81
351.629	96.81
351.856	103.81
352.083	90.81
352.311	89.81
352.538	94.81
352.765	102.81
352.992	85.81
353.22	110.81
353.447	112.81
353.674	101.81
353.901	95.81
354.128	94.81
354.355	97.81
354.583	97.81
354.81	89.81
355.037	85.81
355.264	99.81
355.491	97.81
355.718	91.81
355.945	101.81
356.172	97.81
356.399	76.81
356.626	86.81
356.853	89.81
357.08	104.81
357.307	84.81
357.534	88.81
357.761	98.81
357.988	95.81
358.215	100.81
358.441	85.81
358.668	91.81
358.895	95.81
359.122	81.81
359.349	94.81
359.576	97.81
359.802	85.81
360.029	98.81
360.256	97.81
360.483	102.81
360.709	87.81
360.936	88.81
361.163	97.81
361.39	92.81
361.616	100.81
361.843	87.81
362.07	78.81
362.296	94.81
362.523	87.81
362.749	85.81
362.976	95.81
363.203	95.81
363.429	84.81
363.656	78.81
363.882	81.81
364.109	89.81
364.335	97.81
364.562	109.81
364.788	87.81
365.015	66.81
365.241	101.81
365.468	99.81
365.694	98.81
365.92	87.81
366.147	84.81
366.373	87.81
366.599	88.81
366.826	77.81
367.052	79.81
367.278	90.81
367.505	81.81
367.731	81.81
367.957	85.81
368.184	84.81
368.41	79.81
368.636	115.81
368.862	121.81
369.089	107.81
369.315	90.81
369.541	91.81
369.767	98.81
369.993	78.81
370.219	95.81
370.445	73.81
370.672	82.81
370.898	87.81
371.124	85.81
371.35	82.81
371.576	90.81
371.802	62.81
372.028	85.81
372.254	76.81
372.48	89.81
372.706	85.81
372.932	92.81
373.158	91.81
373.384	98.81
373.61	95.81
373.835	79.81
374.061	93.81
374.287	84.81
374.513	90.81
374.739	89.81
374.965	83.81
375.191	74.81
375.416	89.81
375.642	90.81
375.868	98.81
376.094	99.81
376.319	77.81
376.545	93.81
376.771	97.81
376.997	79.81
377.222	81.81
377.448	74.81
377.674	93.81
377.899	92.81
378.125	84.81
378.35	92.81
378.576	78.81
378.802	104.81
379.027	89.81
379.253	94.81
379.478	107.81
379.704	91.81
379.929	92.81
380.155	91.81
380.38	95.81
380.606	93.81
380.831	81.81
381.057	82.81
381.282	92.81
381.507	96.81
381.733	87.81
381.958	96.81
382.184	99.81
382.409	97.81
382.634	95.81
382.86	98.81
383.085	93.81
383.31	102.81
383.535	106.81
383.761	87.81
383.986	94.81
384.211	103.81
384.436	92.81
384.662	72.81
384.887	93.81
385.112	94.81
385.337	105.81
385.562	96.81
385.787	106.81
386.013	92.81
386.238	111.81
386.463	103.81
386.688	111.81
386.913	97.81
387.138	89.81
387.363	114.81
387.588	91.81
387.813	100.81
388.038	83.81
388.263	107.81
388.488	99.81
388.713	84.81
388.938	84.81
389.163	99.81
389.387	88.81
389.612	101.81
389.837	93.81
390.062	99.81
390.287	82.81
390.512	101.81
390.736	96.81
390.961	93.81
391.186	92.81
391.411	93.81
391.636	82.81
391.86	77.81
392.085	79.81
392.31	93.81
392.534	88.81
392.759	85.81
392.984	85.81
393.208	82.81
393.433	90.81
393.658	85.81
393.882	82.81
394.107	77.81
394.331	89.81
394.556	93.81
394.78	87.81
395.005	87.81
395.229	94.81
395.454	104.81
395.678	81.81
395.903	81.81
396.127	96.81
396.352	93.81
396.576	85.81
396.801	78.81
397.025	89.81
397.249	72.81
397.474	72.81
397.698	88.81
397.922	93.81
398.147	87.81
398.371	87.81
398.595	90.81
398.82	93.81
399.044	83.81
399.268	98.81
399.492	89.81
399.717	86.81
399.941	87.81
400.165	86.81
400.389	105.81
400.613	91.81
400.837	88.81
401.062	87.81
401.286	95.81
401.51	87.81
401.734	82.81
401.958	94.81
402.182	112.81
402.406	136.81
402.63	93.81
402.854	100.81
403.078	82.81
403.302	84.81
403.526	89.81
403.75	93.81
403.974	85.81
404.198	102.81
404.422	86.81
404.645	99.81
404.869	85.81
405.093	100.81
405.317	105.81
405.541	94.81
405.765	76.81
405.988	94.81
406.212	137.81
406.436	184.81
406.66	108.81
406.883	97.81
407.107	95.81
407.331	100.81
407.555	75.81
407.778	87.81
408.002	85.81
408.226	97.81
408.449	79.81
408.673	87.81
408.896	105.81
409.12	86.81
409.344	78.81
409.567	91.81
409.791	90.81
410.014	103.81
410.238	81.81
410.461	117.81
410.685	89.81
410.908	109.81
411.132	96.81
411.355	104.81
411.578	99.81
411.802	83.81
412.025	99.81
412.249	86.81
412.472	81.81
412.695	90.81
412.919	100.81
413.142	72.81
413.365	88.81
413.589	86.81
413.812	84.81
414.035	85.81
414.258	98.81
414.482	79.81
414.705	89.81
414.928	91.81
415.151	84.81
415.374	102.81
415.597	83.81
415.821	91.81
416.044	92.81
416.267	86.81
416.49	92.81
416.713	86.81
416.936	85.81
417.159	86.81
417.382	74.81
417.605	91.81
417.828	96.81
418.051	77.81
418.274	84.81
418.497	93.81
418.72	80.81
418.943	83.81
419.166	93.81
419.389	85.81
419.611	89.81
419.834	100.81
420.057	99.81
420.28	100.81
420.503	91.81
420.726	86.81
420.948	91.81
421.171	92.81
421.394	92.81
421.617	89.81
421.839	76.81
422.062	87.81
422.285	91.81
422.507	86.81
422.73	97.81
422.953	86.81
423.175	97.81
423.398	69.81
423.621	84.81
423.843	76.81
424.066	81.81
424.288	90.81
424.511	92.81
424.733	90.81
424.956	110.81
425.178	91.81
425.401	101.81
425.623	81.81
425.846	85.81
426.068	92.81
426.291	88.81
426.513	87.81
426.735	81.81
426.958	83.81
427.18	86.81
427.402	97.81
427.625	119.81
427.847	107.81
428.069	106.81
428.292	70.81
428.514	88.81
428.736	85.81
428.958	84.81
429.181	93.81
429.403	88.81
429.625	82.81
429.847	81.81
430.069	96.81
430.292	100.81
430.514	82.81
430.736	78.81
430.958	90.81
431.18	87.81
431.402	91.81
431.624	86.81
431.846	86.81
432.068	82.81
432.29	98.81
432.512	94.81
432.734	87.81
432.956	94.81
433.178	86.81
433.4	96.81
433.622	97.81
433.844	92.81
434.066	75.81
434.287	81.81
434.509	89.81
434.731	98.81
434.953	93.81
435.175	78.81
435.397	64.81
435.618	72.81
435.84	97.81
436.062	110.81
436.284	101.81
436.505	102.81
436.727	92.81
436.949	89.81
437.17	87.81
437.392	87.81
437.614	98.81
437.835	107.81
438.057	103.81
438.278	81.81
438.5	87.81
438.721	110.81
438.943	105.81
439.165	89.81
439.386	84.81
439.608	88.81
439.829	94.81
440.05	100.81
440.272	119.81
440.493	96.81
440.715	86.81
440.936	86.81
441.158	95.81
441.379	84.81
441.6	82.81
441.822	89.81
442.043	93.81
442.264	97.81
442.486	105.81
442.707	89.81
442.928	81.81
443.149	101.81
443.371	111.81
443.592	87.81
443.813	104.81
444.034	92.81
444.255	97.81
444.476	84.81
444.698	76.81
444.919	97.81
445.14	127.81
445.361	99.81
445.582	101.81
445.803	117.81
446.024	103.81
446.245	102.81
446.466	97.81
446.687	87.81
446.908	87.81
447.129	85.81
447.35	86.81
447.571	88.81
447.792	88.81
448.013	86.81
448.234	88.81
448.455	103.81
448.675	85.81
448.896	97.81
449.117	105.81
449.338	98.81
449.559	116.81
449.779	111.81
450	81.81
450.221	88.81
450.442	96.81
450.662	94.81
450.883	101.81
451.104	113.81
451.324	89.81
451.545	85.81
451.766	66.81
451.986	85.81
452.207	102.81
452.428	90.81
452.648	92.81
452.869	105.81
453.089	91.81
453.31	99.81
453.53	87.81
453.751	91.81
453.971	98.81
454.192	81.81
454.412	82.81
454.633	81.81
454.853	75.81
455.073	83.81
455.294	86.81
455.514	92.81
455.734	89.81
455.955	86.81
456.175	86.81
456.395	84.81
456.616	78.81
456.836	89.81
457.056	94.81
457.276	97.81
457.497	84.81
457.717	83.81
457.937	91.81
458.157	83.81
458.377	97.81
458.598	85.81
458.818	111.81
459.038	115.81
459.258	109.81
459.478	92.81
459.698	84.81
459.918	66.81
460.138	87.81
460.358	91.81
460.578	79.81
460.798	71.81
461.018	89.81
461.238	96.81
461.458	82.81
461.678	99.81
461.898	91.81
462.118	84.81
462.338	86.81
462.558	76.81
462.777	76.81
462.997	83.81
463.217	80.81
463.437	89.81
463.657	83.81
463.876	102.81
464.096	86.81
464.316	87.81
464.536	88.81
464.755	88.81
464.975	98.81
465.195	123.81
465.414	117.81
465.634	84.81
465.854	92.81
466.073	98.81
466.293	90.81
466.512	72.81
466.732	82.81
466.951	75.81
467.171	86.81
467.391	85.81
467.61	82.81
467.829	77.81
468.049	96.81
468.268	103.81
468.488	98.81
468.707	90.81
468.927	81.81
469.146	95.81
469.365	85.81
469.585	85.81
469.804	97.81
470.023	81.81
470.243	75.81
470.462	90.81
470.681	95.81
470.901	83.81
471.12	90.81
471.339	85.81
471.558	79.81
471.777	90.81
471.997	92.81
472.216	105.81
472.435	126.81
472.654	89.81
472.873	85.81
473.092	83.81
473.311	76.81
473.53	87.81
473.749	91.81
473.968	96.81
474.187	90.81
474.406	89.81
474.625	66.81
474.844	93.81
475.063	89.81
475.282	83.81
475.501	93.81
475.72	93.81
475.939	92.81
476.158	89.81
476.377	92.81
476.596	88.81
476.814	94.81
477.033	101.81
477.252	92.81
477.471	78.81
477.69	85.81
477.908	76.81
478.127	81.81
478.346	88.81
478.564	76.81
478.783	83.81
479.002	72.81
479.22	84.81
479.439	81.81
479.658	95.81
479.876	95.81
480.095	81.81
480.313	69.81
480.532	97.81
480.751	111.81
480.969	115.81
481.188	179.81
481.406	135.81
481.624	106.81
481.843	107.81
482.061	88.81
482.28	87.81
482.498	83.81
482.717	80.81
482.935	72.81
483.153	84.81
483.372	86.81
483.59	90.81
483.808	80.81
484.027	76.81
484.245	91.81
484.463	115.81
484.681	89.81
484.9	87.81
485.118	97.81
485.336	85.81
485.554	103.81
485.772	102.81
485.99	103.81
486.209	111.81
486.427	105.81
486.645	114.81
486.863	111.81
487.081	97.81
487.299	89.81
487.517	100.81
487.735	92.81
487.953	74.81
488.171	93.81
488.389	94.81
488.607	94.81
488.825	82.81
489.043	94.81
489.261	91.81
489.479	91.81
489.696	90.81
489.914	82.81
490.132	100.81
490.35	100.81
490.568	76.81
490.786	70.81
491.003	97.81
491.221	68.81
491.439	77.81
491.657	90.81
491.874	99.81
492.092	93.81
492.31	90.81
492.527	83.81
492.745	94.81
492.963	91.81
493.18	92.81
493.398	89.81
493.615	102.81
493.833	93.81
494.05	92.81
494.268	84.81
494.485	91.81
494.703	89.81
494.92	77.81
495.138	94.81
495.355	89.81
495.573	83.81
495.79	81.81
496.008	103.81
496.225	105.81
496.442	100.81
496.66	96.81
496.877	101.81
497.094	87.81
497.312	89.81
497.529	78.81
497.746	78.81
497.963	96.81
498.181	91.81
498.398	90.81
498.615	102.81
498.832	93.81
499.049	84.81
499.267	89.81
499.484	100.81
499.701	99.81
499.918	72.81
500.135	95.81
500.352	104.81
500.569	77.81
500.786	99.81
501.003	98.81
501.22	87.81
501.437	87.81
501.654	96.81
501.871	91.81
502.088	102.81
502.305	87.81
502.522	100.81
502.739	85.81
502.956	88.81
503.172	97.81
503.389	101.81
503.606	86.81
503.823	81.81
504.04	92.81
504.256	73.81
504.473	74.81
504.69	83.81
504.907	91.81
505.123	84.81
505.34	90.81
505.557	82.81
505.773	84.81
505.99	97.81
506.207	80.81
506.423	83.81
506.64	82.81
506.856	89.81
507.073	85.81
507.289	98.81
507.506	91.81
507.722	92.81
507.939	100.81
508.155	104.81
508.372	87.81
508.588	84.81
508.805	88.81
509.021	95.81
509.238	98.81
509.454	85.81
509.67	103.81
509.887	93.81
510.103	122.81
510.319	174.81
510.536	518.81
510.752	1571.81
510.968	452.81
511.184	127.81
511.401	95.81
511.617	87.81
511.833	88.81
512.049	103.81
512.265	85.81
512.481	100.81
512.698	96.81
512.914	83.81
513.13	99.81
513.346	102.81
513.562	86.81
513.778	95.81
513.994	101.81
514.21	102.81
514.426	117.81
514.642	110.81
514.858	105.81
515.074	149.81
515.29	303.81
515.506	880.81
515.721	339.81
515.937	124.81
516.153	97.81
516.369	83.81
516.585	83.81
