Data from Circ_1980_H10_HRD10591_00065.txt Node
Date: Wed Jan 03 12:38:11 EST 2024
User: Yrep
Spectrometer: HR+D1059
Trigger mode: 1
Integration Time (sec): 1.000000E-1
Scans to average: 1
Electric dark correction enabled: true
Nonlinearity correction enabled: false
Boxcar width: 0
XAxis mode: Wavelengths
Number of Pixels in Spectrum: 2048
>>>>>Begin Spectral Data<<<<<
223.165	-23.81
223.4	-23.81
223.635	-23.81
223.869	-10.81
224.104	-6.81
224.338	-23.81
224.573	-14.81
224.808	-12.81
225.042	-12.81
225.277	-16.81
225.511	-6.81
225.746	0.19
225.98	20.19
226.215	24.19
226.449	20.19
226.683	25.19
226.918	20.19
227.152	19.19
227.387	36.19
227.621	29.19
227.856	37.19
228.09	42.19
228.324	46.19
228.559	64.19
228.793	54.19
229.027	60.19
229.262	55.19
229.496	73.19
229.73	67.19
229.964	83.19
230.199	69.19
230.433	84.19
230.667	80.19
230.901	79.19
231.136	77.19
231.37	75.19
231.604	72.19
231.838	78.19
232.072	65.19
232.306	87.19
232.541	86.19
232.775	86.19
233.009	93.19
233.243	77.19
233.477	95.19
233.711	92.19
233.945	73.19
234.179	83.19
234.413	89.19
234.647	72.19
234.881	83.19
235.115	81.19
235.349	61.19
235.583	81.19
235.817	85.19
236.051	77.19
236.285	74.19
236.519	79.19
236.753	63.19
236.987	88.19
237.221	91.19
237.455	77.19
237.689	79.19
237.922	89.19
238.156	71.19
238.39	75.19
238.624	77.19
238.858	77.19
239.091	77.19
239.325	74.19
239.559	86.19
239.793	78.19
240.027	79.19
240.26	78.19
240.494	69.19
240.728	75.19
240.961	84.19
241.195	85.19
241.429	63.19
241.662	83.19
241.896	79.19
242.13	74.19
242.363	80.19
242.597	72.19
242.83	92.19
243.064	91.19
243.298	72.19
243.531	81.19
243.765	80.19
243.998	77.19
244.232	77.19
244.465	84.19
244.699	89.19
244.932	76.19
245.166	69.19
245.399	80.19
245.633	76.19
245.866	77.19
246.099	88.19
246.333	85.19
246.566	81.19
246.8	93.19
247.033	88.19
247.266	91.19
247.5	87.19
247.733	78.19
247.966	81.19
248.2	75.19
248.433	78.19
248.666	87.19
248.899	74.19
249.133	71.19
249.366	99.19
249.599	96.19
249.832	78.19
250.066	83.19
250.299	70.19
250.532	67.19
250.765	77.19
250.998	62.19
251.231	80.19
251.465	78.19
251.698	78.19
251.931	74.19
252.164	89.19
252.397	79.19
252.63	92.19
252.863	81.19
253.096	78.19
253.329	96.19
253.562	85.19
253.795	74.19
254.028	83.19
254.261	84.19
254.494	94.19
254.727	98.19
254.96	78.19
255.193	79.19
255.426	71.19
255.659	78.19
255.892	89.19
256.124	77.19
256.357	91.19
256.59	85.19
256.823	85.19
257.056	88.19
257.289	86.19
257.521	81.19
257.754	95.19
257.987	70.19
258.22	95.19
258.452	81.19
258.685	69.19
258.918	91.19
259.151	105.19
259.383	83.19
259.616	88.19
259.849	81.19
260.081	88.19
260.314	68.19
260.547	78.19
260.779	89.19
261.012	81.19
261.244	73.19
261.477	94.19
261.71	101.19
261.942	106.19
262.175	99.19
262.407	85.19
262.64	72.19
262.872	87.19
263.105	99.19
263.337	101.19
263.57	74.19
263.802	96.19
264.035	73.19
264.267	94.19
264.499	79.19
264.732	96.19
264.964	83.19
265.197	82.19
265.429	97.19
265.661	79.19
265.894	77.19
266.126	80.19
266.358	75.19
266.591	94.19
266.823	81.19
267.055	80.19
267.287	87.19
267.52	83.19
267.752	95.19
267.984	86.19
268.216	94.19
268.448	75.19
268.681	78.19
268.913	80.19
269.145	89.19
269.377	89.19
269.609	89.19
269.841	95.19
270.073	81.19
270.306	83.19
270.538	82.19
270.77	85.19
271.002	93.19
271.234	81.19
271.466	91.19
271.698	85.19
271.93	83.19
272.162	79.19
272.394	88.19
272.626	87.19
272.858	72.19
273.09	94.19
273.322	85.19
273.553	74.19
273.785	97.19
274.017	73.19
274.249	84.19
274.481	80.19
274.713	79.19
274.945	86.19
275.176	85.19
275.408	84.19
275.64	81.19
275.872	95.19
276.104	88.19
276.335	103.19
276.567	95.19
276.799	104.19
277.031	99.19
277.262	85.19
277.494	87.19
277.726	78.19
277.957	97.19
278.189	96.19
278.421	92.19
278.652	89.19
278.884	78.19
279.115	84.19
279.347	90.19
279.579	87.19
279.81	80.19
280.042	87.19
280.273	85.19
280.505	80.19
280.736	76.19
280.968	91.19
281.199	89.19
281.431	103.19
281.662	83.19
281.894	84.19
282.125	97.19
282.356	116.19
282.588	102.19
282.819	104.19
283.051	85.19
283.282	88.19
283.513	78.19
283.745	88.19
283.976	98.19
284.207	93.19
284.439	92.19
284.67	77.19
284.901	75.19
285.132	86.19
285.364	85.19
285.595	98.19
285.826	97.19
286.057	111.19
286.288	88.19
286.52	99.19
286.751	71.19
286.982	83.19
287.213	93.19
287.444	86.19
287.675	113.19
287.906	91.19
288.138	92.19
288.369	78.19
288.6	93.19
288.831	79.19
289.062	94.19
289.293	86.19
289.524	96.19
289.755	95.19
289.986	96.19
290.217	87.19
290.448	95.19
290.679	79.19
290.91	102.19
291.141	91.19
291.371	85.19
291.602	91.19
291.833	83.19
292.064	84.19
292.295	100.19
292.526	88.19
292.757	80.19
292.987	91.19
293.218	103.19
293.449	91.19
293.68	85.19
293.91	94.19
294.141	102.19
294.372	87.19
294.603	79.19
294.833	94.19
295.064	96.19
295.295	91.19
295.525	99.19
295.756	108.19
295.987	115.19
296.217	128.19
296.448	118.19
296.679	89.19
296.909	87.19
297.14	97.19
297.37	107.19
297.601	96.19
297.831	94.19
298.062	85.19
298.292	85.19
298.523	87.19
298.753	78.19
298.984	91.19
299.214	86.19
299.445	88.19
299.675	97.19
299.905	95.19
300.136	92.19
300.366	96.19
300.597	83.19
300.827	89.19
301.057	98.19
301.288	91.19
301.518	97.19
301.748	99.19
301.979	91.19
302.209	90.19
302.439	94.19
302.669	93.19
302.9	96.19
303.13	86.19
303.36	94.19
303.59	111.19
303.82	105.19
304.051	105.19
304.281	92.19
304.511	91.19
304.741	93.19
304.971	97.19
305.201	90.19
305.431	82.19
305.661	94.19
305.891	86.19
306.121	96.19
306.352	101.19
306.582	98.19
306.812	94.19
307.042	88.19
307.272	89.19
307.502	89.19
307.731	91.19
307.961	84.19
308.191	91.19
308.421	102.19
308.651	99.19
308.881	84.19
309.111	100.19
309.341	100.19
309.571	105.19
309.8	91.19
310.03	97.19
310.26	102.19
310.49	110.19
310.72	105.19
310.949	101.19
311.179	96.19
311.409	83.19
311.639	99.19
311.868	104.19
312.098	105.19
312.328	109.19
312.557	91.19
312.787	80.19
313.017	103.19
313.246	101.19
313.476	97.19
313.706	90.19
313.935	100.19
314.165	97.19
314.394	83.19
314.624	97.19
314.853	94.19
315.083	104.19
315.312	96.19
315.542	81.19
315.771	84.19
316.001	92.19
316.23	86.19
316.46	96.19
316.689	94.19
316.919	91.19
317.148	95.19
317.377	91.19
317.607	85.19
317.836	107.19
318.065	90.19
318.295	95.19
318.524	92.19
318.753	97.19
318.983	109.19
319.212	94.19
319.441	114.19
319.67	94.19
319.9	90.19
320.129	103.19
320.358	83.19
320.587	84.19
320.816	84.19
321.046	99.19
321.275	93.19
321.504	81.19
321.733	94.19
321.962	103.19
322.191	91.19
322.42	98.19
322.649	103.19
322.878	109.19
323.108	103.19
323.337	117.19
323.566	105.19
323.795	125.19
324.024	150.19
324.253	314.19
324.482	595.19
324.71	1188.19
324.939	1601.19
325.168	605.19
325.397	223.19
325.626	123.19
325.855	111.19
326.084	120.19
326.313	122.19
326.542	128.19
326.77	171.19
326.999	355.19
327.228	655.19
327.457	1241.19
327.686	1003.19
327.914	273.19
328.143	166.19
328.372	134.19
328.6	109.19
328.829	126.19
329.058	116.19
329.287	121.19
329.515	101.19
329.744	88.19
329.972	113.19
330.201	120.19
330.43	127.19
330.658	103.19
330.887	119.19
331.115	122.19
331.344	91.19
331.572	93.19
331.801	109.19
332.03	91.19
332.258	95.19
332.486	95.19
332.715	86.19
332.943	105.19
333.172	80.19
333.4	97.19
333.629	100.19
333.857	112.19
334.085	110.19
334.314	106.19
334.542	133.19
334.771	113.19
334.999	90.19
335.227	91.19
335.455	96.19
335.684	101.19
335.912	103.19
336.14	112.19
336.369	112.19
336.597	93.19
336.825	94.19
337.053	90.19
337.281	91.19
337.51	100.19
337.738	89.19
337.966	98.19
338.194	96.19
338.422	107.19
338.65	88.19
338.878	91.19
339.106	89.19
339.334	102.19
339.562	81.19
339.79	89.19
340.018	103.19
340.246	71.19
340.474	99.19
340.702	87.19
340.93	93.19
341.158	90.19
341.386	81.19
341.614	94.19
341.842	97.19
342.07	97.19
342.298	111.19
342.526	105.19
342.754	79.19
342.981	87.19
343.209	91.19
343.437	101.19
343.665	82.19
343.893	106.19
344.12	100.19
344.348	95.19
344.576	96.19
344.804	90.19
345.031	112.19
345.259	100.19
345.487	110.19
345.714	110.19
345.942	87.19
346.17	95.19
346.397	92.19
346.625	104.19
346.853	89.19
347.08	101.19
347.308	80.19
347.535	104.19
347.763	95.19
347.99	100.19
348.218	110.19
348.445	121.19
348.673	95.19
348.9	99.19
349.128	100.19
349.355	89.19
349.583	76.19
349.81	86.19
350.037	85.19
350.265	96.19
350.492	98.19
350.72	79.19
350.947	95.19
351.174	101.19
351.402	114.19
351.629	103.19
351.856	113.19
352.083	107.19
352.311	113.19
352.538	103.19
352.765	97.19
352.992	113.19
353.22	104.19
353.447	107.19
353.674	94.19
353.901	94.19
354.128	104.19
354.355	108.19
354.583	100.19
354.81	94.19
355.037	89.19
355.264	100.19
355.491	105.19
355.718	96.19
355.945	95.19
356.172	87.19
356.399	97.19
356.626	100.19
356.853	94.19
357.08	95.19
357.307	98.19
357.534	93.19
357.761	108.19
357.988	94.19
358.215	87.19
358.441	99.19
358.668	87.19
358.895	101.19
359.122	87.19
359.349	100.19
359.576	87.19
359.802	86.19
360.029	106.19
360.256	105.19
360.483	89.19
360.709	78.19
360.936	104.19
361.163	80.19
361.39	90.19
361.616	84.19
361.843	96.19
362.07	106.19
362.296	86.19
362.523	96.19
362.749	90.19
362.976	100.19
363.203	94.19
363.429	99.19
363.656	71.19
363.882	91.19
364.109	88.19
364.335	89.19
364.562	82.19
364.788	103.19
365.015	84.19
365.241	94.19
365.468	103.19
365.694	100.19
365.92	80.19
366.147	88.19
366.373	105.19
366.599	101.19
366.826	102.19
367.052	95.19
367.278	93.19
367.505	78.19
367.731	105.19
367.957	93.19
368.184	103.19
368.41	98.19
368.636	113.19
368.862	110.19
369.089	103.19
369.315	80.19
369.541	82.19
369.767	111.19
369.993	86.19
370.219	89.19
370.445	80.19
370.672	91.19
370.898	88.19
371.124	103.19
371.35	99.19
371.576	93.19
371.802	110.19
372.028	92.19
372.254	87.19
372.48	92.19
372.706	82.19
372.932	75.19
373.158	80.19
373.384	89.19
373.61	111.19
373.835	97.19
374.061	78.19
374.287	86.19
374.513	92.19
374.739	94.19
374.965	88.19
375.191	95.19
375.416	69.19
375.642	92.19
375.868	105.19
376.094	87.19
376.319	105.19
376.545	85.19
376.771	88.19
376.997	101.19
377.222	93.19
377.448	98.19
377.674	101.19
377.899	86.19
378.125	99.19
378.35	101.19
378.576	87.19
378.802	83.19
379.027	88.19
379.253	101.19
379.478	97.19
379.704	91.19
379.929	100.19
380.155	94.19
380.38	96.19
380.606	89.19
380.831	99.19
381.057	92.19
381.282	92.19
381.507	84.19
381.733	106.19
381.958	96.19
382.184	96.19
382.409	106.19
382.634	91.19
382.86	97.19
383.085	94.19
383.31	91.19
383.535	102.19
383.761	113.19
383.986	95.19
384.211	84.19
384.436	97.19
384.662	103.19
384.887	109.19
385.112	98.19
385.337	89.19
385.562	103.19
385.787	99.19
386.013	108.19
386.238	115.19
386.463	112.19
386.688	106.19
386.913	111.19
387.138	102.19
387.363	107.19
387.588	93.19
387.813	90.19
388.038	106.19
388.263	103.19
388.488	109.19
388.713	103.19
388.938	105.19
389.163	92.19
389.387	107.19
389.612	81.19
389.837	95.19
390.062	116.19
390.287	89.19
390.512	84.19
390.736	92.19
390.961	96.19
391.186	98.19
391.411	101.19
391.636	92.19
391.86	81.19
392.085	83.19
392.31	92.19
392.534	74.19
392.759	88.19
392.984	90.19
393.208	103.19
393.433	85.19
393.658	96.19
393.882	101.19
394.107	80.19
394.331	87.19
394.556	91.19
394.78	101.19
395.005	87.19
395.229	85.19
395.454	84.19
395.678	84.19
395.903	87.19
396.127	103.19
396.352	98.19
396.576	88.19
396.801	96.19
397.025	103.19
397.249	81.19
397.474	101.19
397.698	79.19
397.922	91.19
398.147	89.19
398.371	100.19
398.595	83.19
398.82	85.19
399.044	84.19
399.268	73.19
399.492	96.19
399.717	96.19
399.941	96.19
400.165	104.19
400.389	91.19
400.613	87.19
400.837	82.19
401.062	100.19
401.286	86.19
401.51	100.19
401.734	98.19
401.958	103.19
402.182	125.19
402.406	129.19
402.63	109.19
402.854	93.19
403.078	83.19
403.302	89.19
403.526	88.19
403.75	87.19
403.974	80.19
404.198	87.19
404.422	101.19
404.645	81.19
404.869	95.19
405.093	103.19
405.317	92.19
405.541	105.19
405.765	100.19
405.988	108.19
406.212	151.19
406.436	189.19
406.66	123.19
406.883	89.19
407.107	90.19
407.331	82.19
407.555	107.19
407.778	93.19
408.002	106.19
408.226	91.19
408.449	96.19
408.673	91.19
408.896	108.19
409.12	105.19
409.344	96.19
409.567	97.19
409.791	95.19
410.014	97.19
410.238	72.19
410.461	102.19
410.685	93.19
410.908	101.19
411.132	97.19
411.355	97.19
411.578	93.19
411.802	89.19
412.025	96.19
412.249	96.19
412.472	92.19
412.695	107.19
412.919	95.19
413.142	89.19
413.365	94.19
413.589	82.19
413.812	68.19
414.035	92.19
414.258	107.19
414.482	102.19
414.705	86.19
414.928	80.19
415.151	93.19
415.374	80.19
415.597	95.19
415.821	74.19
416.044	87.19
416.267	98.19
416.49	100.19
416.713	102.19
416.936	78.19
417.159	86.19
417.382	98.19
417.605	103.19
417.828	97.19
418.051	89.19
418.274	99.19
418.497	85.19
418.72	72.19
418.943	99.19
419.166	95.19
419.389	90.19
419.611	79.19
419.834	97.19
420.057	95.19
420.28	85.19
420.503	98.19
420.726	92.19
420.948	78.19
421.171	97.19
421.394	95.19
421.617	85.19
421.839	87.19
422.062	95.19
422.285	97.19
422.507	100.19
422.73	94.19
422.953	95.19
423.175	87.19
423.398	106.19
423.621	93.19
423.843	100.19
424.066	99.19
424.288	91.19
424.511	100.19
424.733	84.19
424.956	91.19
425.178	87.19
425.401	97.19
425.623	91.19
425.846	87.19
426.068	84.19
426.291	87.19
426.513	89.19
426.735	87.19
426.958	87.19
427.18	107.19
427.402	110.19
427.625	130.19
427.847	110.19
428.069	101.19
428.292	92.19
428.514	92.19
428.736	91.19
428.958	85.19
429.181	101.19
429.403	85.19
429.625	75.19
429.847	97.19
430.069	95.19
430.292	85.19
430.514	88.19
430.736	86.19
430.958	94.19
431.18	80.19
431.402	103.19
431.624	95.19
431.846	99.19
432.068	82.19
432.29	90.19
432.512	88.19
432.734	85.19
432.956	83.19
433.178	102.19
433.4	110.19
433.622	85.19
433.844	101.19
434.066	96.19
434.287	91.19
434.509	88.19
434.731	80.19
434.953	87.19
435.175	95.19
435.397	86.19
435.618	86.19
435.84	87.19
436.062	114.19
436.284	114.19
436.505	81.19
436.727	93.19
436.949	90.19
437.17	94.19
437.392	88.19
437.614	91.19
437.835	100.19
438.057	115.19
438.278	106.19
438.5	109.19
438.721	107.19
438.943	88.19
439.165	98.19
439.386	88.19
439.608	103.19
439.829	92.19
440.05	100.19
440.272	126.19
440.493	95.19
440.715	88.19
440.936	88.19
441.158	77.19
441.379	95.19
441.6	92.19
441.822	89.19
442.043	87.19
442.264	84.19
442.486	93.19
442.707	92.19
442.928	76.19
443.149	102.19
443.371	121.19
443.592	94.19
443.813	105.19
444.034	94.19
444.255	75.19
444.476	99.19
444.698	78.19
444.919	99.19
445.14	123.19
445.361	116.19
445.582	105.19
445.803	97.19
446.024	120.19
446.245	106.19
446.466	107.19
446.687	95.19
446.908	85.19
447.129	100.19
447.35	94.19
447.571	83.19
447.792	79.19
448.013	87.19
448.234	99.19
448.455	88.19
448.675	103.19
448.896	106.19
449.117	100.19
449.338	90.19
449.559	110.19
449.779	116.19
450	97.19
450.221	81.19
450.442	80.19
450.662	76.19
450.883	100.19
451.104	110.19
451.324	101.19
451.545	87.19
451.766	77.19
451.986	90.19
452.207	91.19
452.428	105.19
452.648	89.19
452.869	95.19
453.089	99.19
453.31	102.19
453.53	101.19
453.751	85.19
453.971	105.19
454.192	109.19
454.412	82.19
454.633	87.19
454.853	94.19
455.073	87.19
455.294	93.19
455.514	109.19
455.734	87.19
455.955	78.19
456.175	76.19
456.395	80.19
456.616	84.19
456.836	80.19
457.056	89.19
457.276	78.19
457.497	87.19
457.717	86.19
457.937	83.19
458.157	100.19
458.377	91.19
458.598	102.19
458.818	134.19
459.038	134.19
459.258	94.19
459.478	94.19
459.698	108.19
459.918	87.19
460.138	84.19
460.358	91.19
460.578	107.19
460.798	94.19
461.018	83.19
461.238	97.19
461.458	80.19
461.678	77.19
461.898	71.19
462.118	93.19
462.338	95.19
462.558	92.19
462.777	93.19
462.997	89.19
463.217	100.19
463.437	77.19
463.657	91.19
463.876	78.19
464.096	84.19
464.316	91.19
464.536	99.19
464.755	102.19
464.975	88.19
465.195	144.19
465.414	135.19
465.634	101.19
465.854	80.19
466.073	95.19
466.293	85.19
466.512	94.19
466.732	89.19
466.951	91.19
467.171	92.19
467.391	89.19
467.61	103.19
467.829	90.19
468.049	99.19
468.268	99.19
468.488	79.19
468.707	104.19
468.927	103.19
469.146	75.19
469.365	87.19
469.585	86.19
469.804	78.19
470.023	96.19
470.243	77.19
470.462	82.19
470.681	101.19
470.901	95.19
471.12	87.19
471.339	85.19
471.558	96.19
471.777	87.19
471.997	106.19
472.216	97.19
472.435	125.19
472.654	98.19
472.873	82.19
473.092	94.19
473.311	89.19
473.53	71.19
473.749	85.19
473.968	97.19
474.187	86.19
474.406	79.19
474.625	85.19
474.844	83.19
475.063	94.19
475.282	100.19
475.501	75.19
475.72	77.19
475.939	86.19
476.158	97.19
476.377	95.19
476.596	81.19
476.814	97.19
477.033	105.19
477.252	92.19
477.471	80.19
477.69	86.19
477.908	87.19
478.127	81.19
478.346	87.19
478.564	94.19
478.783	85.19
479.002	87.19
479.22	92.19
479.439	89.19
479.658	84.19
479.876	107.19
480.095	105.19
480.313	85.19
480.532	96.19
480.751	97.19
480.969	110.19
481.188	206.19
481.406	138.19
481.624	101.19
481.843	84.19
482.061	90.19
482.28	97.19
482.498	95.19
482.717	87.19
482.935	86.19
483.153	64.19
483.372	87.19
483.59	92.19
483.808	87.19
484.027	103.19
484.245	99.19
484.463	103.19
484.681	93.19
484.9	92.19
485.118	85.19
485.336	86.19
485.554	98.19
485.772	90.19
485.99	107.19
486.209	108.19
486.427	98.19
486.645	108.19
486.863	108.19
487.081	110.19
487.299	114.19
487.517	97.19
487.735	94.19
487.953	97.19
488.171	93.19
488.389	102.19
488.607	108.19
488.825	76.19
489.043	78.19
489.261	111.19
489.479	92.19
489.696	83.19
489.914	93.19
490.132	86.19
490.35	70.19
490.568	90.19
490.786	78.19
491.003	90.19
491.221	84.19
491.439	91.19
491.657	90.19
491.874	88.19
492.092	81.19
492.31	91.19
492.527	71.19
492.745	93.19
492.963	87.19
493.18	85.19
493.398	99.19
493.615	92.19
493.833	96.19
494.05	88.19
494.268	95.19
494.485	83.19
494.703	78.19
494.92	83.19
495.138	90.19
495.355	93.19
495.573	85.19
495.79	107.19
496.008	107.19
496.225	84.19
496.442	96.19
496.66	94.19
496.877	105.19
497.094	107.19
497.312	72.19
497.529	89.19
497.746	94.19
497.963	89.19
498.181	93.19
498.398	95.19
498.615	116.19
498.832	100.19
499.049	81.19
499.267	97.19
499.484	107.19
499.701	87.19
499.918	99.19
500.135	84.19
500.352	115.19
500.569	99.19
500.786	91.19
501.003	101.19
501.22	95.19
501.437	89.19
501.654	94.19
501.871	91.19
502.088	94.19
502.305	98.19
502.522	85.19
502.739	88.19
502.956	94.19
503.172	86.19
503.389	92.19
503.606	89.19
503.823	93.19
504.04	91.19
504.256	91.19
504.473	86.19
504.69	95.19
504.907	96.19
505.123	71.19
505.34	89.19
505.557	101.19
505.773	91.19
505.99	98.19
506.207	83.19
506.423	76.19
506.64	91.19
506.856	92.19
507.073	83.19
507.289	92.19
507.506	98.19
507.722	105.19
507.939	101.19
508.155	95.19
508.372	84.19
508.588	102.19
508.805	95.19
509.021	90.19
509.238	98.19
509.454	89.19
509.67	105.19
509.887	95.19
510.103	110.19
510.319	178.19
510.536	546.19
510.752	1686.19
510.968	469.19
511.184	123.19
511.401	107.19
511.617	104.19
511.833	101.19
512.049	96.19
512.265	106.19
512.481	96.19
512.698	87.19
512.914	89.19
513.13	101.19
513.346	105.19
513.562	92.19
513.778	102.19
513.994	98.19
514.21	96.19
514.426	96.19
514.642	111.19
514.858	109.19
515.074	141.19
515.29	339.19
