Data from Circ_1980_H10_HRD10591_00089.txt Node
Date: Wed Jan 03 12:38:16 EST 2024
User: Yrep
Spectrometer: HR+D1059
Trigger mode: 1
Integration Time (sec): 1.000000E-1
Scans to average: 1
Electric dark correction enabled: true
Nonlinearity correction enabled: false
Boxcar width: 0
XAxis mode: Wavelengths
Number of Pixels in Spectrum: 2048
>>>>>Begin Spectral Data<<<<<
223.165	-7.94
223.4	-7.94
223.635	-7.94
223.869	-21.94
224.104	-21.94
224.338	-16.94
224.573	-10.94
224.808	-18.94
225.042	-6.94
225.277	-9.94
225.511	13.06
225.746	3.06
225.98	6.06
226.215	9.06
226.449	6.06
226.683	21.06
226.918	31.06
227.152	26.06
227.387	25.06
227.621	14.06
227.856	56.06
228.09	36.06
228.324	60.06
228.559	56.06
228.793	67.06
229.027	60.06
229.262	72.06
229.496	84.06
229.73	91.06
229.964	63.06
230.199	61.06
230.433	71.06
230.667	78.06
230.901	92.06
231.136	81.06
231.37	100.06
231.604	76.06
231.838	80.06
232.072	75.06
232.306	86.06
232.541	78.06
232.775	62.06
233.009	76.06
233.243	81.06
233.477	90.06
233.711	85.06
233.945	87.06
234.179	92.06
234.413	86.06
234.647	81.06
234.881	84.06
235.115	91.06
235.349	90.06
235.583	83.06
235.817	70.06
236.051	96.06
236.285	84.06
236.519	80.06
236.753	78.06
236.987	88.06
237.221	76.06
237.455	88.06
237.689	75.06
237.922	72.06
238.156	70.06
238.39	70.06
238.624	77.06
238.858	82.06
239.091	61.06
239.325	71.06
239.559	77.06
239.793	79.06
240.027	79.06
240.26	86.06
240.494	69.06
240.728	85.06
240.961	79.06
241.195	80.06
241.429	72.06
241.662	85.06
241.896	80.06
242.13	63.06
242.363	88.06
242.597	68.06
242.83	79.06
243.064	86.06
243.298	78.06
243.531	76.06
243.765	88.06
243.998	84.06
244.232	79.06
244.465	72.06
244.699	89.06
244.932	76.06
245.166	62.06
245.399	83.06
245.633	87.06
245.866	82.06
246.099	91.06
246.333	95.06
246.566	80.06
246.8	73.06
247.033	89.06
247.266	81.06
247.5	74.06
247.733	74.06
247.966	83.06
248.2	76.06
248.433	76.06
248.666	74.06
248.899	72.06
249.133	71.06
249.366	74.06
249.599	89.06
249.832	73.06
250.066	84.06
250.299	74.06
250.532	87.06
250.765	75.06
250.998	78.06
251.231	89.06
251.465	76.06
251.698	81.06
251.931	82.06
252.164	74.06
252.397	81.06
252.63	78.06
252.863	70.06
253.096	80.06
253.329	71.06
253.562	75.06
253.795	75.06
254.028	85.06
254.261	85.06
254.494	78.06
254.727	84.06
254.96	73.06
255.193	82.06
255.426	77.06
255.659	78.06
255.892	86.06
256.124	88.06
256.357	89.06
256.59	96.06
256.823	87.06
257.056	83.06
257.289	81.06
257.521	65.06
257.754	75.06
257.987	81.06
258.22	89.06
258.452	88.06
258.685	82.06
258.918	93.06
259.151	81.06
259.383	89.06
259.616	86.06
259.849	95.06
260.081	77.06
260.314	80.06
260.547	95.06
260.779	88.06
261.012	79.06
261.244	72.06
261.477	93.06
261.71	82.06
261.942	94.06
262.175	112.06
262.407	88.06
262.64	78.06
262.872	79.06
263.105	96.06
263.337	83.06
263.57	87.06
263.802	81.06
264.035	77.06
264.267	92.06
264.499	92.06
264.732	94.06
264.964	90.06
265.197	85.06
265.429	95.06
265.661	75.06
265.894	68.06
266.126	74.06
266.358	89.06
266.591	77.06
266.823	92.06
267.055	86.06
267.287	82.06
267.52	87.06
267.752	81.06
267.984	95.06
268.216	79.06
268.448	90.06
268.681	88.06
268.913	80.06
269.145	92.06
269.377	77.06
269.609	75.06
269.841	77.06
270.073	87.06
270.306	94.06
270.538	73.06
270.77	84.06
271.002	81.06
271.234	97.06
271.466	84.06
271.698	73.06
271.93	88.06
272.162	76.06
272.394	88.06
272.626	89.06
272.858	89.06
273.09	83.06
273.322	81.06
273.553	86.06
273.785	88.06
274.017	85.06
274.249	90.06
274.481	86.06
274.713	77.06
274.945	94.06
275.176	85.06
275.408	93.06
275.64	100.06
275.872	77.06
276.104	85.06
276.335	105.06
276.567	101.06
276.799	104.06
277.031	101.06
277.262	87.06
277.494	89.06
277.726	89.06
277.957	78.06
278.189	74.06
278.421	85.06
278.652	89.06
278.884	82.06
279.115	98.06
279.347	101.06
279.579	100.06
279.81	72.06
280.042	82.06
280.273	81.06
280.505	87.06
280.736	77.06
280.968	84.06
281.199	81.06
281.431	88.06
281.662	88.06
281.894	84.06
282.125	92.06
282.356	114.06
282.588	123.06
282.819	113.06
283.051	72.06
283.282	91.06
283.513	83.06
283.745	93.06
283.976	95.06
284.207	77.06
284.439	88.06
284.67	96.06
284.901	93.06
285.132	73.06
285.364	75.06
285.595	80.06
285.826	77.06
286.057	96.06
286.288	94.06
286.52	91.06
286.751	99.06
286.982	89.06
287.213	86.06
287.444	100.06
287.675	87.06
287.906	82.06
288.138	84.06
288.369	90.06
288.6	103.06
288.831	98.06
289.062	92.06
289.293	84.06
289.524	88.06
289.755	79.06
289.986	93.06
290.217	90.06
290.448	96.06
290.679	84.06
290.91	90.06
291.141	97.06
291.371	77.06
291.602	76.06
291.833	90.06
292.064	80.06
292.295	88.06
292.526	84.06
292.757	73.06
292.987	99.06
293.218	80.06
293.449	81.06
293.68	73.06
293.91	77.06
294.141	92.06
294.372	82.06
294.603	97.06
294.833	91.06
295.064	100.06
295.295	94.06
295.525	86.06
295.756	98.06
295.987	118.06
296.217	110.06
296.448	121.06
296.679	79.06
296.909	93.06
297.14	91.06
297.37	100.06
297.601	80.06
297.831	91.06
298.062	92.06
298.292	97.06
298.523	109.06
298.753	98.06
298.984	84.06
299.214	94.06
299.445	91.06
299.675	88.06
299.905	84.06
300.136	102.06
300.366	77.06
300.597	96.06
300.827	84.06
301.057	96.06
301.288	99.06
301.518	104.06
301.748	81.06
301.979	94.06
302.209	93.06
302.439	90.06
302.669	100.06
302.9	89.06
303.13	79.06
303.36	101.06
303.59	103.06
303.82	113.06
304.051	88.06
304.281	90.06
304.511	86.06
304.741	85.06
304.971	89.06
305.201	98.06
305.431	98.06
305.661	88.06
305.891	89.06
306.121	98.06
306.352	104.06
306.582	96.06
306.812	104.06
307.042	98.06
307.272	79.06
307.502	96.06
307.731	94.06
307.961	81.06
308.191	95.06
308.421	101.06
308.651	94.06
308.881	97.06
309.111	105.06
309.341	96.06
309.571	109.06
309.8	108.06
310.03	114.06
310.26	110.06
310.49	99.06
310.72	95.06
310.949	95.06
311.179	104.06
311.409	96.06
311.639	90.06
311.868	92.06
312.098	93.06
312.328	88.06
312.557	96.06
312.787	108.06
313.017	95.06
313.246	104.06
313.476	95.06
313.706	97.06
313.935	108.06
314.165	90.06
314.394	96.06
314.624	106.06
314.853	84.06
315.083	89.06
315.312	103.06
315.542	86.06
315.771	88.06
316.001	105.06
316.23	108.06
316.46	80.06
316.689	97.06
316.919	74.06
317.148	100.06
317.377	108.06
317.607	101.06
317.836	93.06
318.065	93.06
318.295	78.06
318.524	86.06
318.753	90.06
318.983	103.06
319.212	97.06
319.441	102.06
319.67	103.06
319.9	85.06
320.129	96.06
320.358	102.06
320.587	100.06
320.816	97.06
321.046	91.06
321.275	92.06
321.504	103.06
321.733	95.06
321.962	90.06
322.191	93.06
322.42	91.06
322.649	108.06
322.878	113.06
323.108	109.06
323.337	111.06
323.566	125.06
323.795	130.06
324.024	168.06
324.253	303.06
324.482	596.06
324.71	1194.06
324.939	1558.06
325.168	622.06
325.397	198.06
325.626	148.06
325.855	129.06
326.084	125.06
326.313	121.06
326.542	119.06
326.77	182.06
326.999	326.06
327.228	712.06
327.457	1256.06
327.686	983.06
327.914	276.06
328.143	171.06
328.372	145.06
328.6	117.06
328.829	104.06
329.058	119.06
329.287	108.06
329.515	102.06
329.744	109.06
329.972	112.06
330.201	118.06
330.43	128.06
330.658	102.06
330.887	116.06
331.115	99.06
331.344	91.06
331.572	95.06
331.801	101.06
332.03	94.06
332.258	114.06
332.486	85.06
332.715	105.06
332.943	97.06
333.172	91.06
333.4	98.06
333.629	100.06
333.857	127.06
334.085	134.06
334.314	112.06
334.542	136.06
334.771	128.06
334.999	110.06
335.227	105.06
335.455	96.06
335.684	105.06
335.912	89.06
336.14	105.06
336.369	93.06
336.597	94.06
336.825	95.06
337.053	93.06
337.281	88.06
337.51	101.06
337.738	88.06
337.966	86.06
338.194	98.06
338.422	80.06
338.65	96.06
338.878	101.06
339.106	94.06
339.334	85.06
339.562	102.06
339.79	89.06
340.018	80.06
340.246	93.06
340.474	101.06
340.702	88.06
340.93	85.06
341.158	92.06
341.386	91.06
341.614	108.06
341.842	88.06
342.07	94.06
342.298	97.06
342.526	95.06
342.754	108.06
342.981	86.06
343.209	89.06
343.437	89.06
343.665	90.06
343.893	90.06
344.12	99.06
344.348	101.06
344.576	92.06
344.804	86.06
345.031	95.06
345.259	113.06
345.487	97.06
345.714	94.06
345.942	96.06
346.17	87.06
346.397	91.06
346.625	90.06
346.853	101.06
347.08	98.06
347.308	100.06
347.535	98.06
347.763	93.06
347.99	91.06
348.218	103.06
348.445	104.06
348.673	94.06
348.9	79.06
349.128	95.06
349.355	86.06
349.583	82.06
349.81	105.06
350.037	104.06
350.265	87.06
350.492	108.06
350.72	97.06
350.947	88.06
351.174	103.06
351.402	117.06
351.629	109.06
351.856	105.06
352.083	119.06
352.311	116.06
352.538	105.06
352.765	96.06
352.992	103.06
353.22	112.06
353.447	96.06
353.674	89.06
353.901	107.06
354.128	107.06
354.355	80.06
354.583	105.06
354.81	112.06
355.037	90.06
355.264	104.06
355.491	87.06
355.718	103.06
355.945	98.06
356.172	94.06
356.399	107.06
356.626	87.06
356.853	92.06
357.08	86.06
357.307	103.06
357.534	100.06
357.761	102.06
357.988	98.06
358.215	92.06
358.441	98.06
358.668	101.06
358.895	94.06
359.122	92.06
359.349	97.06
359.576	92.06
359.802	108.06
360.029	96.06
360.256	95.06
360.483	89.06
360.709	97.06
360.936	97.06
361.163	98.06
361.39	97.06
361.616	97.06
361.843	109.06
362.07	93.06
362.296	98.06
362.523	91.06
362.749	98.06
362.976	84.06
363.203	105.06
363.429	95.06
363.656	94.06
363.882	101.06
364.109	93.06
364.335	94.06
364.562	91.06
364.788	89.06
365.015	105.06
365.241	90.06
365.468	101.06
365.694	101.06
365.92	105.06
366.147	94.06
366.373	82.06
366.599	87.06
366.826	78.06
367.052	73.06
367.278	105.06
367.505	94.06
367.731	74.06
367.957	98.06
368.184	91.06
368.41	106.06
368.636	104.06
368.862	104.06
369.089	106.06
369.315	95.06
369.541	93.06
369.767	92.06
369.993	92.06
370.219	95.06
370.445	87.06
370.672	102.06
370.898	100.06
371.124	94.06
371.35	97.06
371.576	101.06
371.802	89.06
372.028	109.06
372.254	95.06
372.48	93.06
372.706	88.06
372.932	92.06
373.158	97.06
373.384	111.06
373.61	92.06
373.835	95.06
374.061	90.06
374.287	85.06
374.513	96.06
374.739	86.06
374.965	97.06
375.191	86.06
375.416	92.06
375.642	96.06
375.868	88.06
376.094	98.06
376.319	91.06
376.545	93.06
376.771	98.06
376.997	76.06
377.222	90.06
377.448	92.06
377.674	82.06
377.899	83.06
378.125	108.06
378.35	96.06
378.576	88.06
378.802	87.06
379.027	100.06
379.253	93.06
379.478	94.06
379.704	93.06
379.929	94.06
380.155	111.06
380.38	106.06
380.606	92.06
380.831	88.06
381.057	93.06
381.282	110.06
381.507	91.06
381.733	103.06
381.958	96.06
382.184	92.06
382.409	102.06
382.634	117.06
382.86	97.06
383.085	96.06
383.31	95.06
383.535	117.06
383.761	85.06
383.986	97.06
384.211	96.06
384.436	95.06
384.662	91.06
384.887	103.06
385.112	92.06
385.337	105.06
385.562	110.06
385.787	104.06
386.013	102.06
386.238	114.06
386.463	104.06
386.688	117.06
386.913	104.06
387.138	94.06
387.363	100.06
387.588	108.06
387.813	101.06
388.038	108.06
388.263	109.06
388.488	104.06
388.713	75.06
388.938	100.06
389.163	94.06
389.387	95.06
389.612	94.06
389.837	104.06
390.062	101.06
390.287	94.06
390.512	104.06
390.736	94.06
390.961	91.06
391.186	102.06
391.411	98.06
391.636	86.06
391.86	90.06
392.085	91.06
392.31	100.06
392.534	105.06
392.759	78.06
392.984	85.06
393.208	88.06
393.433	85.06
393.658	96.06
393.882	105.06
394.107	79.06
394.331	84.06
394.556	94.06
394.78	89.06
395.005	77.06
395.229	88.06
395.454	89.06
395.678	89.06
395.903	100.06
396.127	88.06
396.352	92.06
396.576	90.06
396.801	74.06
397.025	79.06
397.249	80.06
397.474	96.06
397.698	97.06
397.922	80.06
398.147	82.06
398.371	87.06
398.595	85.06
398.82	80.06
399.044	100.06
399.268	82.06
399.492	95.06
399.717	101.06
399.941	86.06
400.165	90.06
400.389	88.06
400.613	92.06
400.837	90.06
401.062	87.06
401.286	96.06
401.51	90.06
401.734	108.06
401.958	98.06
402.182	110.06
402.406	124.06
402.63	116.06
402.854	89.06
403.078	92.06
403.302	92.06
403.526	76.06
403.75	79.06
403.974	97.06
404.198	94.06
404.422	86.06
404.645	85.06
404.869	96.06
405.093	88.06
405.317	89.06
405.541	95.06
405.765	104.06
405.988	82.06
406.212	127.06
406.436	193.06
406.66	145.06
406.883	112.06
407.107	89.06
407.331	94.06
407.555	98.06
407.778	85.06
408.002	97.06
408.226	102.06
408.449	87.06
408.673	92.06
408.896	87.06
409.12	94.06
409.344	93.06
409.567	99.06
409.791	96.06
410.014	91.06
410.238	94.06
410.461	88.06
410.685	108.06
410.908	108.06
411.132	104.06
411.355	93.06
411.578	99.06
411.802	101.06
412.025	87.06
412.249	108.06
412.472	93.06
412.695	97.06
412.919	86.06
413.142	90.06
413.365	89.06
413.589	94.06
413.812	85.06
414.035	97.06
414.258	94.06
414.482	90.06
414.705	93.06
414.928	84.06
415.151	88.06
415.374	97.06
415.597	91.06
415.821	78.06
416.044	94.06
416.267	98.06
416.49	93.06
416.713	95.06
416.936	97.06
417.159	97.06
417.382	78.06
417.605	101.06
417.828	100.06
418.051	97.06
418.274	90.06
418.497	63.06
418.72	82.06
418.943	79.06
419.166	79.06
419.389	87.06
419.611	93.06
419.834	96.06
420.057	80.06
420.28	87.06
420.503	81.06
420.726	85.06
420.948	94.06
421.171	90.06
421.394	87.06
421.617	86.06
421.839	92.06
422.062	84.06
422.285	95.06
422.507	86.06
422.73	94.06
422.953	109.06
423.175	94.06
423.398	94.06
423.621	100.06
423.843	105.06
424.066	82.06
424.288	95.06
424.511	101.06
424.733	97.06
424.956	104.06
425.178	96.06
425.401	107.06
425.623	115.06
425.846	77.06
426.068	93.06
426.291	94.06
426.513	84.06
426.735	76.06
426.958	95.06
427.18	103.06
427.402	118.06
427.625	119.06
427.847	112.06
428.069	93.06
428.292	88.06
428.514	92.06
428.736	89.06
428.958	74.06
429.181	104.06
429.403	97.06
429.625	89.06
429.847	80.06
430.069	92.06
430.292	91.06
430.514	81.06
430.736	97.06
430.958	80.06
431.18	90.06
431.402	81.06
431.624	94.06
431.846	80.06
432.068	89.06
432.29	92.06
432.512	105.06
432.734	78.06
432.956	88.06
433.178	94.06
433.4	100.06
433.622	88.06
433.844	94.06
434.066	95.06
434.287	91.06
434.509	103.06
434.731	88.06
434.953	91.06
435.175	76.06
435.397	90.06
435.618	100.06
435.84	97.06
436.062	112.06
436.284	112.06
436.505	94.06
436.727	101.06
436.949	84.06
437.17	94.06
437.392	81.06
437.614	90.06
437.835	100.06
438.057	105.06
438.278	98.06
438.5	107.06
438.721	112.06
438.943	103.06
439.165	95.06
439.386	76.06
439.608	93.06
439.829	97.06
440.05	105.06
440.272	112.06
440.493	110.06
440.715	113.06
440.936	85.06
441.158	87.06
441.379	76.06
441.6	96.06
441.822	93.06
442.043	81.06
442.264	103.06
442.486	98.06
442.707	97.06
442.928	115.06
443.149	117.06
443.371	115.06
443.592	101.06
443.813	100.06
444.034	87.06
444.255	100.06
444.476	78.06
444.698	91.06
444.919	80.06
445.14	124.06
445.361	113.06
445.582	101.06
445.803	120.06
446.024	116.06
446.245	107.06
446.466	103.06
446.687	106.06
446.908	87.06
447.129	100.06
447.35	91.06
447.571	95.06
447.792	88.06
448.013	85.06
448.234	92.06
448.455	88.06
448.675	105.06
448.896	119.06
449.117	85.06
449.338	97.06
449.559	110.06
449.779	123.06
450	98.06
450.221	97.06
450.442	87.06
450.662	89.06
450.883	89.06
451.104	94.06
451.324	100.06
451.545	78.06
451.766	88.06
451.986	88.06
452.207	85.06
452.428	88.06
452.648	84.06
452.869	93.06
453.089	114.06
453.31	100.06
453.53	80.06
453.751	96.06
453.971	105.06
454.192	103.06
454.412	99.06
454.633	89.06
454.853	89.06
455.073	96.06
455.294	95.06
455.514	81.06
455.734	88.06
455.955	97.06
456.175	87.06
456.395	92.06
456.616	85.06
456.836	95.06
457.056	92.06
457.276	87.06
457.497	92.06
457.717	88.06
457.937	92.06
458.157	85.06
458.377	86.06
458.598	114.06
458.818	122.06
459.038	138.06
459.258	105.06
459.478	89.06
459.698	86.06
459.918	89.06
460.138	89.06
460.358	89.06
460.578	94.06
460.798	95.06
461.018	88.06
461.238	102.06
461.458	81.06
461.678	91.06
461.898	101.06
462.118	91.06
462.338	84.06
462.558	74.06
462.777	75.06
462.997	98.06
463.217	91.06
463.437	84.06
463.657	96.06
463.876	85.06
464.096	88.06
464.316	92.06
464.536	87.06
464.755	86.06
464.975	104.06
465.195	126.06
465.414	108.06
465.634	84.06
465.854	77.06
466.073	97.06
466.293	99.06
466.512	87.06
466.732	89.06
466.951	87.06
467.171	100.06
467.391	79.06
467.61	99.06
467.829	93.06
468.049	87.06
468.268	94.06
468.488	98.06
468.707	76.06
468.927	81.06
469.146	87.06
469.365	76.06
469.585	86.06
469.804	93.06
470.023	79.06
470.243	85.06
470.462	94.06
470.681	99.06
470.901	87.06
471.12	94.06
471.339	92.06
471.558	81.06
471.777	80.06
471.997	90.06
472.216	118.06
472.435	143.06
472.654	95.06
472.873	96.06
473.092	76.06
473.311	91.06
473.53	87.06
473.749	88.06
473.968	92.06
474.187	106.06
474.406	96.06
474.625	90.06
474.844	84.06
475.063	91.06
475.282	88.06
475.501	95.06
475.72	101.06
475.939	73.06
476.158	96.06
476.377	88.06
476.596	81.06
476.814	76.06
477.033	76.06
477.252	92.06
477.471	80.06
477.69	77.06
477.908	98.06
478.127	95.06
478.346	84.06
478.564	82.06
478.783	78.06
479.002	80.06
479.22	80.06
479.439	95.06
479.658	109.06
479.876	100.06
480.095	72.06
480.313	87.06
480.532	103.06
480.751	93.06
480.969	112.06
481.188	173.06
481.406	138.06
481.624	98.06
481.843	94.06
482.061	82.06
482.28	95.06
482.498	82.06
482.717	84.06
482.935	91.06
483.153	95.06
483.372	79.06
483.59	94.06
483.808	86.06
484.027	105.06
484.245	90.06
484.463	94.06
484.681	100.06
484.9	92.06
485.118	100.06
485.336	100.06
485.554	109.06
485.772	108.06
485.99	109.06
486.209	126.06
486.427	100.06
486.645	94.06
486.863	114.06
487.081	94.06
487.299	88.06
487.517	93.06
487.735	91.06
487.953	85.06
488.171	97.06
488.389	94.06
488.607	84.06
488.825	86.06
489.043	88.06
489.261	91.06
489.479	92.06
489.696	87.06
489.914	79.06
490.132	94.06
490.35	84.06
490.568	77.06
490.786	79.06
491.003	89.06
491.221	88.06
491.439	89.06
491.657	95.06
491.874	92.06
492.092	100.06
492.31	87.06
492.527	84.06
492.745	103.06
492.963	93.06
493.18	90.06
493.398	91.06
493.615	95.06
493.833	112.06
494.05	103.06
494.268	100.06
494.485	97.06
494.703	82.06
494.92	105.06
495.138	79.06
495.355	79.06
495.573	87.06
495.79	92.06
496.008	90.06
496.225	82.06
496.442	90.06
496.66	98.06
496.877	88.06
497.094	90.06
497.312	82.06
497.529	98.06
497.746	95.06
497.963	91.06
498.181	89.06
498.398	84.06
498.615	106.06
498.832	104.06
499.049	90.06
499.267	84.06
499.484	97.06
499.701	95.06
499.918	90.06
500.135	82.06
500.352	94.06
500.569	86.06
500.786	81.06
501.003	94.06
501.22	88.06
501.437	104.06
501.654	96.06
501.871	98.06
502.088	97.06
502.305	78.06
502.522	90.06
502.739	107.06
502.956	84.06
503.172	84.06
503.389	93.06
503.606	85.06
503.823	90.06
504.04	106.06
504.256	93.06
504.473	92.06
504.69	104.06
504.907	97.06
505.123	93.06
505.34	95.06
505.557	79.06
505.773	100.06
505.99	109.06
506.207	93.06
506.423	100.06
506.64	92.06
506.856	84.06
507.073	101.06
507.289	98.06
507.506	96.06
507.722	87.06
507.939	98.06
508.155	86.06
508.372	102.06
508.588	82.06
508.805	96.06
509.021	99.06
509.238	98.06
509.454	108.06
509.67	88.06
509.887	105.06
510.103	131.06
510.319	167.06
510.536	560.06
510.752	1700.06
510.968	477.06
511.184	120.06
511.401	112.06
511.617	100.06
511.833	95.06
512.049	85.06
512.265	84.06
512.481	88.06
512.698	103.06
512.914	73.06
513.13	88.06
513.346	85.06
513.562	105.06
513.778	96.06
513.994	104.06
514.21	113.06
514.426	107.06
514.642	115.06
514.858	120.06
515.074	139.06
515.29	340.06
515.506	998.06
