Data from Circ_1980_H10_HRD10591_00066.txt Node
Date: Wed Jan 03 12:38:11 EST 2024
User: Yrep
Spectrometer: HR+D1059
Trigger mode: 1
Integration Time (sec): 1.000000E-1
Scans to average: 1
Electric dark correction enabled: true
Nonlinearity correction enabled: false
Boxcar width: 0
XAxis mode: Wavelengths
Number of Pixels in Spectrum: 2048
>>>>>Begin Spectral Data<<<<<
223.165	-14.5
223.4	-14.5
223.635	-14.5
223.869	-17.5
224.104	-18.5
224.338	-8.5
224.573	-6.5
224.808	-20.5
225.042	-8.5
225.277	0.5
225.511	-14.5
225.746	-2.5
225.98	14.5
226.215	6.5
226.449	7.5
226.683	14.5
226.918	28.5
227.152	39.5
227.387	27.5
227.621	32.5
227.856	46.5
228.09	40.5
228.324	46.5
228.559	59.5
228.793	75.5
229.027	71.5
229.262	67.5
229.496	67.5
229.73	86.5
229.964	79.5
230.199	61.5
230.433	85.5
230.667	69.5
230.901	79.5
231.136	81.5
231.37	80.5
231.604	91.5
231.838	83.5
232.072	91.5
232.306	68.5
232.541	68.5
232.775	75.5
233.009	67.5
233.243	84.5
233.477	78.5
233.711	82.5
233.945	87.5
234.179	91.5
234.413	80.5
234.647	79.5
234.881	69.5
235.115	75.5
235.349	76.5
235.583	74.5
235.817	68.5
236.051	77.5
236.285	72.5
236.519	85.5
236.753	64.5
236.987	63.5
237.221	69.5
237.455	83.5
237.689	67.5
237.922	73.5
238.156	66.5
238.39	67.5
238.624	76.5
238.858	81.5
239.091	69.5
239.325	81.5
239.559	69.5
239.793	89.5
240.027	80.5
240.26	69.5
240.494	76.5
240.728	65.5
240.961	72.5
241.195	66.5
241.429	81.5
241.662	73.5
241.896	63.5
242.13	71.5
242.363	69.5
242.597	76.5
242.83	78.5
243.064	76.5
243.298	88.5
243.531	86.5
243.765	82.5
243.998	79.5
244.232	81.5
244.465	80.5
244.699	79.5
244.932	76.5
245.166	72.5
245.399	68.5
245.633	75.5
245.866	79.5
246.099	85.5
246.333	82.5
246.566	69.5
246.8	81.5
247.033	79.5
247.266	88.5
247.5	60.5
247.733	74.5
247.966	85.5
248.2	76.5
248.433	83.5
248.666	71.5
248.899	76.5
249.133	62.5
249.366	98.5
249.599	93.5
249.832	85.5
250.066	82.5
250.299	82.5
250.532	81.5
250.765	77.5
250.998	73.5
251.231	70.5
251.465	81.5
251.698	83.5
251.931	92.5
252.164	91.5
252.397	74.5
252.63	94.5
252.863	88.5
253.096	75.5
253.329	74.5
253.562	70.5
253.795	85.5
254.028	60.5
254.261	74.5
254.494	85.5
254.727	88.5
254.96	79.5
255.193	80.5
255.426	77.5
255.659	76.5
255.892	75.5
256.124	71.5
256.357	87.5
256.59	84.5
256.823	81.5
257.056	88.5
257.289	87.5
257.521	64.5
257.754	74.5
257.987	89.5
258.22	89.5
258.452	104.5
258.685	83.5
258.918	89.5
259.151	85.5
259.383	79.5
259.616	87.5
259.849	86.5
260.081	69.5
260.314	62.5
260.547	79.5
260.779	71.5
261.012	94.5
261.244	81.5
261.477	92.5
261.71	84.5
261.942	105.5
262.175	108.5
262.407	96.5
262.64	81.5
262.872	92.5
263.105	82.5
263.337	87.5
263.57	95.5
263.802	80.5
264.035	83.5
264.267	83.5
264.499	84.5
264.732	65.5
264.964	76.5
265.197	75.5
265.429	65.5
265.661	87.5
265.894	67.5
266.126	72.5
266.358	77.5
266.591	73.5
266.823	68.5
267.055	74.5
267.287	79.5
267.52	86.5
267.752	89.5
267.984	84.5
268.216	82.5
268.448	90.5
268.681	83.5
268.913	80.5
269.145	87.5
269.377	90.5
269.609	69.5
269.841	91.5
270.073	77.5
270.306	86.5
270.538	93.5
270.77	80.5
271.002	79.5
271.234	75.5
271.466	87.5
271.698	66.5
271.93	79.5
272.162	85.5
272.394	90.5
272.626	67.5
272.858	83.5
273.09	80.5
273.322	84.5
273.553	89.5
273.785	94.5
274.017	95.5
274.249	83.5
274.481	68.5
274.713	76.5
274.945	79.5
275.176	79.5
275.408	84.5
275.64	84.5
275.872	81.5
276.104	95.5
276.335	83.5
276.567	95.5
276.799	89.5
277.031	92.5
277.262	91.5
277.494	84.5
277.726	77.5
277.957	79.5
278.189	77.5
278.421	85.5
278.652	83.5
278.884	96.5
279.115	88.5
279.347	84.5
279.579	84.5
279.81	82.5
280.042	62.5
280.273	83.5
280.505	80.5
280.736	95.5
280.968	85.5
281.199	75.5
281.431	75.5
281.662	72.5
281.894	55.5
282.125	83.5
282.356	80.5
282.588	113.5
282.819	87.5
283.051	76.5
283.282	83.5
283.513	90.5
283.745	82.5
283.976	84.5
284.207	69.5
284.439	74.5
284.67	79.5
284.901	93.5
285.132	89.5
285.364	79.5
285.595	94.5
285.826	88.5
286.057	84.5
286.288	84.5
286.52	90.5
286.751	91.5
286.982	95.5
287.213	84.5
287.444	60.5
287.675	84.5
287.906	79.5
288.138	83.5
288.369	72.5
288.6	97.5
288.831	75.5
289.062	86.5
289.293	74.5
289.524	75.5
289.755	92.5
289.986	81.5
290.217	79.5
290.448	87.5
290.679	96.5
290.91	85.5
291.141	89.5
291.371	80.5
291.602	90.5
291.833	95.5
292.064	81.5
292.295	88.5
292.526	89.5
292.757	90.5
292.987	76.5
293.218	79.5
293.449	105.5
293.68	84.5
293.91	79.5
294.141	79.5
294.372	84.5
294.603	77.5
294.833	87.5
295.064	87.5
295.295	81.5
295.525	93.5
295.756	86.5
295.987	105.5
296.217	120.5
296.448	107.5
296.679	95.5
296.909	90.5
297.14	89.5
297.37	86.5
297.601	82.5
297.831	80.5
298.062	94.5
298.292	79.5
298.523	95.5
298.753	92.5
298.984	76.5
299.214	85.5
299.445	84.5
299.675	91.5
299.905	76.5
300.136	75.5
300.366	92.5
300.597	88.5
300.827	87.5
301.057	93.5
301.288	84.5
301.518	86.5
301.748	87.5
301.979	101.5
302.209	76.5
302.439	81.5
302.669	71.5
302.9	84.5
303.13	96.5
303.36	93.5
303.59	97.5
303.82	103.5
304.051	96.5
304.281	91.5
304.511	71.5
304.741	83.5
304.971	84.5
305.201	94.5
305.431	94.5
305.661	73.5
305.891	91.5
306.121	107.5
306.352	89.5
306.582	106.5
306.812	95.5
307.042	90.5
307.272	84.5
307.502	96.5
307.731	101.5
307.961	89.5
308.191	102.5
308.421	83.5
308.651	79.5
308.881	96.5
309.111	81.5
309.341	93.5
309.571	82.5
309.8	103.5
310.03	83.5
310.26	95.5
310.49	96.5
310.72	88.5
310.949	101.5
311.179	77.5
311.409	75.5
311.639	85.5
311.868	82.5
312.098	75.5
312.328	90.5
312.557	97.5
312.787	81.5
313.017	90.5
313.246	101.5
313.476	91.5
313.706	92.5
313.935	96.5
314.165	89.5
314.394	101.5
314.624	89.5
314.853	81.5
315.083	90.5
315.312	79.5
315.542	91.5
315.771	101.5
316.001	89.5
316.23	101.5
316.46	92.5
316.689	65.5
316.919	87.5
317.148	99.5
317.377	94.5
317.607	98.5
317.836	88.5
318.065	93.5
318.295	88.5
318.524	92.5
318.753	93.5
318.983	96.5
319.212	97.5
319.441	95.5
319.67	100.5
319.9	93.5
320.129	94.5
320.358	95.5
320.587	91.5
320.816	90.5
321.046	88.5
321.275	93.5
321.504	68.5
321.733	104.5
321.962	97.5
322.191	92.5
322.42	81.5
322.649	102.5
322.878	88.5
323.108	106.5
323.337	116.5
323.566	114.5
323.795	126.5
324.024	166.5
324.253	298.5
324.482	587.5
324.71	1206.5
324.939	1587.5
325.168	603.5
325.397	205.5
325.626	133.5
325.855	113.5
326.084	97.5
326.313	133.5
326.542	128.5
326.77	203.5
326.999	349.5
327.228	661.5
327.457	1245.5
327.686	1018.5
327.914	292.5
328.143	150.5
328.372	126.5
328.6	122.5
328.829	97.5
329.058	108.5
329.287	111.5
329.515	101.5
329.744	96.5
329.972	94.5
330.201	100.5
330.43	123.5
330.658	109.5
330.887	117.5
331.115	104.5
331.344	81.5
331.572	87.5
331.801	96.5
332.03	81.5
332.258	91.5
332.486	82.5
332.715	93.5
332.943	84.5
333.172	94.5
333.4	89.5
333.629	104.5
333.857	97.5
334.085	108.5
334.314	105.5
334.542	114.5
334.771	119.5
334.999	102.5
335.227	108.5
335.455	92.5
335.684	84.5
335.912	86.5
336.14	106.5
336.369	96.5
336.597	91.5
336.825	96.5
337.053	89.5
337.281	79.5
337.51	73.5
337.738	91.5
337.966	96.5
338.194	107.5
338.422	105.5
338.65	86.5
338.878	89.5
339.106	89.5
339.334	90.5
339.562	74.5
339.79	76.5
340.018	75.5
340.246	95.5
340.474	90.5
340.702	91.5
340.93	88.5
341.158	92.5
341.386	86.5
341.614	98.5
341.842	77.5
342.07	98.5
342.298	93.5
342.526	95.5
342.754	90.5
342.981	94.5
343.209	88.5
343.437	106.5
343.665	73.5
343.893	95.5
344.12	95.5
344.348	90.5
344.576	108.5
344.804	94.5
345.031	95.5
345.259	89.5
345.487	77.5
345.714	79.5
345.942	91.5
346.17	77.5
346.397	92.5
346.625	98.5
346.853	99.5
347.08	105.5
347.308	84.5
347.535	92.5
347.763	92.5
347.99	89.5
348.218	92.5
348.445	97.5
348.673	100.5
348.9	77.5
349.128	91.5
349.355	91.5
349.583	71.5
349.81	86.5
350.037	83.5
350.265	88.5
350.492	88.5
350.72	92.5
350.947	92.5
351.174	98.5
351.402	91.5
351.629	103.5
351.856	99.5
352.083	88.5
352.311	105.5
352.538	96.5
352.765	101.5
352.992	119.5
353.22	106.5
353.447	92.5
353.674	94.5
353.901	106.5
354.128	106.5
354.355	101.5
354.583	93.5
354.81	109.5
355.037	105.5
355.264	96.5
355.491	109.5
355.718	94.5
355.945	92.5
356.172	99.5
356.399	81.5
356.626	95.5
356.853	82.5
357.08	91.5
357.307	93.5
357.534	89.5
357.761	100.5
357.988	81.5
358.215	118.5
358.441	88.5
358.668	98.5
358.895	75.5
359.122	68.5
359.349	95.5
359.576	105.5
359.802	99.5
360.029	112.5
360.256	103.5
360.483	89.5
360.709	96.5
360.936	110.5
361.163	80.5
361.39	96.5
361.616	78.5
361.843	88.5
362.07	99.5
362.296	93.5
362.523	93.5
362.749	79.5
362.976	88.5
363.203	81.5
363.429	91.5
363.656	85.5
363.882	90.5
364.109	99.5
364.335	87.5
364.562	96.5
364.788	84.5
365.015	93.5
365.241	87.5
365.468	101.5
365.694	95.5
365.92	85.5
366.147	93.5
366.373	85.5
366.599	91.5
366.826	86.5
367.052	92.5
367.278	84.5
367.505	87.5
367.731	79.5
367.957	82.5
368.184	79.5
368.41	91.5
368.636	89.5
368.862	113.5
369.089	103.5
369.315	88.5
369.541	78.5
369.767	84.5
369.993	84.5
370.219	75.5
370.445	103.5
370.672	79.5
370.898	76.5
371.124	89.5
371.35	84.5
371.576	83.5
371.802	71.5
372.028	79.5
372.254	91.5
372.48	83.5
372.706	89.5
372.932	96.5
373.158	89.5
373.384	83.5
373.61	83.5
373.835	92.5
374.061	88.5
374.287	88.5
374.513	85.5
374.739	88.5
374.965	84.5
375.191	92.5
375.416	85.5
375.642	85.5
375.868	99.5
376.094	98.5
376.319	94.5
376.545	85.5
376.771	83.5
376.997	90.5
377.222	92.5
377.448	92.5
377.674	92.5
377.899	103.5
378.125	91.5
378.35	75.5
378.576	92.5
378.802	89.5
379.027	89.5
379.253	78.5
379.478	96.5
379.704	80.5
379.929	104.5
380.155	89.5
380.38	85.5
380.606	83.5
380.831	85.5
381.057	90.5
381.282	89.5
381.507	95.5
381.733	87.5
381.958	93.5
382.184	103.5
382.409	97.5
382.634	107.5
382.86	101.5
383.085	103.5
383.31	106.5
383.535	100.5
383.761	107.5
383.986	79.5
384.211	105.5
384.436	102.5
384.662	90.5
384.887	106.5
385.112	83.5
385.337	87.5
385.562	95.5
385.787	107.5
386.013	122.5
386.238	119.5
386.463	94.5
386.688	89.5
386.913	104.5
387.138	97.5
387.363	101.5
387.588	91.5
387.813	105.5
388.038	100.5
388.263	119.5
388.488	108.5
388.713	97.5
388.938	99.5
389.163	81.5
389.387	104.5
389.612	84.5
389.837	107.5
390.062	105.5
390.287	89.5
390.512	83.5
390.736	95.5
390.961	90.5
391.186	99.5
391.411	90.5
391.636	97.5
391.86	82.5
392.085	85.5
392.31	83.5
392.534	92.5
392.759	69.5
392.984	88.5
393.208	86.5
393.433	88.5
393.658	92.5
393.882	86.5
394.107	86.5
394.331	93.5
394.556	89.5
394.78	89.5
395.005	92.5
395.229	76.5
395.454	93.5
395.678	102.5
395.903	83.5
396.127	93.5
396.352	82.5
396.576	76.5
396.801	82.5
397.025	81.5
397.249	75.5
397.474	93.5
397.698	73.5
397.922	96.5
398.147	89.5
398.371	83.5
398.595	81.5
398.82	83.5
399.044	81.5
399.268	84.5
399.492	84.5
399.717	87.5
399.941	81.5
400.165	93.5
400.389	85.5
400.613	83.5
400.837	87.5
401.062	91.5
401.286	99.5
401.51	86.5
401.734	100.5
401.958	92.5
402.182	94.5
402.406	118.5
402.63	98.5
402.854	88.5
403.078	91.5
403.302	88.5
403.526	84.5
403.75	74.5
403.974	86.5
404.198	88.5
404.422	87.5
404.645	90.5
404.869	84.5
405.093	86.5
405.317	95.5
405.541	97.5
405.765	109.5
405.988	107.5
406.212	132.5
406.436	177.5
406.66	109.5
406.883	92.5
407.107	83.5
407.331	74.5
407.555	100.5
407.778	84.5
408.002	96.5
408.226	70.5
408.449	80.5
408.673	95.5
408.896	99.5
409.12	95.5
409.344	86.5
409.567	87.5
409.791	83.5
410.014	90.5
410.238	88.5
410.461	80.5
410.685	94.5
410.908	92.5
411.132	86.5
411.355	91.5
411.578	86.5
411.802	96.5
412.025	85.5
412.249	88.5
412.472	79.5
412.695	95.5
412.919	83.5
413.142	89.5
413.365	84.5
413.589	84.5
413.812	74.5
414.035	96.5
414.258	84.5
414.482	100.5
414.705	88.5
414.928	87.5
415.151	87.5
415.374	92.5
415.597	88.5
415.821	110.5
416.044	82.5
416.267	84.5
416.49	95.5
416.713	82.5
416.936	87.5
417.159	86.5
417.382	88.5
417.605	97.5
417.828	90.5
418.051	97.5
418.274	84.5
418.497	85.5
418.72	78.5
418.943	84.5
419.166	77.5
419.389	93.5
419.611	91.5
419.834	77.5
420.057	89.5
420.28	84.5
420.503	87.5
420.726	91.5
420.948	95.5
421.171	87.5
421.394	84.5
421.617	102.5
421.839	89.5
422.062	93.5
422.285	92.5
422.507	103.5
422.73	97.5
422.953	87.5
423.175	71.5
423.398	87.5
423.621	70.5
423.843	89.5
424.066	80.5
424.288	88.5
424.511	84.5
424.733	98.5
424.956	83.5
425.178	87.5
425.401	100.5
425.623	83.5
425.846	81.5
426.068	94.5
426.291	86.5
426.513	84.5
426.735	83.5
426.958	88.5
427.18	100.5
427.402	127.5
427.625	125.5
427.847	105.5
428.069	99.5
428.292	84.5
428.514	80.5
428.736	79.5
428.958	89.5
429.181	85.5
429.403	83.5
429.625	92.5
429.847	80.5
430.069	88.5
430.292	92.5
430.514	80.5
430.736	87.5
430.958	79.5
431.18	80.5
431.402	91.5
431.624	80.5
431.846	88.5
432.068	84.5
432.29	76.5
432.512	82.5
432.734	77.5
432.956	79.5
433.178	97.5
433.4	87.5
433.622	100.5
433.844	83.5
434.066	91.5
434.287	84.5
434.509	82.5
434.731	90.5
434.953	88.5
435.175	81.5
435.397	69.5
435.618	92.5
435.84	88.5
436.062	100.5
436.284	93.5
436.505	87.5
436.727	95.5
436.949	87.5
437.17	85.5
437.392	97.5
437.614	90.5
437.835	84.5
438.057	119.5
438.278	107.5
438.5	103.5
438.721	106.5
438.943	88.5
439.165	87.5
439.386	85.5
439.608	91.5
439.829	102.5
440.05	103.5
440.272	123.5
440.493	92.5
440.715	79.5
440.936	81.5
441.158	84.5
441.379	83.5
441.6	91.5
441.822	97.5
442.043	98.5
442.264	99.5
442.486	82.5
442.707	91.5
442.928	97.5
443.149	113.5
443.371	104.5
443.592	96.5
443.813	98.5
444.034	103.5
444.255	84.5
444.476	65.5
444.698	82.5
444.919	96.5
445.14	122.5
445.361	112.5
445.582	103.5
445.803	114.5
446.024	110.5
446.245	122.5
446.466	103.5
446.687	88.5
446.908	83.5
447.129	79.5
447.35	83.5
447.571	97.5
447.792	76.5
448.013	88.5
448.234	100.5
448.455	92.5
448.675	93.5
448.896	96.5
449.117	87.5
449.338	93.5
449.559	128.5
449.779	110.5
450	71.5
450.221	80.5
450.442	85.5
450.662	88.5
450.883	87.5
451.104	104.5
451.324	96.5
451.545	85.5
451.766	75.5
451.986	85.5
452.207	83.5
452.428	85.5
452.648	98.5
452.869	102.5
453.089	107.5
453.31	105.5
453.53	84.5
453.751	87.5
453.971	97.5
454.192	88.5
454.412	74.5
454.633	84.5
454.853	87.5
455.073	80.5
455.294	71.5
455.514	99.5
455.734	81.5
455.955	78.5
456.175	75.5
456.395	85.5
456.616	87.5
456.836	87.5
457.056	66.5
457.276	89.5
457.497	86.5
457.717	73.5
457.937	67.5
458.157	81.5
458.377	84.5
458.598	101.5
458.818	121.5
459.038	136.5
459.258	106.5
459.478	79.5
459.698	91.5
459.918	98.5
460.138	82.5
460.358	84.5
460.578	80.5
460.798	93.5
461.018	93.5
461.238	77.5
461.458	88.5
461.678	84.5
461.898	75.5
462.118	89.5
462.338	95.5
462.558	83.5
462.777	79.5
462.997	99.5
463.217	70.5
463.437	91.5
463.657	76.5
463.876	85.5
464.096	85.5
464.316	79.5
464.536	83.5
464.755	74.5
464.975	108.5
465.195	123.5
465.414	129.5
465.634	84.5
465.854	83.5
466.073	82.5
466.293	86.5
466.512	88.5
466.732	95.5
466.951	92.5
467.171	83.5
467.391	83.5
467.61	83.5
467.829	101.5
468.049	103.5
468.268	93.5
468.488	94.5
468.707	71.5
468.927	83.5
469.146	79.5
469.365	75.5
469.585	85.5
469.804	91.5
470.023	75.5
470.243	91.5
470.462	93.5
470.681	86.5
470.901	92.5
471.12	86.5
471.339	73.5
471.558	82.5
471.777	81.5
471.997	85.5
472.216	122.5
472.435	123.5
472.654	93.5
472.873	92.5
473.092	80.5
473.311	81.5
473.53	88.5
473.749	97.5
473.968	85.5
474.187	105.5
474.406	92.5
474.625	85.5
474.844	99.5
475.063	83.5
475.282	83.5
475.501	91.5
475.72	84.5
475.939	64.5
476.158	81.5
476.377	88.5
476.596	77.5
476.814	98.5
477.033	90.5
477.252	87.5
477.471	90.5
477.69	91.5
477.908	86.5
478.127	92.5
478.346	91.5
478.564	91.5
478.783	76.5
479.002	83.5
479.22	95.5
479.439	92.5
479.658	103.5
479.876	91.5
480.095	82.5
480.313	96.5
480.532	87.5
480.751	95.5
480.969	106.5
481.188	187.5
481.406	140.5
481.624	86.5
481.843	88.5
482.061	82.5
482.28	88.5
482.498	89.5
482.717	81.5
482.935	93.5
483.153	75.5
483.372	103.5
483.59	92.5
483.808	77.5
484.027	83.5
484.245	85.5
484.463	102.5
484.681	99.5
484.9	89.5
485.118	91.5
485.336	87.5
485.554	103.5
485.772	97.5
485.99	98.5
486.209	103.5
486.427	86.5
486.645	119.5
486.863	109.5
487.081	97.5
487.299	82.5
487.517	99.5
487.735	93.5
487.953	91.5
488.171	100.5
488.389	95.5
488.607	102.5
488.825	92.5
489.043	85.5
489.261	81.5
489.479	83.5
489.696	88.5
489.914	87.5
490.132	88.5
490.35	78.5
490.568	73.5
490.786	87.5
491.003	85.5
491.221	90.5
491.439	87.5
491.657	93.5
491.874	90.5
492.092	97.5
492.31	98.5
492.527	87.5
492.745	90.5
492.963	95.5
493.18	85.5
493.398	82.5
493.615	102.5
493.833	95.5
494.05	89.5
494.268	77.5
494.485	79.5
494.703	85.5
494.92	91.5
495.138	75.5
495.355	80.5
495.573	85.5
495.79	75.5
496.008	89.5
496.225	90.5
496.442	64.5
496.66	97.5
496.877	82.5
497.094	74.5
497.312	86.5
497.529	92.5
497.746	101.5
497.963	107.5
498.181	83.5
498.398	99.5
498.615	95.5
498.832	97.5
499.049	88.5
499.267	98.5
499.484	93.5
499.701	93.5
499.918	90.5
500.135	89.5
500.352	84.5
500.569	91.5
500.786	80.5
501.003	81.5
501.22	89.5
501.437	94.5
501.654	85.5
501.871	90.5
502.088	95.5
502.305	84.5
502.522	100.5
502.739	83.5
502.956	93.5
503.172	95.5
503.389	88.5
503.606	93.5
503.823	91.5
504.04	90.5
504.256	92.5
504.473	89.5
504.69	92.5
504.907	91.5
505.123	85.5
505.34	84.5
505.557	92.5
505.773	91.5
505.99	79.5
506.207	82.5
506.423	77.5
506.64	71.5
506.856	67.5
507.073	96.5
507.289	92.5
507.506	93.5
507.722	99.5
507.939	84.5
508.155	75.5
508.372	81.5
508.588	101.5
508.805	98.5
509.021	83.5
509.238	102.5
509.454	89.5
509.67	93.5
509.887	101.5
510.103	135.5
510.319	166.5
510.536	549.5
510.752	1671.5
510.968	482.5
511.184	167.5
511.401	105.5
511.617	98.5
511.833	91.5
512.049	89.5
512.265	92.5
512.481	91.5
512.698	91.5
512.914	87.5
513.13	96.5
513.346	93.5
513.562	104.5
513.778	93.5
513.994	82.5
514.21	98.5
514.426	112.5
514.642	117.5
514.858	97.5
515.074	132.5
515.29	329.5
515.506	991.5
515.721	386.5
515.937	115.5
516.153	93.5
516.369	105.5
516.585	100.5
516.801	87.5
517.016	81.5
517.232	73.5
517.448	83.5
517.664	95.5
517.879	81.5
518.095	85.5
518.311	87.5
518.527	76.5
518.742	88.5
518.958	88.5
519.173	96.5
519.389	90.5
519.605	102.5
519.82	104.5
520.036	106.5
520.251	98.5
520.467	99.5
520.682	85.5
520.898	100.5
521.113	96.5
521.329	121.5
521.544	144.5
521.76	383.5
521.975	1612.5
522.19	979.5
522.406	226.5
522.621	107.5
522.836	101.5
523.052	81.5
523.267	96.5
523.482	97.5
523.698	79.5
523.913	114.5
524.128	88.5
524.343	84.5
524.559	91.5
524.774	89.5
524.989	97.5
525.204	103.5
525.419	77.5
525.634	91.5
525.849	92.5
526.064	97.5
526.28	87.5
526.495	75.5
526.71	73.5
526.925	80.5
527.14	87.5
527.355	84.5
527.57	85.5
527.785	79.5
527.999	86.5
528.214	86.5
528.429	82.5
528.644	84.5
528.859	77.5
529.074	76.5
529.289	95.5
529.503	140.5
529.718	98.5
529.933	93.5
530.148	80.5
530.363	87.5
530.577	74.5
530.792	83.5
531.007	82.5
531.221	90.5
531.436	92.5
531.651	87.5
531.865	94.5
532.08	83.5
532.295	99.5
532.509	101.5
532.724	87.5
532.938	85.5
533.153	86.5
533.367	89.5
533.582	84.5
533.796	92.5
534.011	100.5
534.225	84.5
534.44	100.5
534.654	95.5
534.868	96.5
535.083	89.5
535.297	84.5
535.511	98.5
535.726	104.5
535.94	92.5
536.154	91.5
536.369	91.5
536.583	82.5
536.797	90.5
537.011	87.5
