Data from Circ_1980_H10_HRD10591_00032.txt Node
Date: Wed Jan 03 12:38:04 EST 2024
User: Yrep
Spectrometer: HR+D1059
Trigger mode: 1
Integration Time (sec): 1.000000E-1
Scans to average: 1
Electric dark correction enabled: true
Nonlinearity correction enabled: false
Boxcar width: 0
XAxis mode: Wavelengths
Number of Pixels in Spectrum: 2048
>>>>>Begin Spectral Data<<<<<
223.165	-14.25
223.4	-14.25
223.635	-14.25
223.869	-3.25
224.104	-30.25
224.338	-37.25
224.573	2.75
224.808	-22.25
225.042	-10.25
225.277	-1.25
225.511	-3.25
225.746	1.75
225.98	12.75
226.215	1.75
226.449	19.75
226.683	13.75
226.918	34.75
227.152	34.75
227.387	29.75
227.621	48.75
227.856	34.75
228.09	50.75
228.324	47.75
228.559	49.75
228.793	66.75
229.027	62.75
229.262	74.75
229.496	74.75
229.73	76.75
229.964	69.75
230.199	82.75
230.433	83.75
230.667	85.75
230.901	77.75
231.136	85.75
231.37	86.75
231.604	76.75
231.838	72.75
232.072	71.75
232.306	87.75
232.541	73.75
232.775	71.75
233.009	85.75
233.243	76.75
233.477	76.75
233.711	83.75
233.945	90.75
234.179	85.75
234.413	81.75
234.647	74.75
234.881	83.75
235.115	51.75
235.349	86.75
235.583	81.75
235.817	86.75
236.051	74.75
236.285	74.75
236.519	87.75
236.753	81.75
236.987	76.75
237.221	73.75
237.455	75.75
237.689	77.75
237.922	74.75
238.156	90.75
238.39	75.75
238.624	70.75
238.858	83.75
239.091	75.75
239.325	74.75
239.559	85.75
239.793	75.75
240.027	72.75
240.26	66.75
240.494	91.75
240.728	76.75
240.961	74.75
241.195	82.75
241.429	76.75
241.662	84.75
241.896	73.75
242.13	52.75
242.363	82.75
242.597	63.75
242.83	74.75
243.064	86.75
243.298	80.75
243.531	56.75
243.765	92.75
243.998	86.75
244.232	84.75
244.465	64.75
244.699	73.75
244.932	77.75
245.166	80.75
245.399	71.75
245.633	80.75
245.866	67.75
246.099	77.75
246.333	75.75
246.566	57.75
246.8	77.75
247.033	77.75
247.266	88.75
247.5	79.75
247.733	67.75
247.966	75.75
248.2	77.75
248.433	83.75
248.666	75.75
248.899	96.75
249.133	76.75
249.366	92.75
249.599	80.75
249.832	77.75
250.066	81.75
250.299	76.75
250.532	73.75
250.765	75.75
250.998	79.75
251.231	81.75
251.465	90.75
251.698	75.75
251.931	76.75
252.164	84.75
252.397	68.75
252.63	68.75
252.863	65.75
253.096	71.75
253.329	85.75
253.562	82.75
253.795	72.75
254.028	69.75
254.261	81.75
254.494	71.75
254.727	75.75
254.96	74.75
255.193	67.75
255.426	70.75
255.659	85.75
255.892	83.75
256.124	79.75
256.357	72.75
256.59	67.75
256.823	72.75
257.056	77.75
257.289	92.75
257.521	81.75
257.754	61.75
257.987	70.75
258.22	82.75
258.452	93.75
258.685	85.75
258.918	81.75
259.151	82.75
259.383	73.75
259.616	76.75
259.849	87.75
260.081	76.75
260.314	83.75
260.547	79.75
260.779	89.75
261.012	72.75
261.244	74.75
261.477	88.75
261.71	71.75
261.942	95.75
262.175	95.75
262.407	80.75
262.64	74.75
262.872	89.75
263.105	73.75
263.337	74.75
263.57	96.75
263.802	85.75
264.035	85.75
264.267	85.75
264.499	84.75
264.732	75.75
264.964	81.75
265.197	72.75
265.429	88.75
265.661	83.75
265.894	84.75
266.126	75.75
266.358	83.75
266.591	75.75
266.823	80.75
267.055	80.75
267.287	72.75
267.52	88.75
267.752	93.75
267.984	89.75
268.216	88.75
268.448	93.75
268.681	69.75
268.913	80.75
269.145	92.75
269.377	100.75
269.609	91.75
269.841	83.75
270.073	84.75
270.306	84.75
270.538	95.75
270.77	72.75
271.002	82.75
271.234	75.75
271.466	73.75
271.698	80.75
271.93	89.75
272.162	86.75
272.394	81.75
272.626	75.75
272.858	83.75
273.09	66.75
273.322	87.75
273.553	74.75
273.785	77.75
274.017	71.75
274.249	88.75
274.481	96.75
274.713	80.75
274.945	81.75
275.176	85.75
275.408	74.75
275.64	76.75
275.872	77.75
276.104	96.75
276.335	84.75
276.567	76.75
276.799	92.75
277.031	101.75
277.262	71.75
277.494	88.75
277.726	79.75
277.957	90.75
278.189	67.75
278.421	91.75
278.652	76.75
278.884	75.75
279.115	90.75
279.347	81.75
279.579	83.75
279.81	88.75
280.042	90.75
280.273	91.75
280.505	84.75
280.736	74.75
280.968	81.75
281.199	85.75
281.431	72.75
281.662	90.75
281.894	85.75
282.125	87.75
282.356	108.75
282.588	117.75
282.819	98.75
283.051	82.75
283.282	93.75
283.513	67.75
283.745	81.75
283.976	85.75
284.207	86.75
284.439	69.75
284.67	85.75
284.901	87.75
285.132	87.75
285.364	84.75
285.595	84.75
285.826	83.75
286.057	71.75
286.288	85.75
286.52	85.75
286.751	73.75
286.982	83.75
287.213	86.75
287.444	79.75
287.675	79.75
287.906	92.75
288.138	89.75
288.369	87.75
288.6	68.75
288.831	80.75
289.062	89.75
289.293	92.75
289.524	91.75
289.755	79.75
289.986	76.75
290.217	88.75
290.448	89.75
290.679	82.75
290.91	88.75
291.141	78.75
291.371	80.75
291.602	92.75
291.833	83.75
292.064	83.75
292.295	77.75
292.526	76.75
292.757	76.75
292.987	93.75
293.218	77.75
293.449	87.75
293.68	74.75
293.91	75.75
294.141	87.75
294.372	88.75
294.603	98.75
294.833	79.75
295.064	88.75
295.295	97.75
295.525	89.75
295.756	85.75
295.987	101.75
296.217	113.75
296.448	114.75
296.679	85.75
296.909	97.75
297.14	76.75
297.37	78.75
297.601	89.75
297.831	92.75
298.062	78.75
298.292	82.75
298.523	75.75
298.753	92.75
298.984	89.75
299.214	83.75
299.445	76.75
299.675	85.75
299.905	97.75
300.136	85.75
300.366	93.75
300.597	101.75
300.827	84.75
301.057	87.75
301.288	92.75
301.518	88.75
301.748	67.75
301.979	96.75
302.209	84.75
302.439	88.75
302.669	95.75
302.9	98.75
303.13	91.75
303.36	92.75
303.59	88.75
303.82	87.75
304.051	82.75
304.281	92.75
304.511	80.75
304.741	96.75
304.971	80.75
305.201	77.75
305.431	74.75
305.661	82.75
305.891	79.75
306.121	85.75
306.352	94.75
306.582	102.75
306.812	83.75
307.042	89.75
307.272	97.75
307.502	83.75
307.731	93.75
307.961	98.75
308.191	89.75
308.421	75.75
308.651	82.75
308.881	83.75
309.111	96.75
309.341	111.75
309.571	93.75
309.8	93.75
310.03	92.75
310.26	85.75
310.49	89.75
310.72	90.75
310.949	104.75
311.179	88.75
311.409	74.75
311.639	85.75
311.868	85.75
312.098	80.75
312.328	91.75
312.557	79.75
312.787	114.75
313.017	80.75
313.246	77.75
313.476	87.75
313.706	98.75
313.935	88.75
314.165	91.75
314.394	88.75
314.624	103.75
314.853	73.75
315.083	73.75
315.312	93.75
315.542	92.75
315.771	85.75
316.001	91.75
316.23	91.75
316.46	86.75
316.689	86.75
316.919	86.75
317.148	95.75
317.377	94.75
317.607	90.75
317.836	76.75
318.065	81.75
318.295	91.75
318.524	89.75
318.753	88.75
318.983	88.75
319.212	92.75
319.441	85.75
319.67	100.75
319.9	94.75
320.129	95.75
320.358	95.75
320.587	101.75
320.816	93.75
321.046	101.75
321.275	106.75
321.504	97.75
321.733	96.75
321.962	79.75
322.191	99.75
322.42	89.75
322.649	95.75
322.878	105.75
323.108	116.75
323.337	101.75
323.566	106.75
323.795	121.75
324.024	177.75
324.253	301.75
324.482	573.75
324.71	1242.75
324.939	1589.75
325.168	613.75
325.397	199.75
325.626	140.75
325.855	114.75
326.084	99.75
326.313	123.75
326.542	135.75
326.77	179.75
326.999	376.75
327.228	701.75
327.457	1279.75
327.686	1015.75
327.914	299.75
328.143	155.75
328.372	129.75
328.6	109.75
328.829	112.75
329.058	105.75
329.287	113.75
329.515	99.75
329.744	95.75
329.972	110.75
330.201	96.75
330.43	121.75
330.658	111.75
330.887	116.75
331.115	103.75
331.344	83.75
331.572	100.75
331.801	93.75
332.03	93.75
332.258	89.75
332.486	84.75
332.715	96.75
332.943	91.75
333.172	92.75
333.4	91.75
333.629	97.75
333.857	117.75
334.085	106.75
334.314	107.75
334.542	114.75
334.771	119.75
334.999	88.75
335.227	98.75
335.455	94.75
335.684	109.75
335.912	94.75
336.14	99.75
336.369	87.75
336.597	100.75
336.825	93.75
337.053	94.75
337.281	99.75
337.51	77.75
337.738	92.75
337.966	97.75
338.194	88.75
338.422	100.75
338.65	79.75
338.878	88.75
339.106	90.75
339.334	93.75
339.562	95.75
339.79	83.75
340.018	96.75
340.246	91.75
340.474	95.75
340.702	91.75
340.93	95.75
341.158	85.75
341.386	85.75
341.614	98.75
341.842	83.75
342.07	89.75
342.298	93.75
342.526	81.75
342.754	97.75
342.981	93.75
343.209	85.75
343.437	107.75
343.665	79.75
343.893	97.75
344.12	79.75
344.348	88.75
344.576	78.75
344.804	106.75
345.031	99.75
345.259	87.75
345.487	98.75
345.714	110.75
345.942	85.75
346.17	79.75
346.397	100.75
346.625	81.75
346.853	91.75
347.08	91.75
347.308	102.75
347.535	102.75
347.763	97.75
347.99	87.75
348.218	88.75
348.445	91.75
348.673	104.75
348.9	90.75
349.128	90.75
349.355	85.75
349.583	88.75
349.81	96.75
350.037	96.75
350.265	90.75
350.492	92.75
350.72	85.75
350.947	84.75
351.174	103.75
351.402	101.75
351.629	91.75
351.856	89.75
352.083	84.75
352.311	95.75
352.538	101.75
352.765	93.75
352.992	116.75
353.22	101.75
353.447	92.75
353.674	92.75
353.901	95.75
354.128	95.75
354.355	85.75
354.583	105.75
354.81	98.75
355.037	90.75
355.264	89.75
355.491	81.75
355.718	93.75
355.945	89.75
356.172	90.75
356.399	87.75
356.626	97.75
356.853	82.75
357.08	87.75
357.307	93.75
357.534	96.75
357.761	74.75
357.988	90.75
358.215	101.75
358.441	83.75
358.668	100.75
358.895	99.75
359.122	87.75
359.349	90.75
359.576	96.75
359.802	91.75
360.029	93.75
360.256	123.75
360.483	103.75
360.709	85.75
360.936	89.75
361.163	104.75
361.39	85.75
361.616	97.75
361.843	93.75
362.07	87.75
362.296	87.75
362.523	82.75
362.749	85.75
362.976	95.75
363.203	83.75
363.429	76.75
363.656	94.75
363.882	83.75
364.109	79.75
364.335	93.75
364.562	74.75
364.788	91.75
365.015	86.75
365.241	101.75
365.468	101.75
365.694	104.75
365.92	87.75
366.147	84.75
366.373	68.75
366.599	99.75
366.826	88.75
367.052	81.75
367.278	93.75
367.505	89.75
367.731	88.75
367.957	85.75
368.184	74.75
368.41	112.75
368.636	96.75
368.862	94.75
369.089	95.75
369.315	72.75
369.541	83.75
369.767	97.75
369.993	89.75
370.219	83.75
370.445	79.75
370.672	96.75
370.898	84.75
371.124	72.75
371.35	80.75
371.576	91.75
371.802	90.75
372.028	78.75
372.254	83.75
372.48	94.75
372.706	92.75
372.932	81.75
373.158	91.75
373.384	83.75
373.61	92.75
373.835	91.75
374.061	84.75
374.287	96.75
374.513	85.75
374.739	84.75
374.965	88.75
375.191	82.75
375.416	80.75
375.642	80.75
375.868	93.75
376.094	76.75
376.319	92.75
376.545	95.75
376.771	83.75
376.997	101.75
377.222	101.75
377.448	103.75
377.674	95.75
377.899	91.75
378.125	90.75
378.35	70.75
378.576	70.75
378.802	104.75
379.027	93.75
379.253	87.75
379.478	93.75
379.704	92.75
379.929	120.75
380.155	99.75
380.38	99.75
380.606	82.75
380.831	88.75
381.057	102.75
381.282	100.75
381.507	93.75
381.733	100.75
381.958	94.75
382.184	115.75
382.409	108.75
382.634	101.75
382.86	84.75
383.085	114.75
383.31	104.75
383.535	90.75
383.761	104.75
383.986	114.75
384.211	87.75
384.436	89.75
384.662	99.75
384.887	108.75
385.112	104.75
385.337	103.75
385.562	96.75
385.787	92.75
386.013	104.75
386.238	113.75
386.463	118.75
386.688	114.75
386.913	109.75
387.138	100.75
387.363	103.75
387.588	98.75
387.813	89.75
388.038	112.75
388.263	121.75
388.488	126.75
388.713	91.75
388.938	93.75
389.163	91.75
389.387	90.75
389.612	95.75
389.837	83.75
390.062	86.75
390.287	91.75
390.512	89.75
390.736	67.75
390.961	86.75
391.186	91.75
391.411	97.75
391.636	97.75
391.86	79.75
392.085	91.75
392.31	87.75
392.534	95.75
392.759	80.75
392.984	82.75
393.208	105.75
393.433	88.75
393.658	85.75
393.882	82.75
394.107	100.75
394.331	81.75
394.556	83.75
394.78	85.75
395.005	95.75
395.229	87.75
395.454	97.75
395.678	76.75
395.903	81.75
396.127	84.75
396.352	92.75
396.576	90.75
396.801	90.75
397.025	92.75
397.249	89.75
397.474	84.75
397.698	79.75
397.922	76.75
398.147	87.75
398.371	55.75
398.595	98.75
398.82	94.75
399.044	86.75
399.268	85.75
399.492	95.75
399.717	91.75
399.941	93.75
400.165	87.75
400.389	91.75
400.613	80.75
400.837	98.75
401.062	72.75
401.286	92.75
401.51	85.75
401.734	90.75
401.958	97.75
402.182	99.75
402.406	126.75
402.63	104.75
402.854	86.75
403.078	88.75
403.302	83.75
403.526	87.75
403.75	86.75
403.974	85.75
404.198	72.75
404.422	88.75
404.645	98.75
404.869	85.75
405.093	90.75
405.317	95.75
405.541	90.75
405.765	99.75
405.988	115.75
406.212	127.75
406.436	170.75
406.66	131.75
406.883	92.75
407.107	90.75
407.331	93.75
407.555	98.75
407.778	102.75
408.002	90.75
408.226	92.75
408.449	71.75
408.673	84.75
408.896	90.75
409.12	108.75
409.344	96.75
409.567	83.75
409.791	91.75
410.014	82.75
410.238	88.75
410.461	82.75
410.685	95.75
410.908	87.75
411.132	103.75
411.355	107.75
411.578	98.75
411.802	93.75
412.025	90.75
412.249	103.75
412.472	83.75
412.695	90.75
412.919	91.75
413.142	88.75
413.365	80.75
413.589	77.75
413.812	93.75
414.035	88.75
414.258	91.75
414.482	87.75
414.705	96.75
414.928	85.75
415.151	83.75
415.374	92.75
415.597	84.75
415.821	95.75
416.044	95.75
416.267	97.75
416.49	96.75
416.713	93.75
416.936	88.75
417.159	90.75
417.382	76.75
417.605	80.75
417.828	74.75
418.051	86.75
418.274	92.75
418.497	86.75
418.72	94.75
418.943	96.75
419.166	95.75
419.389	94.75
419.611	87.75
419.834	95.75
420.057	91.75
420.28	94.75
420.503	86.75
420.726	93.75
420.948	84.75
421.171	90.75
421.394	82.75
421.617	94.75
421.839	86.75
422.062	103.75
422.285	87.75
422.507	101.75
422.73	95.75
422.953	92.75
423.175	72.75
423.398	77.75
423.621	81.75
423.843	78.75
424.066	87.75
424.288	90.75
424.511	90.75
424.733	84.75
424.956	97.75
425.178	97.75
425.401	88.75
425.623	91.75
425.846	90.75
426.068	88.75
426.291	93.75
426.513	88.75
426.735	98.75
426.958	97.75
427.18	102.75
427.402	113.75
427.625	150.75
427.847	134.75
428.069	100.75
428.292	79.75
428.514	74.75
428.736	87.75
428.958	93.75
429.181	96.75
429.403	76.75
429.625	76.75
429.847	80.75
430.069	84.75
430.292	80.75
430.514	95.75
430.736	74.75
430.958	83.75
431.18	67.75
431.402	80.75
431.624	81.75
431.846	75.75
432.068	84.75
432.29	73.75
432.512	92.75
432.734	88.75
432.956	99.75
433.178	88.75
433.4	102.75
433.622	80.75
433.844	85.75
434.066	83.75
434.287	77.75
434.509	89.75
434.731	66.75
434.953	85.75
435.175	97.75
435.397	88.75
435.618	93.75
435.84	110.75
436.062	103.75
436.284	107.75
436.505	92.75
436.727	105.75
436.949	89.75
437.17	90.75
437.392	89.75
437.614	74.75
437.835	104.75
438.057	107.75
438.278	122.75
438.5	115.75
438.721	112.75
438.943	89.75
439.165	109.75
439.386	91.75
439.608	72.75
439.829	76.75
440.05	118.75
440.272	138.75
440.493	83.75
440.715	72.75
440.936	83.75
441.158	88.75
441.379	82.75
441.6	88.75
441.822	89.75
442.043	80.75
442.264	93.75
442.486	84.75
442.707	89.75
442.928	92.75
443.149	96.75
443.371	128.75
443.592	110.75
443.813	103.75
444.034	98.75
444.255	65.75
444.476	90.75
444.698	79.75
444.919	91.75
445.14	115.75
445.361	112.75
445.582	88.75
445.803	121.75
446.024	108.75
446.245	100.75
446.466	92.75
446.687	74.75
446.908	91.75
447.129	91.75
447.35	80.75
447.571	98.75
447.792	95.75
448.013	94.75
448.234	99.75
448.455	97.75
448.675	90.75
448.896	95.75
449.117	96.75
449.338	85.75
449.559	104.75
449.779	112.75
450	98.75
450.221	85.75
450.442	85.75
450.662	91.75
450.883	101.75
451.104	89.75
451.324	89.75
451.545	96.75
451.766	95.75
451.986	90.75
452.207	76.75
452.428	90.75
452.648	89.75
452.869	72.75
453.089	98.75
453.31	93.75
453.53	85.75
453.751	95.75
453.971	97.75
454.192	95.75
454.412	94.75
454.633	95.75
454.853	84.75
455.073	68.75
455.294	79.75
455.514	98.75
455.734	77.75
455.955	83.75
456.175	66.75
456.395	81.75
456.616	89.75
456.836	91.75
457.056	88.75
457.276	68.75
457.497	83.75
457.717	79.75
457.937	87.75
458.157	86.75
458.377	95.75
458.598	82.75
458.818	137.75
459.038	126.75
459.258	91.75
459.478	85.75
459.698	71.75
459.918	96.75
460.138	88.75
460.358	87.75
460.578	63.75
460.798	76.75
461.018	91.75
461.238	75.75
461.458	91.75
461.678	81.75
461.898	89.75
462.118	99.75
462.338	103.75
462.558	90.75
462.777	89.75
462.997	89.75
463.217	89.75
463.437	82.75
463.657	83.75
463.876	91.75
464.096	73.75
464.316	91.75
464.536	91.75
464.755	89.75
464.975	91.75
465.195	124.75
465.414	132.75
465.634	96.75
465.854	97.75
466.073	91.75
466.293	89.75
466.512	79.75
466.732	89.75
466.951	75.75
467.171	82.75
467.391	92.75
467.61	100.75
467.829	99.75
468.049	81.75
468.268	100.75
468.488	74.75
468.707	94.75
468.927	85.75
469.146	82.75
469.365	80.75
469.585	87.75
469.804	87.75
470.023	84.75
470.243	95.75
470.462	92.75
470.681	90.75
470.901	98.75
471.12	69.75
471.339	75.75
471.558	89.75
471.777	75.75
471.997	92.75
472.216	98.75
472.435	131.75
472.654	97.75
472.873	84.75
473.092	83.75
473.311	82.75
473.53	77.75
473.749	85.75
473.968	77.75
474.187	84.75
474.406	77.75
474.625	79.75
474.844	76.75
475.063	91.75
475.282	80.75
475.501	76.75
475.72	75.75
475.939	68.75
476.158	71.75
476.377	85.75
476.596	79.75
476.814	88.75
477.033	83.75
477.252	88.75
477.471	91.75
477.69	83.75
477.908	68.75
478.127	102.75
478.346	65.75
478.564	70.75
478.783	82.75
479.002	91.75
479.22	87.75
479.439	88.75
479.658	94.75
479.876	80.75
480.095	73.75
480.313	92.75
480.532	84.75
480.751	95.75
480.969	117.75
481.188	173.75
481.406	135.75
481.624	89.75
481.843	91.75
482.061	81.75
482.28	99.75
482.498	77.75
482.717	89.75
482.935	87.75
483.153	88.75
483.372	80.75
483.59	79.75
483.808	85.75
484.027	76.75
484.245	97.75
484.463	83.75
484.681	99.75
484.9	100.75
485.118	99.75
485.336	96.75
485.554	93.75
485.772	99.75
485.99	92.75
486.209	116.75
486.427	112.75
486.645	118.75
486.863	110.75
487.081	95.75
487.299	95.75
487.517	93.75
487.735	99.75
487.953	74.75
488.171	74.75
488.389	77.75
488.607	75.75
488.825	80.75
489.043	95.75
489.261	88.75
489.479	98.75
489.696	73.75
489.914	80.75
490.132	72.75
490.35	93.75
490.568	85.75
490.786	83.75
491.003	89.75
491.221	95.75
491.439	85.75
491.657	87.75
491.874	92.75
492.092	101.75
492.31	94.75
492.527	82.75
492.745	91.75
492.963	100.75
493.18	92.75
493.398	89.75
493.615	99.75
493.833	89.75
494.05	98.75
494.268	81.75
494.485	92.75
494.703	89.75
494.92	91.75
495.138	90.75
495.355	99.75
495.573	81.75
495.79	83.75
496.008	87.75
496.225	84.75
496.442	89.75
496.66	101.75
496.877	83.75
497.094	94.75
497.312	87.75
497.529	94.75
497.746	86.75
497.963	108.75
498.181	91.75
498.398	81.75
498.615	104.75
498.832	90.75
499.049	86.75
499.267	88.75
499.484	90.75
499.701	96.75
499.918	94.75
500.135	88.75
500.352	82.75
500.569	84.75
500.786	84.75
501.003	93.75
501.22	92.75
501.437	84.75
501.654	87.75
501.871	89.75
502.088	91.75
502.305	95.75
502.522	88.75
502.739	98.75
502.956	92.75
503.172	83.75
503.389	96.75
503.606	93.75
503.823	92.75
504.04	84.75
504.256	101.75
504.473	76.75
504.69	85.75
504.907	89.75
505.123	76.75
505.34	93.75
505.557	80.75
505.773	85.75
505.99	69.75
506.207	88.75
506.423	88.75
506.64	99.75
506.856	70.75
507.073	82.75
507.289	88.75
507.506	83.75
507.722	97.75
507.939	96.75
508.155	83.75
508.372	82.75
508.588	70.75
508.805	83.75
509.021	90.75
509.238	87.75
509.454	97.75
509.67	104.75
509.887	95.75
510.103	117.75
510.319	177.75
510.536	551.75
510.752	1683.75
510.968	474.75
511.184	138.75
511.401	101.75
511.617	90.75
511.833	85.75
512.049	89.75
512.265	82.75
512.481	88.75
512.698	96.75
512.914	95.75
513.13	87.75
513.346	92.75
513.562	88.75
513.778	83.75
513.994	80.75
514.21	86.75
514.426	105.75
514.642	110.75
514.858	102.75
515.074	128.75
515.29	328.75
515.506	1013.75
515.721	374.75
515.937	121.75
516.153	99.75
516.369	95.75
516.585	76.75
516.801	86.75
517.016	89.75
517.232	97.75
517.448	76.75
