Data from Circ_1980_H10_HRD10591_00030.txt Node
Date: Wed Jan 03 12:38:04 EST 2024
User: Yrep
Spectrometer: HR+D1059
Trigger mode: 1
Integration Time (sec): 1.000000E-1
Scans to average: 1
Electric dark correction enabled: true
Nonlinearity correction enabled: false
Boxcar width: 0
XAxis mode: Wavelengths
Number of Pixels in Spectrum: 2048
>>>>>Begin Spectral Data<<<<<
223.165	-15.25
223.4	-15.25
223.635	-15.25
223.869	-18.25
224.104	-15.25
224.338	-17.25
224.573	-19.25
224.808	-14.25
225.042	-11.25
225.277	-1.25
225.511	-11.25
225.746	10.75
225.98	2.75
226.215	9.75
226.449	20.75
226.683	22.75
226.918	26.75
227.152	29.75
227.387	32.75
227.621	42.75
227.856	65.75
228.09	45.75
228.324	47.75
228.559	55.75
228.793	58.75
229.027	60.75
229.262	67.75
229.496	75.75
229.73	71.75
229.964	100.75
230.199	89.75
230.433	69.75
230.667	83.75
230.901	71.75
231.136	77.75
231.37	72.75
231.604	83.75
231.838	84.75
232.072	69.75
232.306	88.75
232.541	76.75
232.775	76.75
233.009	84.75
233.243	84.75
233.477	76.75
233.711	84.75
233.945	76.75
234.179	94.75
234.413	91.75
234.647	76.75
234.881	78.75
235.115	85.75
235.349	73.75
235.583	75.75
235.817	85.75
236.051	81.75
236.285	92.75
236.519	88.75
236.753	87.75
236.987	73.75
237.221	84.75
237.455	61.75
237.689	86.75
237.922	79.75
238.156	77.75
238.39	76.75
238.624	74.75
238.858	81.75
239.091	70.75
239.325	68.75
239.559	75.75
239.793	68.75
240.027	81.75
240.26	92.75
240.494	84.75
240.728	74.75
240.961	73.75
241.195	87.75
241.429	77.75
241.662	72.75
241.896	61.75
242.13	67.75
242.363	62.75
242.597	74.75
242.83	69.75
243.064	84.75
243.298	92.75
243.531	80.75
243.765	80.75
243.998	97.75
244.232	79.75
244.465	84.75
244.699	75.75
244.932	94.75
245.166	71.75
245.399	93.75
245.633	92.75
245.866	64.75
246.099	75.75
246.333	74.75
246.566	74.75
246.8	87.75
247.033	71.75
247.266	74.75
247.5	76.75
247.733	88.75
247.966	69.75
248.2	84.75
248.433	106.75
248.666	85.75
248.899	86.75
249.133	96.75
249.366	85.75
249.599	89.75
249.832	94.75
250.066	74.75
250.299	91.75
250.532	104.75
250.765	99.75
250.998	74.75
251.231	87.75
251.465	79.75
251.698	84.75
251.931	84.75
252.164	69.75
252.397	84.75
252.63	92.75
252.863	88.75
253.096	85.75
253.329	81.75
253.562	75.75
253.795	71.75
254.028	96.75
254.261	92.75
254.494	80.75
254.727	90.75
254.96	87.75
255.193	68.75
255.426	74.75
255.659	84.75
255.892	87.75
256.124	78.75
256.357	88.75
256.59	90.75
256.823	84.75
257.056	73.75
257.289	70.75
257.521	78.75
257.754	80.75
257.987	89.75
258.22	84.75
258.452	79.75
258.685	96.75
258.918	95.75
259.151	81.75
259.383	65.75
259.616	91.75
259.849	73.75
260.081	86.75
260.314	100.75
260.547	77.75
260.779	86.75
261.012	91.75
261.244	102.75
261.477	96.75
261.71	81.75
261.942	100.75
262.175	113.75
262.407	109.75
262.64	92.75
262.872	75.75
263.105	89.75
263.337	78.75
263.57	65.75
263.802	92.75
264.035	94.75
264.267	85.75
264.499	81.75
264.732	91.75
264.964	75.75
265.197	89.75
265.429	93.75
265.661	72.75
265.894	86.75
266.126	81.75
266.358	87.75
266.591	84.75
266.823	94.75
267.055	84.75
267.287	81.75
267.52	87.75
267.752	98.75
267.984	82.75
268.216	98.75
268.448	77.75
268.681	84.75
268.913	88.75
269.145	79.75
269.377	86.75
269.609	84.75
269.841	86.75
270.073	90.75
270.306	100.75
270.538	98.75
270.77	78.75
271.002	90.75
271.234	89.75
271.466	92.75
271.698	94.75
271.93	81.75
272.162	86.75
272.394	96.75
272.626	84.75
272.858	89.75
273.09	84.75
273.322	70.75
273.553	85.75
273.785	81.75
274.017	74.75
274.249	83.75
274.481	96.75
274.713	84.75
274.945	85.75
275.176	88.75
275.408	94.75
275.64	90.75
275.872	97.75
276.104	91.75
276.335	86.75
276.567	85.75
276.799	98.75
277.031	93.75
277.262	84.75
277.494	77.75
277.726	79.75
277.957	87.75
278.189	90.75
278.421	90.75
278.652	94.75
278.884	91.75
279.115	78.75
279.347	87.75
279.579	91.75
279.81	83.75
280.042	81.75
280.273	88.75
280.505	90.75
280.736	86.75
280.968	92.75
281.199	91.75
281.431	72.75
281.662	75.75
281.894	81.75
282.125	96.75
282.356	111.75
282.588	111.75
282.819	97.75
283.051	70.75
283.282	81.75
283.513	96.75
283.745	88.75
283.976	91.75
284.207	86.75
284.439	95.75
284.67	84.75
284.901	101.75
285.132	92.75
285.364	80.75
285.595	91.75
285.826	80.75
286.057	79.75
286.288	94.75
286.52	89.75
286.751	87.75
286.982	92.75
287.213	87.75
287.444	89.75
287.675	93.75
287.906	99.75
288.138	72.75
288.369	83.75
288.6	102.75
288.831	96.75
289.062	71.75
289.293	80.75
289.524	98.75
289.755	69.75
289.986	79.75
290.217	79.75
290.448	79.75
290.679	74.75
290.91	91.75
291.141	86.75
291.371	102.75
291.602	80.75
291.833	78.75
292.064	87.75
292.295	80.75
292.526	91.75
292.757	88.75
292.987	81.75
293.218	86.75
293.449	89.75
293.68	94.75
293.91	104.75
294.141	85.75
294.372	77.75
294.603	77.75
294.833	87.75
295.064	88.75
295.295	93.75
295.525	96.75
295.756	98.75
295.987	118.75
296.217	119.75
296.448	93.75
296.679	108.75
296.909	95.75
297.14	88.75
297.37	86.75
297.601	92.75
297.831	78.75
298.062	74.75
298.292	95.75
298.523	89.75
298.753	88.75
298.984	88.75
299.214	95.75
299.445	92.75
299.675	91.75
299.905	81.75
300.136	76.75
300.366	71.75
300.597	86.75
300.827	98.75
301.057	103.75
301.288	97.75
301.518	97.75
301.748	93.75
301.979	98.75
302.209	92.75
302.439	73.75
302.669	93.75
302.9	86.75
303.13	104.75
303.36	83.75
303.59	106.75
303.82	112.75
304.051	82.75
304.281	82.75
304.511	96.75
304.741	84.75
304.971	94.75
305.201	86.75
305.431	84.75
305.661	83.75
305.891	96.75
306.121	107.75
306.352	98.75
306.582	95.75
306.812	83.75
307.042	89.75
307.272	93.75
307.502	92.75
307.731	98.75
307.961	88.75
308.191	90.75
308.421	94.75
308.651	107.75
308.881	84.75
309.111	84.75
309.341	68.75
309.571	89.75
309.8	86.75
310.03	96.75
310.26	90.75
310.49	84.75
310.72	88.75
310.949	94.75
311.179	107.75
311.409	108.75
311.639	81.75
311.868	102.75
312.098	90.75
312.328	94.75
312.557	86.75
312.787	108.75
313.017	110.75
313.246	89.75
313.476	105.75
313.706	95.75
313.935	90.75
314.165	95.75
314.394	89.75
314.624	102.75
314.853	96.75
315.083	101.75
315.312	94.75
315.542	93.75
315.771	104.75
316.001	96.75
316.23	96.75
316.46	96.75
316.689	90.75
316.919	89.75
317.148	96.75
317.377	108.75
317.607	100.75
317.836	91.75
318.065	97.75
318.295	89.75
318.524	96.75
318.753	95.75
318.983	86.75
319.212	100.75
319.441	97.75
319.67	109.75
319.9	96.75
320.129	94.75
320.358	81.75
320.587	100.75
320.816	98.75
321.046	109.75
321.275	95.75
321.504	91.75
321.733	94.75
321.962	98.75
322.191	88.75
322.42	96.75
322.649	98.75
322.878	99.75
323.108	96.75
323.337	113.75
323.566	124.75
323.795	125.75
324.024	162.75
324.253	304.75
324.482	582.75
324.71	1188.75
324.939	1562.75
325.168	615.75
325.397	202.75
325.626	148.75
325.855	121.75
326.084	113.75
326.313	130.75
326.542	141.75
326.77	187.75
326.999	356.75
327.228	722.75
327.457	1259.75
327.686	962.75
327.914	281.75
328.143	157.75
328.372	146.75
328.6	110.75
328.829	98.75
329.058	114.75
329.287	126.75
329.515	102.75
329.744	107.75
329.972	103.75
330.201	100.75
330.43	103.75
330.658	108.75
330.887	118.75
331.115	114.75
331.344	99.75
331.572	112.75
331.801	105.75
332.03	88.75
332.258	98.75
332.486	101.75
332.715	90.75
332.943	89.75
333.172	109.75
333.4	80.75
333.629	118.75
333.857	105.75
334.085	98.75
334.314	108.75
334.542	124.75
334.771	127.75
334.999	106.75
335.227	100.75
335.455	91.75
335.684	97.75
335.912	96.75
336.14	102.75
336.369	81.75
336.597	91.75
336.825	111.75
337.053	102.75
337.281	84.75
337.51	96.75
337.738	86.75
337.966	90.75
338.194	84.75
338.422	97.75
338.65	110.75
338.878	80.75
339.106	86.75
339.334	84.75
339.562	84.75
339.79	90.75
340.018	97.75
340.246	86.75
340.474	91.75
340.702	100.75
340.93	92.75
341.158	89.75
341.386	93.75
341.614	91.75
341.842	99.75
342.07	81.75
342.298	79.75
342.526	91.75
342.754	101.75
342.981	80.75
343.209	84.75
343.437	103.75
343.665	89.75
343.893	87.75
344.12	101.75
344.348	89.75
344.576	87.75
344.804	95.75
345.031	96.75
345.259	80.75
345.487	94.75
345.714	91.75
345.942	90.75
346.17	98.75
346.397	80.75
346.625	101.75
346.853	94.75
347.08	110.75
347.308	91.75
347.535	95.75
347.763	89.75
347.99	90.75
348.218	84.75
348.445	109.75
348.673	99.75
348.9	102.75
349.128	94.75
349.355	100.75
349.583	100.75
349.81	97.75
350.037	112.75
350.265	91.75
350.492	86.75
350.72	101.75
350.947	109.75
351.174	102.75
351.402	107.75
351.629	95.75
351.856	101.75
352.083	101.75
352.311	115.75
352.538	112.75
352.765	100.75
352.992	104.75
353.22	85.75
353.447	88.75
353.674	94.75
353.901	91.75
354.128	73.75
354.355	81.75
354.583	90.75
354.81	116.75
355.037	92.75
355.264	90.75
355.491	90.75
355.718	97.75
355.945	96.75
356.172	89.75
356.399	84.75
356.626	108.75
356.853	86.75
357.08	92.75
357.307	96.75
357.534	89.75
357.761	95.75
357.988	102.75
358.215	88.75
358.441	85.75
358.668	95.75
358.895	98.75
359.122	93.75
359.349	105.75
359.576	91.75
359.802	106.75
360.029	88.75
360.256	105.75
360.483	97.75
360.709	92.75
360.936	75.75
361.163	98.75
361.39	94.75
361.616	96.75
361.843	90.75
362.07	79.75
362.296	94.75
362.523	101.75
362.749	103.75
362.976	93.75
363.203	100.75
363.429	86.75
363.656	92.75
363.882	72.75
364.109	103.75
364.335	80.75
364.562	87.75
364.788	96.75
365.015	86.75
365.241	98.75
365.468	102.75
365.694	103.75
365.92	93.75
366.147	81.75
366.373	102.75
366.599	81.75
366.826	87.75
367.052	73.75
367.278	96.75
367.505	79.75
367.731	106.75
367.957	84.75
368.184	95.75
368.41	94.75
368.636	119.75
368.862	96.75
369.089	98.75
369.315	102.75
369.541	104.75
369.767	94.75
369.993	96.75
370.219	78.75
370.445	84.75
370.672	90.75
370.898	95.75
371.124	88.75
371.35	83.75
371.576	100.75
371.802	86.75
372.028	87.75
372.254	77.75
372.48	99.75
372.706	90.75
372.932	96.75
373.158	92.75
373.384	99.75
373.61	94.75
373.835	92.75
374.061	97.75
374.287	95.75
374.513	103.75
374.739	97.75
374.965	93.75
375.191	91.75
375.416	101.75
375.642	97.75
375.868	90.75
376.094	89.75
376.319	88.75
376.545	95.75
376.771	90.75
376.997	106.75
377.222	108.75
377.448	79.75
377.674	98.75
377.899	94.75
378.125	98.75
378.35	98.75
378.576	88.75
378.802	81.75
379.027	86.75
379.253	88.75
379.478	98.75
379.704	97.75
379.929	98.75
380.155	94.75
380.38	90.75
380.606	101.75
380.831	106.75
381.057	108.75
381.282	104.75
381.507	90.75
381.733	120.75
381.958	111.75
382.184	95.75
382.409	97.75
382.634	93.75
382.86	104.75
383.085	103.75
383.31	97.75
383.535	91.75
383.761	101.75
383.986	109.75
384.211	101.75
384.436	114.75
384.662	100.75
384.887	108.75
385.112	116.75
385.337	100.75
385.562	104.75
385.787	112.75
386.013	112.75
386.238	115.75
386.463	111.75
386.688	128.75
386.913	105.75
387.138	109.75
387.363	105.75
387.588	98.75
387.813	112.75
388.038	117.75
388.263	139.75
388.488	104.75
388.713	103.75
388.938	101.75
389.163	90.75
389.387	89.75
389.612	110.75
389.837	92.75
390.062	87.75
390.287	90.75
390.512	97.75
390.736	99.75
390.961	84.75
391.186	103.75
391.411	79.75
391.636	99.75
391.86	90.75
392.085	102.75
392.31	81.75
392.534	86.75
392.759	91.75
392.984	96.75
393.208	84.75
393.433	101.75
393.658	87.75
393.882	77.75
394.107	91.75
394.331	93.75
394.556	94.75
394.78	95.75
395.005	89.75
395.229	90.75
395.454	89.75
395.678	89.75
395.903	81.75
396.127	96.75
396.352	93.75
396.576	96.75
396.801	87.75
397.025	87.75
397.249	97.75
397.474	89.75
397.698	94.75
397.922	88.75
398.147	96.75
398.371	85.75
398.595	81.75
398.82	84.75
399.044	84.75
399.268	88.75
399.492	94.75
399.717	90.75
399.941	91.75
400.165	96.75
400.389	99.75
400.613	82.75
400.837	90.75
401.062	96.75
401.286	92.75
401.51	77.75
401.734	86.75
401.958	101.75
402.182	123.75
402.406	138.75
402.63	102.75
402.854	103.75
403.078	89.75
403.302	75.75
403.526	92.75
403.75	82.75
403.974	90.75
404.198	94.75
404.422	79.75
404.645	80.75
404.869	94.75
405.093	88.75
405.317	95.75
405.541	92.75
405.765	107.75
405.988	121.75
406.212	141.75
406.436	170.75
406.66	107.75
406.883	90.75
407.107	96.75
407.331	98.75
407.555	107.75
407.778	96.75
408.002	80.75
408.226	93.75
408.449	80.75
408.673	100.75
408.896	100.75
409.12	86.75
409.344	105.75
409.567	90.75
409.791	91.75
410.014	90.75
410.238	100.75
410.461	88.75
410.685	99.75
410.908	94.75
411.132	103.75
411.355	119.75
411.578	96.75
411.802	88.75
412.025	82.75
412.249	113.75
412.472	95.75
412.695	97.75
412.919	101.75
413.142	88.75
413.365	93.75
413.589	84.75
413.812	97.75
414.035	93.75
414.258	99.75
414.482	92.75
414.705	84.75
414.928	94.75
415.151	107.75
415.374	78.75
415.597	81.75
415.821	95.75
416.044	88.75
416.267	81.75
416.49	81.75
416.713	95.75
416.936	90.75
417.159	84.75
417.382	76.75
417.605	80.75
417.828	100.75
418.051	100.75
418.274	84.75
418.497	89.75
418.72	89.75
418.943	90.75
419.166	77.75
419.389	82.75
419.611	84.75
419.834	86.75
420.057	88.75
420.28	96.75
420.503	80.75
420.726	89.75
420.948	80.75
421.171	108.75
421.394	112.75
421.617	95.75
421.839	94.75
422.062	102.75
422.285	90.75
422.507	86.75
422.73	105.75
422.953	74.75
423.175	89.75
423.398	74.75
423.621	90.75
423.843	72.75
424.066	90.75
424.288	78.75
424.511	96.75
424.733	89.75
424.956	82.75
425.178	103.75
425.401	88.75
425.623	102.75
425.846	96.75
426.068	93.75
426.291	91.75
426.513	93.75
426.735	90.75
426.958	89.75
427.18	95.75
427.402	103.75
427.625	131.75
427.847	110.75
428.069	101.75
428.292	84.75
428.514	89.75
428.736	93.75
428.958	94.75
429.181	94.75
429.403	93.75
429.625	82.75
429.847	98.75
430.069	86.75
430.292	90.75
430.514	80.75
430.736	92.75
430.958	94.75
431.18	92.75
431.402	86.75
431.624	95.75
431.846	91.75
432.068	97.75
432.29	96.75
432.512	98.75
432.734	97.75
432.956	76.75
433.178	82.75
433.4	109.75
433.622	93.75
433.844	88.75
434.066	87.75
434.287	92.75
434.509	88.75
434.731	90.75
434.953	93.75
435.175	96.75
435.397	96.75
435.618	92.75
435.84	102.75
436.062	117.75
436.284	111.75
436.505	102.75
436.727	91.75
436.949	103.75
437.17	87.75
437.392	92.75
437.614	86.75
437.835	88.75
438.057	106.75
438.278	97.75
438.5	102.75
438.721	115.75
438.943	96.75
439.165	90.75
439.386	101.75
439.608	96.75
439.829	88.75
440.05	125.75
440.272	136.75
440.493	94.75
440.715	78.75
440.936	80.75
441.158	74.75
441.379	90.75
441.6	94.75
441.822	104.75
442.043	103.75
442.264	96.75
442.486	86.75
442.707	93.75
442.928	101.75
443.149	102.75
443.371	113.75
443.592	89.75
443.813	106.75
444.034	101.75
444.255	97.75
444.476	92.75
444.698	94.75
444.919	100.75
445.14	137.75
445.361	126.75
445.582	96.75
445.803	107.75
446.024	106.75
446.245	121.75
446.466	95.75
446.687	81.75
446.908	92.75
447.129	88.75
447.35	75.75
447.571	86.75
447.792	80.75
448.013	98.75
448.234	103.75
448.455	97.75
448.675	101.75
448.896	102.75
449.117	94.75
449.338	101.75
449.559	108.75
449.779	117.75
450	96.75
450.221	94.75
450.442	96.75
450.662	84.75
450.883	95.75
451.104	102.75
451.324	84.75
451.545	93.75
451.766	82.75
451.986	88.75
452.207	82.75
452.428	105.75
452.648	102.75
452.869	104.75
453.089	92.75
453.31	112.75
453.53	90.75
453.751	107.75
453.971	104.75
454.192	100.75
454.412	87.75
454.633	95.75
454.853	84.75
455.073	91.75
455.294	95.75
455.514	92.75
455.734	91.75
455.955	92.75
456.175	88.75
456.395	89.75
456.616	87.75
456.836	76.75
457.056	93.75
457.276	92.75
457.497	88.75
457.717	85.75
457.937	81.75
458.157	100.75
458.377	100.75
458.598	104.75
458.818	122.75
459.038	137.75
459.258	95.75
459.478	89.75
459.698	72.75
459.918	76.75
460.138	99.75
460.358	69.75
460.578	88.75
460.798	95.75
461.018	73.75
461.238	81.75
461.458	79.75
461.678	77.75
461.898	86.75
462.118	75.75
462.338	74.75
462.558	88.75
462.777	86.75
462.997	86.75
463.217	91.75
463.437	89.75
463.657	92.75
463.876	97.75
464.096	77.75
464.316	102.75
464.536	87.75
464.755	88.75
464.975	97.75
465.195	134.75
465.414	129.75
465.634	85.75
465.854	90.75
466.073	94.75
466.293	89.75
466.512	87.75
466.732	89.75
466.951	91.75
467.171	94.75
467.391	95.75
467.61	92.75
467.829	97.75
468.049	108.75
468.268	109.75
468.488	83.75
468.707	78.75
468.927	79.75
469.146	84.75
469.365	84.75
469.585	87.75
469.804	82.75
470.023	90.75
470.243	80.75
470.462	89.75
470.681	114.75
470.901	73.75
471.12	90.75
471.339	95.75
471.558	90.75
471.777	90.75
471.997	82.75
472.216	110.75
472.435	128.75
472.654	111.75
472.873	88.75
473.092	90.75
473.311	100.75
473.53	89.75
473.749	90.75
473.968	101.75
474.187	97.75
474.406	90.75
474.625	82.75
474.844	90.75
475.063	87.75
475.282	89.75
475.501	81.75
475.72	90.75
475.939	88.75
476.158	84.75
476.377	84.75
476.596	96.75
476.814	84.75
477.033	86.75
477.252	93.75
477.471	87.75
477.69	81.75
477.908	101.75
478.127	90.75
478.346	95.75
478.564	81.75
478.783	93.75
479.002	87.75
479.22	98.75
479.439	111.75
479.658	97.75
479.876	105.75
480.095	80.75
480.313	96.75
480.532	73.75
480.751	81.75
480.969	99.75
481.188	182.75
481.406	139.75
481.624	88.75
481.843	77.75
482.061	83.75
482.28	87.75
482.498	97.75
482.717	90.75
482.935	77.75
483.153	85.75
483.372	101.75
483.59	78.75
483.808	84.75
484.027	93.75
484.245	86.75
484.463	88.75
484.681	93.75
484.9	93.75
485.118	98.75
485.336	110.75
485.554	105.75
485.772	105.75
485.99	120.75
486.209	105.75
486.427	101.75
486.645	113.75
486.863	117.75
487.081	102.75
487.299	96.75
487.517	108.75
487.735	88.75
487.953	93.75
488.171	97.75
488.389	99.75
488.607	95.75
488.825	90.75
489.043	93.75
489.261	109.75
489.479	99.75
489.696	109.75
489.914	111.75
490.132	92.75
490.35	100.75
490.568	80.75
490.786	87.75
491.003	102.75
491.221	86.75
491.439	93.75
491.657	101.75
491.874	96.75
492.092	76.75
492.31	95.75
492.527	98.75
492.745	88.75
492.963	81.75
493.18	86.75
493.398	94.75
493.615	90.75
493.833	98.75
494.05	89.75
494.268	92.75
494.485	95.75
494.703	93.75
494.92	101.75
495.138	93.75
495.355	91.75
495.573	81.75
495.79	89.75
496.008	88.75
496.225	79.75
496.442	91.75
496.66	86.75
496.877	93.75
497.094	102.75
497.312	90.75
497.529	101.75
497.746	94.75
497.963	92.75
498.181	87.75
498.398	92.75
498.615	99.75
498.832	82.75
499.049	98.75
499.267	108.75
499.484	105.75
499.701	98.75
499.918	92.75
500.135	95.75
500.352	90.75
500.569	88.75
500.786	93.75
501.003	93.75
501.22	94.75
501.437	90.75
501.654	100.75
501.871	103.75
502.088	81.75
502.305	87.75
502.522	84.75
502.739	92.75
502.956	95.75
503.172	82.75
503.389	78.75
503.606	99.75
503.823	90.75
504.04	102.75
504.256	86.75
504.473	87.75
504.69	88.75
504.907	98.75
505.123	86.75
505.34	89.75
505.557	100.75
505.773	95.75
505.99	96.75
506.207	89.75
506.423	80.75
506.64	85.75
506.856	104.75
507.073	102.75
507.289	100.75
507.506	110.75
507.722	106.75
507.939	106.75
508.155	89.75
508.372	96.75
508.588	98.75
508.805	96.75
509.021	94.75
509.238	91.75
509.454	90.75
509.67	104.75
509.887	106.75
510.103	114.75
510.319	184.75
510.536	552.75
510.752	1624.75
510.968	487.75
511.184	125.75
511.401	100.75
511.617	92.75
511.833	98.75
512.049	79.75
512.265	82.75
512.481	79.75
512.698	91.75
512.914	104.75
513.13	113.75
513.346	91.75
513.562	103.75
513.778	88.75
513.994	94.75
514.21	89.75
514.426	113.75
514.642	114.75
514.858	105.75
515.074	122.75
515.29	306.75
515.506	964.75
515.721	369.75
