Data from Circ_1980_H10_HRD10591_00048.txt Node
Date: Wed Jan 03 12:38:07 EST 2024
User: Yrep
Spectrometer: HR+D1059
Trigger mode: 1
Integration Time (sec): 1.000000E-1
Scans to average: 1
Electric dark correction enabled: true
Nonlinearity correction enabled: false
Boxcar width: 0
XAxis mode: Wavelengths
Number of Pixels in Spectrum: 2048
>>>>>Begin Spectral Data<<<<<
223.165	-8.69
223.4	-8.69
223.635	-8.69
223.869	-22.69
224.104	-21.69
224.338	-11.69
224.573	-11.69
224.808	-23.69
225.042	-12.69
225.277	-8.69
225.511	4.31
225.746	7.31
225.98	-3.69
226.215	19.31
226.449	12.31
226.683	17.31
226.918	22.31
227.152	42.31
227.387	39.31
227.621	51.31
227.856	45.31
228.09	42.31
228.324	51.31
228.559	60.31
228.793	51.31
229.027	70.31
229.262	70.31
229.496	69.31
229.73	67.31
229.964	76.31
230.199	64.31
230.433	73.31
230.667	69.31
230.901	74.31
231.136	74.31
231.37	71.31
231.604	70.31
231.838	80.31
232.072	80.31
232.306	80.31
232.541	81.31
232.775	88.31
233.009	82.31
233.243	73.31
233.477	66.31
233.711	67.31
233.945	83.31
234.179	89.31
234.413	68.31
234.647	74.31
234.881	69.31
235.115	64.31
235.349	90.31
235.583	81.31
235.817	72.31
236.051	70.31
236.285	81.31
236.519	68.31
236.753	84.31
236.987	74.31
237.221	65.31
237.455	68.31
237.689	84.31
237.922	70.31
238.156	77.31
238.39	59.31
238.624	66.31
238.858	74.31
239.091	75.31
239.325	71.31
239.559	69.31
239.793	76.31
240.027	77.31
240.26	76.31
240.494	76.31
240.728	69.31
240.961	66.31
241.195	75.31
241.429	70.31
241.662	73.31
241.896	81.31
242.13	75.31
242.363	64.31
242.597	65.31
242.83	81.31
243.064	86.31
243.298	84.31
243.531	80.31
243.765	76.31
243.998	73.31
244.232	83.31
244.465	64.31
244.699	78.31
244.932	75.31
245.166	67.31
245.399	69.31
245.633	82.31
245.866	78.31
246.099	67.31
246.333	73.31
246.566	87.31
246.8	82.31
247.033	64.31
247.266	60.31
247.5	87.31
247.733	83.31
247.966	75.31
248.2	88.31
248.433	74.31
248.666	66.31
248.899	75.31
249.133	62.31
249.366	90.31
249.599	91.31
249.832	83.31
250.066	92.31
250.299	84.31
250.532	88.31
250.765	77.31
250.998	79.31
251.231	64.31
251.465	83.31
251.698	86.31
251.931	68.31
252.164	71.31
252.397	74.31
252.63	80.31
252.863	71.31
253.096	82.31
253.329	80.31
253.562	82.31
253.795	71.31
254.028	63.31
254.261	76.31
254.494	74.31
254.727	76.31
254.96	78.31
255.193	70.31
255.426	80.31
255.659	84.31
255.892	92.31
256.124	69.31
256.357	78.31
256.59	80.31
256.823	82.31
257.056	84.31
257.289	88.31
257.521	64.31
257.754	80.31
257.987	87.31
258.22	76.31
258.452	99.31
258.685	75.31
258.918	87.31
259.151	68.31
259.383	99.31
259.616	77.31
259.849	81.31
260.081	92.31
260.314	84.31
260.547	78.31
260.779	93.31
261.012	77.31
261.244	72.31
261.477	94.31
261.71	73.31
261.942	91.31
262.175	104.31
262.407	73.31
262.64	87.31
262.872	89.31
263.105	81.31
263.337	82.31
263.57	91.31
263.802	70.31
264.035	84.31
264.267	81.31
264.499	78.31
264.732	87.31
264.964	88.31
265.197	81.31
265.429	96.31
265.661	93.31
265.894	84.31
266.126	83.31
266.358	84.31
266.591	87.31
266.823	80.31
267.055	76.31
267.287	80.31
267.52	80.31
267.752	86.31
267.984	72.31
268.216	90.31
268.448	81.31
268.681	85.31
268.913	88.31
269.145	81.31
269.377	95.31
269.609	80.31
269.841	81.31
270.073	85.31
270.306	76.31
270.538	91.31
270.77	104.31
271.002	83.31
271.234	100.31
271.466	87.31
271.698	58.31
271.93	75.31
272.162	84.31
272.394	84.31
272.626	87.31
272.858	77.31
273.09	74.31
273.322	93.31
273.553	69.31
273.785	75.31
274.017	87.31
274.249	91.31
274.481	82.31
274.713	88.31
274.945	90.31
275.176	85.31
275.408	86.31
275.64	95.31
275.872	75.31
276.104	88.31
276.335	76.31
276.567	80.31
276.799	92.31
277.031	104.31
277.262	80.31
277.494	82.31
277.726	75.31
277.957	80.31
278.189	85.31
278.421	108.31
278.652	93.31
278.884	88.31
279.115	88.31
279.347	102.31
279.579	91.31
279.81	84.31
280.042	91.31
280.273	73.31
280.505	80.31
280.736	86.31
280.968	82.31
281.199	77.31
281.431	70.31
281.662	97.31
281.894	93.31
282.125	90.31
282.356	98.31
282.588	130.31
282.819	102.31
283.051	99.31
283.282	90.31
283.513	80.31
283.745	86.31
283.976	90.31
284.207	75.31
284.439	75.31
284.67	84.31
284.901	74.31
285.132	88.31
285.364	82.31
285.595	88.31
285.826	94.31
286.057	96.31
286.288	72.31
286.52	90.31
286.751	92.31
286.982	92.31
287.213	95.31
287.444	88.31
287.675	94.31
287.906	92.31
288.138	102.31
288.369	98.31
288.6	75.31
288.831	99.31
289.062	97.31
289.293	84.31
289.524	86.31
289.755	91.31
289.986	95.31
290.217	94.31
290.448	88.31
290.679	99.31
290.91	93.31
291.141	74.31
291.371	87.31
291.602	80.31
291.833	80.31
292.064	86.31
292.295	95.31
292.526	84.31
292.757	83.31
292.987	84.31
293.218	81.31
293.449	92.31
293.68	94.31
293.91	91.31
294.141	86.31
294.372	88.31
294.603	90.31
294.833	74.31
295.064	96.31
295.295	90.31
295.525	80.31
295.756	97.31
295.987	96.31
296.217	113.31
296.448	112.31
296.679	97.31
296.909	92.31
297.14	89.31
297.37	101.31
297.601	90.31
297.831	78.31
298.062	87.31
298.292	77.31
298.523	96.31
298.753	82.31
298.984	71.31
299.214	83.31
299.445	81.31
299.675	78.31
299.905	88.31
300.136	87.31
300.366	93.31
300.597	82.31
300.827	91.31
301.057	93.31
301.288	95.31
301.518	96.31
301.748	85.31
301.979	97.31
302.209	88.31
302.439	77.31
302.669	75.31
302.9	77.31
303.13	94.31
303.36	85.31
303.59	104.31
303.82	90.31
304.051	72.31
304.281	88.31
304.511	86.31
304.741	90.31
304.971	83.31
305.201	84.31
305.431	85.31
305.661	87.31
305.891	89.31
306.121	89.31
306.352	93.31
306.582	85.31
306.812	93.31
307.042	97.31
307.272	96.31
307.502	108.31
307.731	84.31
307.961	75.31
308.191	90.31
308.421	90.31
308.651	104.31
308.881	99.31
309.111	81.31
309.341	85.31
309.571	102.31
309.8	94.31
310.03	97.31
310.26	103.31
310.49	105.31
310.72	96.31
310.949	86.31
311.179	93.31
311.409	82.31
311.639	95.31
311.868	100.31
312.098	93.31
312.328	90.31
312.557	100.31
312.787	86.31
313.017	100.31
313.246	81.31
313.476	95.31
313.706	89.31
313.935	69.31
314.165	98.31
314.394	85.31
314.624	91.31
314.853	98.31
315.083	103.31
315.312	96.31
315.542	87.31
315.771	95.31
316.001	90.31
316.23	74.31
316.46	82.31
316.689	77.31
316.919	87.31
317.148	92.31
317.377	84.31
317.607	88.31
317.836	95.31
318.065	75.31
318.295	86.31
318.524	88.31
318.753	78.31
318.983	91.31
319.212	86.31
319.441	90.31
319.67	105.31
319.9	93.31
320.129	91.31
320.358	90.31
320.587	86.31
320.816	85.31
321.046	95.31
321.275	94.31
321.504	98.31
321.733	99.31
321.962	100.31
322.191	93.31
322.42	85.31
322.649	102.31
322.878	112.31
323.108	108.31
323.337	109.31
323.566	125.31
323.795	122.31
324.024	154.31
324.253	294.31
324.482	592.31
324.71	1154.31
324.939	1469.31
325.168	582.31
325.397	193.31
325.626	132.31
325.855	122.31
326.084	121.31
326.313	113.31
326.542	134.31
326.77	179.31
326.999	341.31
327.228	660.31
327.457	1198.31
327.686	940.31
327.914	254.31
328.143	146.31
328.372	136.31
328.6	120.31
328.829	112.31
329.058	107.31
329.287	108.31
329.515	102.31
329.744	101.31
329.972	95.31
330.201	104.31
330.43	109.31
330.658	112.31
330.887	110.31
331.115	105.31
331.344	99.31
331.572	89.31
331.801	85.31
332.03	75.31
332.258	88.31
332.486	91.31
332.715	95.31
332.943	91.31
333.172	91.31
333.4	96.31
333.629	94.31
333.857	112.31
334.085	109.31
334.314	101.31
334.542	113.31
334.771	124.31
334.999	91.31
335.227	87.31
335.455	88.31
335.684	82.31
335.912	96.31
336.14	101.31
336.369	89.31
336.597	103.31
336.825	92.31
337.053	87.31
337.281	74.31
337.51	84.31
337.738	103.31
337.966	79.31
338.194	99.31
338.422	97.31
338.65	87.31
338.878	96.31
339.106	89.31
339.334	98.31
339.562	82.31
339.79	81.31
340.018	89.31
340.246	93.31
340.474	83.31
340.702	83.31
340.93	78.31
341.158	86.31
341.386	86.31
341.614	96.31
341.842	96.31
342.07	77.31
342.298	82.31
342.526	74.31
342.754	88.31
342.981	81.31
343.209	71.31
343.437	98.31
343.665	90.31
343.893	98.31
344.12	78.31
344.348	97.31
344.576	87.31
344.804	90.31
345.031	85.31
345.259	102.31
345.487	88.31
345.714	88.31
345.942	103.31
346.17	105.31
346.397	92.31
346.625	94.31
346.853	67.31
347.08	83.31
347.308	86.31
347.535	89.31
347.763	95.31
347.99	100.31
348.218	96.31
348.445	86.31
348.673	90.31
348.9	96.31
349.128	106.31
349.355	93.31
349.583	96.31
349.81	96.31
350.037	96.31
350.265	95.31
350.492	93.31
350.72	99.31
350.947	89.31
351.174	94.31
351.402	101.31
351.629	110.31
351.856	91.31
352.083	99.31
352.311	97.31
352.538	102.31
352.765	102.31
352.992	120.31
353.22	100.31
353.447	102.31
353.674	96.31
353.901	86.31
354.128	88.31
354.355	82.31
354.583	95.31
354.81	108.31
355.037	101.31
355.264	98.31
355.491	101.31
355.718	88.31
355.945	96.31
356.172	80.31
356.399	101.31
356.626	107.31
356.853	99.31
357.08	93.31
357.307	107.31
357.534	88.31
357.761	88.31
357.988	100.31
358.215	94.31
358.441	98.31
358.668	96.31
358.895	92.31
359.122	87.31
359.349	87.31
359.576	98.31
359.802	83.31
360.029	95.31
360.256	97.31
360.483	84.31
360.709	77.31
360.936	85.31
361.163	102.31
361.39	99.31
361.616	83.31
361.843	86.31
362.07	93.31
362.296	92.31
362.523	81.31
362.749	80.31
362.976	108.31
363.203	94.31
363.429	90.31
363.656	90.31
363.882	84.31
364.109	85.31
364.335	77.31
364.562	74.31
364.788	88.31
365.015	86.31
365.241	90.31
365.468	84.31
365.694	88.31
365.92	101.31
366.147	84.31
366.373	71.31
366.599	92.31
366.826	76.31
367.052	88.31
367.278	100.31
367.505	74.31
367.731	89.31
367.957	88.31
368.184	95.31
368.41	93.31
368.636	96.31
368.862	96.31
369.089	112.31
369.315	77.31
369.541	90.31
369.767	86.31
369.993	89.31
370.219	97.31
370.445	89.31
370.672	78.31
370.898	89.31
371.124	82.31
371.35	94.31
371.576	90.31
371.802	92.31
372.028	93.31
372.254	94.31
372.48	89.31
372.706	75.31
372.932	80.31
373.158	100.31
373.384	85.31
373.61	104.31
373.835	88.31
374.061	80.31
374.287	76.31
374.513	84.31
374.739	95.31
374.965	74.31
375.191	100.31
375.416	83.31
375.642	90.31
375.868	84.31
376.094	96.31
376.319	102.31
376.545	89.31
376.771	97.31
376.997	90.31
377.222	95.31
377.448	101.31
377.674	92.31
377.899	87.31
378.125	109.31
378.35	89.31
378.576	81.31
378.802	103.31
379.027	86.31
379.253	105.31
379.478	98.31
379.704	93.31
379.929	90.31
380.155	97.31
380.38	84.31
380.606	89.31
380.831	94.31
381.057	80.31
381.282	90.31
381.507	96.31
381.733	92.31
381.958	107.31
382.184	100.31
382.409	94.31
382.634	104.31
382.86	91.31
383.085	95.31
383.31	98.31
383.535	106.31
383.761	94.31
383.986	96.31
384.211	105.31
384.436	101.31
384.662	96.31
384.887	101.31
385.112	100.31
385.337	113.31
385.562	101.31
385.787	96.31
386.013	106.31
386.238	105.31
386.463	98.31
386.688	106.31
386.913	110.31
387.138	108.31
387.363	84.31
387.588	105.31
387.813	101.31
388.038	114.31
388.263	106.31
388.488	102.31
388.713	87.31
388.938	72.31
389.163	81.31
389.387	91.31
389.612	92.31
389.837	96.31
390.062	102.31
390.287	96.31
390.512	86.31
390.736	95.31
390.961	90.31
391.186	73.31
391.411	110.31
391.636	96.31
391.86	76.31
392.085	72.31
392.31	82.31
392.534	88.31
392.759	81.31
392.984	94.31
393.208	86.31
393.433	92.31
393.658	88.31
393.882	96.31
394.107	88.31
394.331	96.31
394.556	86.31
394.78	98.31
395.005	90.31
395.229	77.31
395.454	84.31
395.678	81.31
395.903	100.31
396.127	77.31
396.352	88.31
396.576	77.31
396.801	86.31
397.025	92.31
397.249	80.31
397.474	82.31
397.698	94.31
397.922	89.31
398.147	72.31
398.371	88.31
398.595	82.31
398.82	94.31
399.044	89.31
399.268	91.31
399.492	97.31
399.717	89.31
399.941	80.31
400.165	94.31
400.389	102.31
400.613	74.31
400.837	98.31
401.062	78.31
401.286	80.31
401.51	87.31
401.734	88.31
401.958	98.31
402.182	107.31
402.406	122.31
402.63	96.31
402.854	74.31
403.078	85.31
403.302	85.31
403.526	86.31
403.75	95.31
403.974	94.31
404.198	89.31
404.422	85.31
404.645	72.31
404.869	88.31
405.093	84.31
405.317	101.31
405.541	83.31
405.765	83.31
405.988	107.31
406.212	115.31
406.436	168.31
406.66	99.31
406.883	91.31
407.107	81.31
407.331	90.31
407.555	91.31
407.778	83.31
408.002	99.31
408.226	79.31
408.449	71.31
408.673	74.31
408.896	85.31
409.12	84.31
409.344	91.31
409.567	88.31
409.791	81.31
410.014	99.31
410.238	93.31
410.461	87.31
410.685	69.31
410.908	96.31
411.132	92.31
411.355	96.31
411.578	84.31
411.802	75.31
412.025	94.31
412.249	80.31
412.472	94.31
412.695	83.31
412.919	93.31
413.142	94.31
413.365	96.31
413.589	85.31
413.812	86.31
414.035	80.31
414.258	97.31
414.482	102.31
414.705	92.31
414.928	100.31
415.151	97.31
415.374	100.31
415.597	100.31
415.821	80.31
416.044	90.31
416.267	73.31
416.49	78.31
416.713	85.31
416.936	88.31
417.159	76.31
417.382	75.31
417.605	86.31
417.828	90.31
418.051	82.31
418.274	94.31
418.497	81.31
418.72	87.31
418.943	83.31
419.166	82.31
419.389	75.31
419.611	92.31
419.834	93.31
420.057	91.31
420.28	91.31
420.503	95.31
420.726	91.31
420.948	91.31
421.171	93.31
421.394	77.31
421.617	88.31
421.839	104.31
422.062	85.31
422.285	97.31
422.507	93.31
422.73	120.31
422.953	88.31
423.175	92.31
423.398	86.31
423.621	83.31
423.843	84.31
424.066	94.31
424.288	88.31
424.511	84.31
424.733	89.31
424.956	89.31
425.178	87.31
425.401	110.31
425.623	86.31
425.846	92.31
426.068	77.31
426.291	85.31
426.513	95.31
426.735	90.31
426.958	95.31
427.18	89.31
427.402	116.31
427.625	138.31
427.847	109.31
428.069	108.31
428.292	88.31
428.514	81.31
428.736	92.31
428.958	88.31
429.181	93.31
429.403	95.31
429.625	102.31
429.847	88.31
430.069	88.31
430.292	102.31
430.514	80.31
430.736	84.31
430.958	81.31
431.18	73.31
431.402	90.31
431.624	81.31
431.846	87.31
432.068	74.31
432.29	98.31
432.512	86.31
432.734	84.31
432.956	94.31
433.178	93.31
433.4	94.31
433.622	92.31
433.844	83.31
434.066	82.31
434.287	81.31
434.509	89.31
434.731	84.31
434.953	88.31
435.175	86.31
435.397	84.31
435.618	91.31
435.84	97.31
436.062	118.31
436.284	99.31
436.505	91.31
436.727	105.31
436.949	99.31
437.17	102.31
437.392	78.31
437.614	95.31
437.835	107.31
438.057	100.31
438.278	82.31
438.5	88.31
438.721	106.31
438.943	98.31
439.165	96.31
439.386	91.31
439.608	94.31
439.829	102.31
440.05	94.31
440.272	118.31
440.493	89.31
440.715	94.31
440.936	93.31
441.158	108.31
441.379	98.31
441.6	93.31
441.822	87.31
442.043	92.31
442.264	94.31
442.486	92.31
442.707	88.31
442.928	109.31
443.149	104.31
443.371	108.31
443.592	95.31
443.813	109.31
444.034	84.31
444.255	77.31
444.476	80.31
444.698	86.31
444.919	96.31
445.14	129.31
445.361	104.31
445.582	107.31
445.803	112.31
446.024	117.31
446.245	101.31
446.466	102.31
446.687	96.31
446.908	94.31
447.129	88.31
447.35	92.31
447.571	80.31
447.792	95.31
448.013	99.31
448.234	77.31
448.455	92.31
448.675	110.31
448.896	104.31
449.117	89.31
449.338	84.31
449.559	109.31
449.779	113.31
450	92.31
450.221	91.31
450.442	93.31
450.662	74.31
450.883	89.31
451.104	101.31
451.324	87.31
451.545	85.31
451.766	86.31
451.986	100.31
452.207	95.31
452.428	83.31
452.648	87.31
452.869	100.31
453.089	107.31
453.31	116.31
453.53	85.31
453.751	93.31
453.971	112.31
454.192	97.31
454.412	98.31
454.633	101.31
454.853	98.31
455.073	87.31
455.294	81.31
455.514	94.31
455.734	96.31
455.955	76.31
456.175	80.31
456.395	85.31
456.616	90.31
456.836	82.31
457.056	86.31
457.276	89.31
457.497	92.31
457.717	77.31
457.937	104.31
458.157	75.31
458.377	82.31
458.598	80.31
458.818	98.31
459.038	133.31
459.258	85.31
459.478	79.31
459.698	70.31
459.918	87.31
460.138	88.31
460.358	77.31
460.578	92.31
460.798	86.31
461.018	97.31
461.238	77.31
461.458	73.31
461.678	92.31
461.898	96.31
462.118	88.31
462.338	86.31
462.558	77.31
462.777	92.31
462.997	102.31
463.217	75.31
463.437	76.31
463.657	88.31
463.876	81.31
464.096	93.31
464.316	88.31
464.536	87.31
464.755	87.31
464.975	98.31
465.195	130.31
465.414	121.31
465.634	88.31
465.854	76.31
466.073	86.31
466.293	84.31
466.512	74.31
466.732	89.31
466.951	92.31
467.171	99.31
467.391	109.31
467.61	82.31
467.829	90.31
468.049	93.31
468.268	91.31
468.488	84.31
468.707	84.31
468.927	81.31
469.146	78.31
469.365	77.31
469.585	78.31
469.804	83.31
470.023	71.31
470.243	74.31
470.462	97.31
470.681	111.31
470.901	83.31
471.12	82.31
471.339	88.31
471.558	86.31
471.777	84.31
471.997	78.31
472.216	102.31
472.435	133.31
472.654	76.31
472.873	92.31
473.092	86.31
473.311	89.31
473.53	85.31
473.749	77.31
473.968	85.31
474.187	92.31
474.406	85.31
474.625	90.31
474.844	77.31
475.063	89.31
475.282	85.31
475.501	71.31
475.72	92.31
475.939	78.31
476.158	82.31
476.377	89.31
476.596	99.31
476.814	83.31
477.033	85.31
477.252	84.31
477.471	82.31
477.69	85.31
477.908	85.31
478.127	82.31
478.346	90.31
478.564	75.31
478.783	80.31
479.002	75.31
479.22	96.31
479.439	104.31
479.658	109.31
479.876	103.31
480.095	86.31
480.313	84.31
480.532	102.31
480.751	87.31
480.969	117.31
481.188	178.31
481.406	138.31
481.624	87.31
481.843	71.31
482.061	87.31
482.28	77.31
482.498	87.31
482.717	76.31
482.935	80.31
483.153	94.31
483.372	80.31
483.59	86.31
483.808	80.31
484.027	101.31
484.245	86.31
484.463	89.31
484.681	82.31
484.9	104.31
485.118	98.31
485.336	97.31
485.554	85.31
485.772	101.31
485.99	102.31
486.209	102.31
486.427	98.31
486.645	104.31
486.863	98.31
487.081	98.31
487.299	97.31
487.517	80.31
487.735	88.31
487.953	101.31
488.171	101.31
488.389	102.31
488.607	84.31
488.825	89.31
489.043	64.31
489.261	93.31
489.479	80.31
489.696	98.31
489.914	97.31
490.132	89.31
490.35	86.31
490.568	81.31
490.786	88.31
491.003	65.31
491.221	79.31
491.439	92.31
491.657	90.31
491.874	96.31
492.092	87.31
492.31	92.31
492.527	85.31
492.745	88.31
492.963	93.31
493.18	97.31
493.398	85.31
493.615	103.31
493.833	100.31
494.05	82.31
494.268	96.31
494.485	104.31
494.703	90.31
494.92	85.31
495.138	89.31
495.355	101.31
495.573	89.31
495.79	77.31
496.008	95.31
496.225	84.31
496.442	77.31
496.66	84.31
496.877	91.31
497.094	104.31
497.312	86.31
497.529	84.31
497.746	87.31
497.963	78.31
498.181	88.31
498.398	93.31
498.615	112.31
498.832	95.31
499.049	99.31
499.267	87.31
499.484	80.31
499.701	97.31
499.918	89.31
500.135	107.31
500.352	96.31
500.569	85.31
500.786	86.31
501.003	86.31
501.22	86.31
501.437	88.31
501.654	90.31
501.871	94.31
502.088	84.31
502.305	86.31
502.522	90.31
502.739	91.31
502.956	101.31
503.172	81.31
503.389	88.31
503.606	92.31
503.823	91.31
504.04	82.31
504.256	102.31
504.473	87.31
504.69	85.31
504.907	92.31
505.123	85.31
505.34	98.31
505.557	83.31
505.773	106.31
505.99	99.31
506.207	86.31
506.423	76.31
506.64	82.31
506.856	75.31
507.073	93.31
507.289	104.31
507.506	102.31
507.722	96.31
507.939	98.31
508.155	83.31
508.372	83.31
508.588	84.31
508.805	107.31
509.021	93.31
509.238	100.31
509.454	107.31
509.67	81.31
509.887	115.31
510.103	110.31
510.319	155.31
510.536	520.31
510.752	1605.31
510.968	448.31
511.184	135.31
511.401	100.31
511.617	85.31
511.833	84.31
512.049	106.31
512.265	88.31
512.481	98.31
512.698	102.31
512.914	84.31
513.13	92.31
513.346	97.31
513.562	84.31
513.778	84.31
513.994	94.31
514.21	90.31
514.426	109.31
514.642	106.31
514.858	93.31
515.074	127.31
515.29	320.31
515.506	913.31
515.721	342.31
515.937	126.31
516.153	93.31
516.369	93.31
516.585	76.31
516.801	89.31
