Data from Circ_1980_H10_HRD10591_00031.txt Node
Date: Wed Jan 03 12:38:04 EST 2024
User: Yrep
Spectrometer: HR+D1059
Trigger mode: 1
Integration Time (sec): 1.000000E-1
Scans to average: 1
Electric dark correction enabled: true
Nonlinearity correction enabled: false
Boxcar width: 0
XAxis mode: Wavelengths
Number of Pixels in Spectrum: 2048
>>>>>Begin Spectral Data<<<<<
223.165	-6.81
223.4	-6.81
223.635	-6.81
223.869	-12.81
224.104	-18.81
224.338	-16.81
224.573	-13.81
224.808	-14.81
225.042	-12.81
225.277	6.19
225.511	-1.81
225.746	4.19
225.98	11.19
226.215	19.19
226.449	10.19
226.683	5.19
226.918	20.19
227.152	22.19
227.387	36.19
227.621	31.19
227.856	34.19
228.09	49.19
228.324	53.19
228.559	60.19
228.793	44.19
229.027	59.19
229.262	61.19
229.496	59.19
229.73	77.19
229.964	88.19
230.199	72.19
230.433	74.19
230.667	75.19
230.901	84.19
231.136	90.19
231.37	85.19
231.604	62.19
231.838	87.19
232.072	85.19
232.306	83.19
232.541	84.19
232.775	87.19
233.009	79.19
233.243	88.19
233.477	87.19
233.711	74.19
233.945	92.19
234.179	83.19
234.413	72.19
234.647	76.19
234.881	82.19
235.115	80.19
235.349	79.19
235.583	85.19
235.817	82.19
236.051	79.19
236.285	79.19
236.519	81.19
236.753	61.19
236.987	84.19
237.221	79.19
237.455	82.19
237.689	83.19
237.922	88.19
238.156	79.19
238.39	56.19
238.624	82.19
238.858	77.19
239.091	82.19
239.325	74.19
239.559	84.19
239.793	88.19
240.027	75.19
240.26	68.19
240.494	84.19
240.728	62.19
240.961	78.19
241.195	104.19
241.429	59.19
241.662	68.19
241.896	78.19
242.13	78.19
242.363	69.19
242.597	66.19
242.83	76.19
243.064	70.19
243.298	75.19
243.531	70.19
243.765	86.19
243.998	77.19
244.232	82.19
244.465	90.19
244.699	89.19
244.932	83.19
245.166	78.19
245.399	75.19
245.633	68.19
245.866	71.19
246.099	81.19
246.333	79.19
246.566	82.19
246.8	80.19
247.033	81.19
247.266	86.19
247.5	83.19
247.733	86.19
247.966	69.19
248.2	79.19
248.433	83.19
248.666	78.19
248.899	93.19
249.133	94.19
249.366	84.19
249.599	105.19
249.832	89.19
250.066	91.19
250.299	90.19
250.532	65.19
250.765	75.19
250.998	76.19
251.231	89.19
251.465	72.19
251.698	82.19
251.931	82.19
252.164	72.19
252.397	73.19
252.63	70.19
252.863	80.19
253.096	73.19
253.329	86.19
253.562	85.19
253.795	75.19
254.028	75.19
254.261	76.19
254.494	84.19
254.727	82.19
254.96	93.19
255.193	87.19
255.426	86.19
255.659	84.19
255.892	90.19
256.124	74.19
256.357	70.19
256.59	94.19
256.823	72.19
257.056	82.19
257.289	75.19
257.521	86.19
257.754	69.19
257.987	70.19
258.22	74.19
258.452	79.19
258.685	85.19
258.918	80.19
259.151	88.19
259.383	82.19
259.616	75.19
259.849	91.19
260.081	79.19
260.314	77.19
260.547	83.19
260.779	89.19
261.012	89.19
261.244	87.19
261.477	85.19
261.71	105.19
261.942	87.19
262.175	106.19
262.407	75.19
262.64	80.19
262.872	83.19
263.105	85.19
263.337	84.19
263.57	102.19
263.802	78.19
264.035	83.19
264.267	75.19
264.499	76.19
264.732	78.19
264.964	78.19
265.197	75.19
265.429	94.19
265.661	72.19
265.894	90.19
266.126	74.19
266.358	72.19
266.591	84.19
266.823	96.19
267.055	76.19
267.287	80.19
267.52	79.19
267.752	88.19
267.984	82.19
268.216	86.19
268.448	74.19
268.681	82.19
268.913	73.19
269.145	87.19
269.377	78.19
269.609	78.19
269.841	80.19
270.073	93.19
270.306	88.19
270.538	84.19
270.77	85.19
271.002	79.19
271.234	92.19
271.466	92.19
271.698	92.19
271.93	92.19
272.162	95.19
272.394	94.19
272.626	78.19
272.858	89.19
273.09	84.19
273.322	85.19
273.553	101.19
273.785	86.19
274.017	87.19
274.249	93.19
274.481	88.19
274.713	91.19
274.945	96.19
275.176	89.19
275.408	78.19
275.64	88.19
275.872	94.19
276.104	72.19
276.335	89.19
276.567	108.19
276.799	105.19
277.031	96.19
277.262	80.19
277.494	95.19
277.726	88.19
277.957	91.19
278.189	79.19
278.421	86.19
278.652	90.19
278.884	79.19
279.115	91.19
279.347	81.19
279.579	85.19
279.81	93.19
280.042	86.19
280.273	105.19
280.505	95.19
280.736	83.19
280.968	94.19
281.199	84.19
281.431	84.19
281.662	96.19
281.894	94.19
282.125	109.19
282.356	114.19
282.588	124.19
282.819	97.19
283.051	74.19
283.282	88.19
283.513	96.19
283.745	87.19
283.976	84.19
284.207	86.19
284.439	87.19
284.67	81.19
284.901	83.19
285.132	78.19
285.364	88.19
285.595	88.19
285.826	85.19
286.057	85.19
286.288	92.19
286.52	90.19
286.751	87.19
286.982	95.19
287.213	95.19
287.444	82.19
287.675	87.19
287.906	87.19
288.138	89.19
288.369	103.19
288.6	95.19
288.831	91.19
289.062	91.19
289.293	74.19
289.524	82.19
289.755	78.19
289.986	76.19
290.217	88.19
290.448	91.19
290.679	82.19
290.91	88.19
291.141	82.19
291.371	100.19
291.602	103.19
291.833	88.19
292.064	95.19
292.295	88.19
292.526	82.19
292.757	74.19
292.987	82.19
293.218	89.19
293.449	98.19
293.68	102.19
293.91	95.19
294.141	90.19
294.372	84.19
294.603	91.19
294.833	84.19
295.064	83.19
295.295	80.19
295.525	87.19
295.756	90.19
295.987	95.19
296.217	143.19
296.448	119.19
296.679	107.19
296.909	99.19
297.14	98.19
297.37	93.19
297.601	87.19
297.831	85.19
298.062	95.19
298.292	84.19
298.523	80.19
298.753	98.19
298.984	80.19
299.214	96.19
299.445	79.19
299.675	98.19
299.905	100.19
300.136	88.19
300.366	94.19
300.597	83.19
300.827	100.19
301.057	107.19
301.288	104.19
301.518	79.19
301.748	86.19
301.979	106.19
302.209	91.19
302.439	86.19
302.669	100.19
302.9	92.19
303.13	79.19
303.36	80.19
303.59	85.19
303.82	95.19
304.051	94.19
304.281	92.19
304.511	98.19
304.741	86.19
304.971	83.19
305.201	91.19
305.431	77.19
305.661	94.19
305.891	79.19
306.121	84.19
306.352	88.19
306.582	118.19
306.812	96.19
307.042	91.19
307.272	91.19
307.502	101.19
307.731	80.19
307.961	88.19
308.191	76.19
308.421	91.19
308.651	101.19
308.881	90.19
309.111	96.19
309.341	102.19
309.571	96.19
309.8	98.19
310.03	97.19
310.26	100.19
310.49	95.19
310.72	90.19
310.949	99.19
311.179	93.19
311.409	94.19
311.639	92.19
311.868	90.19
312.098	88.19
312.328	82.19
312.557	92.19
312.787	105.19
313.017	91.19
313.246	97.19
313.476	85.19
313.706	93.19
313.935	96.19
314.165	85.19
314.394	100.19
314.624	89.19
314.853	100.19
315.083	99.19
315.312	84.19
315.542	85.19
315.771	76.19
316.001	70.19
316.23	92.19
316.46	85.19
316.689	83.19
316.919	91.19
317.148	93.19
317.377	74.19
317.607	93.19
317.836	84.19
318.065	77.19
318.295	88.19
318.524	99.19
318.753	87.19
318.983	94.19
319.212	104.19
319.441	74.19
319.67	98.19
319.9	92.19
320.129	88.19
320.358	83.19
320.587	98.19
320.816	85.19
321.046	96.19
321.275	98.19
321.504	90.19
321.733	91.19
321.962	74.19
322.191	94.19
322.42	108.19
322.649	111.19
322.878	106.19
323.108	105.19
323.337	117.19
323.566	108.19
323.795	135.19
324.024	172.19
324.253	292.19
324.482	620.19
324.71	1188.19
324.939	1526.19
325.168	608.19
325.397	200.19
325.626	139.19
325.855	116.19
326.084	124.19
326.313	121.19
326.542	133.19
326.77	183.19
326.999	360.19
327.228	692.19
327.457	1227.19
327.686	1010.19
327.914	286.19
328.143	170.19
328.372	137.19
328.6	108.19
328.829	108.19
329.058	115.19
329.287	113.19
329.515	99.19
329.744	95.19
329.972	103.19
330.201	87.19
330.43	126.19
330.658	116.19
330.887	133.19
331.115	109.19
331.344	113.19
331.572	106.19
331.801	82.19
332.03	104.19
332.258	93.19
332.486	99.19
332.715	91.19
332.943	96.19
333.172	92.19
333.4	91.19
333.629	107.19
333.857	109.19
334.085	102.19
334.314	104.19
334.542	126.19
334.771	121.19
334.999	104.19
335.227	106.19
335.455	92.19
335.684	77.19
335.912	86.19
336.14	84.19
336.369	110.19
336.597	90.19
336.825	104.19
337.053	90.19
337.281	86.19
337.51	96.19
337.738	74.19
337.966	86.19
338.194	86.19
338.422	98.19
338.65	109.19
338.878	95.19
339.106	108.19
339.334	102.19
339.562	84.19
339.79	96.19
340.018	99.19
340.246	82.19
340.474	106.19
340.702	95.19
340.93	88.19
341.158	100.19
341.386	107.19
341.614	84.19
341.842	92.19
342.07	99.19
342.298	83.19
342.526	88.19
342.754	104.19
342.981	94.19
343.209	93.19
343.437	111.19
343.665	78.19
343.893	95.19
344.12	101.19
344.348	102.19
344.576	92.19
344.804	90.19
345.031	86.19
345.259	98.19
345.487	98.19
345.714	97.19
345.942	101.19
346.17	96.19
346.397	79.19
346.625	100.19
346.853	85.19
347.08	92.19
347.308	96.19
347.535	97.19
347.763	92.19
347.99	96.19
348.218	100.19
348.445	105.19
348.673	104.19
348.9	92.19
349.128	93.19
349.355	90.19
349.583	91.19
349.81	87.19
350.037	105.19
350.265	96.19
350.492	102.19
350.72	110.19
350.947	110.19
351.174	112.19
351.402	106.19
351.629	95.19
351.856	106.19
352.083	108.19
352.311	88.19
352.538	102.19
352.765	107.19
352.992	126.19
353.22	113.19
353.447	112.19
353.674	109.19
353.901	106.19
354.128	108.19
354.355	97.19
354.583	102.19
354.81	100.19
355.037	101.19
355.264	96.19
355.491	111.19
355.718	97.19
355.945	94.19
356.172	84.19
356.399	96.19
356.626	82.19
356.853	90.19
357.08	105.19
357.307	105.19
357.534	104.19
357.761	102.19
357.988	96.19
358.215	97.19
358.441	99.19
358.668	87.19
358.895	94.19
359.122	99.19
359.349	92.19
359.576	103.19
359.802	104.19
360.029	104.19
360.256	107.19
360.483	96.19
360.709	76.19
360.936	92.19
361.163	102.19
361.39	101.19
361.616	87.19
361.843	85.19
362.07	89.19
362.296	98.19
362.523	86.19
362.749	93.19
362.976	104.19
363.203	104.19
363.429	87.19
363.656	85.19
363.882	76.19
364.109	92.19
364.335	100.19
364.562	95.19
364.788	76.19
365.015	90.19
365.241	90.19
365.468	108.19
365.694	79.19
365.92	85.19
366.147	92.19
366.373	86.19
366.599	90.19
366.826	91.19
367.052	87.19
367.278	103.19
367.505	83.19
367.731	93.19
367.957	91.19
368.184	88.19
368.41	101.19
368.636	96.19
368.862	110.19
369.089	94.19
369.315	99.19
369.541	92.19
369.767	79.19
369.993	88.19
370.219	84.19
370.445	72.19
370.672	88.19
370.898	92.19
371.124	84.19
371.35	100.19
371.576	97.19
371.802	80.19
372.028	96.19
372.254	95.19
372.48	99.19
372.706	102.19
372.932	106.19
373.158	94.19
373.384	99.19
373.61	98.19
373.835	88.19
374.061	92.19
374.287	105.19
374.513	79.19
374.739	82.19
374.965	91.19
375.191	82.19
375.416	101.19
375.642	96.19
375.868	88.19
376.094	95.19
376.319	87.19
376.545	98.19
376.771	94.19
376.997	96.19
377.222	100.19
377.448	83.19
377.674	92.19
377.899	74.19
378.125	86.19
378.35	98.19
378.576	83.19
378.802	84.19
379.027	93.19
379.253	90.19
379.478	106.19
379.704	110.19
379.929	104.19
380.155	93.19
380.38	102.19
380.606	118.19
380.831	93.19
381.057	113.19
381.282	90.19
381.507	93.19
381.733	99.19
381.958	105.19
382.184	100.19
382.409	104.19
382.634	123.19
382.86	102.19
383.085	102.19
383.31	112.19
383.535	92.19
383.761	99.19
383.986	102.19
384.211	103.19
384.436	95.19
384.662	98.19
384.887	115.19
385.112	102.19
385.337	100.19
385.562	107.19
385.787	107.19
386.013	102.19
386.238	116.19
386.463	101.19
386.688	102.19
386.913	112.19
387.138	108.19
387.363	108.19
387.588	97.19
387.813	102.19
388.038	108.19
388.263	110.19
388.488	115.19
388.713	102.19
388.938	92.19
389.163	97.19
389.387	90.19
389.612	92.19
389.837	92.19
390.062	87.19
390.287	85.19
390.512	93.19
390.736	101.19
390.961	85.19
391.186	98.19
391.411	83.19
391.636	94.19
391.86	88.19
392.085	90.19
392.31	94.19
392.534	84.19
392.759	99.19
392.984	84.19
393.208	91.19
393.433	96.19
393.658	86.19
393.882	107.19
394.107	84.19
394.331	91.19
394.556	103.19
394.78	96.19
395.005	100.19
395.229	88.19
395.454	89.19
395.678	84.19
395.903	82.19
396.127	71.19
396.352	95.19
396.576	101.19
396.801	90.19
397.025	84.19
397.249	72.19
397.474	94.19
397.698	97.19
397.922	94.19
398.147	90.19
398.371	87.19
398.595	93.19
398.82	92.19
399.044	77.19
399.268	102.19
399.492	88.19
399.717	84.19
399.941	63.19
400.165	101.19
400.389	92.19
400.613	86.19
400.837	80.19
401.062	84.19
401.286	96.19
401.51	94.19
401.734	90.19
401.958	94.19
402.182	120.19
402.406	136.19
402.63	109.19
402.854	98.19
403.078	79.19
403.302	77.19
403.526	87.19
403.75	69.19
403.974	76.19
404.198	85.19
404.422	66.19
404.645	89.19
404.869	86.19
405.093	88.19
405.317	100.19
405.541	92.19
405.765	102.19
405.988	98.19
406.212	158.19
406.436	186.19
406.66	112.19
406.883	104.19
407.107	100.19
407.331	87.19
407.555	95.19
407.778	96.19
408.002	92.19
408.226	98.19
408.449	100.19
408.673	80.19
408.896	95.19
409.12	74.19
409.344	90.19
409.567	87.19
409.791	92.19
410.014	99.19
410.238	85.19
410.461	93.19
410.685	100.19
410.908	93.19
411.132	105.19
411.355	94.19
411.578	102.19
411.802	86.19
412.025	87.19
412.249	90.19
412.472	104.19
412.695	98.19
412.919	94.19
413.142	83.19
413.365	90.19
413.589	78.19
413.812	89.19
414.035	92.19
414.258	96.19
414.482	86.19
414.705	88.19
414.928	102.19
415.151	96.19
415.374	91.19
415.597	91.19
415.821	94.19
416.044	93.19
416.267	82.19
416.49	79.19
416.713	88.19
416.936	94.19
417.159	89.19
417.382	80.19
417.605	85.19
417.828	84.19
418.051	94.19
418.274	100.19
418.497	90.19
418.72	84.19
418.943	82.19
419.166	96.19
419.389	108.19
419.611	94.19
419.834	87.19
420.057	102.19
420.28	94.19
420.503	75.19
420.726	79.19
420.948	100.19
421.171	99.19
421.394	87.19
421.617	98.19
421.839	95.19
422.062	105.19
422.285	93.19
422.507	90.19
422.73	103.19
422.953	93.19
423.175	99.19
423.398	98.19
423.621	93.19
423.843	107.19
424.066	80.19
424.288	79.19
424.511	104.19
424.733	105.19
424.956	93.19
425.178	88.19
425.401	81.19
425.623	94.19
425.846	82.19
426.068	96.19
426.291	89.19
426.513	95.19
426.735	90.19
426.958	91.19
427.18	97.19
427.402	119.19
427.625	148.19
427.847	118.19
428.069	111.19
428.292	86.19
428.514	105.19
428.736	84.19
428.958	88.19
429.181	93.19
429.403	63.19
429.625	79.19
429.847	95.19
430.069	91.19
430.292	88.19
430.514	82.19
430.736	90.19
430.958	90.19
431.18	82.19
431.402	73.19
431.624	95.19
431.846	90.19
432.068	94.19
432.29	99.19
432.512	98.19
432.734	82.19
432.956	84.19
433.178	98.19
433.4	87.19
433.622	98.19
433.844	90.19
434.066	92.19
434.287	112.19
434.509	87.19
434.731	92.19
434.953	99.19
435.175	91.19
435.397	84.19
435.618	95.19
435.84	100.19
436.062	100.19
436.284	86.19
436.505	96.19
436.727	96.19
436.949	87.19
437.17	98.19
437.392	97.19
437.614	87.19
437.835	95.19
438.057	103.19
438.278	99.19
438.5	105.19
438.721	95.19
438.943	88.19
439.165	99.19
439.386	77.19
439.608	110.19
439.829	97.19
440.05	110.19
440.272	120.19
440.493	90.19
440.715	94.19
440.936	83.19
441.158	91.19
441.379	85.19
441.6	100.19
441.822	94.19
442.043	95.19
442.264	104.19
442.486	97.19
442.707	81.19
442.928	100.19
443.149	100.19
443.371	108.19
443.592	96.19
443.813	96.19
444.034	94.19
444.255	102.19
444.476	100.19
444.698	94.19
444.919	91.19
445.14	126.19
445.361	126.19
445.582	106.19
445.803	115.19
446.024	114.19
446.245	117.19
446.466	96.19
446.687	88.19
446.908	90.19
447.129	95.19
447.35	95.19
447.571	87.19
447.792	101.19
448.013	80.19
448.234	95.19
448.455	83.19
448.675	104.19
448.896	98.19
449.117	104.19
449.338	104.19
449.559	87.19
449.779	108.19
450	91.19
450.221	104.19
450.442	94.19
450.662	85.19
450.883	92.19
451.104	92.19
451.324	88.19
451.545	95.19
451.766	92.19
451.986	88.19
452.207	85.19
452.428	81.19
452.648	91.19
452.869	78.19
453.089	115.19
453.31	108.19
453.53	98.19
453.751	84.19
453.971	92.19
454.192	110.19
454.412	87.19
454.633	83.19
454.853	87.19
455.073	98.19
455.294	94.19
455.514	100.19
455.734	86.19
455.955	79.19
456.175	92.19
456.395	90.19
456.616	98.19
456.836	86.19
457.056	95.19
457.276	84.19
457.497	92.19
457.717	90.19
457.937	86.19
458.157	92.19
458.377	92.19
458.598	103.19
458.818	109.19
459.038	125.19
459.258	107.19
459.478	90.19
459.698	85.19
459.918	98.19
460.138	71.19
460.358	84.19
460.578	82.19
460.798	94.19
461.018	92.19
461.238	79.19
461.458	94.19
461.678	78.19
461.898	83.19
462.118	96.19
462.338	99.19
462.558	82.19
462.777	94.19
462.997	83.19
463.217	94.19
463.437	78.19
463.657	80.19
463.876	91.19
464.096	92.19
464.316	79.19
464.536	78.19
464.755	93.19
464.975	93.19
465.195	116.19
465.414	127.19
465.634	82.19
465.854	90.19
466.073	86.19
466.293	87.19
466.512	96.19
466.732	67.19
466.951	79.19
467.171	100.19
467.391	86.19
467.61	96.19
467.829	92.19
468.049	98.19
468.268	97.19
468.488	80.19
468.707	66.19
468.927	88.19
469.146	74.19
469.365	94.19
469.585	92.19
469.804	80.19
470.023	83.19
470.243	101.19
470.462	93.19
470.681	103.19
470.901	96.19
471.12	88.19
471.339	88.19
471.558	92.19
471.777	86.19
471.997	77.19
472.216	106.19
472.435	135.19
472.654	104.19
472.873	104.19
473.092	79.19
473.311	92.19
473.53	90.19
473.749	82.19
473.968	99.19
474.187	86.19
474.406	83.19
474.625	82.19
474.844	98.19
475.063	57.19
475.282	93.19
475.501	102.19
475.72	101.19
475.939	91.19
476.158	80.19
476.377	82.19
476.596	84.19
476.814	92.19
477.033	88.19
477.252	101.19
477.471	86.19
477.69	80.19
477.908	84.19
478.127	82.19
478.346	85.19
478.564	88.19
478.783	90.19
479.002	91.19
479.22	76.19
479.439	86.19
479.658	98.19
479.876	90.19
480.095	72.19
480.313	88.19
480.532	72.19
480.751	91.19
480.969	103.19
481.188	176.19
481.406	135.19
481.624	100.19
481.843	95.19
482.061	82.19
482.28	80.19
482.498	80.19
482.717	84.19
482.935	72.19
483.153	76.19
483.372	85.19
483.59	94.19
483.808	100.19
484.027	85.19
484.245	96.19
484.463	90.19
484.681	104.19
484.9	93.19
485.118	104.19
485.336	95.19
485.554	95.19
485.772	89.19
485.99	115.19
486.209	100.19
486.427	120.19
486.645	108.19
486.863	109.19
487.081	115.19
487.299	109.19
487.517	102.19
487.735	100.19
487.953	88.19
488.171	92.19
488.389	111.19
488.607	108.19
488.825	85.19
489.043	88.19
489.261	92.19
489.479	82.19
489.696	100.19
489.914	90.19
490.132	90.19
490.35	84.19
490.568	90.19
490.786	87.19
491.003	86.19
491.221	89.19
491.439	96.19
491.657	87.19
491.874	87.19
492.092	84.19
492.31	95.19
492.527	97.19
492.745	89.19
492.963	95.19
493.18	95.19
493.398	79.19
493.615	99.19
493.833	90.19
494.05	92.19
494.268	79.19
494.485	88.19
494.703	99.19
494.92	93.19
495.138	92.19
495.355	85.19
495.573	87.19
495.79	86.19
496.008	92.19
496.225	103.19
496.442	92.19
496.66	87.19
496.877	99.19
497.094	88.19
497.312	77.19
497.529	82.19
497.746	98.19
497.963	97.19
498.181	102.19
498.398	91.19
498.615	102.19
498.832	101.19
499.049	102.19
499.267	92.19
499.484	93.19
499.701	93.19
499.918	87.19
500.135	86.19
500.352	93.19
500.569	80.19
500.786	93.19
501.003	80.19
501.22	102.19
501.437	94.19
501.654	84.19
501.871	96.19
502.088	89.19
502.305	91.19
502.522	87.19
502.739	86.19
502.956	96.19
503.172	82.19
503.389	86.19
503.606	99.19
503.823	91.19
504.04	76.19
504.256	93.19
504.473	84.19
504.69	93.19
504.907	97.19
505.123	87.19
505.34	88.19
505.557	99.19
505.773	87.19
505.99	106.19
506.207	104.19
506.423	94.19
506.64	84.19
506.856	86.19
507.073	103.19
507.289	90.19
507.506	82.19
507.722	91.19
507.939	103.19
508.155	89.19
508.372	86.19
508.588	87.19
508.805	108.19
509.021	97.19
509.238	105.19
509.454	93.19
509.67	97.19
509.887	107.19
510.103	127.19
510.319	171.19
510.536	565.19
510.752	1702.19
510.968	501.19
511.184	134.19
511.401	110.19
511.617	114.19
511.833	93.19
512.049	102.19
512.265	92.19
512.481	100.19
512.698	87.19
512.914	87.19
513.13	107.19
513.346	88.19
513.562	94.19
513.778	97.19
513.994	98.19
514.21	92.19
514.426	93.19
514.642	117.19
514.858	103.19
515.074	135.19
515.29	350.19
515.506	976.19
515.721	364.19
