Data from Circ_1980_H10_HRD10591_00017.txt Node
Date: Wed Jan 03 12:38:01 EST 2024
User: Yrep
Spectrometer: HR+D1059
Trigger mode: 1
Integration Time (sec): 1.000000E-1
Scans to average: 1
Electric dark correction enabled: true
Nonlinearity correction enabled: false
Boxcar width: 0
XAxis mode: Wavelengths
Number of Pixels in Spectrum: 2048
>>>>>Begin Spectral Data<<<<<
223.165	-13.44
223.4	-13.44
223.635	-13.44
223.869	-22.44
224.104	-31.44
224.338	-11.44
224.573	-12.44
224.808	-15.44
225.042	-5.44
225.277	-8.44
225.511	-1.44
225.746	-4.44
225.98	9.56
226.215	10.56
226.449	13.56
226.683	18.56
226.918	32.56
227.152	41.56
227.387	34.56
227.621	35.56
227.856	34.56
228.09	36.56
228.324	45.56
228.559	64.56
228.793	58.56
229.027	60.56
229.262	51.56
229.496	68.56
229.73	58.56
229.964	80.56
230.199	78.56
230.433	79.56
230.667	74.56
230.901	76.56
231.136	85.56
231.37	70.56
231.604	80.56
231.838	81.56
232.072	71.56
232.306	78.56
232.541	79.56
232.775	85.56
233.009	75.56
233.243	77.56
233.477	88.56
233.711	72.56
233.945	79.56
234.179	81.56
234.413	70.56
234.647	64.56
234.881	90.56
235.115	92.56
235.349	77.56
235.583	86.56
235.817	86.56
236.051	85.56
236.285	75.56
236.519	84.56
236.753	77.56
236.987	66.56
237.221	81.56
237.455	98.56
237.689	94.56
237.922	92.56
238.156	72.56
238.39	73.56
238.624	79.56
238.858	88.56
239.091	63.56
239.325	69.56
239.559	80.56
239.793	79.56
240.027	93.56
240.26	81.56
240.494	76.56
240.728	82.56
240.961	78.56
241.195	95.56
241.429	89.56
241.662	94.56
241.896	80.56
242.13	71.56
242.363	86.56
242.597	73.56
242.83	73.56
243.064	85.56
243.298	79.56
243.531	70.56
243.765	77.56
243.998	89.56
244.232	81.56
244.465	87.56
244.699	81.56
244.932	89.56
245.166	79.56
245.399	84.56
245.633	72.56
245.866	71.56
246.099	88.56
246.333	88.56
246.566	71.56
246.8	63.56
247.033	68.56
247.266	97.56
247.5	82.56
247.733	102.56
247.966	84.56
248.2	78.56
248.433	86.56
248.666	82.56
248.899	76.56
249.133	83.56
249.366	88.56
249.599	94.56
249.832	94.56
250.066	85.56
250.299	78.56
250.532	79.56
250.765	81.56
250.998	99.56
251.231	62.56
251.465	75.56
251.698	86.56
251.931	76.56
252.164	85.56
252.397	70.56
252.63	79.56
252.863	86.56
253.096	59.56
253.329	105.56
253.562	85.56
253.795	77.56
254.028	63.56
254.261	88.56
254.494	78.56
254.727	76.56
254.96	80.56
255.193	79.56
255.426	84.56
255.659	98.56
255.892	88.56
256.124	79.56
256.357	80.56
256.59	83.56
256.823	67.56
257.056	85.56
257.289	92.56
257.521	86.56
257.754	82.56
257.987	81.56
258.22	94.56
258.452	75.56
258.685	65.56
258.918	64.56
259.151	74.56
259.383	73.56
259.616	79.56
259.849	82.56
260.081	78.56
260.314	85.56
260.547	86.56
260.779	94.56
261.012	88.56
261.244	80.56
261.477	88.56
261.71	84.56
261.942	98.56
262.175	116.56
262.407	95.56
262.64	80.56
262.872	79.56
263.105	90.56
263.337	79.56
263.57	76.56
263.802	93.56
264.035	88.56
264.267	93.56
264.499	86.56
264.732	92.56
264.964	88.56
265.197	66.56
265.429	90.56
265.661	96.56
265.894	82.56
266.126	79.56
266.358	84.56
266.591	70.56
266.823	91.56
267.055	90.56
267.287	74.56
267.52	93.56
267.752	69.56
267.984	94.56
268.216	90.56
268.448	73.56
268.681	84.56
268.913	97.56
269.145	98.56
269.377	82.56
269.609	93.56
269.841	81.56
270.073	90.56
270.306	92.56
270.538	94.56
270.77	77.56
271.002	85.56
271.234	90.56
271.466	84.56
271.698	93.56
271.93	90.56
272.162	88.56
272.394	81.56
272.626	91.56
272.858	102.56
273.09	91.56
273.322	81.56
273.553	81.56
273.785	85.56
274.017	93.56
274.249	89.56
274.481	84.56
274.713	88.56
274.945	82.56
275.176	84.56
275.408	84.56
275.64	66.56
275.872	84.56
276.104	92.56
276.335	97.56
276.567	111.56
276.799	108.56
277.031	87.56
277.262	100.56
277.494	103.56
277.726	90.56
277.957	87.56
278.189	68.56
278.421	84.56
278.652	92.56
278.884	91.56
279.115	95.56
279.347	85.56
279.579	85.56
279.81	88.56
280.042	81.56
280.273	81.56
280.505	102.56
280.736	92.56
280.968	105.56
281.199	81.56
281.431	91.56
281.662	98.56
281.894	75.56
282.125	92.56
282.356	123.56
282.588	124.56
282.819	110.56
283.051	92.56
283.282	92.56
283.513	89.56
283.745	90.56
283.976	92.56
284.207	81.56
284.439	95.56
284.67	86.56
284.901	84.56
285.132	97.56
285.364	87.56
285.595	86.56
285.826	95.56
286.057	96.56
286.288	92.56
286.52	95.56
286.751	86.56
286.982	88.56
287.213	89.56
287.444	96.56
287.675	92.56
287.906	86.56
288.138	104.56
288.369	92.56
288.6	93.56
288.831	94.56
289.062	89.56
289.293	91.56
289.524	86.56
289.755	89.56
289.986	77.56
290.217	97.56
290.448	95.56
290.679	93.56
290.91	95.56
291.141	93.56
291.371	113.56
291.602	100.56
291.833	93.56
292.064	82.56
292.295	97.56
292.526	90.56
292.757	93.56
292.987	90.56
293.218	76.56
293.449	98.56
293.68	85.56
293.91	88.56
294.141	94.56
294.372	92.56
294.603	84.56
294.833	94.56
295.064	88.56
295.295	90.56
295.525	92.56
295.756	113.56
295.987	104.56
296.217	129.56
296.448	118.56
296.679	97.56
296.909	103.56
297.14	85.56
297.37	84.56
297.601	95.56
297.831	86.56
298.062	94.56
298.292	96.56
298.523	98.56
298.753	88.56
298.984	95.56
299.214	77.56
299.445	99.56
299.675	98.56
299.905	102.56
300.136	92.56
300.366	95.56
300.597	81.56
300.827	94.56
301.057	95.56
301.288	100.56
301.518	94.56
301.748	96.56
301.979	91.56
302.209	88.56
302.439	96.56
302.669	92.56
302.9	85.56
303.13	85.56
303.36	89.56
303.59	98.56
303.82	100.56
304.051	103.56
304.281	73.56
304.511	98.56
304.741	91.56
304.971	98.56
305.201	93.56
305.431	98.56
305.661	101.56
305.891	102.56
306.121	92.56
306.352	92.56
306.582	93.56
306.812	94.56
307.042	92.56
307.272	93.56
307.502	100.56
307.731	90.56
307.961	97.56
308.191	85.56
308.421	90.56
308.651	98.56
308.881	93.56
309.111	89.56
309.341	93.56
309.571	100.56
309.8	96.56
310.03	92.56
310.26	88.56
310.49	90.56
310.72	91.56
310.949	109.56
311.179	95.56
311.409	82.56
311.639	102.56
311.868	89.56
312.098	89.56
312.328	95.56
312.557	97.56
312.787	107.56
313.017	91.56
313.246	81.56
313.476	98.56
313.706	95.56
313.935	95.56
314.165	96.56
314.394	104.56
314.624	87.56
314.853	91.56
315.083	103.56
315.312	100.56
315.542	93.56
315.771	90.56
316.001	75.56
316.23	95.56
316.46	95.56
316.689	98.56
316.919	96.56
317.148	89.56
317.377	100.56
317.607	100.56
317.836	77.56
318.065	89.56
318.295	92.56
318.524	100.56
318.753	99.56
318.983	96.56
319.212	100.56
319.441	95.56
319.67	101.56
319.9	94.56
320.129	100.56
320.358	104.56
320.587	99.56
320.816	89.56
321.046	98.56
321.275	116.56
321.504	87.56
321.733	103.56
321.962	102.56
322.191	87.56
322.42	95.56
322.649	96.56
322.878	114.56
323.108	101.56
323.337	102.56
323.566	123.56
323.795	139.56
324.024	177.56
324.253	302.56
324.482	572.56
324.71	1189.56
324.939	1558.56
325.168	598.56
325.397	201.56
325.626	141.56
325.855	119.56
326.084	120.56
326.313	132.56
326.542	137.56
326.77	182.56
326.999	340.56
327.228	686.56
327.457	1212.56
327.686	1004.56
327.914	295.56
328.143	176.56
328.372	132.56
328.6	94.56
328.829	124.56
329.058	99.56
329.287	124.56
329.515	90.56
329.744	114.56
329.972	86.56
330.201	104.56
330.43	121.56
330.658	119.56
330.887	127.56
331.115	102.56
331.344	104.56
331.572	87.56
331.801	100.56
332.03	110.56
332.258	88.56
332.486	105.56
332.715	100.56
332.943	85.56
333.172	103.56
333.4	105.56
333.629	91.56
333.857	102.56
334.085	111.56
334.314	111.56
334.542	136.56
334.771	124.56
334.999	97.56
335.227	100.56
335.455	111.56
335.684	106.56
335.912	88.56
336.14	99.56
336.369	103.56
336.597	91.56
336.825	88.56
337.053	100.56
337.281	104.56
337.51	93.56
337.738	106.56
337.966	104.56
338.194	95.56
338.422	93.56
338.65	116.56
338.878	95.56
339.106	102.56
339.334	101.56
339.562	113.56
339.79	87.56
340.018	90.56
340.246	91.56
340.474	90.56
340.702	90.56
340.93	86.56
341.158	91.56
341.386	93.56
341.614	89.56
341.842	96.56
342.07	105.56
342.298	85.56
342.526	89.56
342.754	84.56
342.981	86.56
343.209	102.56
343.437	93.56
343.665	81.56
343.893	86.56
344.12	90.56
344.348	100.56
344.576	82.56
344.804	101.56
345.031	78.56
345.259	85.56
345.487	96.56
345.714	99.56
345.942	96.56
346.17	101.56
346.397	102.56
346.625	103.56
346.853	102.56
347.08	98.56
347.308	103.56
347.535	104.56
347.763	100.56
347.99	101.56
348.218	104.56
348.445	105.56
348.673	89.56
348.9	120.56
349.128	98.56
349.355	98.56
349.583	90.56
349.81	101.56
350.037	94.56
350.265	93.56
350.492	97.56
350.72	96.56
350.947	95.56
351.174	105.56
351.402	113.56
351.629	103.56
351.856	106.56
352.083	110.56
352.311	107.56
352.538	82.56
352.765	75.56
352.992	102.56
353.22	115.56
353.447	91.56
353.674	99.56
353.901	104.56
354.128	98.56
354.355	117.56
354.583	98.56
354.81	104.56
355.037	97.56
355.264	102.56
355.491	97.56
355.718	80.56
355.945	105.56
356.172	97.56
356.399	91.56
356.626	105.56
356.853	91.56
357.08	93.56
357.307	91.56
357.534	101.56
357.761	90.56
357.988	100.56
358.215	95.56
358.441	104.56
358.668	97.56
358.895	104.56
359.122	94.56
359.349	81.56
359.576	96.56
359.802	86.56
360.029	112.56
360.256	103.56
360.483	110.56
360.709	93.56
360.936	94.56
361.163	82.56
361.39	103.56
361.616	97.56
361.843	94.56
362.07	87.56
362.296	90.56
362.523	74.56
362.749	96.56
362.976	88.56
363.203	93.56
363.429	84.56
363.656	80.56
363.882	81.56
364.109	92.56
364.335	98.56
364.562	105.56
364.788	87.56
365.015	112.56
365.241	92.56
365.468	92.56
365.694	109.56
365.92	89.56
366.147	104.56
366.373	81.56
366.599	92.56
366.826	95.56
367.052	95.56
367.278	97.56
367.505	106.56
367.731	90.56
367.957	97.56
368.184	92.56
368.41	98.56
368.636	103.56
368.862	115.56
369.089	103.56
369.315	87.56
369.541	104.56
369.767	99.56
369.993	96.56
370.219	95.56
370.445	87.56
370.672	94.56
370.898	114.56
371.124	97.56
371.35	91.56
371.576	98.56
371.802	97.56
372.028	86.56
372.254	84.56
372.48	87.56
372.706	93.56
372.932	87.56
373.158	93.56
373.384	98.56
373.61	97.56
373.835	95.56
374.061	81.56
374.287	102.56
374.513	93.56
374.739	91.56
374.965	88.56
375.191	90.56
375.416	95.56
375.642	91.56
375.868	97.56
376.094	94.56
376.319	89.56
376.545	92.56
376.771	89.56
376.997	105.56
377.222	94.56
377.448	86.56
377.674	104.56
377.899	96.56
378.125	89.56
378.35	108.56
378.576	92.56
378.802	96.56
379.027	95.56
379.253	103.56
379.478	110.56
379.704	84.56
379.929	102.56
380.155	79.56
380.38	104.56
380.606	84.56
380.831	98.56
381.057	101.56
381.282	82.56
381.507	101.56
381.733	104.56
381.958	102.56
382.184	85.56
382.409	111.56
382.634	112.56
382.86	82.56
383.085	113.56
383.31	98.56
383.535	118.56
383.761	90.56
383.986	124.56
384.211	89.56
384.436	101.56
384.662	111.56
384.887	108.56
385.112	116.56
385.337	120.56
385.562	124.56
385.787	106.56
386.013	128.56
386.238	114.56
386.463	114.56
386.688	128.56
386.913	114.56
387.138	124.56
387.363	116.56
387.588	97.56
387.813	110.56
388.038	121.56
388.263	128.56
388.488	103.56
388.713	110.56
388.938	96.56
389.163	94.56
389.387	102.56
389.612	108.56
389.837	108.56
390.062	103.56
390.287	95.56
390.512	94.56
390.736	99.56
390.961	87.56
391.186	86.56
391.411	94.56
391.636	97.56
391.86	75.56
392.085	87.56
392.31	82.56
392.534	96.56
392.759	92.56
392.984	91.56
393.208	87.56
393.433	96.56
393.658	104.56
393.882	90.56
394.107	104.56
394.331	71.56
394.556	96.56
394.78	87.56
395.005	90.56
395.229	103.56
395.454	104.56
395.678	86.56
395.903	98.56
396.127	93.56
396.352	92.56
396.576	96.56
396.801	102.56
397.025	92.56
397.249	88.56
397.474	93.56
397.698	80.56
397.922	77.56
398.147	86.56
398.371	93.56
398.595	88.56
398.82	78.56
399.044	88.56
399.268	88.56
399.492	94.56
399.717	88.56
399.941	97.56
400.165	90.56
400.389	97.56
400.613	84.56
400.837	97.56
401.062	82.56
401.286	92.56
401.51	96.56
401.734	93.56
401.958	86.56
402.182	108.56
402.406	137.56
402.63	120.56
402.854	97.56
403.078	95.56
403.302	91.56
403.526	107.56
403.75	79.56
403.974	91.56
404.198	92.56
404.422	88.56
404.645	77.56
404.869	96.56
405.093	95.56
405.317	92.56
405.541	86.56
405.765	101.56
405.988	108.56
406.212	126.56
406.436	183.56
406.66	130.56
406.883	102.56
407.107	99.56
407.331	102.56
407.555	88.56
407.778	87.56
408.002	88.56
408.226	99.56
408.449	87.56
408.673	104.56
408.896	100.56
409.12	97.56
409.344	99.56
409.567	89.56
409.791	103.56
410.014	92.56
410.238	92.56
410.461	102.56
410.685	94.56
410.908	115.56
411.132	115.56
411.355	101.56
411.578	101.56
411.802	87.56
412.025	89.56
412.249	87.56
412.472	94.56
412.695	92.56
412.919	94.56
413.142	101.56
413.365	80.56
413.589	84.56
413.812	110.56
414.035	78.56
414.258	85.56
414.482	84.56
414.705	77.56
414.928	102.56
415.151	85.56
415.374	91.56
415.597	96.56
415.821	89.56
416.044	96.56
416.267	93.56
416.49	86.56
416.713	90.56
416.936	79.56
417.159	99.56
417.382	93.56
417.605	100.56
417.828	107.56
418.051	82.56
418.274	92.56
418.497	89.56
418.72	84.56
418.943	100.56
419.166	94.56
419.389	100.56
419.611	105.56
419.834	98.56
420.057	88.56
420.28	85.56
420.503	82.56
420.726	85.56
420.948	90.56
421.171	100.56
421.394	97.56
421.617	100.56
421.839	102.56
422.062	88.56
422.285	88.56
422.507	108.56
422.73	98.56
422.953	97.56
423.175	97.56
423.398	90.56
423.621	74.56
423.843	81.56
424.066	94.56
424.288	93.56
424.511	90.56
424.733	81.56
424.956	88.56
425.178	100.56
425.401	93.56
425.623	102.56
425.846	100.56
426.068	86.56
426.291	79.56
426.513	90.56
426.735	72.56
426.958	92.56
427.18	102.56
427.402	115.56
427.625	129.56
427.847	125.56
428.069	108.56
428.292	80.56
428.514	76.56
428.736	89.56
428.958	84.56
429.181	79.56
429.403	80.56
429.625	90.56
429.847	103.56
430.069	89.56
430.292	81.56
430.514	72.56
430.736	89.56
430.958	92.56
431.18	106.56
431.402	89.56
431.624	96.56
431.846	99.56
432.068	82.56
432.29	86.56
432.512	96.56
432.734	79.56
432.956	87.56
433.178	105.56
433.4	99.56
433.622	96.56
433.844	96.56
434.066	94.56
434.287	89.56
434.509	96.56
434.731	79.56
434.953	100.56
435.175	90.56
435.397	80.56
435.618	90.56
435.84	95.56
436.062	120.56
436.284	99.56
436.505	79.56
436.727	90.56
436.949	98.56
437.17	102.56
437.392	94.56
437.614	95.56
437.835	90.56
438.057	105.56
438.278	90.56
438.5	92.56
438.721	101.56
438.943	96.56
439.165	94.56
439.386	94.56
439.608	98.56
439.829	102.56
440.05	112.56
440.272	113.56
440.493	88.56
440.715	85.56
440.936	78.56
441.158	77.56
441.379	98.56
441.6	93.56
441.822	86.56
442.043	75.56
442.264	109.56
442.486	82.56
442.707	87.56
442.928	100.56
443.149	116.56
443.371	130.56
443.592	106.56
443.813	105.56
444.034	90.56
444.255	90.56
444.476	86.56
444.698	80.56
444.919	84.56
445.14	128.56
445.361	110.56
445.582	99.56
445.803	106.56
446.024	114.56
446.245	120.56
446.466	108.56
446.687	84.56
446.908	95.56
447.129	82.56
447.35	84.56
447.571	82.56
447.792	79.56
448.013	75.56
448.234	101.56
448.455	92.56
448.675	95.56
448.896	108.56
449.117	105.56
449.338	105.56
449.559	107.56
449.779	115.56
450	94.56
450.221	97.56
450.442	82.56
450.662	72.56
450.883	96.56
451.104	104.56
451.324	89.56
451.545	96.56
451.766	70.56
451.986	87.56
452.207	86.56
452.428	100.56
452.648	86.56
452.869	94.56
453.089	110.56
453.31	95.56
453.53	91.56
453.751	97.56
453.971	92.56
454.192	101.56
454.412	100.56
454.633	105.56
454.853	98.56
455.073	84.56
455.294	76.56
455.514	114.56
455.734	88.56
455.955	92.56
456.175	93.56
456.395	93.56
456.616	68.56
456.836	101.56
457.056	78.56
457.276	75.56
457.497	78.56
457.717	93.56
457.937	101.56
458.157	88.56
458.377	100.56
458.598	101.56
458.818	118.56
459.038	129.56
459.258	105.56
459.478	94.56
459.698	90.56
459.918	105.56
460.138	85.56
460.358	85.56
460.578	80.56
460.798	106.56
461.018	90.56
461.238	94.56
461.458	88.56
461.678	77.56
461.898	80.56
462.118	92.56
462.338	75.56
462.558	81.56
462.777	96.56
462.997	98.56
463.217	78.56
463.437	101.56
463.657	74.56
463.876	84.56
464.096	99.56
464.316	105.56
464.536	89.56
464.755	107.56
464.975	81.56
465.195	128.56
465.414	118.56
465.634	94.56
465.854	96.56
466.073	79.56
466.293	89.56
466.512	90.56
466.732	85.56
466.951	89.56
467.171	100.56
467.391	94.56
467.61	92.56
467.829	90.56
468.049	121.56
468.268	97.56
468.488	86.56
468.707	98.56
468.927	88.56
469.146	88.56
469.365	91.56
469.585	88.56
469.804	95.56
470.023	78.56
470.243	104.56
470.462	94.56
470.681	96.56
470.901	92.56
471.12	87.56
471.339	76.56
471.558	92.56
471.777	88.56
471.997	92.56
472.216	111.56
472.435	133.56
472.654	95.56
472.873	89.56
473.092	90.56
473.311	84.56
473.53	92.56
473.749	87.56
473.968	89.56
474.187	88.56
474.406	97.56
474.625	91.56
474.844	106.56
475.063	82.56
475.282	96.56
475.501	84.56
475.72	92.56
475.939	88.56
476.158	87.56
476.377	83.56
476.596	73.56
476.814	72.56
477.033	81.56
477.252	98.56
477.471	88.56
477.69	90.56
477.908	106.56
478.127	98.56
478.346	94.56
478.564	94.56
478.783	108.56
479.002	97.56
479.22	103.56
479.439	92.56
479.658	98.56
479.876	87.56
480.095	92.56
480.313	98.56
480.532	90.56
480.751	103.56
480.969	105.56
481.188	170.56
481.406	137.56
481.624	93.56
481.843	85.56
482.061	84.56
482.28	97.56
482.498	92.56
482.717	76.56
482.935	81.56
483.153	97.56
483.372	88.56
483.59	72.56
483.808	76.56
484.027	95.56
484.245	92.56
484.463	76.56
484.681	93.56
484.9	102.56
485.118	95.56
485.336	89.56
485.554	97.56
485.772	105.56
485.99	112.56
486.209	105.56
486.427	104.56
486.645	108.56
486.863	116.56
487.081	105.56
487.299	98.56
487.517	108.56
487.735	102.56
487.953	77.56
488.171	100.56
488.389	105.56
488.607	101.56
488.825	89.56
489.043	80.56
489.261	90.56
489.479	94.56
489.696	85.56
489.914	94.56
490.132	88.56
490.35	90.56
490.568	89.56
490.786	98.56
491.003	91.56
491.221	102.56
491.439	90.56
491.657	89.56
491.874	105.56
492.092	85.56
492.31	100.56
492.527	90.56
492.745	84.56
492.963	91.56
493.18	106.56
493.398	92.56
493.615	93.56
493.833	85.56
494.05	81.56
494.268	81.56
494.485	92.56
494.703	77.56
494.92	80.56
495.138	93.56
495.355	92.56
495.573	90.56
495.79	80.56
496.008	81.56
496.225	86.56
496.442	92.56
496.66	84.56
496.877	92.56
497.094	79.56
497.312	94.56
497.529	98.56
497.746	89.56
497.963	81.56
498.181	86.56
498.398	95.56
498.615	91.56
498.832	111.56
499.049	84.56
499.267	91.56
499.484	82.56
499.701	90.56
499.918	94.56
500.135	99.56
500.352	101.56
500.569	85.56
500.786	99.56
501.003	77.56
501.22	96.56
501.437	92.56
501.654	97.56
501.871	106.56
502.088	84.56
502.305	84.56
502.522	72.56
502.739	87.56
502.956	93.56
503.172	103.56
503.389	92.56
503.606	87.56
503.823	96.56
504.04	108.56
504.256	97.56
504.473	92.56
504.69	92.56
504.907	75.56
505.123	100.56
505.34	93.56
505.557	100.56
505.773	95.56
505.99	98.56
506.207	96.56
506.423	97.56
506.64	93.56
506.856	89.56
507.073	84.56
507.289	94.56
507.506	96.56
507.722	103.56
507.939	97.56
508.155	98.56
508.372	110.56
508.588	95.56
508.805	92.56
509.021	98.56
509.238	93.56
509.454	101.56
509.67	106.56
509.887	101.56
510.103	115.56
510.319	178.56
510.536	540.56
510.752	1585.56
510.968	484.56
511.184	126.56
511.401	114.56
511.617	100.56
511.833	98.56
512.049	88.56
512.265	105.56
512.481	85.56
512.698	84.56
512.914	97.56
513.13	90.56
513.346	88.56
513.562	84.56
513.778	75.56
513.994	87.56
514.21	77.56
514.426	103.56
514.642	113.56
514.858	124.56
515.074	142.56
515.29	311.56
