Data from Circ_1980_H10_HRD10591_00002.txt Node
Date: Wed Jan 03 12:37:58 EST 2024
User: Yrep
Spectrometer: HR+D1059
Trigger mode: 1
Integration Time (sec): 1.000000E-1
Scans to average: 1
Electric dark correction enabled: true
Nonlinearity correction enabled: false
Boxcar width: 0
XAxis mode: Wavelengths
Number of Pixels in Spectrum: 2048
>>>>>Begin Spectral Data<<<<<
223.165	-11.62
223.4	-11.62
223.635	-11.62
223.869	-18.62
224.104	-14.62
224.338	-20.62
224.573	-8.62
224.808	-15.62
225.042	-8.62
225.277	9.38
225.511	4.38
225.746	12.38
225.98	-1.62
226.215	-1.62
226.449	5.38
226.683	20.38
226.918	24.38
227.152	25.38
227.387	44.38
227.621	40.38
227.856	39.38
228.09	44.38
228.324	44.38
228.559	37.38
228.793	70.38
229.027	73.38
229.262	71.38
229.496	69.38
229.73	81.38
229.964	85.38
230.199	79.38
230.433	65.38
230.667	65.38
230.901	78.38
231.136	81.38
231.37	92.38
231.604	64.38
231.838	76.38
232.072	92.38
232.306	84.38
232.541	93.38
232.775	91.38
233.009	81.38
233.243	87.38
233.477	84.38
233.711	74.38
233.945	94.38
234.179	86.38
234.413	84.38
234.647	85.38
234.881	89.38
235.115	78.38
235.349	84.38
235.583	74.38
235.817	82.38
236.051	97.38
236.285	74.38
236.519	84.38
236.753	78.38
236.987	64.38
237.221	81.38
237.455	72.38
237.689	80.38
237.922	87.38
238.156	77.38
238.39	74.38
238.624	72.38
238.858	84.38
239.091	84.38
239.325	74.38
239.559	78.38
239.793	68.38
240.027	77.38
240.26	77.38
240.494	79.38
240.728	72.38
240.961	77.38
241.195	85.38
241.429	80.38
241.662	74.38
241.896	81.38
242.13	70.38
242.363	86.38
242.597	77.38
242.83	76.38
243.064	65.38
243.298	88.38
243.531	81.38
243.765	76.38
243.998	74.38
244.232	92.38
244.465	90.38
244.699	80.38
244.932	84.38
245.166	84.38
245.399	80.38
245.633	70.38
245.866	86.38
246.099	85.38
246.333	82.38
246.566	90.38
246.8	76.38
247.033	85.38
247.266	80.38
247.5	69.38
247.733	85.38
247.966	90.38
248.2	95.38
248.433	71.38
248.666	80.38
248.899	81.38
249.133	87.38
249.366	103.38
249.599	89.38
249.832	94.38
250.066	102.38
250.299	85.38
250.532	78.38
250.765	87.38
250.998	68.38
251.231	70.38
251.465	81.38
251.698	88.38
251.931	86.38
252.164	68.38
252.397	80.38
252.63	70.38
252.863	78.38
253.096	80.38
253.329	91.38
253.562	88.38
253.795	77.38
254.028	84.38
254.261	93.38
254.494	90.38
254.727	79.38
254.96	75.38
255.193	89.38
255.426	82.38
255.659	76.38
255.892	90.38
256.124	86.38
256.357	86.38
256.59	83.38
256.823	78.38
257.056	99.38
257.289	77.38
257.521	81.38
257.754	79.38
257.987	96.38
258.22	100.38
258.452	82.38
258.685	78.38
258.918	85.38
259.151	86.38
259.383	72.38
259.616	88.38
259.849	86.38
260.081	86.38
260.314	72.38
260.547	86.38
260.779	86.38
261.012	78.38
261.244	98.38
261.477	72.38
261.71	90.38
261.942	105.38
262.175	119.38
262.407	82.38
262.64	96.38
262.872	81.38
263.105	105.38
263.337	82.38
263.57	96.38
263.802	88.38
264.035	68.38
264.267	82.38
264.499	73.38
264.732	102.38
264.964	85.38
265.197	90.38
265.429	89.38
265.661	87.38
265.894	90.38
266.126	76.38
266.358	84.38
266.591	84.38
266.823	76.38
267.055	79.38
267.287	89.38
267.52	86.38
267.752	92.38
267.984	97.38
268.216	81.38
268.448	89.38
268.681	93.38
268.913	76.38
269.145	80.38
269.377	90.38
269.609	74.38
269.841	87.38
270.073	78.38
270.306	82.38
270.538	85.38
270.77	64.38
271.002	75.38
271.234	94.38
271.466	92.38
271.698	92.38
271.93	97.38
272.162	86.38
272.394	98.38
272.626	90.38
272.858	83.38
273.09	84.38
273.322	89.38
273.553	97.38
273.785	76.38
274.017	94.38
274.249	72.38
274.481	86.38
274.713	81.38
274.945	95.38
275.176	87.38
275.408	94.38
275.64	90.38
275.872	89.38
276.104	96.38
276.335	79.38
276.567	88.38
276.799	111.38
277.031	100.38
277.262	82.38
277.494	92.38
277.726	93.38
277.957	78.38
278.189	84.38
278.421	79.38
278.652	88.38
278.884	90.38
279.115	90.38
279.347	94.38
279.579	89.38
279.81	91.38
280.042	92.38
280.273	88.38
280.505	111.38
280.736	93.38
280.968	85.38
281.199	93.38
281.431	84.38
281.662	76.38
281.894	89.38
282.125	88.38
282.356	103.38
282.588	114.38
282.819	99.38
283.051	91.38
283.282	101.38
283.513	85.38
283.745	104.38
283.976	92.38
284.207	98.38
284.439	97.38
284.67	91.38
284.901	94.38
285.132	82.38
285.364	86.38
285.595	89.38
285.826	85.38
286.057	84.38
286.288	69.38
286.52	85.38
286.751	84.38
286.982	84.38
287.213	77.38
287.444	81.38
287.675	111.38
287.906	104.38
288.138	86.38
288.369	102.38
288.6	102.38
288.831	96.38
289.062	105.38
289.293	86.38
289.524	92.38
289.755	78.38
289.986	86.38
290.217	84.38
290.448	76.38
290.679	78.38
290.91	97.38
291.141	93.38
291.371	84.38
291.602	108.38
291.833	88.38
292.064	88.38
292.295	89.38
292.526	84.38
292.757	78.38
292.987	101.38
293.218	74.38
293.449	104.38
293.68	100.38
293.91	84.38
294.141	94.38
294.372	76.38
294.603	82.38
294.833	92.38
295.064	89.38
295.295	74.38
295.525	90.38
295.756	107.38
295.987	108.38
296.217	112.38
296.448	118.38
296.679	83.38
296.909	102.38
297.14	101.38
297.37	101.38
297.601	101.38
297.831	92.38
298.062	107.38
298.292	89.38
298.523	101.38
298.753	91.38
298.984	87.38
299.214	100.38
299.445	88.38
299.675	87.38
299.905	85.38
300.136	97.38
300.366	82.38
300.597	94.38
300.827	82.38
301.057	110.38
301.288	102.38
301.518	94.38
301.748	85.38
301.979	102.38
302.209	101.38
302.439	91.38
302.669	89.38
302.9	96.38
303.13	88.38
303.36	100.38
303.59	98.38
303.82	110.38
304.051	105.38
304.281	89.38
304.511	85.38
304.741	82.38
304.971	88.38
305.201	100.38
305.431	88.38
305.661	118.38
305.891	92.38
306.121	84.38
306.352	105.38
306.582	94.38
306.812	89.38
307.042	92.38
307.272	95.38
307.502	103.38
307.731	97.38
307.961	106.38
308.191	93.38
308.421	102.38
308.651	93.38
308.881	85.38
309.111	87.38
309.341	98.38
309.571	98.38
309.8	101.38
310.03	85.38
310.26	106.38
310.49	107.38
310.72	91.38
310.949	102.38
311.179	85.38
311.409	92.38
311.639	87.38
311.868	98.38
312.098	102.38
312.328	107.38
312.557	110.38
312.787	99.38
313.017	99.38
313.246	104.38
313.476	95.38
313.706	85.38
313.935	84.38
314.165	92.38
314.394	89.38
314.624	109.38
314.853	100.38
315.083	105.38
315.312	100.38
315.542	92.38
315.771	95.38
316.001	87.38
316.23	84.38
316.46	82.38
316.689	91.38
316.919	95.38
317.148	117.38
317.377	89.38
317.607	93.38
317.836	100.38
318.065	85.38
318.295	81.38
318.524	93.38
318.753	87.38
318.983	96.38
319.212	102.38
319.441	110.38
319.67	106.38
319.9	95.38
320.129	84.38
320.358	80.38
320.587	102.38
320.816	109.38
321.046	100.38
321.275	101.38
321.504	110.38
321.733	101.38
321.962	100.38
322.191	104.38
322.42	106.38
322.649	96.38
322.878	106.38
323.108	105.38
323.337	111.38
323.566	123.38
323.795	134.38
324.024	181.38
324.253	293.38
324.482	581.38
324.71	1182.38
324.939	1611.38
325.168	600.38
325.397	200.38
325.626	154.38
325.855	139.38
326.084	116.38
326.313	130.38
326.542	142.38
326.77	182.38
326.999	355.38
327.228	673.38
327.457	1238.38
327.686	994.38
327.914	278.38
328.143	144.38
328.372	136.38
328.6	118.38
328.829	119.38
329.058	120.38
329.287	114.38
329.515	109.38
329.744	94.38
329.972	105.38
330.201	103.38
330.43	122.38
330.658	124.38
330.887	117.38
331.115	116.38
331.344	84.38
331.572	111.38
331.801	103.38
332.03	89.38
332.258	90.38
332.486	105.38
332.715	94.38
332.943	100.38
333.172	95.38
333.4	94.38
333.629	101.38
333.857	100.38
334.085	108.38
334.314	119.38
334.542	118.38
334.771	126.38
334.999	101.38
335.227	109.38
335.455	92.38
335.684	113.38
335.912	112.38
336.14	95.38
336.369	112.38
336.597	113.38
336.825	97.38
337.053	94.38
337.281	108.38
337.51	93.38
337.738	93.38
337.966	98.38
338.194	88.38
338.422	97.38
338.65	104.38
338.878	95.38
339.106	89.38
339.334	97.38
339.562	89.38
339.79	98.38
340.018	82.38
340.246	95.38
340.474	83.38
340.702	92.38
340.93	102.38
341.158	84.38
341.386	104.38
341.614	107.38
341.842	96.38
342.07	79.38
342.298	106.38
342.526	94.38
342.754	94.38
342.981	107.38
343.209	94.38
343.437	99.38
343.665	96.38
343.893	94.38
344.12	91.38
344.348	101.38
344.576	93.38
344.804	89.38
345.031	99.38
345.259	96.38
345.487	103.38
345.714	93.38
345.942	101.38
346.17	100.38
346.397	75.38
346.625	99.38
346.853	104.38
347.08	112.38
347.308	93.38
347.535	84.38
347.763	85.38
347.99	92.38
348.218	105.38
348.445	100.38
348.673	100.38
348.9	109.38
349.128	92.38
349.355	109.38
349.583	104.38
349.81	110.38
350.037	99.38
350.265	96.38
350.492	101.38
350.72	99.38
350.947	92.38
351.174	97.38
351.402	121.38
351.629	108.38
351.856	88.38
352.083	100.38
352.311	101.38
352.538	99.38
352.765	102.38
352.992	90.38
353.22	116.38
353.447	120.38
353.674	101.38
353.901	102.38
354.128	111.38
354.355	105.38
354.583	96.38
354.81	97.38
355.037	101.38
355.264	102.38
355.491	80.38
355.718	88.38
355.945	97.38
356.172	101.38
356.399	96.38
356.626	101.38
356.853	111.38
357.08	81.38
357.307	104.38
357.534	82.38
357.761	101.38
357.988	104.38
358.215	104.38
358.441	91.38
358.668	84.38
358.895	93.38
359.122	71.38
359.349	78.38
359.576	90.38
359.802	88.38
360.029	100.38
360.256	112.38
360.483	101.38
360.709	89.38
360.936	91.38
361.163	98.38
361.39	96.38
361.616	88.38
361.843	81.38
362.07	96.38
362.296	101.38
362.523	100.38
362.749	85.38
362.976	91.38
363.203	86.38
363.429	105.38
363.656	106.38
363.882	91.38
364.109	97.38
364.335	110.38
364.562	98.38
364.788	88.38
365.015	84.38
365.241	89.38
365.468	106.38
365.694	107.38
365.92	108.38
366.147	87.38
366.373	98.38
366.599	76.38
366.826	97.38
367.052	98.38
367.278	91.38
367.505	84.38
367.731	84.38
367.957	85.38
368.184	95.38
368.41	98.38
368.636	109.38
368.862	108.38
369.089	98.38
369.315	86.38
369.541	88.38
369.767	104.38
369.993	76.38
370.219	93.38
370.445	79.38
370.672	87.38
370.898	92.38
371.124	80.38
371.35	92.38
371.576	87.38
371.802	97.38
372.028	89.38
372.254	85.38
372.48	74.38
372.706	101.38
372.932	87.38
373.158	85.38
373.384	97.38
373.61	85.38
373.835	94.38
374.061	104.38
374.287	101.38
374.513	108.38
374.739	99.38
374.965	89.38
375.191	93.38
375.416	98.38
375.642	91.38
375.868	102.38
376.094	89.38
376.319	100.38
376.545	90.38
376.771	109.38
376.997	116.38
377.222	104.38
377.448	100.38
377.674	95.38
377.899	104.38
378.125	108.38
378.35	100.38
378.576	89.38
378.802	98.38
379.027	84.38
379.253	105.38
379.478	106.38
379.704	103.38
379.929	91.38
380.155	118.38
380.38	106.38
380.606	113.38
380.831	121.38
381.057	108.38
381.282	97.38
381.507	112.38
381.733	112.38
381.958	116.38
382.184	111.38
382.409	124.38
382.634	116.38
382.86	107.38
383.085	107.38
383.31	109.38
383.535	112.38
383.761	104.38
383.986	110.38
384.211	116.38
384.436	108.38
384.662	125.38
384.887	139.38
385.112	121.38
385.337	142.38
385.562	124.38
385.787	126.38
386.013	128.38
386.238	152.38
386.463	130.38
386.688	132.38
386.913	128.38
387.138	140.38
387.363	118.38
387.588	100.38
387.813	125.38
388.038	124.38
388.263	136.38
388.488	129.38
388.713	90.38
388.938	92.38
389.163	89.38
389.387	87.38
389.612	91.38
389.837	95.38
390.062	87.38
390.287	107.38
390.512	105.38
390.736	99.38
390.961	92.38
391.186	95.38
391.411	110.38
391.636	89.38
391.86	100.38
392.085	98.38
392.31	93.38
392.534	101.38
392.759	82.38
392.984	80.38
393.208	92.38
393.433	100.38
393.658	88.38
393.882	85.38
394.107	93.38
394.331	97.38
394.556	95.38
394.78	93.38
395.005	88.38
395.229	91.38
395.454	99.38
395.678	79.38
395.903	105.38
396.127	88.38
396.352	109.38
396.576	94.38
396.801	97.38
397.025	97.38
397.249	85.38
397.474	98.38
397.698	93.38
397.922	98.38
398.147	77.38
398.371	97.38
398.595	89.38
398.82	88.38
399.044	85.38
399.268	92.38
399.492	86.38
399.717	90.38
399.941	96.38
400.165	108.38
400.389	100.38
400.613	111.38
400.837	85.38
401.062	83.38
401.286	93.38
401.51	94.38
401.734	95.38
401.958	93.38
402.182	116.38
402.406	147.38
402.63	108.38
402.854	89.38
403.078	102.38
403.302	101.38
403.526	97.38
403.75	87.38
403.974	93.38
404.198	99.38
404.422	85.38
404.645	98.38
404.869	96.38
405.093	98.38
405.317	84.38
405.541	88.38
405.765	89.38
405.988	114.38
406.212	148.38
406.436	174.38
406.66	128.38
406.883	106.38
407.107	78.38
407.331	101.38
407.555	99.38
407.778	83.38
408.002	78.38
408.226	95.38
408.449	89.38
408.673	96.38
408.896	78.38
409.12	97.38
409.344	99.38
409.567	103.38
409.791	87.38
410.014	105.38
410.238	94.38
410.461	100.38
410.685	104.38
410.908	104.38
411.132	114.38
411.355	116.38
411.578	96.38
411.802	86.38
412.025	96.38
412.249	92.38
412.472	105.38
412.695	94.38
412.919	85.38
413.142	94.38
413.365	96.38
413.589	85.38
413.812	91.38
414.035	98.38
414.258	94.38
414.482	97.38
414.705	108.38
414.928	94.38
415.151	101.38
415.374	106.38
415.597	89.38
415.821	89.38
416.044	93.38
416.267	90.38
416.49	94.38
416.713	82.38
416.936	90.38
417.159	94.38
417.382	95.38
417.605	86.38
417.828	98.38
418.051	103.38
418.274	96.38
418.497	90.38
418.72	89.38
418.943	85.38
419.166	89.38
419.389	93.38
419.611	95.38
419.834	93.38
420.057	98.38
420.28	109.38
420.503	84.38
420.726	95.38
420.948	90.38
421.171	88.38
421.394	93.38
421.617	81.38
421.839	103.38
422.062	96.38
422.285	88.38
422.507	100.38
422.73	105.38
422.953	90.38
423.175	93.38
423.398	88.38
423.621	86.38
423.843	77.38
424.066	102.38
424.288	91.38
424.511	84.38
424.733	80.38
424.956	100.38
425.178	77.38
425.401	104.38
425.623	116.38
425.846	100.38
426.068	95.38
426.291	102.38
426.513	78.38
426.735	99.38
426.958	90.38
427.18	89.38
427.402	128.38
427.625	137.38
427.847	120.38
428.069	117.38
428.292	89.38
428.514	92.38
428.736	95.38
428.958	74.38
429.181	101.38
429.403	82.38
429.625	94.38
429.847	103.38
430.069	91.38
430.292	95.38
430.514	90.38
430.736	79.38
430.958	66.38
431.18	88.38
431.402	100.38
431.624	97.38
431.846	86.38
432.068	84.38
432.29	96.38
432.512	87.38
432.734	92.38
432.956	97.38
433.178	95.38
433.4	90.38
433.622	103.38
433.844	91.38
434.066	108.38
434.287	105.38
434.509	77.38
434.731	101.38
434.953	78.38
435.175	86.38
435.397	88.38
435.618	84.38
435.84	93.38
436.062	116.38
436.284	110.38
436.505	76.38
436.727	86.38
436.949	102.38
437.17	88.38
437.392	79.38
437.614	96.38
437.835	100.38
438.057	97.38
438.278	95.38
438.5	89.38
438.721	93.38
438.943	112.38
439.165	87.38
439.386	98.38
439.608	86.38
439.829	92.38
440.05	109.38
440.272	124.38
440.493	96.38
440.715	95.38
440.936	100.38
441.158	93.38
441.379	96.38
441.6	91.38
441.822	95.38
442.043	99.38
442.264	106.38
442.486	118.38
442.707	98.38
442.928	118.38
443.149	117.38
443.371	114.38
443.592	92.38
443.813	108.38
444.034	97.38
444.255	86.38
444.476	82.38
444.698	88.38
444.919	86.38
445.14	134.38
445.361	130.38
445.582	109.38
445.803	116.38
446.024	113.38
446.245	116.38
446.466	102.38
446.687	79.38
446.908	93.38
447.129	101.38
447.35	98.38
447.571	84.38
447.792	89.38
448.013	86.38
448.234	96.38
448.455	100.38
448.675	96.38
448.896	112.38
449.117	109.38
449.338	85.38
449.559	123.38
449.779	124.38
450	86.38
450.221	80.38
450.442	100.38
450.662	105.38
450.883	107.38
451.104	119.38
451.324	93.38
451.545	96.38
451.766	86.38
451.986	77.38
452.207	74.38
452.428	87.38
452.648	81.38
452.869	109.38
453.089	97.38
453.31	108.38
453.53	92.38
453.751	86.38
453.971	96.38
454.192	93.38
454.412	85.38
454.633	77.38
454.853	78.38
455.073	87.38
455.294	92.38
455.514	102.38
455.734	86.38
455.955	94.38
456.175	84.38
456.395	96.38
456.616	81.38
456.836	95.38
457.056	83.38
457.276	91.38
457.497	93.38
457.717	92.38
457.937	85.38
458.157	97.38
458.377	101.38
458.598	106.38
458.818	115.38
459.038	120.38
459.258	97.38
459.478	95.38
459.698	85.38
459.918	74.38
460.138	82.38
460.358	81.38
460.578	98.38
460.798	96.38
461.018	87.38
461.238	90.38
461.458	87.38
461.678	98.38
461.898	89.38
462.118	102.38
462.338	87.38
462.558	90.38
462.777	81.38
462.997	94.38
463.217	102.38
463.437	100.38
463.657	96.38
463.876	92.38
464.096	91.38
464.316	89.38
464.536	89.38
464.755	104.38
464.975	108.38
465.195	136.38
465.414	118.38
465.634	83.38
465.854	92.38
466.073	89.38
466.293	95.38
466.512	89.38
466.732	78.38
466.951	91.38
467.171	90.38
467.391	93.38
467.61	94.38
467.829	92.38
468.049	103.38
468.268	108.38
468.488	93.38
468.707	92.38
468.927	88.38
469.146	81.38
469.365	90.38
469.585	88.38
469.804	88.38
470.023	91.38
470.243	101.38
470.462	93.38
470.681	108.38
470.901	98.38
471.12	102.38
471.339	91.38
471.558	88.38
471.777	76.38
471.997	104.38
472.216	122.38
472.435	143.38
472.654	92.38
472.873	96.38
473.092	92.38
473.311	88.38
473.53	98.38
473.749	85.38
473.968	90.38
474.187	91.38
474.406	92.38
474.625	103.38
474.844	89.38
475.063	73.38
475.282	84.38
475.501	90.38
475.72	70.38
475.939	80.38
476.158	82.38
476.377	80.38
476.596	84.38
476.814	93.38
477.033	75.38
477.252	86.38
477.471	92.38
477.69	81.38
477.908	90.38
478.127	80.38
478.346	88.38
478.564	96.38
478.783	96.38
479.002	85.38
479.22	107.38
479.439	105.38
479.658	89.38
479.876	102.38
480.095	88.38
480.313	94.38
480.532	95.38
480.751	94.38
480.969	106.38
481.188	178.38
481.406	146.38
481.624	104.38
481.843	94.38
482.061	85.38
482.28	101.38
482.498	90.38
482.717	80.38
482.935	93.38
483.153	100.38
483.372	94.38
483.59	89.38
483.808	104.38
484.027	90.38
484.245	104.38
484.463	103.38
484.681	93.38
484.9	84.38
485.118	95.38
485.336	100.38
485.554	93.38
485.772	102.38
485.99	101.38
486.209	110.38
486.427	111.38
486.645	118.38
486.863	106.38
487.081	97.38
487.299	96.38
487.517	118.38
487.735	97.38
487.953	94.38
488.171	112.38
488.389	101.38
488.607	93.38
488.825	97.38
489.043	96.38
489.261	108.38
489.479	89.38
489.696	90.38
489.914	92.38
490.132	85.38
490.35	92.38
490.568	92.38
490.786	103.38
491.003	96.38
491.221	88.38
491.439	81.38
491.657	91.38
491.874	102.38
492.092	89.38
492.31	86.38
492.527	89.38
492.745	95.38
492.963	89.38
493.18	95.38
493.398	104.38
493.615	92.38
493.833	91.38
494.05	86.38
494.268	91.38
494.485	91.38
494.703	97.38
494.92	95.38
495.138	85.38
495.355	90.38
495.573	104.38
495.79	80.38
496.008	85.38
496.225	99.38
496.442	104.38
496.66	103.38
496.877	88.38
497.094	97.38
497.312	100.38
497.529	91.38
497.746	101.38
497.963	108.38
498.181	89.38
498.398	88.38
498.615	96.38
498.832	99.38
499.049	87.38
499.267	78.38
499.484	92.38
499.701	111.38
499.918	102.38
500.135	84.38
500.352	88.38
500.569	85.38
500.786	101.38
501.003	73.38
501.22	93.38
501.437	82.38
501.654	98.38
501.871	102.38
502.088	90.38
502.305	73.38
502.522	91.38
502.739	96.38
502.956	96.38
503.172	101.38
503.389	111.38
503.606	106.38
503.823	90.38
504.04	111.38
504.256	96.38
504.473	86.38
504.69	99.38
504.907	100.38
505.123	100.38
505.34	89.38
505.557	89.38
505.773	102.38
505.99	100.38
506.207	89.38
506.423	85.38
506.64	94.38
506.856	102.38
507.073	87.38
507.289	91.38
507.506	107.38
507.722	102.38
507.939	119.38
508.155	98.38
508.372	96.38
508.588	96.38
508.805	95.38
509.021	96.38
509.238	104.38
509.454	94.38
509.67	77.38
509.887	117.38
510.103	115.38
510.319	198.38
510.536	576.38
510.752	1658.38
510.968	504.38
511.184	139.38
511.401	97.38
511.617	94.38
511.833	76.38
512.049	89.38
512.265	86.38
512.481	83.38
512.698	86.38
512.914	97.38
513.13	96.38
513.346	88.38
513.562	86.38
513.778	88.38
513.994	102.38
514.21	104.38
514.426	107.38
