Data from Circ_1980_H10_HRD10591_00009.txt Node
Date: Wed Jan 03 12:38:00 EST 2024
User: Yrep
Spectrometer: HR+D1059
Trigger mode: 1
Integration Time (sec): 1.000000E-1
Scans to average: 1
Electric dark correction enabled: true
Nonlinearity correction enabled: false
Boxcar width: 0
XAxis mode: Wavelengths
Number of Pixels in Spectrum: 2048
>>>>>Begin Spectral Data<<<<<
223.165	-19.31
223.4	-19.31
223.635	-19.31
223.869	-29.31
224.104	-15.31
224.338	-15.31
224.573	3.69
224.808	-11.31
225.042	-11.31
225.277	-15.31
225.511	-6.31
225.746	-5.31
225.98	13.69
226.215	10.69
226.449	19.69
226.683	29.69
226.918	25.69
227.152	25.69
227.387	41.69
227.621	30.69
227.856	39.69
228.09	58.69
228.324	50.69
228.559	50.69
228.793	66.69
229.027	66.69
229.262	70.69
229.496	79.69
229.73	75.69
229.964	68.69
230.199	65.69
230.433	73.69
230.667	70.69
230.901	83.69
231.136	84.69
231.37	69.69
231.604	82.69
231.838	102.69
232.072	74.69
232.306	88.69
232.541	86.69
232.775	67.69
233.009	91.69
233.243	98.69
233.477	70.69
233.711	74.69
233.945	67.69
234.179	84.69
234.413	93.69
234.647	72.69
234.881	72.69
235.115	75.69
235.349	65.69
235.583	89.69
235.817	77.69
236.051	83.69
236.285	68.69
236.519	70.69
236.753	90.69
236.987	92.69
237.221	64.69
237.455	69.69
237.689	64.69
237.922	68.69
238.156	85.69
238.39	72.69
238.624	80.69
238.858	70.69
239.091	85.69
239.325	77.69
239.559	93.69
239.793	77.69
240.027	70.69
240.26	74.69
240.494	67.69
240.728	73.69
240.961	73.69
241.195	86.69
241.429	75.69
241.662	67.69
241.896	81.69
242.13	69.69
242.363	62.69
242.597	69.69
242.83	84.69
243.064	80.69
243.298	73.69
243.531	76.69
243.765	76.69
243.998	69.69
244.232	68.69
244.465	77.69
244.699	84.69
244.932	84.69
245.166	73.69
245.399	66.69
245.633	91.69
245.866	75.69
246.099	65.69
246.333	84.69
246.566	86.69
246.8	74.69
247.033	84.69
247.266	83.69
247.5	77.69
247.733	68.69
247.966	88.69
248.2	70.69
248.433	72.69
248.666	76.69
248.899	78.69
249.133	99.69
249.366	90.69
249.599	77.69
249.832	75.69
250.066	96.69
250.299	75.69
250.532	71.69
250.765	81.69
250.998	76.69
251.231	72.69
251.465	83.69
251.698	83.69
251.931	68.69
252.164	73.69
252.397	84.69
252.63	87.69
252.863	70.69
253.096	79.69
253.329	89.69
253.562	71.69
253.795	75.69
254.028	88.69
254.261	75.69
254.494	75.69
254.727	66.69
254.96	76.69
255.193	71.69
255.426	70.69
255.659	80.69
255.892	63.69
256.124	88.69
256.357	80.69
256.59	70.69
256.823	79.69
257.056	84.69
257.289	87.69
257.521	77.69
257.754	86.69
257.987	66.69
258.22	70.69
258.452	86.69
258.685	77.69
258.918	80.69
259.151	101.69
259.383	86.69
259.616	82.69
259.849	82.69
260.081	94.69
260.314	100.69
260.547	84.69
260.779	69.69
261.012	59.69
261.244	75.69
261.477	81.69
261.71	88.69
261.942	105.69
262.175	93.69
262.407	82.69
262.64	83.69
262.872	90.69
263.105	84.69
263.337	81.69
263.57	73.69
263.802	82.69
264.035	67.69
264.267	88.69
264.499	85.69
264.732	84.69
264.964	66.69
265.197	71.69
265.429	76.69
265.661	76.69
265.894	90.69
266.126	85.69
266.358	98.69
266.591	83.69
266.823	86.69
267.055	87.69
267.287	97.69
267.52	85.69
267.752	72.69
267.984	82.69
268.216	77.69
268.448	84.69
268.681	92.69
268.913	94.69
269.145	77.69
269.377	74.69
269.609	81.69
269.841	86.69
270.073	73.69
270.306	82.69
270.538	88.69
270.77	72.69
271.002	84.69
271.234	72.69
271.466	74.69
271.698	86.69
271.93	93.69
272.162	80.69
272.394	84.69
272.626	85.69
272.858	92.69
273.09	91.69
273.322	91.69
273.553	78.69
273.785	76.69
274.017	84.69
274.249	89.69
274.481	92.69
274.713	83.69
274.945	86.69
275.176	91.69
275.408	61.69
275.64	78.69
275.872	90.69
276.104	77.69
276.335	84.69
276.567	82.69
276.799	93.69
277.031	93.69
277.262	88.69
277.494	86.69
277.726	90.69
277.957	91.69
278.189	86.69
278.421	80.69
278.652	76.69
278.884	91.69
279.115	81.69
279.347	76.69
279.579	78.69
279.81	83.69
280.042	79.69
280.273	81.69
280.505	70.69
280.736	78.69
280.968	77.69
281.199	72.69
281.431	93.69
281.662	88.69
281.894	88.69
282.125	81.69
282.356	91.69
282.588	124.69
282.819	106.69
283.051	86.69
283.282	99.69
283.513	88.69
283.745	88.69
283.976	84.69
284.207	81.69
284.439	80.69
284.67	90.69
284.901	81.69
285.132	89.69
285.364	86.69
285.595	101.69
285.826	84.69
286.057	92.69
286.288	73.69
286.52	87.69
286.751	85.69
286.982	82.69
287.213	92.69
287.444	89.69
287.675	83.69
287.906	78.69
288.138	78.69
288.369	100.69
288.6	86.69
288.831	104.69
289.062	74.69
289.293	90.69
289.524	72.69
289.755	84.69
289.986	86.69
290.217	89.69
290.448	92.69
290.679	86.69
290.91	71.69
291.141	99.69
291.371	92.69
291.602	89.69
291.833	80.69
292.064	80.69
292.295	83.69
292.526	80.69
292.757	92.69
292.987	95.69
293.218	93.69
293.449	91.69
293.68	89.69
293.91	83.69
294.141	78.69
294.372	92.69
294.603	91.69
294.833	89.69
295.064	98.69
295.295	75.69
295.525	84.69
295.756	99.69
295.987	94.69
296.217	107.69
296.448	92.69
296.679	82.69
296.909	89.69
297.14	75.69
297.37	94.69
297.601	80.69
297.831	89.69
298.062	92.69
298.292	97.69
298.523	79.69
298.753	70.69
298.984	90.69
299.214	86.69
299.445	78.69
299.675	100.69
299.905	105.69
300.136	84.69
300.366	78.69
300.597	88.69
300.827	102.69
301.057	101.69
301.288	107.69
301.518	83.69
301.748	70.69
301.979	86.69
302.209	86.69
302.439	89.69
302.669	84.69
302.9	84.69
303.13	89.69
303.36	84.69
303.59	95.69
303.82	82.69
304.051	86.69
304.281	82.69
304.511	81.69
304.741	86.69
304.971	97.69
305.201	101.69
305.431	101.69
305.661	82.69
305.891	85.69
306.121	84.69
306.352	92.69
306.582	96.69
306.812	94.69
307.042	87.69
307.272	93.69
307.502	93.69
307.731	99.69
307.961	88.69
308.191	87.69
308.421	97.69
308.651	80.69
308.881	92.69
309.111	99.69
309.341	93.69
309.571	93.69
309.8	90.69
310.03	79.69
310.26	88.69
310.49	86.69
310.72	76.69
310.949	91.69
311.179	98.69
311.409	100.69
311.639	92.69
311.868	73.69
312.098	76.69
312.328	78.69
312.557	100.69
312.787	105.69
313.017	107.69
313.246	93.69
313.476	95.69
313.706	97.69
313.935	101.69
314.165	89.69
314.394	83.69
314.624	84.69
314.853	89.69
315.083	94.69
315.312	87.69
315.542	88.69
315.771	97.69
316.001	92.69
316.23	90.69
316.46	82.69
316.689	91.69
316.919	93.69
317.148	89.69
317.377	93.69
317.607	93.69
317.836	93.69
318.065	73.69
318.295	71.69
318.524	80.69
318.753	104.69
318.983	92.69
319.212	87.69
319.441	96.69
319.67	101.69
319.9	72.69
320.129	92.69
320.358	104.69
320.587	94.69
320.816	104.69
321.046	101.69
321.275	109.69
321.504	84.69
321.733	94.69
321.962	101.69
322.191	85.69
322.42	99.69
322.649	95.69
322.878	101.69
323.108	104.69
323.337	101.69
323.566	123.69
323.795	114.69
324.024	149.69
324.253	268.69
324.482	542.69
324.71	1069.69
324.939	1416.69
325.168	540.69
325.397	184.69
325.626	132.69
325.855	114.69
326.084	105.69
326.313	129.69
326.542	135.69
326.77	178.69
326.999	316.69
327.228	625.69
327.457	1158.69
327.686	914.69
327.914	258.69
328.143	135.69
328.372	140.69
328.6	106.69
328.829	100.69
329.058	127.69
329.287	99.69
329.515	105.69
329.744	94.69
329.972	98.69
330.201	100.69
330.43	107.69
330.658	113.69
330.887	107.69
331.115	120.69
331.344	108.69
331.572	88.69
331.801	100.69
332.03	81.69
332.258	94.69
332.486	97.69
332.715	84.69
332.943	90.69
333.172	118.69
333.4	102.69
333.629	88.69
333.857	113.69
334.085	112.69
334.314	115.69
334.542	126.69
334.771	121.69
334.999	107.69
335.227	108.69
335.455	90.69
335.684	90.69
335.912	104.69
336.14	88.69
336.369	82.69
336.597	78.69
336.825	98.69
337.053	91.69
337.281	88.69
337.51	97.69
337.738	89.69
337.966	88.69
338.194	100.69
338.422	82.69
338.65	84.69
338.878	85.69
339.106	89.69
339.334	90.69
339.562	77.69
339.79	89.69
340.018	90.69
340.246	75.69
340.474	84.69
340.702	78.69
340.93	97.69
341.158	92.69
341.386	106.69
341.614	94.69
341.842	98.69
342.07	92.69
342.298	96.69
342.526	83.69
342.754	95.69
342.981	109.69
343.209	82.69
343.437	94.69
343.665	88.69
343.893	101.69
344.12	80.69
344.348	77.69
344.576	84.69
344.804	82.69
345.031	96.69
345.259	96.69
345.487	92.69
345.714	90.69
345.942	86.69
346.17	98.69
346.397	99.69
346.625	82.69
346.853	97.69
347.08	96.69
347.308	95.69
347.535	96.69
347.763	103.69
347.99	98.69
348.218	85.69
348.445	95.69
348.673	92.69
348.9	81.69
349.128	102.69
349.355	87.69
349.583	84.69
349.81	94.69
350.037	87.69
350.265	89.69
350.492	82.69
350.72	92.69
350.947	100.69
351.174	93.69
351.402	108.69
351.629	99.69
351.856	90.69
352.083	102.69
352.311	103.69
352.538	96.69
352.765	95.69
352.992	101.69
353.22	94.69
353.447	97.69
353.674	109.69
353.901	93.69
354.128	85.69
354.355	98.69
354.583	104.69
354.81	108.69
355.037	88.69
355.264	102.69
355.491	88.69
355.718	92.69
355.945	89.69
356.172	104.69
356.399	93.69
356.626	89.69
356.853	89.69
357.08	90.69
357.307	91.69
357.534	92.69
357.761	98.69
357.988	96.69
358.215	106.69
358.441	95.69
358.668	89.69
358.895	101.69
359.122	87.69
359.349	89.69
359.576	85.69
359.802	99.69
360.029	108.69
360.256	101.69
360.483	93.69
360.709	92.69
360.936	105.69
361.163	96.69
361.39	100.69
361.616	84.69
361.843	88.69
362.07	92.69
362.296	87.69
362.523	90.69
362.749	84.69
362.976	95.69
363.203	97.69
363.429	87.69
363.656	86.69
363.882	69.69
364.109	85.69
364.335	84.69
364.562	89.69
364.788	81.69
365.015	84.69
365.241	84.69
365.468	96.69
365.694	98.69
365.92	92.69
366.147	86.69
366.373	86.69
366.599	74.69
366.826	80.69
367.052	84.69
367.278	97.69
367.505	91.69
367.731	91.69
367.957	98.69
368.184	88.69
368.41	85.69
368.636	106.69
368.862	94.69
369.089	87.69
369.315	81.69
369.541	90.69
369.767	91.69
369.993	82.69
370.219	94.69
370.445	84.69
370.672	78.69
370.898	88.69
371.124	82.69
371.35	89.69
371.576	82.69
371.802	89.69
372.028	80.69
372.254	94.69
372.48	89.69
372.706	88.69
372.932	99.69
373.158	77.69
373.384	77.69
373.61	87.69
373.835	96.69
374.061	85.69
374.287	86.69
374.513	84.69
374.739	90.69
374.965	87.69
375.191	84.69
375.416	82.69
375.642	99.69
375.868	94.69
376.094	93.69
376.319	90.69
376.545	95.69
376.771	93.69
376.997	81.69
377.222	84.69
377.448	89.69
377.674	98.69
377.899	92.69
378.125	84.69
378.35	92.69
378.576	91.69
378.802	96.69
379.027	94.69
379.253	85.69
379.478	92.69
379.704	101.69
379.929	102.69
380.155	105.69
380.38	86.69
380.606	94.69
380.831	100.69
381.057	109.69
381.282	104.69
381.507	97.69
381.733	101.69
381.958	97.69
382.184	103.69
382.409	110.69
382.634	91.69
382.86	109.69
383.085	97.69
383.31	114.69
383.535	113.69
383.761	113.69
383.986	113.69
384.211	98.69
384.436	115.69
384.662	115.69
384.887	113.69
385.112	129.69
385.337	111.69
385.562	111.69
385.787	119.69
386.013	115.69
386.238	144.69
386.463	105.69
386.688	131.69
386.913	116.69
387.138	133.69
387.363	126.69
387.588	97.69
387.813	104.69
388.038	113.69
388.263	126.69
388.488	104.69
388.713	104.69
388.938	85.69
389.163	93.69
389.387	101.69
389.612	108.69
389.837	92.69
390.062	90.69
390.287	97.69
390.512	88.69
390.736	87.69
390.961	83.69
391.186	87.69
391.411	92.69
391.636	95.69
391.86	96.69
392.085	85.69
392.31	90.69
392.534	80.69
392.759	99.69
392.984	73.69
393.208	77.69
393.433	95.69
393.658	84.69
393.882	70.69
394.107	85.69
394.331	84.69
394.556	100.69
394.78	98.69
395.005	73.69
395.229	89.69
395.454	98.69
395.678	100.69
395.903	75.69
396.127	94.69
396.352	95.69
396.576	70.69
396.801	87.69
397.025	90.69
397.249	98.69
397.474	88.69
397.698	97.69
397.922	81.69
398.147	89.69
398.371	85.69
398.595	86.69
398.82	80.69
399.044	99.69
399.268	82.69
399.492	73.69
399.717	92.69
399.941	84.69
400.165	84.69
400.389	82.69
400.613	81.69
400.837	94.69
401.062	91.69
401.286	86.69
401.51	86.69
401.734	84.69
401.958	102.69
402.182	105.69
402.406	111.69
402.63	105.69
402.854	92.69
403.078	83.69
403.302	82.69
403.526	88.69
403.75	91.69
403.974	97.69
404.198	80.69
404.422	99.69
404.645	95.69
404.869	102.69
405.093	92.69
405.317	88.69
405.541	82.69
405.765	87.69
405.988	101.69
406.212	124.69
406.436	145.69
406.66	100.69
406.883	88.69
407.107	82.69
407.331	94.69
407.555	93.69
407.778	85.69
408.002	76.69
408.226	75.69
408.449	84.69
408.673	94.69
408.896	85.69
409.12	99.69
409.344	98.69
409.567	81.69
409.791	97.69
410.014	90.69
410.238	101.69
410.461	96.69
410.685	87.69
410.908	106.69
411.132	106.69
411.355	95.69
411.578	88.69
411.802	85.69
412.025	94.69
412.249	91.69
412.472	94.69
412.695	91.69
412.919	93.69
413.142	84.69
413.365	101.69
413.589	86.69
413.812	88.69
414.035	87.69
414.258	76.69
414.482	84.69
414.705	80.69
414.928	84.69
415.151	90.69
415.374	100.69
415.597	74.69
415.821	93.69
416.044	89.69
416.267	94.69
416.49	81.69
416.713	94.69
416.936	93.69
417.159	76.69
417.382	78.69
417.605	77.69
417.828	93.69
418.051	100.69
418.274	86.69
418.497	86.69
418.72	90.69
418.943	77.69
419.166	94.69
419.389	77.69
419.611	93.69
419.834	85.69
420.057	91.69
420.28	87.69
420.503	72.69
420.726	91.69
420.948	90.69
421.171	103.69
421.394	90.69
421.617	90.69
421.839	78.69
422.062	98.69
422.285	85.69
422.507	90.69
422.73	93.69
422.953	84.69
423.175	69.69
423.398	84.69
423.621	80.69
423.843	99.69
424.066	92.69
424.288	81.69
424.511	88.69
424.733	85.69
424.956	80.69
425.178	82.69
425.401	92.69
425.623	93.69
425.846	65.69
426.068	81.69
426.291	90.69
426.513	84.69
426.735	77.69
426.958	90.69
427.18	84.69
427.402	121.69
427.625	122.69
427.847	89.69
428.069	98.69
428.292	78.69
428.514	92.69
428.736	84.69
428.958	83.69
429.181	78.69
429.403	77.69
429.625	73.69
429.847	88.69
430.069	98.69
430.292	92.69
430.514	72.69
430.736	77.69
430.958	93.69
431.18	100.69
431.402	81.69
431.624	86.69
431.846	73.69
432.068	78.69
432.29	82.69
432.512	67.69
432.734	80.69
432.956	80.69
433.178	92.69
433.4	82.69
433.622	86.69
433.844	95.69
434.066	87.69
434.287	89.69
434.509	85.69
434.731	94.69
434.953	76.69
435.175	72.69
435.397	87.69
435.618	96.69
435.84	83.69
436.062	97.69
436.284	101.69
436.505	105.69
436.727	76.69
436.949	100.69
437.17	85.69
437.392	88.69
437.614	90.69
437.835	88.69
438.057	98.69
438.278	103.69
438.5	89.69
438.721	90.69
438.943	88.69
439.165	81.69
439.386	88.69
439.608	89.69
439.829	81.69
440.05	105.69
440.272	108.69
440.493	87.69
440.715	84.69
440.936	94.69
441.158	70.69
441.379	78.69
441.6	105.69
441.822	92.69
442.043	92.69
442.264	89.69
442.486	86.69
442.707	85.69
442.928	92.69
443.149	97.69
443.371	102.69
443.592	92.69
443.813	92.69
444.034	89.69
444.255	81.69
444.476	84.69
444.698	82.69
444.919	87.69
445.14	126.69
445.361	108.69
445.582	92.69
445.803	104.69
446.024	92.69
446.245	99.69
446.466	96.69
446.687	82.69
446.908	90.69
447.129	90.69
447.35	73.69
447.571	92.69
447.792	81.69
448.013	101.69
448.234	98.69
448.455	93.69
448.675	94.69
448.896	96.69
449.117	105.69
449.338	97.69
449.559	99.69
449.779	107.69
450	90.69
450.221	91.69
450.442	71.69
450.662	85.69
450.883	92.69
451.104	90.69
451.324	92.69
451.545	81.69
451.766	88.69
451.986	74.69
452.207	87.69
452.428	84.69
452.648	97.69
452.869	95.69
453.089	104.69
453.31	85.69
453.53	75.69
453.751	82.69
453.971	90.69
454.192	101.69
454.412	93.69
454.633	74.69
454.853	90.69
455.073	86.69
455.294	88.69
455.514	94.69
455.734	83.69
455.955	81.69
456.175	85.69
456.395	77.69
456.616	83.69
456.836	94.69
457.056	86.69
457.276	83.69
457.497	66.69
457.717	82.69
457.937	76.69
458.157	90.69
458.377	74.69
458.598	89.69
458.818	113.69
459.038	116.69
459.258	84.69
459.478	84.69
459.698	81.69
459.918	78.69
460.138	88.69
460.358	77.69
460.578	88.69
460.798	81.69
461.018	73.69
461.238	71.69
461.458	80.69
461.678	69.69
461.898	83.69
462.118	100.69
462.338	90.69
462.558	90.69
462.777	73.69
462.997	86.69
463.217	86.69
463.437	89.69
463.657	75.69
463.876	88.69
464.096	82.69
464.316	102.69
464.536	83.69
464.755	84.69
464.975	93.69
465.195	123.69
465.414	132.69
465.634	93.69
465.854	85.69
466.073	95.69
466.293	96.69
466.512	82.69
466.732	85.69
466.951	83.69
467.171	96.69
467.391	96.69
467.61	90.69
467.829	78.69
468.049	94.69
468.268	91.69
468.488	74.69
468.707	76.69
468.927	85.69
469.146	80.69
469.365	85.69
469.585	70.69
469.804	86.69
470.023	96.69
470.243	93.69
470.462	93.69
470.681	96.69
470.901	92.69
471.12	76.69
471.339	83.69
471.558	87.69
471.777	92.69
471.997	97.69
472.216	108.69
472.435	129.69
472.654	98.69
472.873	98.69
473.092	74.69
473.311	88.69
473.53	92.69
473.749	79.69
473.968	104.69
474.187	90.69
474.406	82.69
474.625	77.69
474.844	91.69
475.063	89.69
475.282	95.69
475.501	84.69
475.72	81.69
475.939	91.69
476.158	84.69
476.377	100.69
476.596	77.69
476.814	86.69
477.033	85.69
477.252	87.69
477.471	76.69
477.69	91.69
477.908	84.69
478.127	86.69
478.346	82.69
478.564	83.69
478.783	100.69
479.002	82.69
479.22	89.69
479.439	97.69
479.658	99.69
479.876	82.69
480.095	72.69
480.313	99.69
480.532	74.69
480.751	104.69
480.969	104.69
481.188	180.69
481.406	138.69
481.624	99.69
481.843	87.69
482.061	83.69
482.28	78.69
482.498	68.69
482.717	76.69
482.935	92.69
483.153	98.69
483.372	81.69
483.59	87.69
483.808	89.69
484.027	85.69
484.245	84.69
484.463	88.69
484.681	89.69
484.9	86.69
485.118	90.69
485.336	88.69
485.554	104.69
485.772	96.69
485.99	115.69
486.209	119.69
486.427	96.69
486.645	97.69
486.863	110.69
487.081	97.69
487.299	102.69
487.517	101.69
487.735	84.69
487.953	89.69
488.171	105.69
488.389	99.69
488.607	99.69
488.825	80.69
489.043	90.69
489.261	93.69
489.479	86.69
489.696	96.69
489.914	83.69
490.132	73.69
490.35	73.69
490.568	69.69
490.786	84.69
491.003	94.69
491.221	88.69
491.439	95.69
491.657	89.69
491.874	86.69
492.092	88.69
492.31	102.69
492.527	99.69
492.745	93.69
492.963	84.69
493.18	86.69
493.398	89.69
493.615	97.69
493.833	82.69
494.05	83.69
494.268	75.69
494.485	91.69
494.703	97.69
494.92	85.69
495.138	90.69
495.355	78.69
495.573	87.69
495.79	99.69
496.008	76.69
496.225	69.69
496.442	77.69
496.66	91.69
496.877	96.69
497.094	92.69
497.312	100.69
497.529	94.69
497.746	92.69
497.963	86.69
498.181	100.69
498.398	83.69
498.615	92.69
498.832	101.69
499.049	84.69
499.267	94.69
499.484	85.69
499.701	74.69
499.918	88.69
500.135	86.69
500.352	86.69
500.569	90.69
500.786	84.69
501.003	88.69
501.22	88.69
501.437	90.69
501.654	92.69
501.871	105.69
502.088	85.69
502.305	108.69
502.522	84.69
502.739	74.69
502.956	93.69
503.172	88.69
503.389	91.69
503.606	86.69
503.823	91.69
504.04	88.69
504.256	100.69
504.473	88.69
504.69	82.69
504.907	106.69
505.123	82.69
505.34	87.69
505.557	85.69
505.773	80.69
505.99	94.69
506.207	80.69
506.423	87.69
506.64	83.69
506.856	80.69
507.073	64.69
507.289	86.69
507.506	96.69
507.722	89.69
507.939	104.69
508.155	84.69
508.372	84.69
508.588	96.69
508.805	88.69
509.021	89.69
509.238	97.69
509.454	93.69
509.67	99.69
509.887	92.69
510.103	109.69
510.319	162.69
510.536	486.69
510.752	1491.69
510.968	424.69
511.184	118.69
511.401	91.69
511.617	96.69
511.833	85.69
512.049	94.69
512.265	95.69
512.481	88.69
512.698	94.69
512.914	79.69
513.13	103.69
513.346	91.69
513.562	95.69
513.778	82.69
513.994	86.69
514.21	97.69
514.426	116.69
514.642	112.69
514.858	108.69
515.074	116.69
515.29	281.69
515.506	872.69
515.721	331.69
515.937	121.69
516.153	103.69
516.369	91.69
516.585	87.69
516.801	107.69
517.016	81.69
