Data from Circ_1980_H10_HRD10591_00018.txt Node
Date: Wed Jan 03 12:38:01 EST 2024
User: Yrep
Spectrometer: HR+D1059
Trigger mode: 1
Integration Time (sec): 1.000000E-1
Scans to average: 1
Electric dark correction enabled: true
Nonlinearity correction enabled: false
Boxcar width: 0
XAxis mode: Wavelengths
Number of Pixels in Spectrum: 2048
>>>>>Begin Spectral Data<<<<<
223.165	-9.38
223.4	-9.38
223.635	-9.38
223.869	-22.38
224.104	-14.38
224.338	-3.38
224.573	-17.38
224.808	-19.38
225.042	-1.38
225.277	-11.38
225.511	4.62
225.746	4.62
225.98	-1.38
226.215	2.62
226.449	12.62
226.683	17.62
226.918	30.62
227.152	27.62
227.387	40.62
227.621	37.62
227.856	30.62
228.09	58.62
228.324	54.62
228.559	59.62
228.793	75.62
229.027	71.62
229.262	62.62
229.496	72.62
229.73	72.62
229.964	82.62
230.199	73.62
230.433	85.62
230.667	79.62
230.901	92.62
231.136	89.62
231.37	87.62
231.604	93.62
231.838	76.62
232.072	82.62
232.306	92.62
232.541	84.62
232.775	69.62
233.009	76.62
233.243	85.62
233.477	92.62
233.711	73.62
233.945	78.62
234.179	76.62
234.413	89.62
234.647	86.62
234.881	86.62
235.115	90.62
235.349	81.62
235.583	74.62
235.817	84.62
236.051	77.62
236.285	78.62
236.519	77.62
236.753	83.62
236.987	77.62
237.221	76.62
237.455	84.62
237.689	86.62
237.922	70.62
238.156	73.62
238.39	85.62
238.624	63.62
238.858	76.62
239.091	80.62
239.325	92.62
239.559	81.62
239.793	75.62
240.027	78.62
240.26	71.62
240.494	81.62
240.728	86.62
240.961	80.62
241.195	74.62
241.429	82.62
241.662	80.62
241.896	78.62
242.13	89.62
242.363	88.62
242.597	87.62
242.83	87.62
243.064	69.62
243.298	90.62
243.531	79.62
243.765	70.62
243.998	79.62
244.232	87.62
244.465	76.62
244.699	66.62
244.932	72.62
245.166	74.62
245.399	81.62
245.633	79.62
245.866	93.62
246.099	84.62
246.333	66.62
246.566	80.62
246.8	77.62
247.033	69.62
247.266	79.62
247.5	78.62
247.733	94.62
247.966	75.62
248.2	74.62
248.433	82.62
248.666	85.62
248.899	87.62
249.133	94.62
249.366	104.62
249.599	96.62
249.832	90.62
250.066	85.62
250.299	90.62
250.532	90.62
250.765	84.62
250.998	86.62
251.231	93.62
251.465	87.62
251.698	93.62
251.931	87.62
252.164	95.62
252.397	82.62
252.63	97.62
252.863	88.62
253.096	86.62
253.329	82.62
253.562	90.62
253.795	86.62
254.028	86.62
254.261	85.62
254.494	82.62
254.727	88.62
254.96	81.62
255.193	94.62
255.426	88.62
255.659	81.62
255.892	106.62
256.124	92.62
256.357	78.62
256.59	82.62
256.823	87.62
257.056	84.62
257.289	93.62
257.521	78.62
257.754	80.62
257.987	79.62
258.22	88.62
258.452	82.62
258.685	76.62
258.918	89.62
259.151	70.62
259.383	81.62
259.616	87.62
259.849	79.62
260.081	80.62
260.314	97.62
260.547	79.62
260.779	90.62
261.012	86.62
261.244	85.62
261.477	109.62
261.71	107.62
261.942	106.62
262.175	90.62
262.407	91.62
262.64	77.62
262.872	86.62
263.105	87.62
263.337	82.62
263.57	73.62
263.802	81.62
264.035	91.62
264.267	80.62
264.499	77.62
264.732	79.62
264.964	84.62
265.197	87.62
265.429	76.62
265.661	90.62
265.894	77.62
266.126	84.62
266.358	88.62
266.591	86.62
266.823	81.62
267.055	73.62
267.287	79.62
267.52	90.62
267.752	98.62
267.984	86.62
268.216	87.62
268.448	90.62
268.681	86.62
268.913	94.62
269.145	95.62
269.377	92.62
269.609	87.62
269.841	85.62
270.073	104.62
270.306	101.62
270.538	101.62
270.77	76.62
271.002	85.62
271.234	78.62
271.466	77.62
271.698	87.62
271.93	68.62
272.162	84.62
272.394	99.62
272.626	87.62
272.858	87.62
273.09	90.62
273.322	93.62
273.553	76.62
273.785	81.62
274.017	88.62
274.249	94.62
274.481	94.62
274.713	88.62
274.945	92.62
275.176	89.62
275.408	84.62
275.64	87.62
275.872	90.62
276.104	101.62
276.335	104.62
276.567	104.62
276.799	101.62
277.031	98.62
277.262	101.62
277.494	100.62
277.726	97.62
277.957	78.62
278.189	89.62
278.421	97.62
278.652	94.62
278.884	84.62
279.115	92.62
279.347	86.62
279.579	96.62
279.81	90.62
280.042	87.62
280.273	92.62
280.505	94.62
280.736	73.62
280.968	96.62
281.199	81.62
281.431	75.62
281.662	88.62
281.894	92.62
282.125	98.62
282.356	99.62
282.588	105.62
282.819	111.62
283.051	85.62
283.282	81.62
283.513	93.62
283.745	97.62
283.976	105.62
284.207	87.62
284.439	102.62
284.67	87.62
284.901	84.62
285.132	82.62
285.364	97.62
285.595	75.62
285.826	77.62
286.057	95.62
286.288	96.62
286.52	89.62
286.751	77.62
286.982	85.62
287.213	80.62
287.444	83.62
287.675	92.62
287.906	90.62
288.138	77.62
288.369	92.62
288.6	88.62
288.831	97.62
289.062	86.62
289.293	89.62
289.524	79.62
289.755	85.62
289.986	91.62
290.217	85.62
290.448	73.62
290.679	81.62
290.91	87.62
291.141	88.62
291.371	87.62
291.602	94.62
291.833	93.62
292.064	92.62
292.295	97.62
292.526	80.62
292.757	100.62
292.987	101.62
293.218	104.62
293.449	80.62
293.68	93.62
293.91	89.62
294.141	96.62
294.372	90.62
294.603	104.62
294.833	89.62
295.064	84.62
295.295	97.62
295.525	83.62
295.756	92.62
295.987	109.62
296.217	124.62
296.448	112.62
296.679	77.62
296.909	99.62
297.14	84.62
297.37	90.62
297.601	77.62
297.831	99.62
298.062	97.62
298.292	88.62
298.523	98.62
298.753	92.62
298.984	92.62
299.214	78.62
299.445	88.62
299.675	96.62
299.905	90.62
300.136	84.62
300.366	95.62
300.597	99.62
300.827	106.62
301.057	99.62
301.288	97.62
301.518	96.62
301.748	86.62
301.979	97.62
302.209	95.62
302.439	108.62
302.669	92.62
302.9	104.62
303.13	89.62
303.36	93.62
303.59	104.62
303.82	97.62
304.051	92.62
304.281	86.62
304.511	104.62
304.741	96.62
304.971	101.62
305.201	107.62
305.431	94.62
305.661	90.62
305.891	102.62
306.121	101.62
306.352	96.62
306.582	97.62
306.812	105.62
307.042	98.62
307.272	89.62
307.502	92.62
307.731	97.62
307.961	79.62
308.191	80.62
308.421	81.62
308.651	85.62
308.881	95.62
309.111	103.62
309.341	97.62
309.571	93.62
309.8	85.62
310.03	97.62
310.26	84.62
310.49	102.62
310.72	94.62
310.949	114.62
311.179	102.62
311.409	97.62
311.639	88.62
311.868	100.62
312.098	97.62
312.328	98.62
312.557	106.62
312.787	96.62
313.017	92.62
313.246	97.62
313.476	101.62
313.706	89.62
313.935	101.62
314.165	93.62
314.394	93.62
314.624	98.62
314.853	94.62
315.083	106.62
315.312	67.62
315.542	90.62
315.771	90.62
316.001	85.62
316.23	88.62
316.46	90.62
316.689	97.62
316.919	104.62
317.148	89.62
317.377	102.62
317.607	104.62
317.836	115.62
318.065	90.62
318.295	84.62
318.524	82.62
318.753	86.62
318.983	93.62
319.212	85.62
319.441	95.62
319.67	102.62
319.9	102.62
320.129	84.62
320.358	101.62
320.587	88.62
320.816	105.62
321.046	96.62
321.275	98.62
321.504	97.62
321.733	86.62
321.962	102.62
322.191	101.62
322.42	90.62
322.649	110.62
322.878	118.62
323.108	118.62
323.337	114.62
323.566	124.62
323.795	129.62
324.024	176.62
324.253	319.62
324.482	620.62
324.71	1254.62
324.939	1640.62
325.168	610.62
325.397	188.62
325.626	140.62
325.855	128.62
326.084	137.62
326.313	114.62
326.542	145.62
326.77	190.62
326.999	348.62
327.228	744.62
327.457	1326.62
327.686	1012.62
327.914	300.62
328.143	163.62
328.372	122.62
328.6	108.62
328.829	100.62
329.058	114.62
329.287	112.62
329.515	108.62
329.744	101.62
329.972	113.62
330.201	97.62
330.43	125.62
330.658	116.62
330.887	125.62
331.115	95.62
331.344	94.62
331.572	96.62
331.801	96.62
332.03	87.62
332.258	94.62
332.486	93.62
332.715	100.62
332.943	95.62
333.172	109.62
333.4	108.62
333.629	106.62
333.857	94.62
334.085	110.62
334.314	113.62
334.542	112.62
334.771	123.62
334.999	104.62
335.227	107.62
335.455	106.62
335.684	85.62
335.912	99.62
336.14	101.62
336.369	95.62
336.597	97.62
336.825	107.62
337.053	93.62
337.281	102.62
337.51	90.62
337.738	96.62
337.966	77.62
338.194	94.62
338.422	87.62
338.65	107.62
338.878	86.62
339.106	92.62
339.334	88.62
339.562	102.62
339.79	82.62
340.018	81.62
340.246	93.62
340.474	91.62
340.702	100.62
340.93	89.62
341.158	94.62
341.386	86.62
341.614	97.62
341.842	96.62
342.07	80.62
342.298	89.62
342.526	89.62
342.754	93.62
342.981	96.62
343.209	95.62
343.437	106.62
343.665	90.62
343.893	97.62
344.12	112.62
344.348	81.62
344.576	94.62
344.804	97.62
345.031	97.62
345.259	93.62
345.487	109.62
345.714	81.62
345.942	91.62
346.17	99.62
346.397	101.62
346.625	97.62
346.853	76.62
347.08	83.62
347.308	112.62
347.535	94.62
347.763	93.62
347.99	103.62
348.218	106.62
348.445	99.62
348.673	105.62
348.9	90.62
349.128	97.62
349.355	105.62
349.583	94.62
349.81	103.62
350.037	75.62
350.265	94.62
350.492	86.62
350.72	80.62
350.947	98.62
351.174	111.62
351.402	107.62
351.629	98.62
351.856	85.62
352.083	108.62
352.311	103.62
352.538	103.62
352.765	105.62
352.992	104.62
353.22	114.62
353.447	106.62
353.674	106.62
353.901	98.62
354.128	97.62
354.355	97.62
354.583	94.62
354.81	101.62
355.037	90.62
355.264	89.62
355.491	119.62
355.718	107.62
355.945	96.62
356.172	87.62
356.399	95.62
356.626	83.62
356.853	91.62
357.08	102.62
357.307	95.62
357.534	104.62
357.761	104.62
357.988	87.62
358.215	95.62
358.441	97.62
358.668	94.62
358.895	91.62
359.122	88.62
359.349	83.62
359.576	90.62
359.802	82.62
360.029	98.62
360.256	98.62
360.483	98.62
360.709	98.62
360.936	98.62
361.163	109.62
361.39	86.62
361.616	88.62
361.843	87.62
362.07	88.62
362.296	96.62
362.523	93.62
362.749	96.62
362.976	94.62
363.203	96.62
363.429	94.62
363.656	98.62
363.882	91.62
364.109	94.62
364.335	80.62
364.562	89.62
364.788	93.62
365.015	102.62
365.241	109.62
365.468	104.62
365.694	104.62
365.92	93.62
366.147	82.62
366.373	84.62
366.599	90.62
366.826	102.62
367.052	92.62
367.278	90.62
367.505	100.62
367.731	98.62
367.957	104.62
368.184	93.62
368.41	90.62
368.636	106.62
368.862	102.62
369.089	108.62
369.315	89.62
369.541	84.62
369.767	93.62
369.993	95.62
370.219	84.62
370.445	84.62
370.672	85.62
370.898	83.62
371.124	97.62
371.35	91.62
371.576	95.62
371.802	87.62
372.028	106.62
372.254	89.62
372.48	98.62
372.706	80.62
372.932	90.62
373.158	90.62
373.384	94.62
373.61	100.62
373.835	94.62
374.061	97.62
374.287	87.62
374.513	98.62
374.739	96.62
374.965	95.62
375.191	99.62
375.416	93.62
375.642	89.62
375.868	88.62
376.094	96.62
376.319	90.62
376.545	91.62
376.771	97.62
376.997	99.62
377.222	88.62
377.448	95.62
377.674	95.62
377.899	99.62
378.125	101.62
378.35	92.62
378.576	104.62
378.802	96.62
379.027	101.62
379.253	85.62
379.478	103.62
379.704	101.62
379.929	102.62
380.155	108.62
380.38	95.62
380.606	110.62
380.831	103.62
381.057	100.62
381.282	92.62
381.507	97.62
381.733	106.62
381.958	105.62
382.184	103.62
382.409	94.62
382.634	123.62
382.86	114.62
383.085	108.62
383.31	102.62
383.535	104.62
383.761	99.62
383.986	104.62
384.211	96.62
384.436	111.62
384.662	106.62
384.887	105.62
385.112	113.62
385.337	126.62
385.562	113.62
385.787	106.62
386.013	119.62
386.238	126.62
386.463	114.62
386.688	110.62
386.913	101.62
387.138	111.62
387.363	127.62
387.588	103.62
387.813	96.62
388.038	120.62
388.263	133.62
388.488	128.62
388.713	100.62
388.938	111.62
389.163	81.62
389.387	85.62
389.612	101.62
389.837	91.62
390.062	85.62
390.287	92.62
390.512	96.62
390.736	92.62
390.961	103.62
391.186	84.62
391.411	111.62
391.636	85.62
391.86	77.62
392.085	104.62
392.31	78.62
392.534	73.62
392.759	87.62
392.984	104.62
393.208	95.62
393.433	101.62
393.658	97.62
393.882	86.62
394.107	80.62
394.331	79.62
394.556	88.62
394.78	90.62
395.005	87.62
395.229	82.62
395.454	92.62
395.678	88.62
395.903	98.62
396.127	87.62
396.352	103.62
396.576	88.62
396.801	84.62
397.025	85.62
397.249	102.62
397.474	77.62
397.698	82.62
397.922	91.62
398.147	81.62
398.371	76.62
398.595	93.62
398.82	88.62
399.044	105.62
399.268	82.62
399.492	84.62
399.717	90.62
399.941	80.62
400.165	96.62
400.389	92.62
400.613	96.62
400.837	92.62
401.062	72.62
401.286	93.62
401.51	84.62
401.734	82.62
401.958	88.62
402.182	102.62
402.406	131.62
402.63	102.62
402.854	81.62
403.078	87.62
403.302	90.62
403.526	97.62
403.75	85.62
403.974	95.62
404.198	82.62
404.422	79.62
404.645	100.62
404.869	92.62
405.093	105.62
405.317	93.62
405.541	115.62
405.765	97.62
405.988	104.62
406.212	126.62
406.436	166.62
406.66	126.62
406.883	100.62
407.107	109.62
407.331	94.62
407.555	103.62
407.778	86.62
408.002	89.62
408.226	91.62
408.449	92.62
408.673	87.62
408.896	97.62
409.12	96.62
409.344	90.62
409.567	91.62
409.791	95.62
410.014	103.62
410.238	93.62
410.461	82.62
410.685	103.62
410.908	103.62
411.132	97.62
411.355	84.62
411.578	90.62
411.802	101.62
412.025	86.62
412.249	94.62
412.472	81.62
412.695	92.62
412.919	84.62
413.142	106.62
413.365	89.62
413.589	91.62
413.812	77.62
414.035	87.62
414.258	94.62
414.482	94.62
414.705	91.62
414.928	106.62
415.151	102.62
415.374	101.62
415.597	85.62
415.821	84.62
416.044	96.62
416.267	93.62
416.49	86.62
416.713	82.62
416.936	96.62
417.159	97.62
417.382	93.62
417.605	97.62
417.828	92.62
418.051	97.62
418.274	88.62
418.497	97.62
418.72	92.62
418.943	92.62
419.166	84.62
419.389	94.62
419.611	92.62
419.834	69.62
420.057	78.62
420.28	92.62
420.503	78.62
420.726	94.62
420.948	96.62
421.171	93.62
421.394	103.62
421.617	87.62
421.839	87.62
422.062	94.62
422.285	98.62
422.507	118.62
422.73	105.62
422.953	93.62
423.175	98.62
423.398	76.62
423.621	72.62
423.843	78.62
424.066	85.62
424.288	96.62
424.511	96.62
424.733	101.62
424.956	91.62
425.178	87.62
425.401	93.62
425.623	108.62
425.846	97.62
426.068	95.62
426.291	79.62
426.513	98.62
426.735	85.62
426.958	101.62
427.18	112.62
427.402	128.62
427.625	133.62
427.847	128.62
428.069	95.62
428.292	92.62
428.514	100.62
428.736	88.62
428.958	101.62
429.181	85.62
429.403	94.62
429.625	85.62
429.847	80.62
430.069	84.62
430.292	101.62
430.514	87.62
430.736	82.62
430.958	88.62
431.18	80.62
431.402	88.62
431.624	104.62
431.846	88.62
432.068	105.62
432.29	69.62
432.512	89.62
432.734	94.62
432.956	98.62
433.178	98.62
433.4	111.62
433.622	103.62
433.844	96.62
434.066	101.62
434.287	91.62
434.509	100.62
434.731	91.62
434.953	91.62
435.175	108.62
435.397	84.62
435.618	103.62
435.84	98.62
436.062	98.62
436.284	118.62
436.505	94.62
436.727	84.62
436.949	93.62
437.17	101.62
437.392	85.62
437.614	100.62
437.835	108.62
438.057	101.62
438.278	95.62
438.5	91.62
438.721	113.62
438.943	81.62
439.165	104.62
439.386	99.62
439.608	104.62
439.829	94.62
440.05	125.62
440.272	132.62
440.493	98.62
440.715	76.62
440.936	102.62
441.158	102.62
441.379	72.62
441.6	100.62
441.822	91.62
442.043	90.62
442.264	84.62
442.486	93.62
442.707	78.62
442.928	102.62
443.149	106.62
443.371	114.62
443.592	90.62
443.813	103.62
444.034	96.62
444.255	89.62
444.476	91.62
444.698	89.62
444.919	88.62
445.14	124.62
445.361	105.62
445.582	102.62
445.803	121.62
446.024	126.62
446.245	129.62
446.466	101.62
446.687	95.62
446.908	78.62
447.129	88.62
447.35	92.62
447.571	111.62
447.792	95.62
448.013	92.62
448.234	97.62
448.455	105.62
448.675	108.62
448.896	108.62
449.117	90.62
449.338	102.62
449.559	120.62
449.779	111.62
450	109.62
450.221	77.62
450.442	93.62
450.662	76.62
450.883	94.62
451.104	103.62
451.324	105.62
451.545	87.62
451.766	98.62
451.986	87.62
452.207	90.62
452.428	102.62
452.648	104.62
452.869	100.62
453.089	107.62
453.31	97.62
453.53	97.62
453.751	102.62
453.971	107.62
454.192	118.62
454.412	97.62
454.633	90.62
454.853	92.62
455.073	74.62
455.294	91.62
455.514	96.62
455.734	92.62
455.955	91.62
456.175	90.62
456.395	86.62
456.616	88.62
456.836	83.62
457.056	97.62
457.276	82.62
457.497	83.62
457.717	90.62
457.937	85.62
458.157	97.62
458.377	82.62
458.598	96.62
458.818	133.62
459.038	144.62
459.258	119.62
459.478	96.62
459.698	79.62
459.918	86.62
460.138	80.62
460.358	74.62
460.578	94.62
460.798	94.62
461.018	101.62
461.238	86.62
461.458	75.62
461.678	99.62
461.898	84.62
462.118	81.62
462.338	88.62
462.558	74.62
462.777	100.62
462.997	94.62
463.217	86.62
463.437	83.62
463.657	77.62
463.876	89.62
464.096	76.62
464.316	88.62
464.536	96.62
464.755	90.62
464.975	89.62
465.195	122.62
465.414	124.62
465.634	96.62
465.854	104.62
466.073	104.62
466.293	92.62
466.512	85.62
466.732	89.62
466.951	88.62
467.171	88.62
467.391	87.62
467.61	101.62
467.829	88.62
468.049	87.62
468.268	92.62
468.488	80.62
468.707	92.62
468.927	96.62
469.146	94.62
469.365	85.62
469.585	89.62
469.804	85.62
470.023	78.62
470.243	93.62
470.462	88.62
470.681	97.62
470.901	97.62
471.12	91.62
471.339	86.62
471.558	101.62
471.777	93.62
471.997	90.62
472.216	111.62
472.435	130.62
472.654	97.62
472.873	101.62
473.092	90.62
473.311	96.62
473.53	95.62
473.749	113.62
473.968	107.62
474.187	95.62
474.406	109.62
474.625	91.62
474.844	101.62
475.063	84.62
475.282	79.62
475.501	81.62
475.72	84.62
475.939	100.62
476.158	88.62
476.377	84.62
476.596	81.62
476.814	86.62
477.033	86.62
477.252	82.62
477.471	87.62
477.69	95.62
477.908	103.62
478.127	81.62
478.346	88.62
478.564	102.62
478.783	92.62
479.002	92.62
479.22	93.62
479.439	112.62
479.658	95.62
479.876	79.62
480.095	85.62
480.313	79.62
480.532	90.62
480.751	99.62
480.969	121.62
481.188	140.62
481.406	137.62
481.624	89.62
481.843	99.62
482.061	79.62
482.28	94.62
482.498	97.62
482.717	94.62
482.935	89.62
483.153	80.62
483.372	93.62
483.59	93.62
483.808	90.62
484.027	68.62
484.245	93.62
484.463	99.62
484.681	94.62
484.9	95.62
485.118	103.62
485.336	98.62
485.554	110.62
485.772	103.62
485.99	107.62
486.209	105.62
486.427	103.62
486.645	114.62
486.863	124.62
487.081	97.62
487.299	110.62
487.517	92.62
487.735	90.62
487.953	98.62
488.171	107.62
488.389	87.62
488.607	98.62
488.825	88.62
489.043	97.62
489.261	85.62
489.479	85.62
489.696	104.62
489.914	84.62
490.132	91.62
490.35	91.62
490.568	84.62
490.786	84.62
491.003	92.62
491.221	91.62
491.439	94.62
491.657	108.62
491.874	99.62
492.092	89.62
492.31	98.62
492.527	101.62
492.745	96.62
492.963	97.62
493.18	86.62
493.398	84.62
493.615	94.62
493.833	95.62
494.05	86.62
494.268	94.62
494.485	84.62
494.703	82.62
494.92	93.62
495.138	96.62
495.355	98.62
495.573	89.62
495.79	87.62
496.008	87.62
496.225	84.62
496.442	87.62
496.66	103.62
496.877	95.62
497.094	106.62
497.312	94.62
497.529	98.62
497.746	89.62
497.963	89.62
498.181	101.62
498.398	99.62
498.615	109.62
498.832	103.62
499.049	101.62
499.267	102.62
499.484	88.62
499.701	84.62
499.918	109.62
500.135	105.62
500.352	92.62
500.569	89.62
500.786	104.62
501.003	86.62
501.22	90.62
501.437	83.62
501.654	93.62
501.871	114.62
502.088	92.62
502.305	90.62
502.522	101.62
502.739	101.62
502.956	97.62
503.172	90.62
503.389	82.62
503.606	104.62
503.823	72.62
504.04	96.62
504.256	94.62
504.473	71.62
504.69	85.62
504.907	92.62
505.123	79.62
505.34	94.62
505.557	92.62
505.773	86.62
505.99	86.62
506.207	82.62
506.423	103.62
506.64	94.62
506.856	113.62
507.073	95.62
507.289	103.62
507.506	103.62
507.722	88.62
507.939	93.62
508.155	98.62
508.372	94.62
508.588	101.62
508.805	89.62
509.021	96.62
509.238	86.62
509.454	97.62
509.67	108.62
509.887	96.62
510.103	119.62
510.319	160.62
510.536	545.62
510.752	1575.62
510.968	457.62
511.184	126.62
511.401	112.62
511.617	85.62
511.833	96.62
512.049	91.62
512.265	90.62
512.481	94.62
512.698	90.62
512.914	73.62
513.13	92.62
513.346	98.62
513.562	96.62
513.778	100.62
513.994	92.62
514.21	105.62
514.426	114.62
514.642	137.62
514.858	122.62
515.074	134.62
