Data from Circ_1980_H10_HRD10591_00055.txt Node
Date: Wed Jan 03 12:38:09 EST 2024
User: Yrep
Spectrometer: HR+D1059
Trigger mode: 1
Integration Time (sec): 1.000000E-1
Scans to average: 1
Electric dark correction enabled: true
Nonlinearity correction enabled: false
Boxcar width: 0
XAxis mode: Wavelengths
Number of Pixels in Spectrum: 2048
>>>>>Begin Spectral Data<<<<<
223.165	-9.38
223.4	-9.38
223.635	-9.38
223.869	-19.38
224.104	-30.38
224.338	-5.38
224.573	-0.38
224.808	-16.38
225.042	-22.38
225.277	-14.38
225.511	-4.38
225.746	-3.38
225.98	18.62
226.215	16.62
226.449	11.62
226.683	24.62
226.918	22.62
227.152	31.62
227.387	30.62
227.621	22.62
227.856	47.62
228.09	54.62
228.324	41.62
228.559	44.62
228.793	64.62
229.027	70.62
229.262	58.62
229.496	59.62
229.73	67.62
229.964	69.62
230.199	74.62
230.433	68.62
230.667	80.62
230.901	82.62
231.136	85.62
231.37	71.62
231.604	79.62
231.838	83.62
232.072	71.62
232.306	65.62
232.541	74.62
232.775	70.62
233.009	81.62
233.243	78.62
233.477	75.62
233.711	84.62
233.945	80.62
234.179	74.62
234.413	92.62
234.647	88.62
234.881	79.62
235.115	69.62
235.349	80.62
235.583	62.62
235.817	72.62
236.051	74.62
236.285	86.62
236.519	81.62
236.753	63.62
236.987	75.62
237.221	72.62
237.455	75.62
237.689	68.62
237.922	74.62
238.156	79.62
238.39	70.62
238.624	69.62
238.858	82.62
239.091	70.62
239.325	80.62
239.559	88.62
239.793	63.62
240.027	82.62
240.26	70.62
240.494	67.62
240.728	82.62
240.961	91.62
241.195	86.62
241.429	81.62
241.662	70.62
241.896	47.62
242.13	64.62
242.363	76.62
242.597	63.62
242.83	63.62
243.064	61.62
243.298	50.62
243.531	81.62
243.765	84.62
243.998	74.62
244.232	80.62
244.465	83.62
244.699	70.62
244.932	73.62
245.166	76.62
245.399	60.62
245.633	73.62
245.866	74.62
246.099	63.62
246.333	69.62
246.566	70.62
246.8	83.62
247.033	75.62
247.266	71.62
247.5	60.62
247.733	82.62
247.966	87.62
248.2	74.62
248.433	67.62
248.666	73.62
248.899	75.62
249.133	79.62
249.366	90.62
249.599	83.62
249.832	70.62
250.066	78.62
250.299	80.62
250.532	72.62
250.765	73.62
250.998	70.62
251.231	78.62
251.465	84.62
251.698	75.62
251.931	55.62
252.164	79.62
252.397	87.62
252.63	83.62
252.863	80.62
253.096	91.62
253.329	79.62
253.562	87.62
253.795	63.62
254.028	76.62
254.261	71.62
254.494	73.62
254.727	72.62
254.96	82.62
255.193	74.62
255.426	76.62
255.659	74.62
255.892	68.62
256.124	89.62
256.357	75.62
256.59	82.62
256.823	74.62
257.056	64.62
257.289	64.62
257.521	67.62
257.754	78.62
257.987	78.62
258.22	75.62
258.452	78.62
258.685	100.62
258.918	74.62
259.151	86.62
259.383	65.62
259.616	81.62
259.849	76.62
260.081	80.62
260.314	84.62
260.547	92.62
260.779	74.62
261.012	78.62
261.244	73.62
261.477	94.62
261.71	87.62
261.942	92.62
262.175	110.62
262.407	81.62
262.64	71.62
262.872	88.62
263.105	88.62
263.337	88.62
263.57	85.62
263.802	75.62
264.035	70.62
264.267	74.62
264.499	72.62
264.732	65.62
264.964	68.62
265.197	81.62
265.429	88.62
265.661	86.62
265.894	71.62
266.126	86.62
266.358	86.62
266.591	79.62
266.823	75.62
267.055	70.62
267.287	90.62
267.52	82.62
267.752	78.62
267.984	79.62
268.216	82.62
268.448	87.62
268.681	86.62
268.913	83.62
269.145	76.62
269.377	82.62
269.609	78.62
269.841	71.62
270.073	85.62
270.306	88.62
270.538	83.62
270.77	76.62
271.002	76.62
271.234	75.62
271.466	79.62
271.698	87.62
271.93	81.62
272.162	78.62
272.394	78.62
272.626	83.62
272.858	65.62
273.09	84.62
273.322	73.62
273.553	73.62
273.785	87.62
274.017	82.62
274.249	71.62
274.481	75.62
274.713	82.62
274.945	80.62
275.176	64.62
275.408	82.62
275.64	72.62
275.872	72.62
276.104	94.62
276.335	96.62
276.567	84.62
276.799	85.62
277.031	98.62
277.262	92.62
277.494	88.62
277.726	85.62
277.957	87.62
278.189	87.62
278.421	71.62
278.652	74.62
278.884	87.62
279.115	72.62
279.347	73.62
279.579	82.62
279.81	94.62
280.042	74.62
280.273	98.62
280.505	82.62
280.736	87.62
280.968	82.62
281.199	92.62
281.431	87.62
281.662	90.62
281.894	91.62
282.125	91.62
282.356	108.62
282.588	114.62
282.819	96.62
283.051	87.62
283.282	71.62
283.513	84.62
283.745	83.62
283.976	90.62
284.207	83.62
284.439	66.62
284.67	80.62
284.901	87.62
285.132	91.62
285.364	82.62
285.595	84.62
285.826	82.62
286.057	81.62
286.288	79.62
286.52	65.62
286.751	71.62
286.982	88.62
287.213	68.62
287.444	66.62
287.675	80.62
287.906	84.62
288.138	68.62
288.369	88.62
288.6	78.62
288.831	75.62
289.062	92.62
289.293	75.62
289.524	76.62
289.755	97.62
289.986	78.62
290.217	81.62
290.448	77.62
290.679	73.62
290.91	80.62
291.141	62.62
291.371	92.62
291.602	86.62
291.833	89.62
292.064	95.62
292.295	88.62
292.526	88.62
292.757	72.62
292.987	80.62
293.218	89.62
293.449	85.62
293.68	78.62
293.91	73.62
294.141	84.62
294.372	78.62
294.603	92.62
294.833	91.62
295.064	73.62
295.295	73.62
295.525	83.62
295.756	104.62
295.987	112.62
296.217	113.62
296.448	122.62
296.679	82.62
296.909	67.62
297.14	88.62
297.37	84.62
297.601	84.62
297.831	91.62
298.062	90.62
298.292	82.62
298.523	83.62
298.753	75.62
298.984	71.62
299.214	88.62
299.445	88.62
299.675	82.62
299.905	90.62
300.136	76.62
300.366	82.62
300.597	95.62
300.827	90.62
301.057	76.62
301.288	89.62
301.518	92.62
301.748	103.62
301.979	84.62
302.209	88.62
302.439	84.62
302.669	81.62
302.9	87.62
303.13	84.62
303.36	79.62
303.59	96.62
303.82	94.62
304.051	82.62
304.281	71.62
304.511	88.62
304.741	83.62
304.971	95.62
305.201	89.62
305.431	93.62
305.661	69.62
305.891	82.62
306.121	82.62
306.352	99.62
306.582	91.62
306.812	92.62
307.042	89.62
307.272	82.62
307.502	88.62
307.731	76.62
307.961	78.62
308.191	74.62
308.421	88.62
308.651	84.62
308.881	91.62
309.111	85.62
309.341	88.62
309.571	89.62
309.8	85.62
310.03	82.62
310.26	91.62
310.49	84.62
310.72	92.62
310.949	96.62
311.179	89.62
311.409	90.62
311.639	95.62
311.868	91.62
312.098	80.62
312.328	89.62
312.557	108.62
312.787	99.62
313.017	93.62
313.246	87.62
313.476	84.62
313.706	91.62
313.935	87.62
314.165	84.62
314.394	92.62
314.624	85.62
314.853	91.62
315.083	89.62
315.312	97.62
315.542	97.62
315.771	85.62
316.001	84.62
316.23	90.62
316.46	97.62
316.689	90.62
316.919	82.62
317.148	89.62
317.377	93.62
317.607	80.62
317.836	69.62
318.065	85.62
318.295	98.62
318.524	95.62
318.753	82.62
318.983	81.62
319.212	101.62
319.441	94.62
319.67	83.62
319.9	95.62
320.129	83.62
320.358	89.62
320.587	83.62
320.816	99.62
321.046	83.62
321.275	89.62
321.504	99.62
321.733	85.62
321.962	94.62
322.191	93.62
322.42	95.62
322.649	101.62
322.878	96.62
323.108	106.62
323.337	90.62
323.566	117.62
323.795	121.62
324.024	171.62
324.253	286.62
324.482	608.62
324.71	1218.62
324.939	1592.62
325.168	582.62
325.397	187.62
325.626	128.62
325.855	116.62
326.084	103.62
326.313	108.62
326.542	129.62
326.77	195.62
326.999	351.62
327.228	702.62
327.457	1272.62
327.686	1013.62
327.914	294.62
328.143	143.62
328.372	139.62
328.6	110.62
328.829	115.62
329.058	122.62
329.287	122.62
329.515	111.62
329.744	100.62
329.972	102.62
330.201	100.62
330.43	114.62
330.658	111.62
330.887	129.62
331.115	107.62
331.344	100.62
331.572	102.62
331.801	89.62
332.03	78.62
332.258	88.62
332.486	90.62
332.715	85.62
332.943	89.62
333.172	94.62
333.4	95.62
333.629	97.62
333.857	114.62
334.085	85.62
334.314	99.62
334.542	122.62
334.771	122.62
334.999	86.62
335.227	101.62
335.455	95.62
335.684	95.62
335.912	86.62
336.14	81.62
336.369	95.62
336.597	100.62
336.825	96.62
337.053	78.62
337.281	70.62
337.51	82.62
337.738	75.62
337.966	79.62
338.194	82.62
338.422	84.62
338.65	107.62
338.878	85.62
339.106	79.62
339.334	85.62
339.562	90.62
339.79	80.62
340.018	86.62
340.246	85.62
340.474	79.62
340.702	88.62
340.93	88.62
341.158	82.62
341.386	85.62
341.614	85.62
341.842	90.62
342.07	95.62
342.298	86.62
342.526	75.62
342.754	87.62
342.981	99.62
343.209	95.62
343.437	107.62
343.665	88.62
343.893	74.62
344.12	91.62
344.348	82.62
344.576	86.62
344.804	96.62
345.031	92.62
345.259	93.62
345.487	100.62
345.714	86.62
345.942	96.62
346.17	90.62
346.397	91.62
346.625	79.62
346.853	89.62
347.08	76.62
347.308	95.62
347.535	81.62
347.763	78.62
347.99	78.62
348.218	100.62
348.445	119.62
348.673	92.62
348.9	87.62
349.128	90.62
349.355	80.62
349.583	96.62
349.81	91.62
350.037	99.62
350.265	81.62
350.492	97.62
350.72	102.62
350.947	86.62
351.174	105.62
351.402	104.62
351.629	99.62
351.856	94.62
352.083	100.62
352.311	101.62
352.538	92.62
352.765	107.62
352.992	117.62
353.22	115.62
353.447	100.62
353.674	82.62
353.901	74.62
354.128	80.62
354.355	95.62
354.583	97.62
354.81	90.62
355.037	102.62
355.264	93.62
355.491	92.62
355.718	94.62
355.945	96.62
356.172	94.62
356.399	98.62
356.626	87.62
356.853	90.62
357.08	99.62
357.307	83.62
357.534	100.62
357.761	87.62
357.988	89.62
358.215	83.62
358.441	74.62
358.668	98.62
358.895	94.62
359.122	85.62
359.349	86.62
359.576	88.62
359.802	94.62
360.029	102.62
360.256	89.62
360.483	86.62
360.709	89.62
360.936	98.62
361.163	88.62
361.39	90.62
361.616	105.62
361.843	83.62
362.07	86.62
362.296	94.62
362.523	81.62
362.749	104.62
362.976	98.62
363.203	96.62
363.429	81.62
363.656	81.62
363.882	80.62
364.109	82.62
364.335	90.62
364.562	82.62
364.788	85.62
365.015	84.62
365.241	95.62
365.468	98.62
365.694	111.62
365.92	88.62
366.147	72.62
366.373	86.62
366.599	89.62
366.826	89.62
367.052	71.62
367.278	81.62
367.505	73.62
367.731	98.62
367.957	80.62
368.184	91.62
368.41	94.62
368.636	107.62
368.862	115.62
369.089	113.62
369.315	82.62
369.541	82.62
369.767	89.62
369.993	94.62
370.219	78.62
370.445	81.62
370.672	92.62
370.898	82.62
371.124	75.62
371.35	72.62
371.576	79.62
371.802	78.62
372.028	87.62
372.254	83.62
372.48	88.62
372.706	75.62
372.932	91.62
373.158	99.62
373.384	103.62
373.61	101.62
373.835	85.62
374.061	82.62
374.287	95.62
374.513	88.62
374.739	81.62
374.965	97.62
375.191	93.62
375.416	75.62
375.642	90.62
375.868	82.62
376.094	84.62
376.319	89.62
376.545	93.62
376.771	72.62
376.997	86.62
377.222	100.62
377.448	90.62
377.674	99.62
377.899	95.62
378.125	84.62
378.35	89.62
378.576	81.62
378.802	78.62
379.027	88.62
379.253	86.62
379.478	93.62
379.704	98.62
379.929	91.62
380.155	82.62
380.38	91.62
380.606	94.62
380.831	89.62
381.057	77.62
381.282	87.62
381.507	93.62
381.733	95.62
381.958	94.62
382.184	94.62
382.409	107.62
382.634	113.62
382.86	96.62
383.085	89.62
383.31	86.62
383.535	99.62
383.761	91.62
383.986	97.62
384.211	77.62
384.436	94.62
384.662	75.62
384.887	91.62
385.112	103.62
385.337	109.62
385.562	103.62
385.787	86.62
386.013	98.62
386.238	96.62
386.463	86.62
386.688	105.62
386.913	111.62
387.138	100.62
387.363	91.62
387.588	87.62
387.813	99.62
388.038	106.62
388.263	99.62
388.488	114.62
388.713	114.62
388.938	92.62
389.163	85.62
389.387	93.62
389.612	87.62
389.837	91.62
390.062	92.62
390.287	91.62
390.512	80.62
390.736	90.62
390.961	79.62
391.186	88.62
391.411	82.62
391.636	97.62
391.86	86.62
392.085	73.62
392.31	75.62
392.534	76.62
392.759	91.62
392.984	81.62
393.208	75.62
393.433	82.62
393.658	80.62
393.882	83.62
394.107	81.62
394.331	83.62
394.556	83.62
394.78	98.62
395.005	91.62
395.229	84.62
395.454	88.62
395.678	91.62
395.903	72.62
396.127	78.62
396.352	74.62
396.576	94.62
396.801	73.62
397.025	91.62
397.249	78.62
397.474	84.62
397.698	88.62
397.922	78.62
398.147	75.62
398.371	94.62
398.595	89.62
398.82	96.62
399.044	86.62
399.268	91.62
399.492	82.62
399.717	97.62
399.941	96.62
400.165	92.62
400.389	98.62
400.613	82.62
400.837	70.62
401.062	90.62
401.286	80.62
401.51	103.62
401.734	81.62
401.958	95.62
402.182	111.62
402.406	132.62
402.63	97.62
402.854	82.62
403.078	91.62
403.302	76.62
403.526	67.62
403.75	82.62
403.974	91.62
404.198	82.62
404.422	75.62
404.645	69.62
404.869	98.62
405.093	103.62
405.317	98.62
405.541	89.62
405.765	90.62
405.988	114.62
406.212	139.62
406.436	175.62
406.66	118.62
406.883	91.62
407.107	83.62
407.331	95.62
407.555	77.62
407.778	87.62
408.002	75.62
408.226	103.62
408.449	88.62
408.673	86.62
408.896	89.62
409.12	85.62
409.344	94.62
409.567	88.62
409.791	84.62
410.014	94.62
410.238	98.62
410.461	93.62
410.685	102.62
410.908	104.62
411.132	104.62
411.355	95.62
411.578	101.62
411.802	87.62
412.025	92.62
412.249	90.62
412.472	95.62
412.695	106.62
412.919	93.62
413.142	87.62
413.365	78.62
413.589	87.62
413.812	92.62
414.035	86.62
414.258	87.62
414.482	75.62
414.705	71.62
414.928	76.62
415.151	88.62
415.374	97.62
415.597	100.62
415.821	88.62
416.044	97.62
416.267	88.62
416.49	81.62
416.713	94.62
416.936	78.62
417.159	88.62
417.382	90.62
417.605	80.62
417.828	78.62
418.051	80.62
418.274	87.62
418.497	62.62
418.72	87.62
418.943	86.62
419.166	78.62
419.389	88.62
419.611	88.62
419.834	85.62
420.057	72.62
420.28	89.62
420.503	94.62
420.726	70.62
420.948	70.62
421.171	92.62
421.394	73.62
421.617	78.62
421.839	84.62
422.062	75.62
422.285	84.62
422.507	85.62
422.73	100.62
422.953	83.62
423.175	86.62
423.398	83.62
423.621	78.62
423.843	80.62
424.066	86.62
424.288	89.62
424.511	91.62
424.733	94.62
424.956	111.62
425.178	81.62
425.401	103.62
425.623	97.62
425.846	87.62
426.068	71.62
426.291	88.62
426.513	83.62
426.735	90.62
426.958	80.62
427.18	91.62
427.402	110.62
427.625	128.62
427.847	122.62
428.069	103.62
428.292	101.62
428.514	71.62
428.736	96.62
428.958	94.62
429.181	86.62
429.403	81.62
429.625	71.62
429.847	89.62
430.069	96.62
430.292	86.62
430.514	82.62
430.736	82.62
430.958	84.62
431.18	84.62
431.402	77.62
431.624	86.62
431.846	74.62
432.068	75.62
432.29	96.62
432.512	82.62
432.734	84.62
432.956	99.62
433.178	86.62
433.4	100.62
433.622	80.62
433.844	87.62
434.066	101.62
434.287	75.62
434.509	90.62
434.731	82.62
434.953	83.62
435.175	90.62
435.397	90.62
435.618	93.62
435.84	84.62
436.062	106.62
436.284	85.62
436.505	72.62
436.727	94.62
436.949	84.62
437.17	89.62
437.392	90.62
437.614	87.62
437.835	95.62
438.057	105.62
438.278	98.62
438.5	97.62
438.721	99.62
438.943	90.62
439.165	70.62
439.386	74.62
439.608	80.62
439.829	92.62
440.05	106.62
440.272	108.62
440.493	81.62
440.715	74.62
440.936	85.62
441.158	83.62
441.379	79.62
441.6	98.62
441.822	82.62
442.043	102.62
442.264	98.62
442.486	84.62
442.707	89.62
442.928	95.62
443.149	114.62
443.371	105.62
443.592	92.62
443.813	105.62
444.034	84.62
444.255	75.62
444.476	89.62
444.698	74.62
444.919	74.62
445.14	116.62
445.361	98.62
445.582	98.62
445.803	113.62
446.024	100.62
446.245	111.62
446.466	99.62
446.687	91.62
446.908	90.62
447.129	87.62
447.35	75.62
447.571	89.62
447.792	83.62
448.013	84.62
448.234	103.62
448.455	92.62
448.675	85.62
448.896	108.62
449.117	89.62
449.338	104.62
449.559	107.62
449.779	111.62
450	85.62
450.221	83.62
450.442	82.62
450.662	103.62
450.883	94.62
451.104	78.62
451.324	73.62
451.545	85.62
451.766	76.62
451.986	91.62
452.207	75.62
452.428	90.62
452.648	90.62
452.869	97.62
453.089	89.62
453.31	87.62
453.53	75.62
453.751	80.62
453.971	88.62
454.192	90.62
454.412	83.62
454.633	92.62
454.853	86.62
455.073	78.62
455.294	78.62
455.514	81.62
455.734	81.62
455.955	100.62
456.175	96.62
456.395	90.62
456.616	75.62
456.836	82.62
457.056	88.62
457.276	89.62
457.497	90.62
457.717	100.62
457.937	90.62
458.157	83.62
458.377	102.62
458.598	103.62
458.818	117.62
459.038	127.62
459.258	106.62
459.478	81.62
459.698	83.62
459.918	80.62
460.138	81.62
460.358	91.62
460.578	80.62
460.798	87.62
461.018	98.62
461.238	88.62
461.458	88.62
461.678	78.62
461.898	84.62
462.118	88.62
462.338	83.62
462.558	84.62
462.777	82.62
462.997	88.62
463.217	68.62
463.437	89.62
463.657	87.62
463.876	91.62
464.096	71.62
464.316	84.62
464.536	68.62
464.755	86.62
464.975	93.62
465.195	123.62
465.414	126.62
465.634	94.62
465.854	99.62
466.073	92.62
466.293	87.62
466.512	85.62
466.732	89.62
466.951	89.62
467.171	89.62
467.391	89.62
467.61	84.62
467.829	81.62
468.049	86.62
468.268	104.62
468.488	88.62
468.707	87.62
468.927	85.62
469.146	92.62
469.365	96.62
469.585	93.62
469.804	90.62
470.023	78.62
470.243	70.62
470.462	88.62
470.681	90.62
470.901	91.62
471.12	92.62
471.339	84.62
471.558	91.62
471.777	95.62
471.997	96.62
472.216	115.62
472.435	121.62
472.654	84.62
472.873	85.62
473.092	85.62
473.311	89.62
473.53	85.62
473.749	87.62
473.968	75.62
474.187	91.62
474.406	98.62
474.625	92.62
474.844	87.62
475.063	97.62
475.282	90.62
475.501	77.62
475.72	88.62
475.939	93.62
476.158	95.62
476.377	70.62
476.596	78.62
476.814	76.62
477.033	90.62
477.252	77.62
477.471	94.62
477.69	80.62
477.908	86.62
478.127	76.62
478.346	82.62
478.564	71.62
478.783	95.62
479.002	78.62
479.22	82.62
479.439	106.62
479.658	92.62
479.876	86.62
480.095	92.62
480.313	92.62
480.532	92.62
480.751	84.62
480.969	94.62
481.188	195.62
481.406	150.62
481.624	78.62
481.843	83.62
482.061	86.62
482.28	87.62
482.498	97.62
482.717	88.62
482.935	85.62
483.153	82.62
483.372	88.62
483.59	101.62
483.808	94.62
484.027	87.62
484.245	87.62
484.463	84.62
484.681	110.62
484.9	83.62
485.118	107.62
485.336	103.62
485.554	94.62
485.772	91.62
485.99	107.62
486.209	114.62
486.427	112.62
486.645	108.62
486.863	101.62
487.081	91.62
487.299	100.62
487.517	74.62
487.735	92.62
487.953	83.62
488.171	92.62
488.389	87.62
488.607	102.62
488.825	90.62
489.043	86.62
489.261	85.62
489.479	83.62
489.696	68.62
489.914	100.62
490.132	78.62
490.35	84.62
490.568	83.62
490.786	98.62
491.003	94.62
491.221	86.62
491.439	73.62
491.657	91.62
491.874	90.62
492.092	89.62
492.31	88.62
492.527	84.62
492.745	82.62
492.963	90.62
493.18	89.62
493.398	88.62
493.615	89.62
493.833	81.62
494.05	94.62
494.268	89.62
494.485	89.62
494.703	86.62
494.92	81.62
495.138	87.62
495.355	84.62
495.573	94.62
495.79	86.62
496.008	94.62
496.225	78.62
496.442	86.62
496.66	99.62
496.877	71.62
497.094	91.62
497.312	80.62
497.529	80.62
497.746	91.62
497.963	78.62
498.181	86.62
498.398	92.62
498.615	95.62
498.832	86.62
499.049	81.62
499.267	99.62
499.484	100.62
499.701	98.62
499.918	93.62
500.135	78.62
500.352	104.62
500.569	88.62
500.786	90.62
501.003	90.62
501.22	89.62
501.437	82.62
501.654	73.62
501.871	83.62
502.088	91.62
502.305	75.62
502.522	88.62
502.739	94.62
502.956	73.62
503.172	95.62
503.389	74.62
503.606	108.62
503.823	97.62
504.04	99.62
504.256	79.62
504.473	82.62
504.69	84.62
504.907	87.62
505.123	93.62
505.34	76.62
505.557	101.62
505.773	86.62
505.99	79.62
506.207	93.62
506.423	105.62
506.64	75.62
506.856	76.62
507.073	85.62
507.289	78.62
507.506	90.62
507.722	105.62
507.939	73.62
508.155	98.62
508.372	82.62
508.588	73.62
508.805	84.62
509.021	101.62
509.238	92.62
509.454	102.62
509.67	87.62
509.887	93.62
510.103	111.62
510.319	171.62
510.536	547.62
510.752	1726.62
510.968	477.62
511.184	129.62
511.401	102.62
511.617	103.62
511.833	87.62
512.049	86.62
512.265	89.62
512.481	84.62
512.698	80.62
512.914	87.62
513.13	71.62
513.346	90.62
513.562	96.62
513.778	97.62
513.994	90.62
514.21	79.62
514.426	115.62
514.642	107.62
514.858	111.62
515.074	118.62
515.29	313.62
515.506	988.62
515.721	371.62
515.937	119.62
516.153	94.62
516.369	90.62
516.585	94.62
516.801	91.62
517.016	100.62
517.232	99.62
517.448	89.62
