Data from Circ_1980_H10_HRD10591_00064.txt Node
Date: Wed Jan 03 12:38:11 EST 2024
User: Yrep
Spectrometer: HR+D1059
Trigger mode: 1
Integration Time (sec): 1.000000E-1
Scans to average: 1
Electric dark correction enabled: true
Nonlinearity correction enabled: false
Boxcar width: 0
XAxis mode: Wavelengths
Number of Pixels in Spectrum: 2048
>>>>>Begin Spectral Data<<<<<
223.165	-20.25
223.4	-20.25
223.635	-20.25
223.869	-5.25
224.104	-15.25
224.338	-15.25
224.573	-24.25
224.808	-5.25
225.042	-6.25
225.277	-8.25
225.511	-2.25
225.746	-0.25
225.98	10.75
226.215	16.75
226.449	6.75
226.683	9.75
226.918	26.75
227.152	31.75
227.387	40.75
227.621	39.75
227.856	47.75
228.09	47.75
228.324	58.75
228.559	54.75
228.793	52.75
229.027	77.75
229.262	63.75
229.496	78.75
229.73	89.75
229.964	78.75
230.199	75.75
230.433	76.75
230.667	85.75
230.901	74.75
231.136	79.75
231.37	69.75
231.604	68.75
231.838	93.75
232.072	79.75
232.306	84.75
232.541	92.75
232.775	81.75
233.009	73.75
233.243	91.75
233.477	77.75
233.711	78.75
233.945	85.75
234.179	82.75
234.413	83.75
234.647	86.75
234.881	73.75
235.115	78.75
235.349	80.75
235.583	77.75
235.817	83.75
236.051	83.75
236.285	85.75
236.519	77.75
236.753	82.75
236.987	83.75
237.221	72.75
237.455	84.75
237.689	79.75
237.922	62.75
238.156	84.75
238.39	79.75
238.624	75.75
238.858	69.75
239.091	70.75
239.325	80.75
239.559	89.75
239.793	72.75
240.027	91.75
240.26	78.75
240.494	86.75
240.728	68.75
240.961	74.75
241.195	64.75
241.429	74.75
241.662	85.75
241.896	78.75
242.13	70.75
242.363	79.75
242.597	84.75
242.83	78.75
243.064	86.75
243.298	70.75
243.531	72.75
243.765	75.75
243.998	75.75
244.232	88.75
244.465	84.75
244.699	76.75
244.932	87.75
245.166	73.75
245.399	76.75
245.633	76.75
245.866	78.75
246.099	75.75
246.333	82.75
246.566	67.75
246.8	88.75
247.033	87.75
247.266	78.75
247.5	90.75
247.733	61.75
247.966	72.75
248.2	63.75
248.433	75.75
248.666	84.75
248.899	68.75
249.133	70.75
249.366	89.75
249.599	90.75
249.832	82.75
250.066	75.75
250.299	77.75
250.532	79.75
250.765	78.75
250.998	83.75
251.231	88.75
251.465	83.75
251.698	78.75
251.931	76.75
252.164	79.75
252.397	77.75
252.63	83.75
252.863	90.75
253.096	77.75
253.329	73.75
253.562	77.75
253.795	92.75
254.028	75.75
254.261	76.75
254.494	64.75
254.727	78.75
254.96	75.75
255.193	92.75
255.426	81.75
255.659	68.75
255.892	75.75
256.124	88.75
256.357	72.75
256.59	74.75
256.823	81.75
257.056	92.75
257.289	75.75
257.521	82.75
257.754	72.75
257.987	80.75
258.22	65.75
258.452	78.75
258.685	88.75
258.918	71.75
259.151	83.75
259.383	90.75
259.616	88.75
259.849	74.75
260.081	86.75
260.314	86.75
260.547	84.75
260.779	97.75
261.012	87.75
261.244	86.75
261.477	91.75
261.71	96.75
261.942	106.75
262.175	95.75
262.407	86.75
262.64	88.75
262.872	89.75
263.105	90.75
263.337	86.75
263.57	74.75
263.802	86.75
264.035	84.75
264.267	83.75
264.499	76.75
264.732	75.75
264.964	91.75
265.197	80.75
265.429	79.75
265.661	90.75
265.894	82.75
266.126	90.75
266.358	76.75
266.591	76.75
266.823	74.75
267.055	84.75
267.287	91.75
267.52	77.75
267.752	78.75
267.984	80.75
268.216	80.75
268.448	84.75
268.681	77.75
268.913	101.75
269.145	72.75
269.377	99.75
269.609	75.75
269.841	71.75
270.073	90.75
270.306	77.75
270.538	83.75
270.77	93.75
271.002	82.75
271.234	86.75
271.466	89.75
271.698	79.75
271.93	76.75
272.162	71.75
272.394	73.75
272.626	71.75
272.858	86.75
273.09	102.75
273.322	95.75
273.553	94.75
273.785	85.75
274.017	78.75
274.249	64.75
274.481	75.75
274.713	77.75
274.945	95.75
275.176	82.75
275.408	77.75
275.64	86.75
275.872	68.75
276.104	94.75
276.335	88.75
276.567	105.75
276.799	99.75
277.031	111.75
277.262	90.75
277.494	78.75
277.726	88.75
277.957	89.75
278.189	80.75
278.421	93.75
278.652	88.75
278.884	106.75
279.115	92.75
279.347	88.75
279.579	69.75
279.81	90.75
280.042	89.75
280.273	98.75
280.505	86.75
280.736	75.75
280.968	97.75
281.199	86.75
281.431	85.75
281.662	80.75
281.894	87.75
282.125	96.75
282.356	109.75
282.588	104.75
282.819	106.75
283.051	87.75
283.282	74.75
283.513	88.75
283.745	88.75
283.976	95.75
284.207	85.75
284.439	86.75
284.67	107.75
284.901	72.75
285.132	84.75
285.364	75.75
285.595	102.75
285.826	75.75
286.057	91.75
286.288	85.75
286.52	94.75
286.751	95.75
286.982	94.75
287.213	79.75
287.444	78.75
287.675	77.75
287.906	82.75
288.138	82.75
288.369	70.75
288.6	64.75
288.831	71.75
289.062	77.75
289.293	96.75
289.524	88.75
289.755	94.75
289.986	86.75
290.217	91.75
290.448	84.75
290.679	69.75
290.91	89.75
291.141	97.75
291.371	72.75
291.602	95.75
291.833	86.75
292.064	69.75
292.295	80.75
292.526	100.75
292.757	91.75
292.987	87.75
293.218	90.75
293.449	86.75
293.68	97.75
293.91	92.75
294.141	90.75
294.372	103.75
294.603	86.75
294.833	92.75
295.064	90.75
295.295	93.75
295.525	91.75
295.756	101.75
295.987	100.75
296.217	120.75
296.448	106.75
296.679	94.75
296.909	78.75
297.14	90.75
297.37	97.75
297.601	88.75
297.831	93.75
298.062	88.75
298.292	78.75
298.523	85.75
298.753	78.75
298.984	90.75
299.214	96.75
299.445	110.75
299.675	86.75
299.905	88.75
300.136	84.75
300.366	90.75
300.597	82.75
300.827	86.75
301.057	90.75
301.288	99.75
301.518	88.75
301.748	90.75
301.979	101.75
302.209	97.75
302.439	99.75
302.669	89.75
302.9	90.75
303.13	90.75
303.36	90.75
303.59	107.75
303.82	106.75
304.051	102.75
304.281	93.75
304.511	88.75
304.741	82.75
304.971	95.75
305.201	80.75
305.431	90.75
305.661	93.75
305.891	95.75
306.121	90.75
306.352	100.75
306.582	105.75
306.812	88.75
307.042	99.75
307.272	90.75
307.502	100.75
307.731	99.75
307.961	84.75
308.191	82.75
308.421	96.75
308.651	92.75
308.881	92.75
309.111	100.75
309.341	92.75
309.571	94.75
309.8	88.75
310.03	87.75
310.26	93.75
310.49	93.75
310.72	87.75
310.949	89.75
311.179	98.75
311.409	77.75
311.639	91.75
311.868	94.75
312.098	90.75
312.328	95.75
312.557	86.75
312.787	101.75
313.017	88.75
313.246	101.75
313.476	103.75
313.706	99.75
313.935	88.75
314.165	88.75
314.394	83.75
314.624	84.75
314.853	90.75
315.083	104.75
315.312	83.75
315.542	99.75
315.771	104.75
316.001	79.75
316.23	92.75
316.46	88.75
316.689	98.75
316.919	96.75
317.148	96.75
317.377	85.75
317.607	103.75
317.836	84.75
318.065	88.75
318.295	98.75
318.524	88.75
318.753	103.75
318.983	97.75
319.212	99.75
319.441	109.75
319.67	95.75
319.9	95.75
320.129	112.75
320.358	108.75
320.587	93.75
320.816	94.75
321.046	92.75
321.275	99.75
321.504	100.75
321.733	91.75
321.962	86.75
322.191	88.75
322.42	104.75
322.649	103.75
322.878	105.75
323.108	103.75
323.337	108.75
323.566	116.75
323.795	133.75
324.024	148.75
324.253	268.75
324.482	568.75
324.71	1110.75
324.939	1470.75
325.168	552.75
325.397	195.75
325.626	118.75
325.855	108.75
326.084	112.75
326.313	114.75
326.542	128.75
326.77	181.75
326.999	354.75
327.228	667.75
327.457	1186.75
327.686	930.75
327.914	282.75
328.143	150.75
328.372	114.75
328.6	112.75
328.829	106.75
329.058	99.75
329.287	109.75
329.515	98.75
329.744	111.75
329.972	102.75
330.201	91.75
330.43	122.75
330.658	119.75
330.887	116.75
331.115	109.75
331.344	108.75
331.572	95.75
331.801	102.75
332.03	94.75
332.258	98.75
332.486	75.75
332.715	90.75
332.943	100.75
333.172	91.75
333.4	93.75
333.629	99.75
333.857	105.75
334.085	91.75
334.314	104.75
334.542	137.75
334.771	143.75
334.999	90.75
335.227	82.75
335.455	106.75
335.684	101.75
335.912	96.75
336.14	93.75
336.369	97.75
336.597	102.75
336.825	85.75
337.053	84.75
337.281	95.75
337.51	89.75
337.738	91.75
337.966	88.75
338.194	89.75
338.422	102.75
338.65	86.75
338.878	94.75
339.106	96.75
339.334	92.75
339.562	88.75
339.79	87.75
340.018	94.75
340.246	106.75
340.474	97.75
340.702	98.75
340.93	84.75
341.158	109.75
341.386	96.75
341.614	86.75
341.842	95.75
342.07	95.75
342.298	78.75
342.526	99.75
342.754	79.75
342.981	98.75
343.209	93.75
343.437	104.75
343.665	90.75
343.893	88.75
344.12	98.75
344.348	98.75
344.576	92.75
344.804	78.75
345.031	95.75
345.259	90.75
345.487	74.75
345.714	86.75
345.942	94.75
346.17	101.75
346.397	96.75
346.625	84.75
346.853	88.75
347.08	105.75
347.308	83.75
347.535	86.75
347.763	98.75
347.99	93.75
348.218	95.75
348.445	97.75
348.673	97.75
348.9	95.75
349.128	83.75
349.355	97.75
349.583	87.75
349.81	90.75
350.037	104.75
350.265	92.75
350.492	108.75
350.72	104.75
350.947	94.75
351.174	110.75
351.402	101.75
351.629	91.75
351.856	102.75
352.083	94.75
352.311	91.75
352.538	98.75
352.765	104.75
352.992	98.75
353.22	85.75
353.447	103.75
353.674	95.75
353.901	92.75
354.128	92.75
354.355	102.75
354.583	93.75
354.81	98.75
355.037	88.75
355.264	91.75
355.491	89.75
355.718	86.75
355.945	89.75
356.172	96.75
356.399	105.75
356.626	90.75
356.853	97.75
357.08	99.75
357.307	93.75
357.534	93.75
357.761	85.75
357.988	94.75
358.215	84.75
358.441	97.75
358.668	94.75
358.895	90.75
359.122	92.75
359.349	95.75
359.576	99.75
359.802	94.75
360.029	94.75
360.256	106.75
360.483	105.75
360.709	96.75
360.936	94.75
361.163	84.75
361.39	89.75
361.616	100.75
361.843	99.75
362.07	105.75
362.296	101.75
362.523	99.75
362.749	96.75
362.976	87.75
363.203	84.75
363.429	78.75
363.656	84.75
363.882	80.75
364.109	96.75
364.335	86.75
364.562	67.75
364.788	95.75
365.015	107.75
365.241	80.75
365.468	100.75
365.694	98.75
365.92	81.75
366.147	86.75
366.373	83.75
366.599	84.75
366.826	90.75
367.052	86.75
367.278	86.75
367.505	75.75
367.731	83.75
367.957	82.75
368.184	91.75
368.41	104.75
368.636	103.75
368.862	94.75
369.089	100.75
369.315	96.75
369.541	100.75
369.767	86.75
369.993	86.75
370.219	77.75
370.445	85.75
370.672	86.75
370.898	91.75
371.124	86.75
371.35	84.75
371.576	86.75
371.802	68.75
372.028	72.75
372.254	69.75
372.48	93.75
372.706	100.75
372.932	82.75
373.158	78.75
373.384	96.75
373.61	94.75
373.835	100.75
374.061	93.75
374.287	82.75
374.513	93.75
374.739	90.75
374.965	97.75
375.191	77.75
375.416	88.75
375.642	88.75
375.868	95.75
376.094	90.75
376.319	107.75
376.545	80.75
376.771	90.75
376.997	94.75
377.222	81.75
377.448	91.75
377.674	82.75
377.899	77.75
378.125	95.75
378.35	90.75
378.576	92.75
378.802	92.75
379.027	89.75
379.253	98.75
379.478	104.75
379.704	97.75
379.929	95.75
380.155	84.75
380.38	84.75
380.606	98.75
380.831	92.75
381.057	102.75
381.282	95.75
381.507	86.75
381.733	98.75
381.958	99.75
382.184	99.75
382.409	94.75
382.634	98.75
382.86	99.75
383.085	109.75
383.31	90.75
383.535	122.75
383.761	111.75
383.986	94.75
384.211	108.75
384.436	102.75
384.662	100.75
384.887	108.75
385.112	125.75
385.337	108.75
385.562	106.75
385.787	108.75
386.013	120.75
386.238	108.75
386.463	114.75
386.688	101.75
386.913	99.75
387.138	101.75
387.363	94.75
387.588	100.75
387.813	108.75
388.038	108.75
388.263	111.75
388.488	106.75
388.713	104.75
388.938	88.75
389.163	85.75
389.387	93.75
389.612	96.75
389.837	98.75
390.062	106.75
390.287	95.75
390.512	109.75
390.736	95.75
390.961	93.75
391.186	93.75
391.411	80.75
391.636	96.75
391.86	99.75
392.085	77.75
392.31	78.75
392.534	92.75
392.759	89.75
392.984	90.75
393.208	92.75
393.433	80.75
393.658	82.75
393.882	95.75
394.107	89.75
394.331	76.75
394.556	81.75
394.78	95.75
395.005	105.75
395.229	69.75
395.454	86.75
395.678	90.75
395.903	93.75
396.127	93.75
396.352	73.75
396.576	71.75
396.801	83.75
397.025	88.75
397.249	84.75
397.474	69.75
397.698	91.75
397.922	88.75
398.147	94.75
398.371	85.75
398.595	93.75
398.82	85.75
399.044	88.75
399.268	90.75
399.492	92.75
399.717	104.75
399.941	101.75
400.165	91.75
400.389	85.75
400.613	93.75
400.837	96.75
401.062	90.75
401.286	82.75
401.51	83.75
401.734	98.75
401.958	89.75
402.182	117.75
402.406	138.75
402.63	118.75
402.854	73.75
403.078	75.75
403.302	91.75
403.526	94.75
403.75	88.75
403.974	92.75
404.198	104.75
404.422	90.75
404.645	95.75
404.869	87.75
405.093	96.75
405.317	85.75
405.541	89.75
405.765	84.75
405.988	98.75
406.212	122.75
406.436	184.75
406.66	120.75
406.883	88.75
407.107	108.75
407.331	85.75
407.555	79.75
407.778	84.75
408.002	82.75
408.226	91.75
408.449	86.75
408.673	70.75
408.896	86.75
409.12	82.75
409.344	99.75
409.567	101.75
409.791	96.75
410.014	90.75
410.238	90.75
410.461	103.75
410.685	112.75
410.908	102.75
411.132	94.75
411.355	103.75
411.578	86.75
411.802	86.75
412.025	86.75
412.249	98.75
412.472	83.75
412.695	90.75
412.919	92.75
413.142	82.75
413.365	97.75
413.589	89.75
413.812	71.75
414.035	83.75
414.258	94.75
414.482	80.75
414.705	77.75
414.928	88.75
415.151	69.75
415.374	91.75
415.597	82.75
415.821	79.75
416.044	91.75
416.267	92.75
416.49	88.75
416.713	88.75
416.936	108.75
417.159	85.75
417.382	84.75
417.605	97.75
417.828	85.75
418.051	102.75
418.274	98.75
418.497	79.75
418.72	80.75
418.943	78.75
419.166	87.75
419.389	92.75
419.611	82.75
419.834	76.75
420.057	90.75
420.28	80.75
420.503	101.75
420.726	89.75
420.948	89.75
421.171	83.75
421.394	90.75
421.617	88.75
421.839	71.75
422.062	83.75
422.285	87.75
422.507	86.75
422.73	99.75
422.953	94.75
423.175	96.75
423.398	84.75
423.621	89.75
423.843	96.75
424.066	87.75
424.288	82.75
424.511	83.75
424.733	78.75
424.956	96.75
425.178	97.75
425.401	100.75
425.623	92.75
425.846	77.75
426.068	90.75
426.291	103.75
426.513	88.75
426.735	93.75
426.958	98.75
427.18	88.75
427.402	107.75
427.625	142.75
427.847	121.75
428.069	99.75
428.292	79.75
428.514	92.75
428.736	80.75
428.958	92.75
429.181	94.75
429.403	92.75
429.625	100.75
429.847	101.75
430.069	100.75
430.292	85.75
430.514	88.75
430.736	88.75
430.958	93.75
431.18	77.75
431.402	92.75
431.624	90.75
431.846	86.75
432.068	83.75
432.29	97.75
432.512	92.75
432.734	80.75
432.956	96.75
433.178	103.75
433.4	93.75
433.622	96.75
433.844	101.75
434.066	103.75
434.287	102.75
434.509	95.75
434.731	75.75
434.953	96.75
435.175	91.75
435.397	98.75
435.618	98.75
435.84	90.75
436.062	98.75
436.284	92.75
436.505	96.75
436.727	71.75
436.949	97.75
437.17	93.75
437.392	99.75
437.614	87.75
437.835	103.75
438.057	96.75
438.278	97.75
438.5	94.75
438.721	99.75
438.943	98.75
439.165	74.75
439.386	88.75
439.608	90.75
439.829	87.75
440.05	108.75
440.272	114.75
440.493	84.75
440.715	59.75
440.936	82.75
441.158	78.75
441.379	84.75
441.6	83.75
441.822	89.75
442.043	79.75
442.264	79.75
442.486	90.75
442.707	85.75
442.928	78.75
443.149	98.75
443.371	110.75
443.592	97.75
443.813	97.75
444.034	94.75
444.255	88.75
444.476	79.75
444.698	86.75
444.919	98.75
445.14	126.75
445.361	109.75
445.582	107.75
445.803	119.75
446.024	103.75
446.245	116.75
446.466	98.75
446.687	99.75
446.908	99.75
447.129	91.75
447.35	89.75
447.571	89.75
447.792	91.75
448.013	87.75
448.234	95.75
448.455	84.75
448.675	95.75
448.896	99.75
449.117	93.75
449.338	110.75
449.559	110.75
449.779	96.75
450	85.75
450.221	93.75
450.442	83.75
450.662	100.75
450.883	99.75
451.104	101.75
451.324	79.75
451.545	83.75
451.766	91.75
451.986	95.75
452.207	85.75
452.428	104.75
452.648	88.75
452.869	98.75
453.089	86.75
453.31	100.75
453.53	95.75
453.751	101.75
453.971	90.75
454.192	100.75
454.412	87.75
454.633	89.75
454.853	79.75
455.073	96.75
455.294	68.75
455.514	93.75
455.734	98.75
455.955	90.75
456.175	88.75
456.395	86.75
456.616	82.75
456.836	95.75
457.056	111.75
457.276	87.75
457.497	71.75
457.717	86.75
457.937	86.75
458.157	93.75
458.377	79.75
458.598	113.75
458.818	126.75
459.038	115.75
459.258	123.75
459.478	84.75
459.698	96.75
459.918	94.75
460.138	80.75
460.358	89.75
460.578	88.75
460.798	75.75
461.018	79.75
461.238	97.75
461.458	99.75
461.678	77.75
461.898	95.75
462.118	71.75
462.338	87.75
462.558	74.75
462.777	70.75
462.997	107.75
463.217	91.75
463.437	72.75
463.657	93.75
463.876	80.75
464.096	96.75
464.316	106.75
464.536	76.75
464.755	89.75
464.975	113.75
465.195	130.75
465.414	132.75
465.634	82.75
465.854	92.75
466.073	86.75
466.293	89.75
466.512	107.75
466.732	88.75
466.951	88.75
467.171	86.75
467.391	74.75
467.61	90.75
467.829	82.75
468.049	82.75
468.268	95.75
468.488	87.75
468.707	83.75
468.927	75.75
469.146	100.75
469.365	83.75
469.585	102.75
469.804	91.75
470.023	77.75
470.243	91.75
470.462	87.75
470.681	102.75
470.901	100.75
471.12	89.75
471.339	86.75
471.558	91.75
471.777	98.75
471.997	88.75
472.216	102.75
472.435	130.75
472.654	100.75
472.873	86.75
473.092	85.75
473.311	80.75
473.53	75.75
473.749	88.75
473.968	94.75
474.187	116.75
474.406	92.75
474.625	80.75
474.844	78.75
475.063	88.75
475.282	84.75
475.501	98.75
475.72	101.75
475.939	92.75
476.158	79.75
476.377	71.75
476.596	104.75
476.814	97.75
477.033	104.75
477.252	90.75
477.471	88.75
477.69	76.75
477.908	90.75
478.127	87.75
478.346	88.75
478.564	87.75
478.783	100.75
479.002	96.75
479.22	108.75
479.439	104.75
479.658	94.75
479.876	91.75
480.095	87.75
480.313	94.75
480.532	95.75
480.751	95.75
480.969	107.75
481.188	166.75
481.406	128.75
481.624	86.75
481.843	80.75
482.061	84.75
482.28	92.75
482.498	104.75
482.717	84.75
482.935	92.75
483.153	92.75
483.372	89.75
483.59	91.75
483.808	90.75
484.027	93.75
484.245	84.75
484.463	93.75
484.681	111.75
484.9	95.75
485.118	94.75
485.336	93.75
485.554	96.75
485.772	101.75
485.99	111.75
486.209	113.75
486.427	113.75
486.645	99.75
486.863	97.75
487.081	95.75
487.299	78.75
487.517	96.75
487.735	88.75
487.953	90.75
488.171	89.75
488.389	84.75
488.607	94.75
488.825	102.75
489.043	91.75
489.261	79.75
489.479	86.75
489.696	86.75
489.914	87.75
490.132	76.75
490.35	92.75
490.568	88.75
490.786	82.75
491.003	90.75
491.221	80.75
491.439	103.75
491.657	95.75
491.874	92.75
492.092	98.75
492.31	90.75
492.527	84.75
492.745	86.75
492.963	94.75
493.18	92.75
493.398	94.75
493.615	110.75
493.833	100.75
494.05	97.75
494.268	98.75
494.485	98.75
494.703	97.75
494.92	102.75
495.138	103.75
495.355	94.75
495.573	93.75
495.79	94.75
496.008	91.75
496.225	93.75
496.442	87.75
496.66	88.75
496.877	88.75
497.094	91.75
497.312	98.75
497.529	86.75
497.746	93.75
497.963	93.75
498.181	92.75
498.398	89.75
498.615	95.75
498.832	101.75
499.049	89.75
499.267	79.75
499.484	85.75
499.701	90.75
499.918	94.75
500.135	80.75
500.352	78.75
500.569	68.75
500.786	92.75
501.003	90.75
501.22	79.75
501.437	90.75
501.654	86.75
501.871	96.75
502.088	95.75
502.305	88.75
502.522	80.75
502.739	87.75
502.956	93.75
503.172	100.75
503.389	100.75
503.606	91.75
503.823	102.75
504.04	95.75
504.256	84.75
504.473	96.75
504.69	91.75
504.907	95.75
505.123	75.75
505.34	104.75
505.557	92.75
505.773	79.75
505.99	91.75
506.207	87.75
506.423	87.75
506.64	87.75
506.856	96.75
507.073	91.75
507.289	97.75
507.506	105.75
507.722	102.75
507.939	108.75
508.155	102.75
508.372	84.75
508.588	86.75
508.805	98.75
509.021	90.75
509.238	102.75
509.454	89.75
509.67	104.75
509.887	102.75
510.103	122.75
510.319	164.75
510.536	548.75
510.752	1522.75
510.968	440.75
511.184	122.75
511.401	92.75
511.617	98.75
511.833	100.75
512.049	94.75
512.265	96.75
512.481	85.75
512.698	90.75
512.914	96.75
513.13	89.75
513.346	94.75
513.562	95.75
513.778	101.75
513.994	90.75
514.21	94.75
514.426	98.75
514.642	99.75
514.858	103.75
515.074	136.75
515.29	308.75
515.506	916.75
515.721	349.75
515.937	127.75
516.153	101.75
516.369	98.75
516.585	75.75
