Data from Circ_1980_H10_HRD10591_00043.txt Node
Date: Wed Jan 03 12:38:06 EST 2024
User: Yrep
Spectrometer: HR+D1059
Trigger mode: 1
Integration Time (sec): 1.000000E-1
Scans to average: 1
Electric dark correction enabled: true
Nonlinearity correction enabled: false
Boxcar width: 0
XAxis mode: Wavelengths
Number of Pixels in Spectrum: 2048
>>>>>Begin Spectral Data<<<<<
223.165	-22.44
223.4	-22.44
223.635	-22.44
223.869	-25.44
224.104	-26.44
224.338	-15.44
224.573	-17.44
224.808	-19.44
225.042	-23.44
225.277	-7.44
225.511	4.56
225.746	1.56
225.98	13.56
226.215	24.56
226.449	25.56
226.683	17.56
226.918	34.56
227.152	35.56
227.387	46.56
227.621	46.56
227.856	33.56
228.09	43.56
228.324	59.56
228.559	61.56
228.793	64.56
229.027	63.56
229.262	70.56
229.496	66.56
229.73	77.56
229.964	79.56
230.199	76.56
230.433	75.56
230.667	78.56
230.901	92.56
231.136	77.56
231.37	85.56
231.604	94.56
231.838	82.56
232.072	79.56
232.306	88.56
232.541	73.56
232.775	97.56
233.009	76.56
233.243	91.56
233.477	77.56
233.711	77.56
233.945	83.56
234.179	73.56
234.413	75.56
234.647	84.56
234.881	81.56
235.115	76.56
235.349	77.56
235.583	77.56
235.817	94.56
236.051	77.56
236.285	88.56
236.519	67.56
236.753	69.56
236.987	78.56
237.221	81.56
237.455	72.56
237.689	80.56
237.922	64.56
238.156	52.56
238.39	82.56
238.624	78.56
238.858	76.56
239.091	71.56
239.325	74.56
239.559	79.56
239.793	73.56
240.027	79.56
240.26	68.56
240.494	74.56
240.728	83.56
240.961	85.56
241.195	79.56
241.429	78.56
241.662	85.56
241.896	81.56
242.13	71.56
242.363	72.56
242.597	101.56
242.83	76.56
243.064	64.56
243.298	76.56
243.531	74.56
243.765	77.56
243.998	87.56
244.232	79.56
244.465	85.56
244.699	79.56
244.932	79.56
245.166	89.56
245.399	94.56
245.633	80.56
245.866	76.56
246.099	83.56
246.333	71.56
246.566	89.56
246.8	73.56
247.033	98.56
247.266	78.56
247.5	80.56
247.733	84.56
247.966	85.56
248.2	81.56
248.433	77.56
248.666	83.56
248.899	79.56
249.133	81.56
249.366	78.56
249.599	97.56
249.832	83.56
250.066	91.56
250.299	78.56
250.532	74.56
250.765	83.56
250.998	79.56
251.231	82.56
251.465	67.56
251.698	87.56
251.931	85.56
252.164	77.56
252.397	79.56
252.63	69.56
252.863	80.56
253.096	95.56
253.329	87.56
253.562	88.56
253.795	79.56
254.028	83.56
254.261	79.56
254.494	97.56
254.727	87.56
254.96	80.56
255.193	92.56
255.426	96.56
255.659	86.56
255.892	77.56
256.124	61.56
256.357	73.56
256.59	91.56
256.823	69.56
257.056	72.56
257.289	79.56
257.521	91.56
257.754	73.56
257.987	89.56
258.22	91.56
258.452	83.56
258.685	73.56
258.918	77.56
259.151	75.56
259.383	89.56
259.616	99.56
259.849	79.56
260.081	89.56
260.314	91.56
260.547	66.56
260.779	90.56
261.012	78.56
261.244	76.56
261.477	93.56
261.71	94.56
261.942	84.56
262.175	110.56
262.407	85.56
262.64	91.56
262.872	79.56
263.105	102.56
263.337	80.56
263.57	95.56
263.802	86.56
264.035	95.56
264.267	88.56
264.499	101.56
264.732	89.56
264.964	78.56
265.197	87.56
265.429	76.56
265.661	96.56
265.894	73.56
266.126	85.56
266.358	75.56
266.591	80.56
266.823	88.56
267.055	97.56
267.287	101.56
267.52	78.56
267.752	93.56
267.984	86.56
268.216	79.56
268.448	105.56
268.681	79.56
268.913	72.56
269.145	87.56
269.377	91.56
269.609	71.56
269.841	93.56
270.073	85.56
270.306	80.56
270.538	92.56
270.77	93.56
271.002	83.56
271.234	86.56
271.466	88.56
271.698	96.56
271.93	89.56
272.162	89.56
272.394	92.56
272.626	81.56
272.858	90.56
273.09	75.56
273.322	87.56
273.553	86.56
273.785	89.56
274.017	88.56
274.249	97.56
274.481	84.56
274.713	90.56
274.945	83.56
275.176	81.56
275.408	79.56
275.64	84.56
275.872	97.56
276.104	88.56
276.335	97.56
276.567	100.56
276.799	107.56
277.031	92.56
277.262	90.56
277.494	93.56
277.726	94.56
277.957	97.56
278.189	87.56
278.421	96.56
278.652	89.56
278.884	96.56
279.115	79.56
279.347	69.56
279.579	87.56
279.81	88.56
280.042	76.56
280.273	80.56
280.505	101.56
280.736	84.56
280.968	84.56
281.199	91.56
281.431	100.56
281.662	79.56
281.894	87.56
282.125	99.56
282.356	111.56
282.588	135.56
282.819	100.56
283.051	89.56
283.282	96.56
283.513	102.56
283.745	96.56
283.976	75.56
284.207	95.56
284.439	80.56
284.67	81.56
284.901	89.56
285.132	90.56
285.364	104.56
285.595	76.56
285.826	102.56
286.057	93.56
286.288	83.56
286.52	88.56
286.751	94.56
286.982	84.56
287.213	75.56
287.444	83.56
287.675	103.56
287.906	86.56
288.138	96.56
288.369	87.56
288.6	96.56
288.831	84.56
289.062	100.56
289.293	77.56
289.524	84.56
289.755	71.56
289.986	86.56
290.217	80.56
290.448	78.56
290.679	78.56
290.91	83.56
291.141	84.56
291.371	84.56
291.602	84.56
291.833	89.56
292.064	81.56
292.295	85.56
292.526	88.56
292.757	74.56
292.987	95.56
293.218	93.56
293.449	92.56
293.68	86.56
293.91	78.56
294.141	97.56
294.372	100.56
294.603	90.56
294.833	83.56
295.064	87.56
295.295	86.56
295.525	75.56
295.756	88.56
295.987	91.56
296.217	117.56
296.448	118.56
296.679	104.56
296.909	91.56
297.14	88.56
297.37	88.56
297.601	83.56
297.831	75.56
298.062	80.56
298.292	96.56
298.523	95.56
298.753	80.56
298.984	101.56
299.214	82.56
299.445	79.56
299.675	92.56
299.905	91.56
300.136	96.56
300.366	95.56
300.597	89.56
300.827	78.56
301.057	92.56
301.288	93.56
301.518	92.56
301.748	89.56
301.979	90.56
302.209	94.56
302.439	104.56
302.669	90.56
302.9	79.56
303.13	92.56
303.36	86.56
303.59	82.56
303.82	105.56
304.051	93.56
304.281	94.56
304.511	85.56
304.741	85.56
304.971	100.56
305.201	82.56
305.431	84.56
305.661	75.56
305.891	85.56
306.121	95.56
306.352	94.56
306.582	96.56
306.812	100.56
307.042	89.56
307.272	91.56
307.502	100.56
307.731	89.56
307.961	85.56
308.191	87.56
308.421	79.56
308.651	97.56
308.881	95.56
309.111	88.56
309.341	80.56
309.571	103.56
309.8	91.56
310.03	88.56
310.26	93.56
310.49	93.56
310.72	104.56
310.949	85.56
311.179	95.56
311.409	100.56
311.639	85.56
311.868	104.56
312.098	85.56
312.328	91.56
312.557	97.56
312.787	90.56
313.017	99.56
313.246	91.56
313.476	97.56
313.706	95.56
313.935	98.56
314.165	83.56
314.394	85.56
314.624	101.56
314.853	89.56
315.083	100.56
315.312	96.56
315.542	92.56
315.771	86.56
316.001	88.56
316.23	99.56
316.46	95.56
316.689	94.56
316.919	98.56
317.148	103.56
317.377	106.56
317.607	93.56
317.836	84.56
318.065	90.56
318.295	86.56
318.524	95.56
318.753	88.56
318.983	92.56
319.212	86.56
319.441	98.56
319.67	112.56
319.9	83.56
320.129	89.56
320.358	99.56
320.587	92.56
320.816	102.56
321.046	87.56
321.275	96.56
321.504	93.56
321.733	95.56
321.962	78.56
322.191	96.56
322.42	105.56
322.649	104.56
322.878	102.56
323.108	111.56
323.337	108.56
323.566	120.56
323.795	120.56
324.024	156.56
324.253	281.56
324.482	576.56
324.71	1170.56
324.939	1518.56
325.168	590.56
325.397	208.56
325.626	147.56
325.855	104.56
326.084	115.56
326.313	119.56
326.542	135.56
326.77	181.56
326.999	349.56
327.228	695.56
327.457	1197.56
327.686	999.56
327.914	272.56
328.143	150.56
328.372	136.56
328.6	110.56
328.829	119.56
329.058	99.56
329.287	103.56
329.515	120.56
329.744	97.56
329.972	101.56
330.201	111.56
330.43	115.56
330.658	124.56
330.887	116.56
331.115	112.56
331.344	93.56
331.572	96.56
331.801	102.56
332.03	99.56
332.258	108.56
332.486	91.56
332.715	87.56
332.943	90.56
333.172	87.56
333.4	84.56
333.629	92.56
333.857	116.56
334.085	110.56
334.314	107.56
334.542	123.56
334.771	117.56
334.999	105.56
335.227	100.56
335.455	94.56
335.684	99.56
335.912	93.56
336.14	108.56
336.369	93.56
336.597	99.56
336.825	94.56
337.053	110.56
337.281	89.56
337.51	94.56
337.738	97.56
337.966	109.56
338.194	89.56
338.422	88.56
338.65	92.56
338.878	101.56
339.106	104.56
339.334	91.56
339.562	87.56
339.79	85.56
340.018	104.56
340.246	99.56
340.474	93.56
340.702	80.56
340.93	96.56
341.158	96.56
341.386	88.56
341.614	86.56
341.842	88.56
342.07	87.56
342.298	115.56
342.526	88.56
342.754	72.56
342.981	91.56
343.209	87.56
343.437	109.56
343.665	88.56
343.893	84.56
344.12	92.56
344.348	87.56
344.576	90.56
344.804	108.56
345.031	75.56
345.259	89.56
345.487	88.56
345.714	91.56
345.942	97.56
346.17	101.56
346.397	95.56
346.625	91.56
346.853	93.56
347.08	94.56
347.308	89.56
347.535	95.56
347.763	112.56
347.99	90.56
348.218	89.56
348.445	90.56
348.673	96.56
348.9	110.56
349.128	92.56
349.355	104.56
349.583	99.56
349.81	98.56
350.037	92.56
350.265	90.56
350.492	85.56
350.72	95.56
350.947	98.56
351.174	95.56
351.402	100.56
351.629	99.56
351.856	102.56
352.083	82.56
352.311	93.56
352.538	98.56
352.765	101.56
352.992	115.56
353.22	100.56
353.447	109.56
353.674	116.56
353.901	86.56
354.128	103.56
354.355	88.56
354.583	94.56
354.81	100.56
355.037	101.56
355.264	93.56
355.491	95.56
355.718	91.56
355.945	91.56
356.172	100.56
356.399	88.56
356.626	103.56
356.853	88.56
357.08	83.56
357.307	100.56
357.534	99.56
357.761	104.56
357.988	89.56
358.215	102.56
358.441	95.56
358.668	93.56
358.895	102.56
359.122	91.56
359.349	89.56
359.576	95.56
359.802	88.56
360.029	105.56
360.256	112.56
360.483	88.56
360.709	80.56
360.936	78.56
361.163	101.56
361.39	87.56
361.616	110.56
361.843	87.56
362.07	96.56
362.296	96.56
362.523	89.56
362.749	89.56
362.976	87.56
363.203	95.56
363.429	92.56
363.656	87.56
363.882	83.56
364.109	83.56
364.335	88.56
364.562	96.56
364.788	86.56
365.015	97.56
365.241	102.56
365.468	107.56
365.694	101.56
365.92	95.56
366.147	83.56
366.373	92.56
366.599	96.56
366.826	95.56
367.052	82.56
367.278	94.56
367.505	97.56
367.731	93.56
367.957	103.56
368.184	100.56
368.41	100.56
368.636	107.56
368.862	86.56
369.089	99.56
369.315	100.56
369.541	83.56
369.767	87.56
369.993	93.56
370.219	77.56
370.445	95.56
370.672	76.56
370.898	72.56
371.124	101.56
371.35	89.56
371.576	90.56
371.802	86.56
372.028	102.56
372.254	88.56
372.48	87.56
372.706	93.56
372.932	79.56
373.158	81.56
373.384	101.56
373.61	88.56
373.835	90.56
374.061	85.56
374.287	84.56
374.513	113.56
374.739	92.56
374.965	94.56
375.191	81.56
375.416	79.56
375.642	100.56
375.868	94.56
376.094	94.56
376.319	91.56
376.545	87.56
376.771	89.56
376.997	85.56
377.222	89.56
377.448	72.56
377.674	94.56
377.899	93.56
378.125	96.56
378.35	100.56
378.576	80.56
378.802	91.56
379.027	101.56
379.253	97.56
379.478	94.56
379.704	91.56
379.929	93.56
380.155	88.56
380.38	102.56
380.606	88.56
380.831	89.56
381.057	95.56
381.282	92.56
381.507	101.56
381.733	107.56
381.958	97.56
382.184	103.56
382.409	93.56
382.634	96.56
382.86	108.56
383.085	111.56
383.31	105.56
383.535	109.56
383.761	103.56
383.986	107.56
384.211	100.56
384.436	91.56
384.662	97.56
384.887	105.56
385.112	91.56
385.337	102.56
385.562	109.56
385.787	113.56
386.013	106.56
386.238	100.56
386.463	101.56
386.688	103.56
386.913	105.56
387.138	111.56
387.363	109.56
387.588	106.56
387.813	95.56
388.038	99.56
388.263	122.56
388.488	107.56
388.713	97.56
388.938	97.56
389.163	97.56
389.387	84.56
389.612	93.56
389.837	93.56
390.062	95.56
390.287	88.56
390.512	94.56
390.736	96.56
390.961	98.56
391.186	100.56
391.411	99.56
391.636	93.56
391.86	89.56
392.085	97.56
392.31	87.56
392.534	95.56
392.759	88.56
392.984	89.56
393.208	84.56
393.433	102.56
393.658	85.56
393.882	93.56
394.107	87.56
394.331	74.56
394.556	84.56
394.78	89.56
395.005	106.56
395.229	95.56
395.454	103.56
395.678	79.56
395.903	87.56
396.127	75.56
396.352	73.56
396.576	73.56
396.801	76.56
397.025	82.56
397.249	104.56
397.474	87.56
397.698	100.56
397.922	85.56
398.147	90.56
398.371	95.56
398.595	101.56
398.82	89.56
399.044	89.56
399.268	74.56
399.492	88.56
399.717	94.56
399.941	98.56
400.165	79.56
400.389	80.56
400.613	78.56
400.837	91.56
401.062	80.56
401.286	84.56
401.51	76.56
401.734	87.56
401.958	75.56
402.182	119.56
402.406	135.56
402.63	109.56
402.854	96.56
403.078	84.56
403.302	88.56
403.526	83.56
403.75	83.56
403.974	85.56
404.198	84.56
404.422	79.56
404.645	101.56
404.869	93.56
405.093	97.56
405.317	113.56
405.541	93.56
405.765	88.56
405.988	107.56
406.212	138.56
406.436	191.56
406.66	135.56
406.883	112.56
407.107	82.56
407.331	88.56
407.555	100.56
407.778	99.56
408.002	95.56
408.226	83.56
408.449	77.56
408.673	91.56
408.896	87.56
409.12	96.56
409.344	87.56
409.567	102.56
409.791	107.56
410.014	92.56
410.238	97.56
410.461	95.56
410.685	99.56
410.908	97.56
411.132	95.56
411.355	93.56
411.578	100.56
411.802	88.56
412.025	85.56
412.249	88.56
412.472	83.56
412.695	93.56
412.919	86.56
413.142	94.56
413.365	92.56
413.589	84.56
413.812	97.56
414.035	89.56
414.258	76.56
414.482	91.56
414.705	110.56
414.928	95.56
415.151	92.56
415.374	90.56
415.597	99.56
415.821	108.56
416.044	74.56
416.267	91.56
416.49	88.56
416.713	88.56
416.936	86.56
417.159	86.56
417.382	95.56
417.605	79.56
417.828	108.56
418.051	89.56
418.274	90.56
418.497	94.56
418.72	90.56
418.943	87.56
419.166	100.56
419.389	88.56
419.611	84.56
419.834	108.56
420.057	85.56
420.28	80.56
420.503	91.56
420.726	97.56
420.948	89.56
421.171	99.56
421.394	91.56
421.617	89.56
421.839	69.56
422.062	80.56
422.285	86.56
422.507	93.56
422.73	100.56
422.953	92.56
423.175	89.56
423.398	99.56
423.621	111.56
423.843	80.56
424.066	89.56
424.288	94.56
424.511	101.56
424.733	92.56
424.956	94.56
425.178	96.56
425.401	93.56
425.623	93.56
425.846	74.56
426.068	92.56
426.291	83.56
426.513	90.56
426.735	83.56
426.958	102.56
427.18	96.56
427.402	109.56
427.625	129.56
427.847	119.56
428.069	116.56
428.292	91.56
428.514	77.56
428.736	87.56
428.958	109.56
429.181	78.56
429.403	80.56
429.625	87.56
429.847	83.56
430.069	98.56
430.292	89.56
430.514	83.56
430.736	87.56
430.958	93.56
431.18	87.56
431.402	91.56
431.624	105.56
431.846	78.56
432.068	95.56
432.29	84.56
432.512	84.56
432.734	79.56
432.956	89.56
433.178	108.56
433.4	91.56
433.622	88.56
433.844	79.56
434.066	94.56
434.287	97.56
434.509	91.56
434.731	68.56
434.953	92.56
435.175	91.56
435.397	88.56
435.618	106.56
435.84	101.56
436.062	93.56
436.284	106.56
436.505	106.56
436.727	108.56
436.949	70.56
437.17	89.56
437.392	93.56
437.614	91.56
437.835	90.56
438.057	107.56
438.278	104.56
438.5	110.56
438.721	102.56
438.943	103.56
439.165	69.56
439.386	78.56
439.608	96.56
439.829	106.56
440.05	111.56
440.272	120.56
440.493	100.56
440.715	77.56
440.936	87.56
441.158	91.56
441.379	77.56
441.6	92.56
441.822	86.56
442.043	84.56
442.264	90.56
442.486	79.56
442.707	101.56
442.928	102.56
443.149	113.56
443.371	109.56
443.592	106.56
443.813	110.56
444.034	91.56
444.255	98.56
444.476	82.56
444.698	90.56
444.919	86.56
445.14	123.56
445.361	106.56
445.582	123.56
445.803	118.56
446.024	111.56
446.245	118.56
446.466	98.56
446.687	93.56
446.908	81.56
447.129	87.56
447.35	97.56
447.571	89.56
447.792	94.56
448.013	93.56
448.234	102.56
448.455	79.56
448.675	112.56
448.896	103.56
449.117	91.56
449.338	91.56
449.559	112.56
449.779	113.56
450	94.56
450.221	87.56
450.442	89.56
450.662	92.56
450.883	104.56
451.104	95.56
451.324	93.56
451.545	97.56
451.766	94.56
451.986	82.56
452.207	87.56
452.428	109.56
452.648	97.56
452.869	93.56
453.089	107.56
453.31	105.56
453.53	95.56
453.751	99.56
453.971	88.56
454.192	116.56
454.412	91.56
454.633	99.56
454.853	81.56
455.073	86.56
455.294	80.56
455.514	98.56
455.734	84.56
455.955	93.56
456.175	94.56
456.395	87.56
456.616	80.56
456.836	88.56
457.056	101.56
457.276	89.56
457.497	92.56
457.717	75.56
457.937	88.56
458.157	80.56
458.377	100.56
458.598	103.56
458.818	125.56
459.038	131.56
459.258	97.56
459.478	105.56
459.698	83.56
459.918	108.56
460.138	77.56
460.358	86.56
460.578	92.56
460.798	94.56
461.018	84.56
461.238	78.56
461.458	93.56
461.678	97.56
461.898	79.56
462.118	87.56
462.338	87.56
462.558	94.56
462.777	93.56
462.997	93.56
463.217	87.56
463.437	84.56
463.657	86.56
463.876	89.56
464.096	77.56
464.316	85.56
464.536	97.56
464.755	92.56
464.975	94.56
465.195	120.56
465.414	112.56
465.634	86.56
465.854	71.56
466.073	83.56
466.293	82.56
466.512	93.56
466.732	75.56
466.951	95.56
467.171	90.56
467.391	90.56
467.61	105.56
467.829	122.56
468.049	96.56
468.268	94.56
468.488	83.56
468.707	70.56
468.927	78.56
469.146	76.56
469.365	91.56
469.585	102.56
469.804	86.56
470.023	94.56
470.243	86.56
470.462	98.56
470.681	95.56
470.901	88.56
471.12	99.56
471.339	95.56
471.558	85.56
471.777	80.56
471.997	88.56
472.216	121.56
472.435	128.56
472.654	99.56
472.873	96.56
473.092	104.56
473.311	95.56
473.53	80.56
473.749	90.56
473.968	93.56
474.187	101.56
474.406	87.56
474.625	100.56
474.844	97.56
475.063	93.56
475.282	81.56
475.501	99.56
475.72	91.56
475.939	93.56
476.158	85.56
476.377	90.56
476.596	83.56
476.814	81.56
477.033	79.56
477.252	86.56
477.471	96.56
477.69	85.56
477.908	84.56
478.127	86.56
478.346	83.56
478.564	99.56
478.783	92.56
479.002	94.56
479.22	97.56
479.439	103.56
479.658	92.56
479.876	96.56
480.095	90.56
480.313	82.56
480.532	72.56
480.751	87.56
480.969	111.56
481.188	181.56
481.406	133.56
481.624	92.56
481.843	100.56
482.061	97.56
482.28	91.56
482.498	96.56
482.717	90.56
482.935	104.56
483.153	88.56
483.372	100.56
483.59	94.56
483.808	76.56
484.027	79.56
484.245	97.56
484.463	84.56
484.681	95.56
484.9	97.56
485.118	92.56
485.336	96.56
485.554	119.56
485.772	95.56
485.99	107.56
486.209	106.56
486.427	93.56
486.645	100.56
486.863	105.56
487.081	98.56
487.299	102.56
487.517	100.56
487.735	101.56
487.953	94.56
488.171	104.56
488.389	92.56
488.607	95.56
488.825	99.56
489.043	97.56
489.261	82.56
489.479	100.56
489.696	88.56
489.914	93.56
490.132	93.56
490.35	92.56
490.568	88.56
490.786	95.56
491.003	91.56
491.221	88.56
491.439	88.56
491.657	99.56
491.874	97.56
492.092	93.56
492.31	102.56
492.527	103.56
492.745	88.56
492.963	95.56
493.18	92.56
493.398	90.56
493.615	89.56
493.833	104.56
494.05	89.56
494.268	93.56
494.485	106.56
494.703	104.56
494.92	95.56
495.138	99.56
495.355	91.56
495.573	94.56
495.79	81.56
496.008	96.56
496.225	97.56
496.442	81.56
496.66	105.56
496.877	90.56
497.094	76.56
497.312	90.56
497.529	91.56
497.746	79.56
497.963	77.56
498.181	88.56
498.398	96.56
498.615	88.56
498.832	94.56
499.049	96.56
499.267	80.56
499.484	83.56
499.701	95.56
499.918	83.56
500.135	84.56
500.352	103.56
500.569	95.56
500.786	88.56
501.003	92.56
501.22	99.56
501.437	99.56
501.654	93.56
501.871	108.56
502.088	107.56
502.305	96.56
502.522	99.56
502.739	102.56
502.956	88.56
503.172	91.56
503.389	90.56
503.606	90.56
503.823	101.56
504.04	94.56
504.256	87.56
504.473	98.56
504.69	103.56
504.907	92.56
505.123	100.56
505.34	91.56
505.557	83.56
505.773	88.56
505.99	81.56
506.207	88.56
506.423	94.56
506.64	89.56
506.856	85.56
507.073	91.56
507.289	81.56
507.506	97.56
507.722	106.56
507.939	116.56
508.155	88.56
508.372	92.56
508.588	95.56
508.805	95.56
509.021	106.56
509.238	104.56
509.454	100.56
509.67	94.56
509.887	111.56
510.103	123.56
510.319	177.56
510.536	559.56
510.752	1587.56
510.968	463.56
511.184	143.56
511.401	95.56
511.617	92.56
511.833	106.56
512.049	103.56
512.265	77.56
512.481	96.56
512.698	96.56
512.914	106.56
513.13	97.56
513.346	91.56
513.562	87.56
513.778	95.56
513.994	95.56
514.21	81.56
514.426	100.56
514.642	109.56
514.858	111.56
515.074	138.56
515.29	310.56
515.506	981.56
515.721	363.56
