Data from Circ_1980_H10_HRD10591_00095.txt Node
Date: Wed Jan 03 12:38:17 EST 2024
User: Yrep
Spectrometer: HR+D1059
Trigger mode: 1
Integration Time (sec): 1.000000E-1
Scans to average: 1
Electric dark correction enabled: true
Nonlinearity correction enabled: false
Boxcar width: 0
XAxis mode: Wavelengths
Number of Pixels in Spectrum: 2048
>>>>>Begin Spectral Data<<<<<
223.165	-7.25
223.4	-7.25
223.635	-7.25
223.869	-20.25
224.104	-18.25
224.338	-13.25
224.573	-26.25
224.808	-1.25
225.042	-3.25
225.277	-11.25
225.511	-3.25
225.746	3.75
225.98	7.75
226.215	3.75
226.449	16.75
226.683	24.75
226.918	16.75
227.152	30.75
227.387	23.75
227.621	31.75
227.856	48.75
228.09	44.75
228.324	56.75
228.559	65.75
228.793	58.75
229.027	64.75
229.262	62.75
229.496	63.75
229.73	92.75
229.964	73.75
230.199	78.75
230.433	62.75
230.667	80.75
230.901	87.75
231.136	76.75
231.37	66.75
231.604	82.75
231.838	84.75
232.072	70.75
232.306	71.75
232.541	76.75
232.775	72.75
233.009	58.75
233.243	54.75
233.477	69.75
233.711	62.75
233.945	66.75
234.179	75.75
234.413	70.75
234.647	75.75
234.881	75.75
235.115	74.75
235.349	59.75
235.583	87.75
235.817	78.75
236.051	72.75
236.285	82.75
236.519	71.75
236.753	80.75
236.987	75.75
237.221	71.75
237.455	70.75
237.689	95.75
237.922	74.75
238.156	73.75
238.39	70.75
238.624	81.75
238.858	66.75
239.091	75.75
239.325	62.75
239.559	76.75
239.793	74.75
240.027	69.75
240.26	66.75
240.494	74.75
240.728	72.75
240.961	74.75
241.195	84.75
241.429	66.75
241.662	75.75
241.896	58.75
242.13	80.75
242.363	70.75
242.597	78.75
242.83	72.75
243.064	76.75
243.298	66.75
243.531	78.75
243.765	82.75
243.998	75.75
244.232	71.75
244.465	77.75
244.699	84.75
244.932	79.75
245.166	74.75
245.399	71.75
245.633	82.75
245.866	68.75
246.099	82.75
246.333	67.75
246.566	89.75
246.8	73.75
247.033	82.75
247.266	68.75
247.5	83.75
247.733	78.75
247.966	70.75
248.2	79.75
248.433	78.75
248.666	78.75
248.899	68.75
249.133	72.75
249.366	79.75
249.599	92.75
249.832	73.75
250.066	78.75
250.299	72.75
250.532	73.75
250.765	82.75
250.998	73.75
251.231	88.75
251.465	82.75
251.698	81.75
251.931	84.75
252.164	81.75
252.397	70.75
252.63	87.75
252.863	70.75
253.096	82.75
253.329	70.75
253.562	84.75
253.795	80.75
254.028	86.75
254.261	86.75
254.494	85.75
254.727	66.75
254.96	64.75
255.193	86.75
255.426	81.75
255.659	71.75
255.892	80.75
256.124	82.75
256.357	70.75
256.59	75.75
256.823	70.75
257.056	74.75
257.289	75.75
257.521	87.75
257.754	72.75
257.987	65.75
258.22	72.75
258.452	72.75
258.685	82.75
258.918	86.75
259.151	74.75
259.383	80.75
259.616	81.75
259.849	89.75
260.081	74.75
260.314	78.75
260.547	74.75
260.779	70.75
261.012	79.75
261.244	88.75
261.477	86.75
261.71	87.75
261.942	90.75
262.175	94.75
262.407	85.75
262.64	87.75
262.872	79.75
263.105	80.75
263.337	82.75
263.57	83.75
263.802	86.75
264.035	62.75
264.267	75.75
264.499	83.75
264.732	86.75
264.964	86.75
265.197	80.75
265.429	78.75
265.661	83.75
265.894	74.75
266.126	66.75
266.358	89.75
266.591	67.75
266.823	85.75
267.055	67.75
267.287	72.75
267.52	84.75
267.752	73.75
267.984	98.75
268.216	72.75
268.448	69.75
268.681	81.75
268.913	91.75
269.145	88.75
269.377	95.75
269.609	81.75
269.841	87.75
270.073	78.75
270.306	71.75
270.538	66.75
270.77	66.75
271.002	82.75
271.234	62.75
271.466	75.75
271.698	74.75
271.93	75.75
272.162	80.75
272.394	74.75
272.626	75.75
272.858	81.75
273.09	71.75
273.322	95.75
273.553	86.75
273.785	78.75
274.017	74.75
274.249	75.75
274.481	98.75
274.713	74.75
274.945	70.75
275.176	81.75
275.408	78.75
275.64	68.75
275.872	89.75
276.104	80.75
276.335	81.75
276.567	88.75
276.799	86.75
277.031	82.75
277.262	80.75
277.494	87.75
277.726	78.75
277.957	84.75
278.189	90.75
278.421	79.75
278.652	87.75
278.884	67.75
279.115	83.75
279.347	92.75
279.579	98.75
279.81	75.75
280.042	81.75
280.273	74.75
280.505	75.75
280.736	83.75
280.968	71.75
281.199	79.75
281.431	68.75
281.662	85.75
281.894	79.75
282.125	107.75
282.356	110.75
282.588	113.75
282.819	106.75
283.051	80.75
283.282	71.75
283.513	91.75
283.745	75.75
283.976	72.75
284.207	95.75
284.439	91.75
284.67	83.75
284.901	86.75
285.132	81.75
285.364	74.75
285.595	78.75
285.826	78.75
286.057	82.75
286.288	83.75
286.52	64.75
286.751	62.75
286.982	79.75
287.213	82.75
287.444	78.75
287.675	100.75
287.906	80.75
288.138	76.75
288.369	94.75
288.6	85.75
288.831	75.75
289.062	88.75
289.293	89.75
289.524	91.75
289.755	96.75
289.986	95.75
290.217	76.75
290.448	77.75
290.679	99.75
290.91	83.75
291.141	74.75
291.371	91.75
291.602	80.75
291.833	67.75
292.064	95.75
292.295	70.75
292.526	90.75
292.757	83.75
292.987	76.75
293.218	92.75
293.449	87.75
293.68	87.75
293.91	82.75
294.141	90.75
294.372	86.75
294.603	85.75
294.833	85.75
295.064	76.75
295.295	77.75
295.525	96.75
295.756	94.75
295.987	104.75
296.217	108.75
296.448	105.75
296.679	87.75
296.909	81.75
297.14	97.75
297.37	85.75
297.601	79.75
297.831	96.75
298.062	82.75
298.292	107.75
298.523	104.75
298.753	85.75
298.984	82.75
299.214	86.75
299.445	91.75
299.675	82.75
299.905	95.75
300.136	83.75
300.366	82.75
300.597	98.75
300.827	88.75
301.057	103.75
301.288	94.75
301.518	91.75
301.748	87.75
301.979	102.75
302.209	88.75
302.439	78.75
302.669	74.75
302.9	99.75
303.13	85.75
303.36	87.75
303.59	99.75
303.82	113.75
304.051	84.75
304.281	84.75
304.511	89.75
304.741	80.75
304.971	84.75
305.201	103.75
305.431	87.75
305.661	77.75
305.891	87.75
306.121	92.75
306.352	89.75
306.582	107.75
306.812	98.75
307.042	97.75
307.272	91.75
307.502	86.75
307.731	67.75
307.961	78.75
308.191	91.75
308.421	84.75
308.651	85.75
308.881	92.75
309.111	91.75
309.341	100.75
309.571	91.75
309.8	89.75
310.03	82.75
310.26	76.75
310.49	88.75
310.72	86.75
310.949	90.75
311.179	95.75
311.409	78.75
311.639	92.75
311.868	90.75
312.098	91.75
312.328	90.75
312.557	86.75
312.787	89.75
313.017	87.75
313.246	76.75
313.476	103.75
313.706	88.75
313.935	82.75
314.165	83.75
314.394	86.75
314.624	96.75
314.853	83.75
315.083	90.75
315.312	90.75
315.542	85.75
315.771	90.75
316.001	71.75
316.23	75.75
316.46	85.75
316.689	90.75
316.919	84.75
317.148	93.75
317.377	73.75
317.607	75.75
317.836	78.75
318.065	76.75
318.295	82.75
318.524	85.75
318.753	91.75
318.983	74.75
319.212	96.75
319.441	104.75
319.67	105.75
319.9	91.75
320.129	75.75
320.358	91.75
320.587	97.75
320.816	96.75
321.046	86.75
321.275	85.75
321.504	77.75
321.733	90.75
321.962	93.75
322.191	98.75
322.42	90.75
322.649	90.75
322.878	95.75
323.108	99.75
323.337	104.75
323.566	114.75
323.795	121.75
324.024	151.75
324.253	286.75
324.482	561.75
324.71	1137.75
324.939	1496.75
325.168	556.75
325.397	201.75
325.626	121.75
325.855	122.75
326.084	101.75
326.313	108.75
326.542	124.75
326.77	179.75
326.999	356.75
327.228	659.75
327.457	1164.75
327.686	933.75
327.914	285.75
328.143	150.75
328.372	120.75
328.6	112.75
328.829	113.75
329.058	103.75
329.287	110.75
329.515	89.75
329.744	93.75
329.972	100.75
330.201	95.75
330.43	132.75
330.658	106.75
330.887	107.75
331.115	111.75
331.344	91.75
331.572	91.75
331.801	95.75
332.03	98.75
332.258	111.75
332.486	86.75
332.715	76.75
332.943	76.75
333.172	90.75
333.4	78.75
333.629	91.75
333.857	84.75
334.085	111.75
334.314	105.75
334.542	122.75
334.771	130.75
334.999	110.75
335.227	75.75
335.455	96.75
335.684	84.75
335.912	98.75
336.14	100.75
336.369	90.75
336.597	99.75
336.825	91.75
337.053	88.75
337.281	83.75
337.51	81.75
337.738	100.75
337.966	94.75
338.194	82.75
338.422	83.75
338.65	83.75
338.878	81.75
339.106	96.75
339.334	93.75
339.562	90.75
339.79	90.75
340.018	89.75
340.246	87.75
340.474	102.75
340.702	95.75
340.93	72.75
341.158	82.75
341.386	94.75
341.614	81.75
341.842	87.75
342.07	88.75
342.298	70.75
342.526	83.75
342.754	86.75
342.981	66.75
343.209	90.75
343.437	97.75
343.665	78.75
343.893	73.75
344.12	92.75
344.348	84.75
344.576	79.75
344.804	90.75
345.031	83.75
345.259	94.75
345.487	86.75
345.714	83.75
345.942	72.75
346.17	98.75
346.397	86.75
346.625	88.75
346.853	85.75
347.08	78.75
347.308	84.75
347.535	79.75
347.763	79.75
347.99	89.75
348.218	95.75
348.445	94.75
348.673	86.75
348.9	90.75
349.128	74.75
349.355	89.75
349.583	91.75
349.81	80.75
350.037	108.75
350.265	88.75
350.492	78.75
350.72	89.75
350.947	91.75
351.174	93.75
351.402	97.75
351.629	101.75
351.856	101.75
352.083	88.75
352.311	86.75
352.538	96.75
352.765	98.75
352.992	106.75
353.22	95.75
353.447	97.75
353.674	103.75
353.901	88.75
354.128	91.75
354.355	107.75
354.583	102.75
354.81	105.75
355.037	101.75
355.264	100.75
355.491	98.75
355.718	95.75
355.945	100.75
356.172	88.75
356.399	80.75
356.626	87.75
356.853	80.75
357.08	96.75
357.307	87.75
357.534	78.75
357.761	96.75
357.988	99.75
358.215	97.75
358.441	82.75
358.668	89.75
358.895	78.75
359.122	85.75
359.349	84.75
359.576	88.75
359.802	98.75
360.029	92.75
360.256	90.75
360.483	88.75
360.709	75.75
360.936	89.75
361.163	84.75
361.39	100.75
361.616	75.75
361.843	80.75
362.07	79.75
362.296	106.75
362.523	81.75
362.749	84.75
362.976	92.75
363.203	86.75
363.429	90.75
363.656	87.75
363.882	100.75
364.109	91.75
364.335	84.75
364.562	87.75
364.788	92.75
365.015	82.75
365.241	82.75
365.468	100.75
365.694	83.75
365.92	82.75
366.147	87.75
366.373	84.75
366.599	80.75
366.826	88.75
367.052	81.75
367.278	78.75
367.505	90.75
367.731	73.75
367.957	81.75
368.184	86.75
368.41	67.75
368.636	102.75
368.862	119.75
369.089	99.75
369.315	108.75
369.541	83.75
369.767	63.75
369.993	77.75
370.219	92.75
370.445	75.75
370.672	69.75
370.898	82.75
371.124	91.75
371.35	79.75
371.576	74.75
371.802	94.75
372.028	84.75
372.254	97.75
372.48	81.75
372.706	93.75
372.932	79.75
373.158	90.75
373.384	86.75
373.61	97.75
373.835	84.75
374.061	91.75
374.287	89.75
374.513	79.75
374.739	89.75
374.965	78.75
375.191	83.75
375.416	91.75
375.642	93.75
375.868	89.75
376.094	87.75
376.319	83.75
376.545	90.75
376.771	84.75
376.997	98.75
377.222	89.75
377.448	83.75
377.674	74.75
377.899	73.75
378.125	75.75
378.35	79.75
378.576	82.75
378.802	88.75
379.027	90.75
379.253	73.75
379.478	80.75
379.704	112.75
379.929	95.75
380.155	80.75
380.38	92.75
380.606	92.75
380.831	86.75
381.057	105.75
381.282	84.75
381.507	89.75
381.733	86.75
381.958	90.75
382.184	96.75
382.409	90.75
382.634	99.75
382.86	88.75
383.085	101.75
383.31	104.75
383.535	85.75
383.761	89.75
383.986	92.75
384.211	98.75
384.436	98.75
384.662	91.75
384.887	83.75
385.112	102.75
385.337	99.75
385.562	94.75
385.787	107.75
386.013	96.75
386.238	99.75
386.463	101.75
386.688	88.75
386.913	87.75
387.138	103.75
387.363	87.75
387.588	87.75
387.813	106.75
388.038	102.75
388.263	107.75
388.488	103.75
388.713	101.75
388.938	86.75
389.163	94.75
389.387	87.75
389.612	83.75
389.837	93.75
390.062	89.75
390.287	92.75
390.512	94.75
390.736	87.75
390.961	91.75
391.186	94.75
391.411	82.75
391.636	89.75
391.86	89.75
392.085	82.75
392.31	78.75
392.534	83.75
392.759	86.75
392.984	82.75
393.208	100.75
393.433	85.75
393.658	80.75
393.882	69.75
394.107	84.75
394.331	90.75
394.556	78.75
394.78	78.75
395.005	72.75
395.229	70.75
395.454	80.75
395.678	68.75
395.903	94.75
396.127	87.75
396.352	88.75
396.576	86.75
396.801	85.75
397.025	89.75
397.249	81.75
397.474	89.75
397.698	74.75
397.922	67.75
398.147	79.75
398.371	80.75
398.595	75.75
398.82	78.75
399.044	87.75
399.268	92.75
399.492	80.75
399.717	82.75
399.941	87.75
400.165	83.75
400.389	89.75
400.613	86.75
400.837	95.75
401.062	86.75
401.286	74.75
401.51	68.75
401.734	81.75
401.958	96.75
402.182	88.75
402.406	126.75
402.63	98.75
402.854	88.75
403.078	90.75
403.302	90.75
403.526	76.75
403.75	78.75
403.974	85.75
404.198	89.75
404.422	88.75
404.645	80.75
404.869	92.75
405.093	94.75
405.317	94.75
405.541	85.75
405.765	83.75
405.988	104.75
406.212	133.75
406.436	171.75
406.66	119.75
406.883	90.75
407.107	75.75
407.331	80.75
407.555	82.75
407.778	95.75
408.002	83.75
408.226	88.75
408.449	84.75
408.673	82.75
408.896	87.75
409.12	87.75
409.344	70.75
409.567	78.75
409.791	93.75
410.014	91.75
410.238	73.75
410.461	83.75
410.685	82.75
410.908	106.75
411.132	95.75
411.355	82.75
411.578	81.75
411.802	92.75
412.025	84.75
412.249	87.75
412.472	88.75
412.695	96.75
412.919	86.75
413.142	90.75
413.365	74.75
413.589	73.75
413.812	89.75
414.035	97.75
414.258	84.75
414.482	91.75
414.705	85.75
414.928	94.75
415.151	90.75
415.374	82.75
415.597	72.75
415.821	88.75
416.044	88.75
416.267	84.75
416.49	93.75
416.713	80.75
416.936	84.75
417.159	78.75
417.382	73.75
417.605	75.75
417.828	82.75
418.051	80.75
418.274	85.75
418.497	80.75
418.72	87.75
418.943	72.75
419.166	68.75
419.389	91.75
419.611	74.75
419.834	80.75
420.057	88.75
420.28	63.75
420.503	84.75
420.726	87.75
420.948	72.75
421.171	81.75
421.394	76.75
421.617	82.75
421.839	75.75
422.062	89.75
422.285	103.75
422.507	89.75
422.73	76.75
422.953	89.75
423.175	82.75
423.398	92.75
423.621	86.75
423.843	81.75
424.066	81.75
424.288	85.75
424.511	93.75
424.733	80.75
424.956	86.75
425.178	98.75
425.401	83.75
425.623	101.75
425.846	87.75
426.068	88.75
426.291	79.75
426.513	89.75
426.735	94.75
426.958	89.75
427.18	105.75
427.402	127.75
427.625	130.75
427.847	84.75
428.069	89.75
428.292	101.75
428.514	85.75
428.736	80.75
428.958	83.75
429.181	94.75
429.403	75.75
429.625	72.75
429.847	84.75
430.069	92.75
430.292	70.75
430.514	90.75
430.736	80.75
430.958	89.75
431.18	82.75
431.402	79.75
431.624	86.75
431.846	74.75
432.068	82.75
432.29	95.75
432.512	91.75
432.734	90.75
432.956	89.75
433.178	100.75
433.4	90.75
433.622	80.75
433.844	73.75
434.066	82.75
434.287	73.75
434.509	82.75
434.731	89.75
434.953	84.75
435.175	88.75
435.397	75.75
435.618	88.75
435.84	88.75
436.062	96.75
436.284	87.75
436.505	95.75
436.727	96.75
436.949	82.75
437.17	91.75
437.392	78.75
437.614	73.75
437.835	104.75
438.057	117.75
438.278	94.75
438.5	102.75
438.721	111.75
438.943	107.75
439.165	89.75
439.386	83.75
439.608	81.75
439.829	86.75
440.05	89.75
440.272	113.75
440.493	97.75
440.715	83.75
440.936	89.75
441.158	72.75
441.379	80.75
441.6	90.75
441.822	98.75
442.043	84.75
442.264	103.75
442.486	102.75
442.707	83.75
442.928	85.75
443.149	93.75
443.371	106.75
443.592	100.75
443.813	104.75
444.034	83.75
444.255	94.75
444.476	92.75
444.698	86.75
444.919	75.75
445.14	129.75
445.361	111.75
445.582	82.75
445.803	111.75
446.024	120.75
446.245	114.75
446.466	85.75
446.687	85.75
446.908	75.75
447.129	82.75
447.35	91.75
447.571	88.75
447.792	74.75
448.013	91.75
448.234	94.75
448.455	98.75
448.675	94.75
448.896	98.75
449.117	86.75
449.338	84.75
449.559	108.75
449.779	107.75
450	76.75
450.221	82.75
450.442	89.75
450.662	75.75
450.883	88.75
451.104	105.75
451.324	82.75
451.545	85.75
451.766	87.75
451.986	84.75
452.207	68.75
452.428	82.75
452.648	89.75
452.869	89.75
453.089	89.75
453.31	106.75
453.53	80.75
453.751	73.75
453.971	91.75
454.192	94.75
454.412	82.75
454.633	90.75
454.853	79.75
455.073	62.75
455.294	65.75
455.514	88.75
455.734	89.75
455.955	84.75
456.175	70.75
456.395	87.75
456.616	73.75
456.836	79.75
457.056	94.75
457.276	69.75
457.497	78.75
457.717	83.75
457.937	80.75
458.157	80.75
458.377	71.75
458.598	96.75
458.818	112.75
459.038	129.75
459.258	84.75
459.478	80.75
459.698	89.75
459.918	78.75
460.138	93.75
460.358	74.75
460.578	87.75
460.798	85.75
461.018	99.75
461.238	84.75
461.458	84.75
461.678	79.75
461.898	90.75
462.118	95.75
462.338	91.75
462.558	83.75
462.777	79.75
462.997	82.75
463.217	84.75
463.437	66.75
463.657	68.75
463.876	82.75
464.096	95.75
464.316	84.75
464.536	95.75
464.755	82.75
464.975	102.75
465.195	117.75
465.414	122.75
465.634	77.75
465.854	77.75
466.073	79.75
466.293	77.75
466.512	81.75
466.732	91.75
466.951	88.75
467.171	105.75
467.391	80.75
467.61	99.75
467.829	83.75
468.049	90.75
468.268	79.75
468.488	77.75
468.707	86.75
468.927	80.75
469.146	84.75
469.365	91.75
469.585	75.75
469.804	88.75
470.023	96.75
470.243	74.75
470.462	78.75
470.681	91.75
470.901	78.75
471.12	76.75
471.339	81.75
471.558	87.75
471.777	82.75
471.997	70.75
472.216	108.75
472.435	127.75
472.654	88.75
472.873	87.75
473.092	87.75
473.311	85.75
473.53	91.75
473.749	83.75
473.968	91.75
474.187	67.75
474.406	74.75
474.625	90.75
474.844	84.75
475.063	81.75
475.282	85.75
475.501	89.75
475.72	87.75
475.939	75.75
476.158	74.75
476.377	99.75
476.596	72.75
476.814	87.75
477.033	79.75
477.252	80.75
477.471	77.75
477.69	87.75
477.908	72.75
478.127	89.75
478.346	78.75
478.564	96.75
478.783	100.75
479.002	91.75
479.22	89.75
479.439	98.75
479.658	98.75
479.876	85.75
480.095	89.75
480.313	75.75
480.532	95.75
480.751	102.75
480.969	99.75
481.188	180.75
481.406	133.75
481.624	86.75
481.843	83.75
482.061	79.75
482.28	73.75
482.498	63.75
482.717	69.75
482.935	86.75
483.153	89.75
483.372	74.75
483.59	75.75
483.808	92.75
484.027	82.75
484.245	83.75
484.463	76.75
484.681	102.75
484.9	100.75
485.118	112.75
485.336	98.75
485.554	89.75
485.772	107.75
485.99	88.75
486.209	104.75
486.427	96.75
486.645	108.75
486.863	90.75
487.081	97.75
487.299	92.75
487.517	96.75
487.735	89.75
487.953	93.75
488.171	95.75
488.389	100.75
488.607	88.75
488.825	73.75
489.043	84.75
489.261	88.75
489.479	92.75
489.696	82.75
489.914	84.75
490.132	91.75
490.35	90.75
490.568	74.75
490.786	73.75
491.003	70.75
491.221	87.75
491.439	84.75
491.657	89.75
491.874	84.75
492.092	81.75
492.31	90.75
492.527	87.75
492.745	81.75
492.963	81.75
493.18	79.75
493.398	73.75
493.615	96.75
493.833	86.75
494.05	94.75
494.268	87.75
494.485	91.75
494.703	75.75
494.92	98.75
495.138	70.75
495.355	80.75
495.573	74.75
495.79	87.75
496.008	81.75
496.225	94.75
496.442	73.75
496.66	86.75
496.877	78.75
497.094	98.75
497.312	87.75
497.529	92.75
497.746	88.75
497.963	79.75
498.181	90.75
498.398	99.75
498.615	98.75
498.832	100.75
499.049	73.75
499.267	79.75
499.484	82.75
499.701	91.75
499.918	73.75
500.135	76.75
500.352	92.75
500.569	79.75
500.786	82.75
501.003	80.75
501.22	99.75
501.437	78.75
501.654	104.75
501.871	108.75
502.088	100.75
502.305	102.75
502.522	88.75
502.739	75.75
502.956	84.75
503.172	80.75
503.389	95.75
503.606	112.75
503.823	107.75
504.04	90.75
504.256	92.75
504.473	88.75
504.69	97.75
504.907	102.75
505.123	74.75
505.34	98.75
505.557	88.75
505.773	74.75
505.99	82.75
506.207	83.75
506.423	69.75
506.64	87.75
506.856	82.75
507.073	80.75
507.289	94.75
507.506	83.75
507.722	93.75
507.939	106.75
508.155	94.75
508.372	92.75
508.588	79.75
508.805	91.75
509.021	103.75
509.238	91.75
509.454	100.75
509.67	81.75
509.887	86.75
510.103	102.75
510.319	168.75
510.536	527.75
510.752	1599.75
510.968	454.75
511.184	132.75
511.401	101.75
511.617	81.75
511.833	82.75
512.049	90.75
512.265	89.75
512.481	90.75
512.698	103.75
512.914	87.75
513.13	99.75
513.346	85.75
513.562	87.75
513.778	100.75
513.994	103.75
514.21	90.75
514.426	99.75
514.642	118.75
514.858	100.75
515.074	125.75
515.29	312.75
515.506	928.75
515.721	363.75
515.937	118.75
516.153	101.75
516.369	87.75
516.585	81.75
516.801	102.75
517.016	101.75
517.232	98.75
517.448	87.75
517.664	95.75
