Data from Circ_1980_H10_HRD10591_00086.txt Node
Date: Wed Jan 03 12:38:15 EST 2024
User: Yrep
Spectrometer: HR+D1059
Trigger mode: 1
Integration Time (sec): 1.000000E-1
Scans to average: 1
Electric dark correction enabled: true
Nonlinearity correction enabled: false
Boxcar width: 0
XAxis mode: Wavelengths
Number of Pixels in Spectrum: 2048
>>>>>Begin Spectral Data<<<<<
223.165	-32.44
223.4	-32.44
223.635	-32.44
223.869	-29.44
224.104	-23.44
224.338	-11.44
224.573	-6.44
224.808	-13.44
225.042	0.56
225.277	-11.44
225.511	-1.44
225.746	16.56
225.98	4.56
226.215	5.56
226.449	8.56
226.683	28.56
226.918	33.56
227.152	31.56
227.387	37.56
227.621	23.56
227.856	47.56
228.09	40.56
228.324	38.56
228.559	42.56
228.793	43.56
229.027	61.56
229.262	58.56
229.496	59.56
229.73	75.56
229.964	82.56
230.199	74.56
230.433	71.56
230.667	81.56
230.901	76.56
231.136	69.56
231.37	79.56
231.604	79.56
231.838	82.56
232.072	78.56
232.306	78.56
232.541	86.56
232.775	84.56
233.009	89.56
233.243	73.56
233.477	70.56
233.711	89.56
233.945	78.56
234.179	86.56
234.413	92.56
234.647	91.56
234.881	81.56
235.115	67.56
235.349	69.56
235.583	77.56
235.817	76.56
236.051	89.56
236.285	73.56
236.519	76.56
236.753	70.56
236.987	73.56
237.221	80.56
237.455	82.56
237.689	86.56
237.922	71.56
238.156	76.56
238.39	74.56
238.624	88.56
238.858	75.56
239.091	69.56
239.325	72.56
239.559	75.56
239.793	93.56
240.027	89.56
240.26	75.56
240.494	76.56
240.728	67.56
240.961	81.56
241.195	79.56
241.429	65.56
241.662	77.56
241.896	79.56
242.13	81.56
242.363	67.56
242.597	63.56
242.83	81.56
243.064	78.56
243.298	84.56
243.531	85.56
243.765	81.56
243.998	71.56
244.232	76.56
244.465	83.56
244.699	86.56
244.932	86.56
245.166	92.56
245.399	67.56
245.633	82.56
245.866	76.56
246.099	76.56
246.333	76.56
246.566	88.56
246.8	69.56
247.033	77.56
247.266	70.56
247.5	93.56
247.733	91.56
247.966	78.56
248.2	69.56
248.433	88.56
248.666	70.56
248.899	77.56
249.133	91.56
249.366	89.56
249.599	78.56
249.832	65.56
250.066	76.56
250.299	94.56
250.532	75.56
250.765	73.56
250.998	61.56
251.231	70.56
251.465	81.56
251.698	78.56
251.931	72.56
252.164	73.56
252.397	78.56
252.63	81.56
252.863	68.56
253.096	77.56
253.329	92.56
253.562	84.56
253.795	73.56
254.028	89.56
254.261	78.56
254.494	92.56
254.727	84.56
254.96	82.56
255.193	67.56
255.426	93.56
255.659	79.56
255.892	87.56
256.124	73.56
256.357	81.56
256.59	69.56
256.823	73.56
257.056	84.56
257.289	85.56
257.521	79.56
257.754	67.56
257.987	84.56
258.22	91.56
258.452	83.56
258.685	70.56
258.918	62.56
259.151	93.56
259.383	85.56
259.616	92.56
259.849	73.56
260.081	76.56
260.314	77.56
260.547	78.56
260.779	92.56
261.012	90.56
261.244	75.56
261.477	93.56
261.71	78.56
261.942	97.56
262.175	114.56
262.407	85.56
262.64	83.56
262.872	99.56
263.105	87.56
263.337	70.56
263.57	93.56
263.802	75.56
264.035	75.56
264.267	61.56
264.499	75.56
264.732	67.56
264.964	84.56
265.197	95.56
265.429	82.56
265.661	87.56
265.894	78.56
266.126	85.56
266.358	80.56
266.591	82.56
266.823	74.56
267.055	90.56
267.287	77.56
267.52	79.56
267.752	98.56
267.984	69.56
268.216	81.56
268.448	78.56
268.681	81.56
268.913	77.56
269.145	93.56
269.377	81.56
269.609	94.56
269.841	78.56
270.073	83.56
270.306	98.56
270.538	76.56
270.77	85.56
271.002	85.56
271.234	79.56
271.466	87.56
271.698	86.56
271.93	75.56
272.162	90.56
272.394	90.56
272.626	81.56
272.858	92.56
273.09	88.56
273.322	81.56
273.553	73.56
273.785	95.56
274.017	90.56
274.249	84.56
274.481	88.56
274.713	89.56
274.945	84.56
275.176	74.56
275.408	92.56
275.64	91.56
275.872	84.56
276.104	90.56
276.335	88.56
276.567	106.56
276.799	104.56
277.031	95.56
277.262	92.56
277.494	90.56
277.726	86.56
277.957	80.56
278.189	73.56
278.421	93.56
278.652	83.56
278.884	86.56
279.115	84.56
279.347	75.56
279.579	72.56
279.81	77.56
280.042	78.56
280.273	93.56
280.505	88.56
280.736	83.56
280.968	80.56
281.199	81.56
281.431	93.56
281.662	92.56
281.894	88.56
282.125	87.56
282.356	101.56
282.588	126.56
282.819	105.56
283.051	94.56
283.282	85.56
283.513	91.56
283.745	77.56
283.976	81.56
284.207	88.56
284.439	77.56
284.67	86.56
284.901	89.56
285.132	94.56
285.364	95.56
285.595	87.56
285.826	95.56
286.057	87.56
286.288	91.56
286.52	90.56
286.751	86.56
286.982	85.56
287.213	92.56
287.444	98.56
287.675	78.56
287.906	90.56
288.138	90.56
288.369	90.56
288.6	99.56
288.831	74.56
289.062	106.56
289.293	77.56
289.524	85.56
289.755	92.56
289.986	81.56
290.217	74.56
290.448	74.56
290.679	78.56
290.91	73.56
291.141	101.56
291.371	77.56
291.602	78.56
291.833	97.56
292.064	92.56
292.295	87.56
292.526	85.56
292.757	86.56
292.987	77.56
293.218	77.56
293.449	78.56
293.68	79.56
293.91	87.56
294.141	97.56
294.372	93.56
294.603	93.56
294.833	88.56
295.064	97.56
295.295	87.56
295.525	81.56
295.756	93.56
295.987	113.56
296.217	119.56
296.448	120.56
296.679	83.56
296.909	90.56
297.14	89.56
297.37	86.56
297.601	95.56
297.831	90.56
298.062	76.56
298.292	89.56
298.523	85.56
298.753	79.56
298.984	85.56
299.214	106.56
299.445	99.56
299.675	109.56
299.905	100.56
300.136	86.56
300.366	84.56
300.597	87.56
300.827	82.56
301.057	94.56
301.288	93.56
301.518	84.56
301.748	89.56
301.979	96.56
302.209	95.56
302.439	86.56
302.669	92.56
302.9	91.56
303.13	93.56
303.36	89.56
303.59	97.56
303.82	96.56
304.051	101.56
304.281	84.56
304.511	101.56
304.741	92.56
304.971	91.56
305.201	83.56
305.431	89.56
305.661	81.56
305.891	90.56
306.121	98.56
306.352	87.56
306.582	105.56
306.812	94.56
307.042	83.56
307.272	81.56
307.502	90.56
307.731	97.56
307.961	103.56
308.191	95.56
308.421	82.56
308.651	92.56
308.881	82.56
309.111	105.56
309.341	98.56
309.571	86.56
309.8	97.56
310.03	86.56
310.26	78.56
310.49	78.56
310.72	81.56
310.949	93.56
311.179	103.56
311.409	84.56
311.639	100.56
311.868	95.56
312.098	102.56
312.328	92.56
312.557	91.56
312.787	98.56
313.017	109.56
313.246	94.56
313.476	97.56
313.706	92.56
313.935	92.56
314.165	92.56
314.394	92.56
314.624	98.56
314.853	98.56
315.083	78.56
315.312	95.56
315.542	89.56
315.771	89.56
316.001	93.56
316.23	73.56
316.46	93.56
316.689	83.56
316.919	97.56
317.148	87.56
317.377	88.56
317.607	82.56
317.836	89.56
318.065	87.56
318.295	72.56
318.524	91.56
318.753	94.56
318.983	88.56
319.212	101.56
319.441	92.56
319.67	90.56
319.9	96.56
320.129	93.56
320.358	91.56
320.587	94.56
320.816	94.56
321.046	93.56
321.275	72.56
321.504	94.56
321.733	81.56
321.962	107.56
322.191	100.56
322.42	113.56
322.649	101.56
322.878	98.56
323.108	105.56
323.337	104.56
323.566	121.56
323.795	123.56
324.024	155.56
324.253	303.56
324.482	628.56
324.71	1222.56
324.939	1596.56
325.168	595.56
325.397	209.56
325.626	131.56
325.855	121.56
326.084	111.56
326.313	105.56
326.542	116.56
326.77	161.56
326.999	349.56
327.228	693.56
327.457	1225.56
327.686	982.56
327.914	299.56
328.143	166.56
328.372	132.56
328.6	104.56
328.829	110.56
329.058	115.56
329.287	107.56
329.515	94.56
329.744	95.56
329.972	89.56
330.201	122.56
330.43	124.56
330.658	111.56
330.887	127.56
331.115	114.56
331.344	82.56
331.572	97.56
331.801	107.56
332.03	101.56
332.258	107.56
332.486	104.56
332.715	88.56
332.943	94.56
333.172	94.56
333.4	95.56
333.629	104.56
333.857	94.56
334.085	107.56
334.314	106.56
334.542	129.56
334.771	122.56
334.999	97.56
335.227	90.56
335.455	97.56
335.684	103.56
335.912	103.56
336.14	94.56
336.369	101.56
336.597	77.56
336.825	86.56
337.053	90.56
337.281	103.56
337.51	74.56
337.738	92.56
337.966	103.56
338.194	91.56
338.422	95.56
338.65	85.56
338.878	99.56
339.106	90.56
339.334	70.56
339.562	83.56
339.79	77.56
340.018	81.56
340.246	84.56
340.474	101.56
340.702	91.56
340.93	86.56
341.158	92.56
341.386	90.56
341.614	86.56
341.842	87.56
342.07	93.56
342.298	94.56
342.526	82.56
342.754	87.56
342.981	100.56
343.209	89.56
343.437	90.56
343.665	83.56
343.893	70.56
344.12	85.56
344.348	81.56
344.576	83.56
344.804	83.56
345.031	92.56
345.259	98.56
345.487	81.56
345.714	83.56
345.942	90.56
346.17	87.56
346.397	91.56
346.625	82.56
346.853	89.56
347.08	76.56
347.308	102.56
347.535	93.56
347.763	97.56
347.99	103.56
348.218	90.56
348.445	94.56
348.673	90.56
348.9	89.56
349.128	93.56
349.355	115.56
349.583	97.56
349.81	100.56
350.037	76.56
350.265	97.56
350.492	90.56
350.72	87.56
350.947	89.56
351.174	98.56
351.402	118.56
351.629	102.56
351.856	93.56
352.083	106.56
352.311	109.56
352.538	103.56
352.765	104.56
352.992	99.56
353.22	90.56
353.447	95.56
353.674	95.56
353.901	97.56
354.128	93.56
354.355	82.56
354.583	99.56
354.81	91.56
355.037	98.56
355.264	91.56
355.491	94.56
355.718	87.56
355.945	90.56
356.172	93.56
356.399	93.56
356.626	89.56
356.853	75.56
357.08	85.56
357.307	91.56
357.534	93.56
357.761	97.56
357.988	99.56
358.215	103.56
358.441	93.56
358.668	92.56
358.895	89.56
359.122	93.56
359.349	89.56
359.576	104.56
359.802	89.56
360.029	105.56
360.256	106.56
360.483	93.56
360.709	87.56
360.936	93.56
361.163	95.56
361.39	90.56
361.616	97.56
361.843	89.56
362.07	90.56
362.296	101.56
362.523	91.56
362.749	102.56
362.976	76.56
363.203	86.56
363.429	89.56
363.656	89.56
363.882	85.56
364.109	99.56
364.335	96.56
364.562	82.56
364.788	85.56
365.015	86.56
365.241	94.56
365.468	96.56
365.694	86.56
365.92	97.56
366.147	98.56
366.373	90.56
366.599	97.56
366.826	96.56
367.052	87.56
367.278	92.56
367.505	85.56
367.731	85.56
367.957	65.56
368.184	84.56
368.41	93.56
368.636	103.56
368.862	117.56
369.089	99.56
369.315	94.56
369.541	98.56
369.767	85.56
369.993	91.56
370.219	97.56
370.445	76.56
370.672	78.56
370.898	90.56
371.124	87.56
371.35	81.56
371.576	89.56
371.802	101.56
372.028	98.56
372.254	95.56
372.48	93.56
372.706	93.56
372.932	94.56
373.158	92.56
373.384	92.56
373.61	101.56
373.835	90.56
374.061	94.56
374.287	104.56
374.513	86.56
374.739	93.56
374.965	89.56
375.191	93.56
375.416	85.56
375.642	106.56
375.868	93.56
376.094	77.56
376.319	98.56
376.545	99.56
376.771	91.56
376.997	99.56
377.222	93.56
377.448	86.56
377.674	86.56
377.899	88.56
378.125	90.56
378.35	85.56
378.576	94.56
378.802	79.56
379.027	90.56
379.253	91.56
379.478	107.56
379.704	89.56
379.929	103.56
380.155	88.56
380.38	88.56
380.606	95.56
380.831	77.56
381.057	102.56
381.282	85.56
381.507	87.56
381.733	92.56
381.958	101.56
382.184	100.56
382.409	86.56
382.634	77.56
382.86	96.56
383.085	100.56
383.31	87.56
383.535	96.56
383.761	96.56
383.986	106.56
384.211	99.56
384.436	99.56
384.662	107.56
384.887	102.56
385.112	104.56
385.337	102.56
385.562	95.56
385.787	104.56
386.013	104.56
386.238	114.56
386.463	112.56
386.688	102.56
386.913	93.56
387.138	102.56
387.363	101.56
387.588	109.56
387.813	115.56
388.038	101.56
388.263	99.56
388.488	121.56
388.713	101.56
388.938	97.56
389.163	99.56
389.387	100.56
389.612	83.56
389.837	91.56
390.062	90.56
390.287	91.56
390.512	91.56
390.736	103.56
390.961	88.56
391.186	94.56
391.411	91.56
391.636	85.56
391.86	94.56
392.085	92.56
392.31	89.56
392.534	93.56
392.759	87.56
392.984	96.56
393.208	86.56
393.433	102.56
393.658	105.56
393.882	85.56
394.107	81.56
394.331	94.56
394.556	96.56
394.78	83.56
395.005	100.56
395.229	75.56
395.454	105.56
395.678	76.56
395.903	97.56
396.127	85.56
396.352	106.56
396.576	75.56
396.801	90.56
397.025	69.56
397.249	85.56
397.474	87.56
397.698	94.56
397.922	110.56
398.147	91.56
398.371	83.56
398.595	83.56
398.82	83.56
399.044	81.56
399.268	91.56
399.492	106.56
399.717	92.56
399.941	88.56
400.165	75.56
400.389	84.56
400.613	83.56
400.837	84.56
401.062	94.56
401.286	85.56
401.51	103.56
401.734	86.56
401.958	92.56
402.182	111.56
402.406	148.56
402.63	111.56
402.854	92.56
403.078	96.56
403.302	94.56
403.526	83.56
403.75	82.56
403.974	80.56
404.198	77.56
404.422	88.56
404.645	68.56
404.869	106.56
405.093	83.56
405.317	77.56
405.541	103.56
405.765	76.56
405.988	98.56
406.212	143.56
406.436	175.56
406.66	105.56
406.883	99.56
407.107	114.56
407.331	99.56
407.555	86.56
407.778	89.56
408.002	86.56
408.226	81.56
408.449	91.56
408.673	76.56
408.896	74.56
409.12	97.56
409.344	90.56
409.567	99.56
409.791	102.56
410.014	93.56
410.238	93.56
410.461	95.56
410.685	84.56
410.908	83.56
411.132	102.56
411.355	103.56
411.578	97.56
411.802	89.56
412.025	90.56
412.249	90.56
412.472	99.56
412.695	88.56
412.919	86.56
413.142	93.56
413.365	93.56
413.589	81.56
413.812	97.56
414.035	91.56
414.258	93.56
414.482	85.56
414.705	83.56
414.928	95.56
415.151	89.56
415.374	91.56
415.597	71.56
415.821	81.56
416.044	77.56
416.267	88.56
416.49	102.56
416.713	87.56
416.936	81.56
417.159	89.56
417.382	84.56
417.605	89.56
417.828	88.56
418.051	88.56
418.274	78.56
418.497	91.56
418.72	92.56
418.943	84.56
419.166	92.56
419.389	91.56
419.611	86.56
419.834	85.56
420.057	81.56
420.28	106.56
420.503	94.56
420.726	89.56
420.948	79.56
421.171	101.56
421.394	78.56
421.617	97.56
421.839	82.56
422.062	88.56
422.285	92.56
422.507	90.56
422.73	92.56
422.953	85.56
423.175	88.56
423.398	95.56
423.621	81.56
423.843	84.56
424.066	89.56
424.288	89.56
424.511	92.56
424.733	83.56
424.956	108.56
425.178	102.56
425.401	100.56
425.623	106.56
425.846	83.56
426.068	105.56
426.291	99.56
426.513	87.56
426.735	91.56
426.958	94.56
427.18	92.56
427.402	124.56
427.625	137.56
427.847	106.56
428.069	116.56
428.292	97.56
428.514	109.56
428.736	74.56
428.958	89.56
429.181	77.56
429.403	79.56
429.625	74.56
429.847	95.56
430.069	88.56
430.292	76.56
430.514	86.56
430.736	97.56
430.958	94.56
431.18	106.56
431.402	90.56
431.624	71.56
431.846	94.56
432.068	93.56
432.29	83.56
432.512	78.56
432.734	79.56
432.956	98.56
433.178	113.56
433.4	83.56
433.622	84.56
433.844	78.56
434.066	92.56
434.287	60.56
434.509	88.56
434.731	99.56
434.953	90.56
435.175	96.56
435.397	99.56
435.618	90.56
435.84	92.56
436.062	106.56
436.284	115.56
436.505	109.56
436.727	91.56
436.949	97.56
437.17	98.56
437.392	61.56
437.614	93.56
437.835	103.56
438.057	111.56
438.278	88.56
438.5	104.56
438.721	127.56
438.943	101.56
439.165	93.56
439.386	93.56
439.608	83.56
439.829	94.56
440.05	106.56
440.272	124.56
440.493	105.56
440.715	79.56
440.936	83.56
441.158	83.56
441.379	94.56
441.6	101.56
441.822	89.56
442.043	94.56
442.264	99.56
442.486	102.56
442.707	87.56
442.928	101.56
443.149	115.56
443.371	124.56
443.592	92.56
443.813	105.56
444.034	105.56
444.255	90.56
444.476	101.56
444.698	84.56
444.919	91.56
445.14	128.56
445.361	129.56
445.582	101.56
445.803	124.56
446.024	105.56
446.245	123.56
446.466	102.56
446.687	97.56
446.908	102.56
447.129	91.56
447.35	102.56
447.571	91.56
447.792	88.56
448.013	85.56
448.234	95.56
448.455	105.56
448.675	111.56
448.896	103.56
449.117	99.56
449.338	82.56
449.559	113.56
449.779	116.56
450	83.56
450.221	91.56
450.442	91.56
450.662	98.56
450.883	97.56
451.104	109.56
451.324	104.56
451.545	80.56
451.766	78.56
451.986	78.56
452.207	91.56
452.428	96.56
452.648	106.56
452.869	104.56
453.089	118.56
453.31	111.56
453.53	94.56
453.751	98.56
453.971	88.56
454.192	102.56
454.412	81.56
454.633	88.56
454.853	83.56
455.073	88.56
455.294	83.56
455.514	110.56
455.734	73.56
455.955	81.56
456.175	76.56
456.395	77.56
456.616	94.56
456.836	81.56
457.056	91.56
457.276	99.56
457.497	97.56
457.717	79.56
457.937	90.56
458.157	95.56
458.377	92.56
458.598	89.56
458.818	136.56
459.038	136.56
459.258	102.56
459.478	81.56
459.698	76.56
459.918	85.56
460.138	86.56
460.358	86.56
460.578	85.56
460.798	84.56
461.018	92.56
461.238	94.56
461.458	94.56
461.678	100.56
461.898	77.56
462.118	78.56
462.338	91.56
462.558	65.56
462.777	94.56
462.997	95.56
463.217	80.56
463.437	81.56
463.657	93.56
463.876	93.56
464.096	86.56
464.316	92.56
464.536	85.56
464.755	78.56
464.975	92.56
465.195	128.56
465.414	138.56
465.634	83.56
465.854	74.56
466.073	92.56
466.293	85.56
466.512	78.56
466.732	87.56
466.951	77.56
467.171	99.56
467.391	91.56
467.61	101.56
467.829	84.56
468.049	105.56
468.268	100.56
468.488	92.56
468.707	85.56
468.927	89.56
469.146	90.56
469.365	87.56
469.585	84.56
469.804	94.56
470.023	102.56
470.243	91.56
470.462	77.56
470.681	89.56
470.901	79.56
471.12	75.56
471.339	85.56
471.558	93.56
471.777	78.56
471.997	93.56
472.216	115.56
472.435	130.56
472.654	93.56
472.873	103.56
473.092	81.56
473.311	93.56
473.53	85.56
473.749	100.56
473.968	101.56
474.187	92.56
474.406	88.56
474.625	102.56
474.844	93.56
475.063	83.56
475.282	93.56
475.501	86.56
475.72	89.56
475.939	82.56
476.158	87.56
476.377	96.56
476.596	81.56
476.814	95.56
477.033	86.56
477.252	91.56
477.471	86.56
477.69	92.56
477.908	95.56
478.127	82.56
478.346	89.56
478.564	92.56
478.783	105.56
479.002	98.56
479.22	92.56
479.439	97.56
479.658	105.56
479.876	84.56
480.095	87.56
480.313	101.56
480.532	107.56
480.751	94.56
480.969	110.56
481.188	199.56
481.406	143.56
481.624	105.56
481.843	89.56
482.061	85.56
482.28	85.56
482.498	91.56
482.717	81.56
482.935	78.56
483.153	81.56
483.372	71.56
483.59	77.56
483.808	87.56
484.027	83.56
484.245	92.56
484.463	86.56
484.681	98.56
484.9	96.56
485.118	94.56
485.336	96.56
485.554	99.56
485.772	102.56
485.99	96.56
486.209	101.56
486.427	107.56
486.645	111.56
486.863	104.56
487.081	107.56
487.299	100.56
487.517	100.56
487.735	98.56
487.953	89.56
488.171	89.56
488.389	93.56
488.607	97.56
488.825	86.56
489.043	102.56
489.261	90.56
489.479	103.56
489.696	84.56
489.914	87.56
490.132	97.56
490.35	84.56
490.568	98.56
490.786	88.56
491.003	83.56
491.221	98.56
491.439	85.56
491.657	93.56
491.874	98.56
492.092	83.56
492.31	92.56
492.527	81.56
492.745	90.56
492.963	86.56
493.18	90.56
493.398	81.56
493.615	103.56
493.833	104.56
494.05	90.56
494.268	77.56
494.485	93.56
494.703	97.56
494.92	93.56
495.138	84.56
495.355	98.56
495.573	86.56
495.79	87.56
496.008	108.56
496.225	96.56
496.442	91.56
496.66	101.56
496.877	89.56
497.094	104.56
497.312	91.56
497.529	90.56
497.746	97.56
497.963	85.56
498.181	81.56
498.398	84.56
498.615	97.56
498.832	90.56
499.049	110.56
499.267	101.56
499.484	77.56
499.701	101.56
499.918	92.56
500.135	85.56
500.352	90.56
500.569	86.56
500.786	68.56
501.003	97.56
501.22	93.56
501.437	88.56
501.654	91.56
501.871	97.56
502.088	86.56
502.305	81.56
502.522	93.56
502.739	89.56
502.956	94.56
503.172	104.56
503.389	94.56
503.606	92.56
503.823	94.56
504.04	97.56
504.256	97.56
504.473	94.56
504.69	97.56
504.907	102.56
505.123	96.56
505.34	83.56
505.557	76.56
505.773	87.56
505.99	75.56
506.207	86.56
506.423	85.56
506.64	82.56
506.856	85.56
507.073	93.56
507.289	86.56
507.506	87.56
507.722	93.56
507.939	97.56
508.155	104.56
508.372	94.56
508.588	102.56
508.805	100.56
509.021	87.56
509.238	95.56
509.454	93.56
509.67	101.56
509.887	108.56
510.103	111.56
510.319	185.56
510.536	574.56
510.752	1785.56
510.968	510.56
511.184	136.56
511.401	98.56
511.617	110.56
511.833	101.56
512.049	85.56
512.265	82.56
512.481	87.56
512.698	97.56
512.914	97.56
513.13	95.56
513.346	88.56
513.562	105.56
513.778	91.56
513.994	86.56
514.21	87.56
514.426	108.56
514.642	115.56
514.858	105.56
515.074	140.56
515.29	310.56
515.506	1034.56
515.721	391.56
515.937	138.56
516.153	99.56
516.369	94.56
