Data from Circ_1980_H10_HRD10591_00019.txt Node
Date: Wed Jan 03 12:38:02 EST 2024
User: Yrep
Spectrometer: HR+D1059
Trigger mode: 1
Integration Time (sec): 1.000000E-1
Scans to average: 1
Electric dark correction enabled: true
Nonlinearity correction enabled: false
Boxcar width: 0
XAxis mode: Wavelengths
Number of Pixels in Spectrum: 2048
>>>>>Begin Spectral Data<<<<<
223.165	-20.31
223.4	-20.31
223.635	-20.31
223.869	-11.31
224.104	-15.31
224.338	-18.31
224.573	-8.31
224.808	-14.31
225.042	-2.31
225.277	-9.31
225.511	-14.31
225.746	1.69
225.98	3.69
226.215	10.69
226.449	12.69
226.683	19.69
226.918	33.69
227.152	31.69
227.387	23.69
227.621	45.69
227.856	45.69
228.09	42.69
228.324	60.69
228.559	58.69
228.793	52.69
229.027	69.69
229.262	75.69
229.496	74.69
229.73	75.69
229.964	74.69
230.199	68.69
230.433	60.69
230.667	53.69
230.901	81.69
231.136	73.69
231.37	86.69
231.604	86.69
231.838	86.69
232.072	75.69
232.306	72.69
232.541	79.69
232.775	78.69
233.009	93.69
233.243	71.69
233.477	78.69
233.711	69.69
233.945	75.69
234.179	83.69
234.413	88.69
234.647	87.69
234.881	81.69
235.115	99.69
235.349	73.69
235.583	78.69
235.817	68.69
236.051	79.69
236.285	78.69
236.519	68.69
236.753	85.69
236.987	81.69
237.221	78.69
237.455	69.69
237.689	81.69
237.922	76.69
238.156	80.69
238.39	87.69
238.624	74.69
238.858	73.69
239.091	93.69
239.325	74.69
239.559	93.69
239.793	76.69
240.027	66.69
240.26	90.69
240.494	82.69
240.728	76.69
240.961	83.69
241.195	81.69
241.429	76.69
241.662	67.69
241.896	79.69
242.13	74.69
242.363	88.69
242.597	81.69
242.83	78.69
243.064	62.69
243.298	92.69
243.531	81.69
243.765	86.69
243.998	87.69
244.232	69.69
244.465	87.69
244.699	79.69
244.932	81.69
245.166	84.69
245.399	76.69
245.633	95.69
245.866	80.69
246.099	78.69
246.333	84.69
246.566	85.69
246.8	77.69
247.033	77.69
247.266	76.69
247.5	90.69
247.733	82.69
247.966	88.69
248.2	70.69
248.433	81.69
248.666	75.69
248.899	87.69
249.133	95.69
249.366	94.69
249.599	86.69
249.832	92.69
250.066	84.69
250.299	77.69
250.532	68.69
250.765	74.69
250.998	79.69
251.231	92.69
251.465	72.69
251.698	83.69
251.931	89.69
252.164	79.69
252.397	83.69
252.63	67.69
252.863	81.69
253.096	76.69
253.329	89.69
253.562	80.69
253.795	70.69
254.028	74.69
254.261	80.69
254.494	81.69
254.727	95.69
254.96	91.69
255.193	90.69
255.426	65.69
255.659	79.69
255.892	84.69
256.124	78.69
256.357	85.69
256.59	90.69
256.823	69.69
257.056	90.69
257.289	69.69
257.521	85.69
257.754	79.69
257.987	89.69
258.22	82.69
258.452	85.69
258.685	78.69
258.918	89.69
259.151	78.69
259.383	89.69
259.616	93.69
259.849	74.69
260.081	89.69
260.314	83.69
260.547	94.69
260.779	86.69
261.012	92.69
261.244	86.69
261.477	88.69
261.71	95.69
261.942	108.69
262.175	100.69
262.407	95.69
262.64	63.69
262.872	91.69
263.105	85.69
263.337	91.69
263.57	77.69
263.802	75.69
264.035	93.69
264.267	85.69
264.499	81.69
264.732	86.69
264.964	70.69
265.197	73.69
265.429	84.69
265.661	74.69
265.894	86.69
266.126	83.69
266.358	94.69
266.591	69.69
266.823	74.69
267.055	83.69
267.287	82.69
267.52	75.69
267.752	87.69
267.984	73.69
268.216	84.69
268.448	79.69
268.681	75.69
268.913	80.69
269.145	84.69
269.377	81.69
269.609	83.69
269.841	76.69
270.073	89.69
270.306	94.69
270.538	76.69
270.77	83.69
271.002	69.69
271.234	80.69
271.466	85.69
271.698	92.69
271.93	76.69
272.162	92.69
272.394	96.69
272.626	102.69
272.858	92.69
273.09	93.69
273.322	79.69
273.553	73.69
273.785	94.69
274.017	81.69
274.249	85.69
274.481	88.69
274.713	81.69
274.945	90.69
275.176	90.69
275.408	78.69
275.64	104.69
275.872	85.69
276.104	94.69
276.335	81.69
276.567	94.69
276.799	98.69
277.031	88.69
277.262	94.69
277.494	83.69
277.726	95.69
277.957	93.69
278.189	92.69
278.421	80.69
278.652	83.69
278.884	78.69
279.115	72.69
279.347	77.69
279.579	79.69
279.81	92.69
280.042	92.69
280.273	77.69
280.505	82.69
280.736	94.69
280.968	89.69
281.199	76.69
281.431	79.69
281.662	93.69
281.894	82.69
282.125	92.69
282.356	107.69
282.588	141.69
282.819	98.69
283.051	89.69
283.282	78.69
283.513	77.69
283.745	93.69
283.976	73.69
284.207	89.69
284.439	90.69
284.67	74.69
284.901	91.69
285.132	93.69
285.364	91.69
285.595	97.69
285.826	81.69
286.057	90.69
286.288	86.69
286.52	88.69
286.751	85.69
286.982	86.69
287.213	84.69
287.444	75.69
287.675	92.69
287.906	89.69
288.138	94.69
288.369	95.69
288.6	81.69
288.831	89.69
289.062	84.69
289.293	81.69
289.524	74.69
289.755	86.69
289.986	94.69
290.217	90.69
290.448	98.69
290.679	75.69
290.91	87.69
291.141	75.69
291.371	94.69
291.602	102.69
291.833	97.69
292.064	77.69
292.295	85.69
292.526	91.69
292.757	87.69
292.987	98.69
293.218	81.69
293.449	77.69
293.68	65.69
293.91	91.69
294.141	93.69
294.372	86.69
294.603	86.69
294.833	94.69
295.064	89.69
295.295	93.69
295.525	91.69
295.756	90.69
295.987	101.69
296.217	120.69
296.448	109.69
296.679	95.69
296.909	88.69
297.14	91.69
297.37	97.69
297.601	106.69
297.831	79.69
298.062	96.69
298.292	85.69
298.523	100.69
298.753	69.69
298.984	101.69
299.214	87.69
299.445	78.69
299.675	93.69
299.905	89.69
300.136	81.69
300.366	99.69
300.597	69.69
300.827	97.69
301.057	88.69
301.288	100.69
301.518	107.69
301.748	82.69
301.979	104.69
302.209	93.69
302.439	89.69
302.669	87.69
302.9	85.69
303.13	89.69
303.36	91.69
303.59	101.69
303.82	101.69
304.051	84.69
304.281	94.69
304.511	91.69
304.741	91.69
304.971	88.69
305.201	93.69
305.431	92.69
305.661	92.69
305.891	99.69
306.121	81.69
306.352	92.69
306.582	76.69
306.812	83.69
307.042	93.69
307.272	99.69
307.502	83.69
307.731	78.69
307.961	93.69
308.191	81.69
308.421	77.69
308.651	105.69
308.881	72.69
309.111	89.69
309.341	96.69
309.571	90.69
309.8	84.69
310.03	85.69
310.26	98.69
310.49	96.69
310.72	107.69
310.949	89.69
311.179	90.69
311.409	90.69
311.639	84.69
311.868	92.69
312.098	94.69
312.328	84.69
312.557	85.69
312.787	90.69
313.017	92.69
313.246	81.69
313.476	91.69
313.706	89.69
313.935	92.69
314.165	93.69
314.394	86.69
314.624	83.69
314.853	98.69
315.083	85.69
315.312	81.69
315.542	73.69
315.771	78.69
316.001	83.69
316.23	89.69
316.46	71.69
316.689	79.69
316.919	84.69
317.148	81.69
317.377	75.69
317.607	104.69
317.836	99.69
318.065	80.69
318.295	89.69
318.524	81.69
318.753	81.69
318.983	89.69
319.212	91.69
319.441	89.69
319.67	90.69
319.9	101.69
320.129	77.69
320.358	92.69
320.587	100.69
320.816	85.69
321.046	106.69
321.275	100.69
321.504	79.69
321.733	82.69
321.962	98.69
322.191	93.69
322.42	104.69
322.649	109.69
322.878	107.69
323.108	115.69
323.337	104.69
323.566	115.69
323.795	131.69
324.024	163.69
324.253	283.69
324.482	606.69
324.71	1216.69
324.939	1590.69
325.168	593.69
325.397	192.69
325.626	120.69
325.855	107.69
326.084	106.69
326.313	114.69
326.542	127.69
326.77	196.69
326.999	350.69
327.228	689.69
327.457	1281.69
327.686	1026.69
327.914	303.69
328.143	161.69
328.372	123.69
328.6	108.69
328.829	99.69
329.058	105.69
329.287	117.69
329.515	113.69
329.744	117.69
329.972	94.69
330.201	94.69
330.43	114.69
330.658	119.69
330.887	129.69
331.115	112.69
331.344	88.69
331.572	89.69
331.801	85.69
332.03	78.69
332.258	87.69
332.486	93.69
332.715	82.69
332.943	97.69
333.172	100.69
333.4	98.69
333.629	96.69
333.857	98.69
334.085	99.69
334.314	112.69
334.542	126.69
334.771	111.69
334.999	105.69
335.227	76.69
335.455	78.69
335.684	99.69
335.912	99.69
336.14	99.69
336.369	84.69
336.597	101.69
336.825	83.69
337.053	86.69
337.281	86.69
337.51	92.69
337.738	89.69
337.966	90.69
338.194	87.69
338.422	100.69
338.65	88.69
338.878	91.69
339.106	92.69
339.334	100.69
339.562	95.69
339.79	97.69
340.018	84.69
340.246	83.69
340.474	101.69
340.702	90.69
340.93	78.69
341.158	91.69
341.386	78.69
341.614	95.69
341.842	93.69
342.07	92.69
342.298	88.69
342.526	87.69
342.754	88.69
342.981	86.69
343.209	90.69
343.437	86.69
343.665	70.69
343.893	91.69
344.12	91.69
344.348	102.69
344.576	95.69
344.804	100.69
345.031	91.69
345.259	95.69
345.487	95.69
345.714	85.69
345.942	79.69
346.17	96.69
346.397	72.69
346.625	105.69
346.853	110.69
347.08	77.69
347.308	89.69
347.535	92.69
347.763	95.69
347.99	81.69
348.218	88.69
348.445	105.69
348.673	105.69
348.9	105.69
349.128	94.69
349.355	97.69
349.583	99.69
349.81	83.69
350.037	73.69
350.265	97.69
350.492	78.69
350.72	77.69
350.947	107.69
351.174	108.69
351.402	101.69
351.629	84.69
351.856	90.69
352.083	88.69
352.311	98.69
352.538	108.69
352.765	99.69
352.992	103.69
353.22	105.69
353.447	102.69
353.674	97.69
353.901	91.69
354.128	81.69
354.355	104.69
354.583	96.69
354.81	94.69
355.037	104.69
355.264	90.69
355.491	83.69
355.718	87.69
355.945	94.69
356.172	98.69
356.399	102.69
356.626	87.69
356.853	99.69
357.08	100.69
357.307	106.69
357.534	92.69
357.761	95.69
357.988	103.69
358.215	96.69
358.441	104.69
358.668	82.69
358.895	89.69
359.122	87.69
359.349	89.69
359.576	85.69
359.802	94.69
360.029	91.69
360.256	98.69
360.483	89.69
360.709	78.69
360.936	95.69
361.163	89.69
361.39	92.69
361.616	98.69
361.843	74.69
362.07	75.69
362.296	90.69
362.523	85.69
362.749	81.69
362.976	87.69
363.203	87.69
363.429	97.69
363.656	105.69
363.882	85.69
364.109	85.69
364.335	83.69
364.562	105.69
364.788	98.69
365.015	84.69
365.241	85.69
365.468	111.69
365.694	99.69
365.92	97.69
366.147	81.69
366.373	74.69
366.599	96.69
366.826	85.69
367.052	99.69
367.278	83.69
367.505	91.69
367.731	101.69
367.957	84.69
368.184	100.69
368.41	74.69
368.636	83.69
368.862	99.69
369.089	105.69
369.315	93.69
369.541	82.69
369.767	71.69
369.993	83.69
370.219	95.69
370.445	88.69
370.672	81.69
370.898	81.69
371.124	94.69
371.35	83.69
371.576	81.69
371.802	84.69
372.028	91.69
372.254	84.69
372.48	80.69
372.706	94.69
372.932	77.69
373.158	99.69
373.384	97.69
373.61	95.69
373.835	83.69
374.061	89.69
374.287	91.69
374.513	105.69
374.739	98.69
374.965	86.69
375.191	94.69
375.416	88.69
375.642	91.69
375.868	93.69
376.094	84.69
376.319	95.69
376.545	93.69
376.771	73.69
376.997	93.69
377.222	85.69
377.448	94.69
377.674	108.69
377.899	82.69
378.125	84.69
378.35	89.69
378.576	98.69
378.802	91.69
379.027	89.69
379.253	72.69
379.478	97.69
379.704	97.69
379.929	85.69
380.155	86.69
380.38	97.69
380.606	98.69
380.831	95.69
381.057	91.69
381.282	102.69
381.507	92.69
381.733	99.69
381.958	100.69
382.184	110.69
382.409	101.69
382.634	112.69
382.86	111.69
383.085	112.69
383.31	99.69
383.535	106.69
383.761	94.69
383.986	107.69
384.211	106.69
384.436	113.69
384.662	95.69
384.887	102.69
385.112	117.69
385.337	116.69
385.562	105.69
385.787	109.69
386.013	123.69
386.238	107.69
386.463	106.69
386.688	119.69
386.913	111.69
387.138	119.69
387.363	101.69
387.588	90.69
387.813	114.69
388.038	127.69
388.263	124.69
388.488	109.69
388.713	105.69
388.938	94.69
389.163	101.69
389.387	94.69
389.612	96.69
389.837	97.69
390.062	83.69
390.287	98.69
390.512	95.69
390.736	103.69
390.961	87.69
391.186	93.69
391.411	94.69
391.636	88.69
391.86	78.69
392.085	81.69
392.31	83.69
392.534	77.69
392.759	96.69
392.984	83.69
393.208	87.69
393.433	93.69
393.658	64.69
393.882	93.69
394.107	83.69
394.331	81.69
394.556	88.69
394.78	87.69
395.005	85.69
395.229	87.69
395.454	86.69
395.678	78.69
395.903	103.69
396.127	91.69
396.352	88.69
396.576	93.69
396.801	97.69
397.025	97.69
397.249	97.69
397.474	84.69
397.698	77.69
397.922	86.69
398.147	81.69
398.371	85.69
398.595	79.69
398.82	84.69
399.044	86.69
399.268	88.69
399.492	96.69
399.717	103.69
399.941	91.69
400.165	91.69
400.389	87.69
400.613	77.69
400.837	95.69
401.062	87.69
401.286	92.69
401.51	76.69
401.734	92.69
401.958	88.69
402.182	98.69
402.406	110.69
402.63	106.69
402.854	97.69
403.078	91.69
403.302	88.69
403.526	79.69
403.75	85.69
403.974	87.69
404.198	91.69
404.422	76.69
404.645	85.69
404.869	84.69
405.093	104.69
405.317	91.69
405.541	83.69
405.765	94.69
405.988	111.69
406.212	145.69
406.436	174.69
406.66	126.69
406.883	97.69
407.107	81.69
407.331	89.69
407.555	107.69
407.778	92.69
408.002	85.69
408.226	81.69
408.449	78.69
408.673	101.69
408.896	86.69
409.12	88.69
409.344	85.69
409.567	90.69
409.791	89.69
410.014	94.69
410.238	87.69
410.461	89.69
410.685	83.69
410.908	103.69
411.132	104.69
411.355	91.69
411.578	95.69
411.802	89.69
412.025	84.69
412.249	82.69
412.472	87.69
412.695	106.69
412.919	87.69
413.142	88.69
413.365	86.69
413.589	96.69
413.812	99.69
414.035	102.69
414.258	104.69
414.482	93.69
414.705	84.69
414.928	95.69
415.151	81.69
415.374	94.69
415.597	102.69
415.821	108.69
416.044	90.69
416.267	92.69
416.49	96.69
416.713	78.69
416.936	78.69
417.159	69.69
417.382	84.69
417.605	85.69
417.828	91.69
418.051	86.69
418.274	87.69
418.497	91.69
418.72	88.69
418.943	93.69
419.166	89.69
419.389	88.69
419.611	76.69
419.834	89.69
420.057	98.69
420.28	93.69
420.503	89.69
420.726	90.69
420.948	82.69
421.171	104.69
421.394	97.69
421.617	101.69
421.839	83.69
422.062	87.69
422.285	81.69
422.507	93.69
422.73	85.69
422.953	95.69
423.175	99.69
423.398	91.69
423.621	91.69
423.843	107.69
424.066	86.69
424.288	73.69
424.511	91.69
424.733	106.69
424.956	97.69
425.178	98.69
425.401	85.69
425.623	86.69
425.846	86.69
426.068	96.69
426.291	79.69
426.513	90.69
426.735	95.69
426.958	84.69
427.18	88.69
427.402	113.69
427.625	125.69
427.847	117.69
428.069	87.69
428.292	81.69
428.514	91.69
428.736	89.69
428.958	88.69
429.181	101.69
429.403	89.69
429.625	89.69
429.847	93.69
430.069	83.69
430.292	87.69
430.514	76.69
430.736	84.69
430.958	87.69
431.18	101.69
431.402	86.69
431.624	76.69
431.846	75.69
432.068	83.69
432.29	86.69
432.512	74.69
432.734	87.69
432.956	99.69
433.178	108.69
433.4	89.69
433.622	77.69
433.844	90.69
434.066	107.69
434.287	101.69
434.509	71.69
434.731	108.69
434.953	85.69
435.175	88.69
435.397	88.69
435.618	97.69
435.84	102.69
436.062	99.69
436.284	98.69
436.505	94.69
436.727	100.69
436.949	92.69
437.17	95.69
437.392	84.69
437.614	76.69
437.835	102.69
438.057	89.69
438.278	97.69
438.5	98.69
438.721	94.69
438.943	90.69
439.165	95.69
439.386	88.69
439.608	95.69
439.829	105.69
440.05	124.69
440.272	123.69
440.493	102.69
440.715	94.69
440.936	90.69
441.158	93.69
441.379	84.69
441.6	81.69
441.822	82.69
442.043	93.69
442.264	92.69
442.486	100.69
442.707	85.69
442.928	108.69
443.149	127.69
443.371	110.69
443.592	94.69
443.813	97.69
444.034	107.69
444.255	66.69
444.476	78.69
444.698	81.69
444.919	83.69
445.14	112.69
445.361	123.69
445.582	104.69
445.803	123.69
446.024	110.69
446.245	111.69
446.466	106.69
446.687	88.69
446.908	76.69
447.129	100.69
447.35	93.69
447.571	86.69
447.792	94.69
448.013	92.69
448.234	91.69
448.455	78.69
448.675	97.69
448.896	97.69
449.117	92.69
449.338	111.69
449.559	108.69
449.779	121.69
450	82.69
450.221	88.69
450.442	76.69
450.662	93.69
450.883	90.69
451.104	106.69
451.324	85.69
451.545	91.69
451.766	74.69
451.986	77.69
452.207	99.69
452.428	88.69
452.648	94.69
452.869	109.69
453.089	107.69
453.31	113.69
453.53	89.69
453.751	85.69
453.971	98.69
454.192	96.69
454.412	98.69
454.633	77.69
454.853	79.69
455.073	93.69
455.294	93.69
455.514	87.69
455.734	93.69
455.955	92.69
456.175	91.69
456.395	87.69
456.616	89.69
456.836	86.69
457.056	90.69
457.276	75.69
457.497	68.69
457.717	79.69
457.937	86.69
458.157	89.69
458.377	85.69
458.598	97.69
458.818	118.69
459.038	125.69
459.258	103.69
459.478	73.69
459.698	83.69
459.918	88.69
460.138	84.69
460.358	91.69
460.578	92.69
460.798	93.69
461.018	83.69
461.238	81.69
461.458	90.69
461.678	88.69
461.898	87.69
462.118	77.69
462.338	101.69
462.558	75.69
462.777	93.69
462.997	69.69
463.217	74.69
463.437	92.69
463.657	85.69
463.876	81.69
464.096	98.69
464.316	90.69
464.536	89.69
464.755	99.69
464.975	87.69
465.195	125.69
465.414	128.69
465.634	96.69
465.854	92.69
466.073	101.69
466.293	83.69
466.512	75.69
466.732	81.69
466.951	78.69
467.171	84.69
467.391	90.69
467.61	92.69
467.829	92.69
468.049	107.69
468.268	95.69
468.488	87.69
468.707	101.69
468.927	92.69
469.146	79.69
469.365	111.69
469.585	72.69
469.804	97.69
470.023	92.69
470.243	89.69
470.462	99.69
470.681	101.69
470.901	77.69
471.12	69.69
471.339	84.69
471.558	79.69
471.777	93.69
471.997	110.69
472.216	116.69
472.435	120.69
472.654	93.69
472.873	90.69
473.092	101.69
473.311	102.69
473.53	88.69
473.749	86.69
473.968	93.69
474.187	95.69
474.406	87.69
474.625	94.69
474.844	75.69
475.063	92.69
475.282	87.69
475.501	94.69
475.72	85.69
475.939	91.69
476.158	85.69
476.377	81.69
476.596	96.69
476.814	100.69
477.033	89.69
477.252	90.69
477.471	82.69
477.69	85.69
477.908	90.69
478.127	109.69
478.346	77.69
478.564	90.69
478.783	97.69
479.002	98.69
479.22	85.69
479.439	103.69
479.658	95.69
479.876	89.69
480.095	77.69
480.313	89.69
480.532	83.69
480.751	92.69
480.969	110.69
481.188	194.69
481.406	147.69
481.624	90.69
481.843	97.69
482.061	83.69
482.28	86.69
482.498	100.69
482.717	99.69
482.935	100.69
483.153	82.69
483.372	84.69
483.59	90.69
483.808	85.69
484.027	85.69
484.245	84.69
484.463	78.69
484.681	103.69
484.9	87.69
485.118	94.69
485.336	74.69
485.554	102.69
485.772	100.69
485.99	108.69
486.209	112.69
486.427	100.69
486.645	91.69
486.863	101.69
487.081	124.69
487.299	81.69
487.517	93.69
487.735	85.69
487.953	82.69
488.171	94.69
488.389	96.69
488.607	88.69
488.825	83.69
489.043	89.69
489.261	97.69
489.479	86.69
489.696	90.69
489.914	89.69
490.132	76.69
490.35	86.69
490.568	77.69
490.786	91.69
491.003	85.69
491.221	93.69
491.439	71.69
491.657	87.69
491.874	89.69
492.092	66.69
492.31	88.69
492.527	81.69
492.745	109.69
492.963	91.69
493.18	86.69
493.398	90.69
493.615	90.69
493.833	92.69
494.05	90.69
494.268	90.69
494.485	108.69
494.703	76.69
494.92	81.69
495.138	82.69
495.355	94.69
495.573	82.69
495.79	99.69
496.008	94.69
496.225	93.69
496.442	102.69
496.66	92.69
496.877	98.69
497.094	93.69
497.312	77.69
497.529	89.69
497.746	86.69
497.963	89.69
498.181	85.69
498.398	117.69
498.615	102.69
498.832	102.69
499.049	91.69
499.267	94.69
499.484	90.69
499.701	93.69
499.918	91.69
500.135	85.69
500.352	91.69
500.569	92.69
500.786	88.69
501.003	99.69
501.22	93.69
501.437	98.69
501.654	107.69
501.871	102.69
502.088	85.69
502.305	95.69
502.522	95.69
502.739	88.69
502.956	95.69
503.172	92.69
503.389	94.69
503.606	87.69
503.823	102.69
504.04	87.69
504.256	97.69
504.473	87.69
504.69	87.69
504.907	101.69
505.123	87.69
505.34	88.69
505.557	89.69
505.773	82.69
505.99	89.69
506.207	83.69
506.423	82.69
506.64	83.69
506.856	99.69
507.073	102.69
507.289	97.69
507.506	82.69
507.722	95.69
507.939	93.69
508.155	107.69
508.372	104.69
508.588	89.69
508.805	102.69
509.021	90.69
509.238	104.69
509.454	109.69
509.67	111.69
509.887	89.69
510.103	125.69
510.319	165.69
510.536	566.69
510.752	1664.69
510.968	481.69
511.184	139.69
511.401	101.69
511.617	96.69
511.833	106.69
512.049	89.69
512.265	93.69
512.481	97.69
512.698	104.69
512.914	94.69
513.13	82.69
513.346	91.69
513.562	94.69
513.778	84.69
513.994	100.69
514.21	85.69
514.426	97.69
514.642	120.69
514.858	101.69
515.074	137.69
515.29	315.69
515.506	950.69
515.721	369.69
515.937	130.69
516.153	86.69
516.369	78.69
516.585	96.69
