Data from Circ_1980_H10_HRD10591_00001.txt Node
Date: Wed Jan 03 12:37:58 EST 2024
User: Yrep
Spectrometer: HR+D1059
Trigger mode: 1
Integration Time (sec): 1.000000E-1
Scans to average: 1
Electric dark correction enabled: true
Nonlinearity correction enabled: false
Boxcar width: 0
XAxis mode: Wavelengths
Number of Pixels in Spectrum: 2048
>>>>>Begin Spectral Data<<<<<
223.165	-7.12
223.4	-7.12
223.635	-7.12
223.869	-11.12
224.104	-27.12
224.338	-22.12
224.573	-19.12
224.808	-10.12
225.042	-18.12
225.277	-5.12
225.511	6.88
225.746	2.88
225.98	11.88
226.215	2.88
226.449	9.88
226.683	25.88
226.918	28.88
227.152	30.88
227.387	32.88
227.621	42.88
227.856	44.88
228.09	51.88
228.324	46.88
228.559	42.88
228.793	57.88
229.027	60.88
229.262	48.88
229.496	68.88
229.73	81.88
229.964	81.88
230.199	74.88
230.433	67.88
230.667	69.88
230.901	74.88
231.136	69.88
231.37	74.88
231.604	90.88
231.838	74.88
232.072	66.88
232.306	77.88
232.541	75.88
232.775	85.88
233.009	85.88
233.243	89.88
233.477	80.88
233.711	86.88
233.945	75.88
234.179	74.88
234.413	84.88
234.647	74.88
234.881	82.88
235.115	78.88
235.349	87.88
235.583	89.88
235.817	84.88
236.051	82.88
236.285	74.88
236.519	74.88
236.753	81.88
236.987	76.88
237.221	80.88
237.455	91.88
237.689	83.88
237.922	90.88
238.156	75.88
238.39	74.88
238.624	75.88
238.858	77.88
239.091	76.88
239.325	87.88
239.559	93.88
239.793	65.88
240.027	81.88
240.26	62.88
240.494	79.88
240.728	71.88
240.961	65.88
241.195	91.88
241.429	101.88
241.662	76.88
241.896	71.88
242.13	69.88
242.363	69.88
242.597	71.88
242.83	74.88
243.064	84.88
243.298	78.88
243.531	71.88
243.765	71.88
243.998	74.88
244.232	82.88
244.465	87.88
244.699	82.88
244.932	93.88
245.166	90.88
245.399	72.88
245.633	68.88
245.866	79.88
246.099	85.88
246.333	74.88
246.566	79.88
246.8	89.88
247.033	75.88
247.266	89.88
247.5	73.88
247.733	83.88
247.966	89.88
248.2	78.88
248.433	78.88
248.666	84.88
248.899	85.88
249.133	76.88
249.366	91.88
249.599	79.88
249.832	82.88
250.066	79.88
250.299	79.88
250.532	74.88
250.765	76.88
250.998	62.88
251.231	70.88
251.465	78.88
251.698	85.88
251.931	89.88
252.164	76.88
252.397	89.88
252.63	70.88
252.863	78.88
253.096	85.88
253.329	77.88
253.562	67.88
253.795	86.88
254.028	68.88
254.261	85.88
254.494	74.88
254.727	76.88
254.96	81.88
255.193	73.88
255.426	89.88
255.659	88.88
255.892	82.88
256.124	93.88
256.357	85.88
256.59	75.88
256.823	78.88
257.056	70.88
257.289	101.88
257.521	81.88
257.754	73.88
257.987	73.88
258.22	83.88
258.452	82.88
258.685	71.88
258.918	91.88
259.151	73.88
259.383	74.88
259.616	87.88
259.849	78.88
260.081	88.88
260.314	78.88
260.547	83.88
260.779	83.88
261.012	70.88
261.244	86.88
261.477	80.88
261.71	91.88
261.942	103.88
262.175	94.88
262.407	79.88
262.64	84.88
262.872	86.88
263.105	76.88
263.337	93.88
263.57	89.88
263.802	86.88
264.035	83.88
264.267	86.88
264.499	78.88
264.732	87.88
264.964	84.88
265.197	75.88
265.429	79.88
265.661	78.88
265.894	81.88
266.126	83.88
266.358	70.88
266.591	86.88
266.823	89.88
267.055	85.88
267.287	85.88
267.52	84.88
267.752	75.88
267.984	83.88
268.216	85.88
268.448	78.88
268.681	87.88
268.913	77.88
269.145	78.88
269.377	65.88
269.609	83.88
269.841	74.88
270.073	81.88
270.306	92.88
270.538	81.88
270.77	86.88
271.002	79.88
271.234	86.88
271.466	76.88
271.698	88.88
271.93	92.88
272.162	77.88
272.394	75.88
272.626	65.88
272.858	94.88
273.09	91.88
273.322	109.88
273.553	78.88
273.785	88.88
274.017	83.88
274.249	99.88
274.481	85.88
274.713	94.88
274.945	91.88
275.176	91.88
275.408	85.88
275.64	74.88
275.872	85.88
276.104	78.88
276.335	87.88
276.567	99.88
276.799	100.88
277.031	98.88
277.262	77.88
277.494	83.88
277.726	78.88
277.957	100.88
278.189	90.88
278.421	90.88
278.652	90.88
278.884	85.88
279.115	85.88
279.347	77.88
279.579	78.88
279.81	87.88
280.042	89.88
280.273	91.88
280.505	72.88
280.736	73.88
280.968	88.88
281.199	77.88
281.431	78.88
281.662	86.88
281.894	89.88
282.125	81.88
282.356	90.88
282.588	94.88
282.819	99.88
283.051	81.88
283.282	75.88
283.513	69.88
283.745	90.88
283.976	92.88
284.207	93.88
284.439	98.88
284.67	71.88
284.901	90.88
285.132	88.88
285.364	85.88
285.595	78.88
285.826	97.88
286.057	93.88
286.288	92.88
286.52	69.88
286.751	77.88
286.982	91.88
287.213	81.88
287.444	89.88
287.675	107.88
287.906	81.88
288.138	81.88
288.369	107.88
288.6	89.88
288.831	89.88
289.062	70.88
289.293	94.88
289.524	101.88
289.755	93.88
289.986	86.88
290.217	99.88
290.448	78.88
290.679	77.88
290.91	88.88
291.141	92.88
291.371	95.88
291.602	71.88
291.833	89.88
292.064	85.88
292.295	79.88
292.526	83.88
292.757	99.88
292.987	95.88
293.218	90.88
293.449	85.88
293.68	83.88
293.91	93.88
294.141	106.88
294.372	89.88
294.603	81.88
294.833	93.88
295.064	97.88
295.295	101.88
295.525	101.88
295.756	97.88
295.987	100.88
296.217	105.88
296.448	95.88
296.679	109.88
296.909	96.88
297.14	77.88
297.37	81.88
297.601	97.88
297.831	93.88
298.062	86.88
298.292	91.88
298.523	78.88
298.753	87.88
298.984	85.88
299.214	85.88
299.445	90.88
299.675	92.88
299.905	94.88
300.136	83.88
300.366	100.88
300.597	85.88
300.827	83.88
301.057	90.88
301.288	81.88
301.518	85.88
301.748	95.88
301.979	89.88
302.209	86.88
302.439	97.88
302.669	83.88
302.9	81.88
303.13	87.88
303.36	90.88
303.59	102.88
303.82	91.88
304.051	94.88
304.281	66.88
304.511	95.88
304.741	77.88
304.971	82.88
305.201	78.88
305.431	97.88
305.661	72.88
305.891	81.88
306.121	91.88
306.352	86.88
306.582	89.88
306.812	98.88
307.042	91.88
307.272	85.88
307.502	93.88
307.731	89.88
307.961	86.88
308.191	79.88
308.421	76.88
308.651	84.88
308.881	105.88
309.111	81.88
309.341	93.88
309.571	98.88
309.8	90.88
310.03	86.88
310.26	75.88
310.49	85.88
310.72	95.88
310.949	97.88
311.179	81.88
311.409	96.88
311.639	97.88
311.868	107.88
312.098	87.88
312.328	92.88
312.557	91.88
312.787	93.88
313.017	98.88
313.246	91.88
313.476	93.88
313.706	83.88
313.935	91.88
314.165	95.88
314.394	89.88
314.624	94.88
314.853	97.88
315.083	85.88
315.312	78.88
315.542	93.88
315.771	95.88
316.001	105.88
316.23	100.88
316.46	90.88
316.689	95.88
316.919	89.88
317.148	93.88
317.377	86.88
317.607	89.88
317.836	80.88
318.065	84.88
318.295	84.88
318.524	90.88
318.753	87.88
318.983	74.88
319.212	87.88
319.441	104.88
319.67	82.88
319.9	83.88
320.129	85.88
320.358	105.88
320.587	93.88
320.816	106.88
321.046	102.88
321.275	99.88
321.504	101.88
321.733	92.88
321.962	90.88
322.191	103.88
322.42	98.88
322.649	95.88
322.878	90.88
323.108	97.88
323.337	115.88
323.566	117.88
323.795	122.88
324.024	177.88
324.253	296.88
324.482	574.88
324.71	1129.88
324.939	1469.88
325.168	545.88
325.397	190.88
325.626	127.88
325.855	117.88
326.084	111.88
326.313	112.88
326.542	127.88
326.77	170.88
326.999	353.88
327.228	653.88
327.457	1174.88
327.686	949.88
327.914	278.88
328.143	129.88
328.372	123.88
328.6	103.88
328.829	90.88
329.058	102.88
329.287	91.88
329.515	101.88
329.744	100.88
329.972	94.88
330.201	114.88
330.43	111.88
330.658	113.88
330.887	102.88
331.115	103.88
331.344	92.88
331.572	98.88
331.801	89.88
332.03	96.88
332.258	90.88
332.486	77.88
332.715	79.88
332.943	89.88
333.172	97.88
333.4	107.88
333.629	90.88
333.857	105.88
334.085	91.88
334.314	101.88
334.542	125.88
334.771	107.88
334.999	97.88
335.227	84.88
335.455	87.88
335.684	95.88
335.912	102.88
336.14	91.88
336.369	88.88
336.597	88.88
336.825	99.88
337.053	101.88
337.281	92.88
337.51	99.88
337.738	86.88
337.966	94.88
338.194	96.88
338.422	69.88
338.65	88.88
338.878	91.88
339.106	79.88
339.334	94.88
339.562	93.88
339.79	93.88
340.018	98.88
340.246	85.88
340.474	75.88
340.702	102.88
340.93	94.88
341.158	85.88
341.386	89.88
341.614	98.88
341.842	98.88
342.07	94.88
342.298	92.88
342.526	89.88
342.754	79.88
342.981	77.88
343.209	78.88
343.437	102.88
343.665	91.88
343.893	86.88
344.12	102.88
344.348	98.88
344.576	84.88
344.804	92.88
345.031	89.88
345.259	101.88
345.487	94.88
345.714	95.88
345.942	88.88
346.17	93.88
346.397	93.88
346.625	91.88
346.853	78.88
347.08	85.88
347.308	90.88
347.535	102.88
347.763	94.88
347.99	89.88
348.218	87.88
348.445	93.88
348.673	97.88
348.9	92.88
349.128	87.88
349.355	78.88
349.583	86.88
349.81	102.88
350.037	95.88
350.265	92.88
350.492	103.88
350.72	75.88
350.947	102.88
351.174	96.88
351.402	98.88
351.629	98.88
351.856	106.88
352.083	97.88
352.311	99.88
352.538	105.88
352.765	93.88
352.992	108.88
353.22	91.88
353.447	104.88
353.674	100.88
353.901	94.88
354.128	75.88
354.355	89.88
354.583	80.88
354.81	91.88
355.037	102.88
355.264	89.88
355.491	89.88
355.718	86.88
355.945	87.88
356.172	90.88
356.399	91.88
356.626	107.88
356.853	100.88
357.08	92.88
357.307	93.88
357.534	90.88
357.761	83.88
357.988	94.88
358.215	97.88
358.441	104.88
358.668	97.88
358.895	84.88
359.122	102.88
359.349	102.88
359.576	92.88
359.802	100.88
360.029	102.88
360.256	98.88
360.483	75.88
360.709	96.88
360.936	82.88
361.163	95.88
361.39	88.88
361.616	79.88
361.843	93.88
362.07	98.88
362.296	89.88
362.523	81.88
362.749	96.88
362.976	89.88
363.203	79.88
363.429	106.88
363.656	87.88
363.882	87.88
364.109	90.88
364.335	101.88
364.562	81.88
364.788	85.88
365.015	86.88
365.241	84.88
365.468	105.88
365.694	87.88
365.92	86.88
366.147	94.88
366.373	76.88
366.599	83.88
366.826	93.88
367.052	91.88
367.278	98.88
367.505	77.88
367.731	99.88
367.957	85.88
368.184	93.88
368.41	74.88
368.636	91.88
368.862	114.88
369.089	92.88
369.315	88.88
369.541	95.88
369.767	91.88
369.993	92.88
370.219	94.88
370.445	80.88
370.672	76.88
370.898	77.88
371.124	102.88
371.35	90.88
371.576	91.88
371.802	85.88
372.028	92.88
372.254	90.88
372.48	92.88
372.706	78.88
372.932	86.88
373.158	67.88
373.384	87.88
373.61	93.88
373.835	85.88
374.061	90.88
374.287	101.88
374.513	101.88
374.739	77.88
374.965	93.88
375.191	92.88
375.416	101.88
375.642	94.88
375.868	79.88
376.094	91.88
376.319	85.88
376.545	102.88
376.771	85.88
376.997	93.88
377.222	81.88
377.448	87.88
377.674	74.88
377.899	86.88
378.125	104.88
378.35	81.88
378.576	88.88
378.802	77.88
379.027	91.88
379.253	97.88
379.478	101.88
379.704	110.88
379.929	100.88
380.155	85.88
380.38	112.88
380.606	101.88
380.831	87.88
381.057	115.88
381.282	100.88
381.507	110.88
381.733	99.88
381.958	109.88
382.184	116.88
382.409	105.88
382.634	121.88
382.86	130.88
383.085	109.88
383.31	113.88
383.535	107.88
383.761	121.88
383.986	102.88
384.211	110.88
384.436	96.88
384.662	119.88
384.887	130.88
385.112	110.88
385.337	129.88
385.562	121.88
385.787	121.88
386.013	125.88
386.238	132.88
386.463	121.88
386.688	140.88
386.913	118.88
387.138	125.88
387.363	130.88
387.588	119.88
387.813	105.88
388.038	122.88
388.263	135.88
388.488	136.88
388.713	100.88
388.938	101.88
389.163	85.88
389.387	102.88
389.612	95.88
389.837	94.88
390.062	102.88
390.287	101.88
390.512	97.88
390.736	81.88
390.961	90.88
391.186	88.88
391.411	99.88
391.636	91.88
391.86	95.88
392.085	90.88
392.31	78.88
392.534	65.88
392.759	85.88
392.984	84.88
393.208	90.88
393.433	99.88
393.658	92.88
393.882	94.88
394.107	91.88
394.331	91.88
394.556	79.88
394.78	98.88
395.005	84.88
395.229	109.88
395.454	91.88
395.678	85.88
395.903	85.88
396.127	86.88
396.352	82.88
396.576	87.88
396.801	95.88
397.025	82.88
397.249	81.88
397.474	105.88
397.698	79.88
397.922	79.88
398.147	73.88
398.371	93.88
398.595	79.88
398.82	99.88
399.044	79.88
399.268	79.88
399.492	76.88
399.717	74.88
399.941	74.88
400.165	82.88
400.389	78.88
400.613	78.88
400.837	96.88
401.062	87.88
401.286	87.88
401.51	81.88
401.734	77.88
401.958	83.88
402.182	106.88
402.406	116.88
402.63	103.88
402.854	100.88
403.078	85.88
403.302	85.88
403.526	90.88
403.75	99.88
403.974	102.88
404.198	95.88
404.422	89.88
404.645	85.88
404.869	91.88
405.093	83.88
405.317	85.88
405.541	93.88
405.765	83.88
405.988	90.88
406.212	121.88
406.436	171.88
406.66	118.88
406.883	99.88
407.107	97.88
407.331	81.88
407.555	93.88
407.778	81.88
408.002	103.88
408.226	99.88
408.449	82.88
408.673	91.88
408.896	98.88
409.12	93.88
409.344	89.88
409.567	70.88
409.791	88.88
410.014	95.88
410.238	97.88
410.461	94.88
410.685	91.88
410.908	116.88
411.132	101.88
411.355	88.88
411.578	71.88
411.802	93.88
412.025	97.88
412.249	89.88
412.472	95.88
412.695	109.88
412.919	85.88
413.142	93.88
413.365	80.88
413.589	78.88
413.812	82.88
414.035	91.88
414.258	87.88
414.482	93.88
414.705	85.88
414.928	101.88
415.151	92.88
415.374	79.88
415.597	89.88
415.821	101.88
416.044	86.88
416.267	90.88
416.49	87.88
416.713	99.88
416.936	85.88
417.159	102.88
417.382	94.88
417.605	86.88
417.828	91.88
418.051	92.88
418.274	80.88
418.497	100.88
418.72	76.88
418.943	89.88
419.166	85.88
419.389	95.88
419.611	88.88
419.834	90.88
420.057	87.88
420.28	84.88
420.503	88.88
420.726	69.88
420.948	93.88
421.171	102.88
421.394	94.88
421.617	91.88
421.839	93.88
422.062	80.88
422.285	82.88
422.507	85.88
422.73	103.88
422.953	97.88
423.175	108.88
423.398	97.88
423.621	97.88
423.843	75.88
424.066	87.88
424.288	93.88
424.511	73.88
424.733	86.88
424.956	100.88
425.178	92.88
425.401	91.88
425.623	103.88
425.846	80.88
426.068	91.88
426.291	94.88
426.513	98.88
426.735	86.88
426.958	89.88
427.18	93.88
427.402	119.88
427.625	122.88
427.847	124.88
428.069	92.88
428.292	94.88
428.514	85.88
428.736	88.88
428.958	92.88
429.181	90.88
429.403	83.88
429.625	79.88
429.847	85.88
430.069	89.88
430.292	100.88
430.514	96.88
430.736	67.88
430.958	79.88
431.18	89.88
431.402	93.88
431.624	82.88
431.846	90.88
432.068	87.88
432.29	86.88
432.512	92.88
432.734	92.88
432.956	82.88
433.178	85.88
433.4	99.88
433.622	90.88
433.844	81.88
434.066	90.88
434.287	85.88
434.509	85.88
434.731	95.88
434.953	92.88
435.175	93.88
435.397	101.88
435.618	74.88
435.84	82.88
436.062	85.88
436.284	101.88
436.505	92.88
436.727	90.88
436.949	89.88
437.17	71.88
437.392	79.88
437.614	92.88
437.835	101.88
438.057	97.88
438.278	92.88
438.5	85.88
438.721	89.88
438.943	92.88
439.165	89.88
439.386	77.88
439.608	88.88
439.829	79.88
440.05	109.88
440.272	115.88
440.493	100.88
440.715	95.88
440.936	88.88
441.158	84.88
441.379	86.88
441.6	72.88
441.822	70.88
442.043	78.88
442.264	77.88
442.486	86.88
442.707	83.88
442.928	93.88
443.149	120.88
443.371	94.88
443.592	105.88
443.813	74.88
444.034	109.88
444.255	87.88
444.476	77.88
444.698	83.88
444.919	96.88
445.14	122.88
445.361	108.88
445.582	109.88
445.803	114.88
446.024	101.88
446.245	100.88
446.466	108.88
446.687	85.88
446.908	94.88
447.129	80.88
447.35	86.88
447.571	105.88
447.792	92.88
448.013	86.88
448.234	103.88
448.455	96.88
448.675	97.88
448.896	103.88
449.117	82.88
449.338	103.88
449.559	108.88
449.779	104.88
450	94.88
450.221	82.88
450.442	85.88
450.662	86.88
450.883	93.88
451.104	101.88
451.324	94.88
451.545	81.88
451.766	83.88
451.986	91.88
452.207	84.88
452.428	92.88
452.648	86.88
452.869	110.88
453.089	101.88
453.31	92.88
453.53	90.88
453.751	82.88
453.971	94.88
454.192	97.88
454.412	80.88
454.633	74.88
454.853	85.88
455.073	92.88
455.294	85.88
455.514	91.88
455.734	85.88
455.955	83.88
456.175	90.88
456.395	95.88
456.616	83.88
456.836	76.88
457.056	77.88
457.276	81.88
457.497	78.88
457.717	72.88
457.937	87.88
458.157	97.88
458.377	88.88
458.598	99.88
458.818	120.88
459.038	124.88
459.258	101.88
459.478	92.88
459.698	105.88
459.918	90.88
460.138	102.88
460.358	78.88
460.578	92.88
460.798	87.88
461.018	99.88
461.238	98.88
461.458	72.88
461.678	81.88
461.898	87.88
462.118	84.88
462.338	83.88
462.558	86.88
462.777	84.88
462.997	91.88
463.217	90.88
463.437	82.88
463.657	92.88
463.876	99.88
464.096	94.88
464.316	86.88
464.536	86.88
464.755	101.88
464.975	95.88
465.195	107.88
465.414	121.88
465.634	85.88
465.854	87.88
466.073	86.88
466.293	87.88
466.512	81.88
466.732	87.88
466.951	88.88
467.171	96.88
467.391	89.88
467.61	93.88
467.829	99.88
468.049	85.88
468.268	85.88
468.488	80.88
468.707	93.88
468.927	93.88
469.146	84.88
469.365	100.88
469.585	80.88
469.804	98.88
470.023	96.88
470.243	89.88
470.462	85.88
470.681	97.88
470.901	94.88
471.12	85.88
471.339	83.88
471.558	88.88
471.777	80.88
471.997	98.88
472.216	101.88
472.435	113.88
472.654	99.88
472.873	92.88
473.092	89.88
473.311	83.88
473.53	86.88
473.749	89.88
473.968	102.88
474.187	87.88
474.406	91.88
474.625	89.88
474.844	74.88
475.063	85.88
475.282	82.88
475.501	89.88
475.72	77.88
475.939	94.88
476.158	93.88
476.377	99.88
476.596	79.88
476.814	74.88
477.033	93.88
477.252	77.88
477.471	76.88
477.69	75.88
477.908	83.88
478.127	98.88
478.346	103.88
478.564	87.88
478.783	91.88
479.002	92.88
479.22	95.88
479.439	91.88
479.658	100.88
479.876	87.88
480.095	91.88
480.313	91.88
480.532	86.88
480.751	107.88
480.969	104.88
481.188	151.88
481.406	137.88
481.624	78.88
481.843	82.88
482.061	83.88
482.28	90.88
482.498	90.88
482.717	93.88
482.935	91.88
483.153	84.88
483.372	94.88
483.59	90.88
483.808	78.88
484.027	89.88
484.245	101.88
484.463	98.88
484.681	105.88
484.9	90.88
485.118	86.88
485.336	103.88
485.554	106.88
485.772	123.88
485.99	101.88
486.209	104.88
486.427	89.88
486.645	110.88
486.863	104.88
487.081	107.88
487.299	98.88
487.517	105.88
487.735	81.88
487.953	108.88
488.171	94.88
488.389	98.88
488.607	98.88
488.825	104.88
489.043	85.88
489.261	90.88
489.479	101.88
489.696	85.88
489.914	94.88
490.132	102.88
490.35	84.88
490.568	88.88
490.786	90.88
491.003	86.88
491.221	93.88
491.439	98.88
491.657	81.88
491.874	89.88
492.092	91.88
492.31	97.88
492.527	89.88
492.745	86.88
492.963	94.88
493.18	85.88
493.398	97.88
493.615	100.88
493.833	82.88
494.05	89.88
494.268	85.88
494.485	103.88
494.703	84.88
494.92	95.88
495.138	91.88
495.355	101.88
495.573	91.88
495.79	104.88
496.008	106.88
496.225	88.88
496.442	90.88
496.66	86.88
496.877	92.88
497.094	85.88
497.312	91.88
497.529	89.88
497.746	90.88
497.963	98.88
498.181	91.88
498.398	78.88
498.615	89.88
498.832	99.88
499.049	89.88
499.267	89.88
499.484	93.88
499.701	88.88
499.918	103.88
500.135	95.88
500.352	98.88
500.569	85.88
500.786	84.88
501.003	89.88
501.22	87.88
501.437	79.88
501.654	97.88
501.871	96.88
502.088	71.88
502.305	103.88
502.522	82.88
502.739	82.88
502.956	80.88
503.172	91.88
503.389	95.88
503.606	94.88
503.823	91.88
504.04	83.88
504.256	98.88
504.473	87.88
504.69	99.88
504.907	97.88
505.123	83.88
505.34	95.88
505.557	93.88
505.773	85.88
505.99	92.88
506.207	85.88
506.423	97.88
506.64	76.88
506.856	91.88
507.073	79.88
507.289	95.88
507.506	81.88
507.722	87.88
507.939	105.88
508.155	109.88
508.372	98.88
508.588	86.88
508.805	89.88
509.021	89.88
509.238	86.88
509.454	88.88
509.67	93.88
509.887	93.88
510.103	123.88
510.319	163.88
510.536	481.88
510.752	1358.88
510.968	387.88
511.184	110.88
511.401	89.88
511.617	99.88
511.833	77.88
512.049	95.88
512.265	88.88
512.481	96.88
512.698	93.88
512.914	93.88
513.13	102.88
513.346	88.88
513.562	85.88
513.778	90.88
513.994	79.88
514.21	97.88
514.426	96.88
514.642	108.88
514.858	111.88
515.074	126.88
515.29	271.88
515.506	799.88
515.721	311.88
515.937	117.88
516.153	103.88
516.369	94.88
516.585	85.88
