Data from Circ_1980_H10_HRD10591_00008.txt Node
Date: Wed Jan 03 12:37:59 EST 2024
User: Yrep
Spectrometer: HR+D1059
Trigger mode: 1
Integration Time (sec): 1.000000E-1
Scans to average: 1
Electric dark correction enabled: true
Nonlinearity correction enabled: false
Boxcar width: 0
XAxis mode: Wavelengths
Number of Pixels in Spectrum: 2048
>>>>>Begin Spectral Data<<<<<
223.165	-16.19
223.4	-16.19
223.635	-16.19
223.869	-23.19
224.104	-34.19
224.338	-13.19
224.573	-6.19
224.808	-17.19
225.042	-11.19
225.277	-4.19
225.511	-0.19
225.746	4.81
225.98	16.81
226.215	20.81
226.449	16.81
226.683	19.81
226.918	6.81
227.152	39.81
227.387	29.81
227.621	53.81
227.856	45.81
228.09	52.81
228.324	55.81
228.559	76.81
228.793	69.81
229.027	60.81
229.262	62.81
229.496	50.81
229.73	71.81
229.964	81.81
230.199	78.81
230.433	73.81
230.667	91.81
230.901	64.81
231.136	65.81
231.37	72.81
231.604	89.81
231.838	79.81
232.072	85.81
232.306	77.81
232.541	74.81
232.775	78.81
233.009	86.81
233.243	77.81
233.477	85.81
233.711	88.81
233.945	101.81
234.179	93.81
234.413	74.81
234.647	74.81
234.881	90.81
235.115	97.81
235.349	92.81
235.583	75.81
235.817	96.81
236.051	79.81
236.285	82.81
236.519	91.81
236.753	71.81
236.987	67.81
237.221	78.81
237.455	87.81
237.689	96.81
237.922	85.81
238.156	73.81
238.39	81.81
238.624	67.81
238.858	83.81
239.091	74.81
239.325	77.81
239.559	79.81
239.793	82.81
240.027	83.81
240.26	85.81
240.494	70.81
240.728	72.81
240.961	85.81
241.195	73.81
241.429	78.81
241.662	83.81
241.896	79.81
242.13	71.81
242.363	83.81
242.597	72.81
242.83	86.81
243.064	77.81
243.298	65.81
243.531	77.81
243.765	96.81
243.998	73.81
244.232	89.81
244.465	86.81
244.699	63.81
244.932	76.81
245.166	80.81
245.399	83.81
245.633	89.81
245.866	84.81
246.099	74.81
246.333	97.81
246.566	91.81
246.8	72.81
247.033	73.81
247.266	78.81
247.5	95.81
247.733	95.81
247.966	85.81
248.2	76.81
248.433	86.81
248.666	80.81
248.899	93.81
249.133	81.81
249.366	89.81
249.599	73.81
249.832	87.81
250.066	80.81
250.299	83.81
250.532	75.81
250.765	83.81
250.998	94.81
251.231	85.81
251.465	85.81
251.698	91.81
251.931	78.81
252.164	78.81
252.397	79.81
252.63	68.81
252.863	83.81
253.096	80.81
253.329	75.81
253.562	79.81
253.795	78.81
254.028	85.81
254.261	78.81
254.494	96.81
254.727	77.81
254.96	79.81
255.193	70.81
255.426	85.81
255.659	96.81
255.892	85.81
256.124	77.81
256.357	79.81
256.59	88.81
256.823	89.81
257.056	91.81
257.289	82.81
257.521	82.81
257.754	95.81
257.987	89.81
258.22	93.81
258.452	71.81
258.685	85.81
258.918	79.81
259.151	74.81
259.383	74.81
259.616	81.81
259.849	72.81
260.081	79.81
260.314	81.81
260.547	75.81
260.779	77.81
261.012	97.81
261.244	87.81
261.477	80.81
261.71	90.81
261.942	91.81
262.175	103.81
262.407	85.81
262.64	86.81
262.872	99.81
263.105	76.81
263.337	77.81
263.57	90.81
263.802	91.81
264.035	78.81
264.267	78.81
264.499	84.81
264.732	87.81
264.964	83.81
265.197	87.81
265.429	77.81
265.661	85.81
265.894	78.81
266.126	73.81
266.358	84.81
266.591	82.81
266.823	94.81
267.055	98.81
267.287	68.81
267.52	80.81
267.752	81.81
267.984	93.81
268.216	84.81
268.448	92.81
268.681	90.81
268.913	70.81
269.145	95.81
269.377	76.81
269.609	95.81
269.841	107.81
270.073	86.81
270.306	84.81
270.538	90.81
270.77	77.81
271.002	89.81
271.234	97.81
271.466	90.81
271.698	77.81
271.93	84.81
272.162	77.81
272.394	80.81
272.626	87.81
272.858	88.81
273.09	85.81
273.322	80.81
273.553	79.81
273.785	77.81
274.017	87.81
274.249	79.81
274.481	78.81
274.713	89.81
274.945	83.81
275.176	84.81
275.408	83.81
275.64	97.81
275.872	79.81
276.104	88.81
276.335	90.81
276.567	92.81
276.799	97.81
277.031	81.81
277.262	81.81
277.494	84.81
277.726	83.81
277.957	89.81
278.189	90.81
278.421	97.81
278.652	93.81
278.884	84.81
279.115	81.81
279.347	96.81
279.579	100.81
279.81	88.81
280.042	80.81
280.273	97.81
280.505	89.81
280.736	84.81
280.968	84.81
281.199	83.81
281.431	74.81
281.662	97.81
281.894	83.81
282.125	98.81
282.356	117.81
282.588	125.81
282.819	86.81
283.051	85.81
283.282	87.81
283.513	91.81
283.745	87.81
283.976	65.81
284.207	76.81
284.439	76.81
284.67	81.81
284.901	80.81
285.132	78.81
285.364	78.81
285.595	94.81
285.826	89.81
286.057	88.81
286.288	83.81
286.52	80.81
286.751	94.81
286.982	87.81
287.213	93.81
287.444	80.81
287.675	96.81
287.906	82.81
288.138	94.81
288.369	86.81
288.6	99.81
288.831	75.81
289.062	87.81
289.293	85.81
289.524	104.81
289.755	81.81
289.986	78.81
290.217	83.81
290.448	74.81
290.679	93.81
290.91	85.81
291.141	76.81
291.371	96.81
291.602	95.81
291.833	95.81
292.064	78.81
292.295	78.81
292.526	85.81
292.757	83.81
292.987	85.81
293.218	86.81
293.449	93.81
293.68	93.81
293.91	94.81
294.141	77.81
294.372	85.81
294.603	104.81
294.833	87.81
295.064	88.81
295.295	91.81
295.525	86.81
295.756	103.81
295.987	99.81
296.217	120.81
296.448	107.81
296.679	98.81
296.909	85.81
297.14	85.81
297.37	90.81
297.601	92.81
297.831	86.81
298.062	87.81
298.292	103.81
298.523	84.81
298.753	80.81
298.984	85.81
299.214	95.81
299.445	104.81
299.675	78.81
299.905	103.81
300.136	91.81
300.366	79.81
300.597	82.81
300.827	77.81
301.057	101.81
301.288	105.81
301.518	83.81
301.748	94.81
301.979	99.81
302.209	95.81
302.439	90.81
302.669	81.81
302.9	93.81
303.13	95.81
303.36	93.81
303.59	92.81
303.82	100.81
304.051	76.81
304.281	102.81
304.511	85.81
304.741	79.81
304.971	96.81
305.201	95.81
305.431	91.81
305.661	80.81
305.891	81.81
306.121	104.81
306.352	98.81
306.582	100.81
306.812	79.81
307.042	84.81
307.272	91.81
307.502	85.81
307.731	79.81
307.961	99.81
308.191	80.81
308.421	88.81
308.651	92.81
308.881	99.81
309.111	102.81
309.341	96.81
309.571	111.81
309.8	102.81
310.03	100.81
310.26	100.81
310.49	90.81
310.72	87.81
310.949	93.81
311.179	91.81
311.409	81.81
311.639	93.81
311.868	96.81
312.098	92.81
312.328	102.81
312.557	88.81
312.787	92.81
313.017	103.81
313.246	100.81
313.476	80.81
313.706	92.81
313.935	105.81
314.165	94.81
314.394	103.81
314.624	97.81
314.853	98.81
315.083	84.81
315.312	90.81
315.542	92.81
315.771	84.81
316.001	92.81
316.23	98.81
316.46	72.81
316.689	91.81
316.919	83.81
317.148	84.81
317.377	104.81
317.607	93.81
317.836	86.81
318.065	96.81
318.295	88.81
318.524	102.81
318.753	97.81
318.983	89.81
319.212	95.81
319.441	109.81
319.67	103.81
319.9	93.81
320.129	104.81
320.358	92.81
320.587	88.81
320.816	89.81
321.046	105.81
321.275	99.81
321.504	95.81
321.733	96.81
321.962	97.81
322.191	97.81
322.42	97.81
322.649	91.81
322.878	87.81
323.108	116.81
323.337	111.81
323.566	112.81
323.795	125.81
324.024	148.81
324.253	272.81
324.482	553.81
324.71	1059.81
324.939	1436.81
325.168	564.81
325.397	198.81
325.626	138.81
325.855	119.81
326.084	93.81
326.313	119.81
326.542	127.81
326.77	181.81
326.999	319.81
327.228	651.81
327.457	1140.81
327.686	910.81
327.914	266.81
328.143	149.81
328.372	134.81
328.6	123.81
328.829	87.81
329.058	102.81
329.287	110.81
329.515	105.81
329.744	96.81
329.972	115.81
330.201	111.81
330.43	126.81
330.658	103.81
330.887	105.81
331.115	101.81
331.344	92.81
331.572	88.81
331.801	109.81
332.03	101.81
332.258	98.81
332.486	97.81
332.715	76.81
332.943	91.81
333.172	103.81
333.4	95.81
333.629	96.81
333.857	107.81
334.085	113.81
334.314	102.81
334.542	115.81
334.771	120.81
334.999	101.81
335.227	99.81
335.455	91.81
335.684	94.81
335.912	93.81
336.14	94.81
336.369	101.81
336.597	85.81
336.825	94.81
337.053	92.81
337.281	95.81
337.51	86.81
337.738	99.81
337.966	94.81
338.194	103.81
338.422	69.81
338.65	92.81
338.878	95.81
339.106	96.81
339.334	75.81
339.562	91.81
339.79	83.81
340.018	88.81
340.246	97.81
340.474	109.81
340.702	84.81
340.93	86.81
341.158	97.81
341.386	92.81
341.614	99.81
341.842	101.81
342.07	98.81
342.298	102.81
342.526	81.81
342.754	87.81
342.981	89.81
343.209	81.81
343.437	110.81
343.665	84.81
343.893	93.81
344.12	90.81
344.348	87.81
344.576	88.81
344.804	81.81
345.031	92.81
345.259	87.81
345.487	86.81
345.714	81.81
345.942	81.81
346.17	92.81
346.397	95.81
346.625	104.81
346.853	107.81
347.08	91.81
347.308	84.81
347.535	89.81
347.763	102.81
347.99	104.81
348.218	100.81
348.445	95.81
348.673	86.81
348.9	105.81
349.128	98.81
349.355	98.81
349.583	87.81
349.81	95.81
350.037	85.81
350.265	101.81
350.492	106.81
350.72	105.81
350.947	88.81
351.174	105.81
351.402	107.81
351.629	102.81
351.856	105.81
352.083	105.81
352.311	96.81
352.538	108.81
352.765	105.81
352.992	113.81
353.22	99.81
353.447	93.81
353.674	109.81
353.901	91.81
354.128	104.81
354.355	100.81
354.583	94.81
354.81	105.81
355.037	94.81
355.264	111.81
355.491	100.81
355.718	113.81
355.945	93.81
356.172	102.81
356.399	104.81
356.626	102.81
356.853	100.81
357.08	87.81
357.307	102.81
357.534	107.81
357.761	92.81
357.988	97.81
358.215	99.81
358.441	99.81
358.668	85.81
358.895	87.81
359.122	94.81
359.349	83.81
359.576	93.81
359.802	101.81
360.029	105.81
360.256	97.81
360.483	100.81
360.709	97.81
360.936	109.81
361.163	87.81
361.39	92.81
361.616	101.81
361.843	83.81
362.07	81.81
362.296	105.81
362.523	76.81
362.749	99.81
362.976	92.81
363.203	90.81
363.429	91.81
363.656	85.81
363.882	109.81
364.109	97.81
364.335	91.81
364.562	92.81
364.788	97.81
365.015	96.81
365.241	87.81
365.468	95.81
365.694	90.81
365.92	83.81
366.147	102.81
366.373	94.81
366.599	97.81
366.826	94.81
367.052	96.81
367.278	102.81
367.505	83.81
367.731	89.81
367.957	101.81
368.184	105.81
368.41	97.81
368.636	101.81
368.862	91.81
369.089	113.81
369.315	95.81
369.541	85.81
369.767	84.81
369.993	85.81
370.219	91.81
370.445	88.81
370.672	95.81
370.898	86.81
371.124	74.81
371.35	84.81
371.576	63.81
371.802	94.81
372.028	84.81
372.254	87.81
372.48	76.81
372.706	84.81
372.932	85.81
373.158	81.81
373.384	90.81
373.61	89.81
373.835	97.81
374.061	82.81
374.287	89.81
374.513	83.81
374.739	85.81
374.965	95.81
375.191	99.81
375.416	88.81
375.642	88.81
375.868	85.81
376.094	83.81
376.319	95.81
376.545	88.81
376.771	76.81
376.997	90.81
377.222	96.81
377.448	96.81
377.674	94.81
377.899	107.81
378.125	93.81
378.35	88.81
378.576	92.81
378.802	87.81
379.027	93.81
379.253	94.81
379.478	94.81
379.704	89.81
379.929	110.81
380.155	91.81
380.38	100.81
380.606	99.81
380.831	93.81
381.057	98.81
381.282	100.81
381.507	108.81
381.733	117.81
381.958	109.81
382.184	110.81
382.409	110.81
382.634	115.81
382.86	117.81
383.085	105.81
383.31	101.81
383.535	111.81
383.761	110.81
383.986	115.81
384.211	104.81
384.436	112.81
384.662	106.81
384.887	119.81
385.112	105.81
385.337	120.81
385.562	113.81
385.787	124.81
386.013	116.81
386.238	114.81
386.463	122.81
386.688	108.81
386.913	116.81
387.138	127.81
387.363	113.81
387.588	123.81
387.813	95.81
388.038	127.81
388.263	153.81
388.488	117.81
388.713	97.81
388.938	100.81
389.163	104.81
389.387	95.81
389.612	90.81
389.837	96.81
390.062	82.81
390.287	100.81
390.512	70.81
390.736	81.81
390.961	83.81
391.186	91.81
391.411	97.81
391.636	107.81
391.86	100.81
392.085	78.81
392.31	89.81
392.534	81.81
392.759	77.81
392.984	87.81
393.208	84.81
393.433	79.81
393.658	81.81
393.882	93.81
394.107	94.81
394.331	89.81
394.556	75.81
394.78	95.81
395.005	89.81
395.229	93.81
395.454	85.81
395.678	93.81
395.903	96.81
396.127	85.81
396.352	95.81
396.576	90.81
396.801	80.81
397.025	103.81
397.249	110.81
397.474	92.81
397.698	104.81
397.922	84.81
398.147	86.81
398.371	68.81
398.595	71.81
398.82	91.81
399.044	87.81
399.268	80.81
399.492	100.81
399.717	83.81
399.941	84.81
400.165	87.81
400.389	84.81
400.613	85.81
400.837	88.81
401.062	98.81
401.286	80.81
401.51	83.81
401.734	91.81
401.958	90.81
402.182	113.81
402.406	128.81
402.63	108.81
402.854	84.81
403.078	88.81
403.302	84.81
403.526	96.81
403.75	86.81
403.974	83.81
404.198	87.81
404.422	84.81
404.645	90.81
404.869	83.81
405.093	95.81
405.317	107.81
405.541	109.81
405.765	100.81
405.988	120.81
406.212	130.81
406.436	163.81
406.66	131.81
406.883	90.81
407.107	96.81
407.331	96.81
407.555	107.81
407.778	90.81
408.002	90.81
408.226	87.81
408.449	102.81
408.673	95.81
408.896	82.81
409.12	95.81
409.344	87.81
409.567	85.81
409.791	97.81
410.014	89.81
410.238	102.81
410.461	104.81
410.685	92.81
410.908	101.81
411.132	111.81
411.355	104.81
411.578	97.81
411.802	87.81
412.025	87.81
412.249	91.81
412.472	94.81
412.695	85.81
412.919	99.81
413.142	95.81
413.365	91.81
413.589	91.81
413.812	84.81
414.035	84.81
414.258	89.81
414.482	84.81
414.705	97.81
414.928	104.81
415.151	94.81
415.374	102.81
415.597	88.81
415.821	88.81
416.044	99.81
416.267	83.81
416.49	81.81
416.713	84.81
416.936	93.81
417.159	103.81
417.382	92.81
417.605	72.81
417.828	83.81
418.051	99.81
418.274	85.81
418.497	86.81
418.72	79.81
418.943	109.81
419.166	77.81
419.389	84.81
419.611	86.81
419.834	98.81
420.057	108.81
420.28	92.81
420.503	80.81
420.726	84.81
420.948	91.81
421.171	90.81
421.394	87.81
421.617	93.81
421.839	85.81
422.062	72.81
422.285	102.81
422.507	101.81
422.73	96.81
422.953	100.81
423.175	89.81
423.398	89.81
423.621	85.81
423.843	99.81
424.066	100.81
424.288	104.81
424.511	84.81
424.733	89.81
424.956	90.81
425.178	95.81
425.401	109.81
425.623	97.81
425.846	103.81
426.068	90.81
426.291	81.81
426.513	91.81
426.735	103.81
426.958	90.81
427.18	99.81
427.402	120.81
427.625	125.81
427.847	114.81
428.069	109.81
428.292	92.81
428.514	91.81
428.736	78.81
428.958	74.81
429.181	85.81
429.403	80.81
429.625	91.81
429.847	87.81
430.069	94.81
430.292	85.81
430.514	92.81
430.736	77.81
430.958	99.81
431.18	85.81
431.402	77.81
431.624	86.81
431.846	77.81
432.068	80.81
432.29	79.81
432.512	88.81
432.734	100.81
432.956	93.81
433.178	102.81
433.4	106.81
433.622	103.81
433.844	81.81
434.066	93.81
434.287	100.81
434.509	93.81
434.731	94.81
434.953	100.81
435.175	100.81
435.397	90.81
435.618	92.81
435.84	101.81
436.062	116.81
436.284	87.81
436.505	104.81
436.727	100.81
436.949	102.81
437.17	95.81
437.392	89.81
437.614	99.81
437.835	106.81
438.057	103.81
438.278	101.81
438.5	101.81
438.721	108.81
438.943	94.81
439.165	77.81
439.386	91.81
439.608	104.81
439.829	105.81
440.05	113.81
440.272	109.81
440.493	102.81
440.715	75.81
440.936	99.81
441.158	95.81
441.379	83.81
441.6	95.81
441.822	95.81
442.043	79.81
442.264	80.81
442.486	93.81
442.707	81.81
442.928	101.81
443.149	113.81
443.371	110.81
443.592	90.81
443.813	91.81
444.034	84.81
444.255	85.81
444.476	95.81
444.698	93.81
444.919	96.81
445.14	127.81
445.361	118.81
445.582	115.81
445.803	113.81
446.024	94.81
446.245	103.81
446.466	99.81
446.687	91.81
446.908	83.81
447.129	86.81
447.35	95.81
447.571	99.81
447.792	90.81
448.013	95.81
448.234	89.81
448.455	99.81
448.675	108.81
448.896	101.81
449.117	99.81
449.338	99.81
449.559	125.81
449.779	124.81
450	98.81
450.221	91.81
450.442	91.81
450.662	92.81
450.883	97.81
451.104	99.81
451.324	86.81
451.545	95.81
451.766	91.81
451.986	89.81
452.207	99.81
452.428	88.81
452.648	94.81
452.869	97.81
453.089	93.81
453.31	97.81
453.53	88.81
453.751	100.81
453.971	88.81
454.192	92.81
454.412	96.81
454.633	78.81
454.853	83.81
455.073	94.81
455.294	83.81
455.514	88.81
455.734	95.81
455.955	70.81
456.175	85.81
456.395	93.81
456.616	92.81
456.836	77.81
457.056	82.81
457.276	99.81
457.497	76.81
457.717	85.81
457.937	81.81
458.157	79.81
458.377	87.81
458.598	111.81
458.818	123.81
459.038	121.81
459.258	98.81
459.478	83.81
459.698	92.81
459.918	73.81
460.138	87.81
460.358	96.81
460.578	82.81
460.798	84.81
461.018	93.81
461.238	76.81
461.458	95.81
461.678	87.81
461.898	89.81
462.118	77.81
462.338	89.81
462.558	94.81
462.777	83.81
462.997	85.81
463.217	74.81
463.437	80.81
463.657	86.81
463.876	84.81
464.096	102.81
464.316	79.81
464.536	80.81
464.755	81.81
464.975	90.81
465.195	125.81
465.414	112.81
465.634	87.81
465.854	92.81
466.073	85.81
466.293	93.81
466.512	84.81
466.732	90.81
466.951	84.81
467.171	87.81
467.391	87.81
467.61	87.81
467.829	94.81
468.049	94.81
468.268	109.81
468.488	84.81
468.707	91.81
468.927	83.81
469.146	77.81
469.365	93.81
469.585	83.81
469.804	91.81
470.023	83.81
470.243	108.81
470.462	99.81
470.681	83.81
470.901	105.81
471.12	87.81
471.339	79.81
471.558	88.81
471.777	97.81
471.997	93.81
472.216	115.81
472.435	122.81
472.654	84.81
472.873	98.81
473.092	87.81
473.311	91.81
473.53	88.81
473.749	89.81
473.968	90.81
474.187	102.81
474.406	86.81
474.625	91.81
474.844	93.81
475.063	92.81
475.282	85.81
475.501	78.81
475.72	83.81
475.939	97.81
476.158	87.81
476.377	95.81
476.596	78.81
476.814	91.81
477.033	86.81
477.252	85.81
477.471	91.81
477.69	83.81
477.908	75.81
478.127	86.81
478.346	91.81
478.564	95.81
478.783	97.81
479.002	99.81
479.22	91.81
479.439	89.81
479.658	119.81
479.876	93.81
480.095	90.81
480.313	86.81
480.532	88.81
480.751	78.81
480.969	111.81
481.188	173.81
481.406	139.81
481.624	96.81
481.843	87.81
482.061	88.81
482.28	88.81
482.498	96.81
482.717	90.81
482.935	77.81
483.153	92.81
483.372	85.81
483.59	89.81
483.808	111.81
484.027	84.81
484.245	90.81
484.463	79.81
484.681	92.81
484.9	103.81
485.118	98.81
485.336	121.81
485.554	108.81
485.772	105.81
485.99	112.81
486.209	119.81
486.427	109.81
486.645	103.81
486.863	115.81
487.081	104.81
487.299	96.81
487.517	106.81
487.735	99.81
487.953	97.81
488.171	93.81
488.389	87.81
488.607	94.81
488.825	83.81
489.043	96.81
489.261	95.81
489.479	87.81
489.696	110.81
489.914	88.81
490.132	92.81
490.35	94.81
490.568	87.81
490.786	85.81
491.003	87.81
491.221	97.81
491.439	101.81
491.657	99.81
491.874	110.81
492.092	91.81
492.31	99.81
492.527	75.81
492.745	87.81
492.963	96.81
493.18	88.81
493.398	98.81
493.615	89.81
493.833	96.81
494.05	91.81
494.268	91.81
494.485	87.81
494.703	78.81
494.92	91.81
495.138	92.81
495.355	91.81
495.573	94.81
495.79	101.81
496.008	96.81
496.225	93.81
496.442	92.81
496.66	81.81
496.877	80.81
497.094	96.81
497.312	88.81
497.529	96.81
497.746	85.81
497.963	91.81
498.181	91.81
498.398	76.81
498.615	105.81
498.832	83.81
499.049	101.81
499.267	99.81
499.484	95.81
499.701	93.81
499.918	86.81
500.135	105.81
500.352	85.81
500.569	85.81
500.786	114.81
501.003	83.81
501.22	89.81
501.437	77.81
501.654	99.81
501.871	99.81
502.088	102.81
502.305	101.81
502.522	83.81
502.739	91.81
502.956	95.81
503.172	85.81
503.389	94.81
503.606	91.81
503.823	100.81
504.04	100.81
504.256	96.81
504.473	88.81
504.69	91.81
504.907	91.81
505.123	77.81
505.34	84.81
505.557	101.81
505.773	97.81
505.99	88.81
506.207	75.81
506.423	101.81
506.64	83.81
506.856	92.81
507.073	94.81
507.289	100.81
507.506	95.81
507.722	90.81
507.939	100.81
508.155	96.81
508.372	98.81
508.588	91.81
508.805	91.81
509.021	107.81
509.238	101.81
509.454	99.81
509.67	84.81
509.887	83.81
510.103	120.81
510.319	165.81
510.536	518.81
510.752	1518.81
510.968	432.81
511.184	140.81
511.401	101.81
511.617	102.81
511.833	77.81
512.049	92.81
512.265	74.81
512.481	96.81
512.698	86.81
512.914	90.81
513.13	98.81
513.346	81.81
513.562	77.81
513.778	96.81
513.994	80.81
514.21	93.81
514.426	95.81
514.642	111.81
514.858	108.81
515.074	122.81
515.29	305.81
515.506	875.81
515.721	345.81
