Data from Circ_1980_H10_HRD10591_00026.txt Node
Date: Wed Jan 03 12:38:03 EST 2024
User: Yrep
Spectrometer: HR+D1059
Trigger mode: 1
Integration Time (sec): 1.000000E-1
Scans to average: 1
Electric dark correction enabled: true
Nonlinearity correction enabled: false
Boxcar width: 0
XAxis mode: Wavelengths
Number of Pixels in Spectrum: 2048
>>>>>Begin Spectral Data<<<<<
223.165	-25.75
223.4	-25.75
223.635	-25.75
223.869	-14.75
224.104	-17.75
224.338	-8.75
224.573	-10.75
224.808	-20.75
225.042	5.25
225.277	-18.75
225.511	-1.75
225.746	4.25
225.98	23.25
226.215	4.25
226.449	12.25
226.683	23.25
226.918	21.25
227.152	25.25
227.387	43.25
227.621	29.25
227.856	52.25
228.09	46.25
228.324	62.25
228.559	62.25
228.793	56.25
229.027	72.25
229.262	62.25
229.496	71.25
229.73	73.25
229.964	75.25
230.199	85.25
230.433	58.25
230.667	78.25
230.901	69.25
231.136	64.25
231.37	73.25
231.604	70.25
231.838	78.25
232.072	87.25
232.306	86.25
232.541	92.25
232.775	79.25
233.009	81.25
233.243	74.25
233.477	76.25
233.711	73.25
233.945	89.25
234.179	75.25
234.413	80.25
234.647	86.25
234.881	73.25
235.115	82.25
235.349	76.25
235.583	82.25
235.817	79.25
236.051	84.25
236.285	78.25
236.519	71.25
236.753	74.25
236.987	82.25
237.221	75.25
237.455	94.25
237.689	82.25
237.922	75.25
238.156	80.25
238.39	74.25
238.624	81.25
238.858	74.25
239.091	77.25
239.325	82.25
239.559	82.25
239.793	83.25
240.027	73.25
240.26	87.25
240.494	81.25
240.728	72.25
240.961	73.25
241.195	84.25
241.429	85.25
241.662	86.25
241.896	84.25
242.13	84.25
242.363	78.25
242.597	79.25
242.83	85.25
243.064	70.25
243.298	73.25
243.531	66.25
243.765	84.25
243.998	71.25
244.232	82.25
244.465	84.25
244.699	86.25
244.932	75.25
245.166	69.25
245.399	85.25
245.633	84.25
245.866	104.25
246.099	83.25
246.333	78.25
246.566	93.25
246.8	93.25
247.033	69.25
247.266	69.25
247.5	82.25
247.733	88.25
247.966	85.25
248.2	76.25
248.433	74.25
248.666	93.25
248.899	94.25
249.133	92.25
249.366	91.25
249.599	80.25
249.832	84.25
250.066	95.25
250.299	72.25
250.532	91.25
250.765	90.25
250.998	83.25
251.231	75.25
251.465	70.25
251.698	77.25
251.931	84.25
252.164	92.25
252.397	76.25
252.63	73.25
252.863	77.25
253.096	77.25
253.329	85.25
253.562	80.25
253.795	84.25
254.028	65.25
254.261	73.25
254.494	80.25
254.727	82.25
254.96	79.25
255.193	74.25
255.426	77.25
255.659	83.25
255.892	92.25
256.124	69.25
256.357	82.25
256.59	88.25
256.823	76.25
257.056	82.25
257.289	83.25
257.521	78.25
257.754	76.25
257.987	66.25
258.22	65.25
258.452	79.25
258.685	98.25
258.918	85.25
259.151	88.25
259.383	73.25
259.616	87.25
259.849	94.25
260.081	72.25
260.314	86.25
260.547	81.25
260.779	72.25
261.012	99.25
261.244	70.25
261.477	80.25
261.71	84.25
261.942	87.25
262.175	113.25
262.407	100.25
262.64	84.25
262.872	90.25
263.105	82.25
263.337	89.25
263.57	90.25
263.802	94.25
264.035	88.25
264.267	85.25
264.499	83.25
264.732	83.25
264.964	76.25
265.197	96.25
265.429	93.25
265.661	85.25
265.894	62.25
266.126	69.25
266.358	79.25
266.591	88.25
266.823	82.25
267.055	80.25
267.287	80.25
267.52	65.25
267.752	76.25
267.984	92.25
268.216	101.25
268.448	92.25
268.681	77.25
268.913	90.25
269.145	80.25
269.377	83.25
269.609	92.25
269.841	95.25
270.073	77.25
270.306	86.25
270.538	79.25
270.77	78.25
271.002	73.25
271.234	85.25
271.466	92.25
271.698	89.25
271.93	78.25
272.162	93.25
272.394	90.25
272.626	76.25
272.858	95.25
273.09	97.25
273.322	92.25
273.553	85.25
273.785	82.25
274.017	89.25
274.249	75.25
274.481	81.25
274.713	78.25
274.945	68.25
275.176	79.25
275.408	83.25
275.64	84.25
275.872	90.25
276.104	84.25
276.335	77.25
276.567	95.25
276.799	95.25
277.031	87.25
277.262	91.25
277.494	98.25
277.726	69.25
277.957	69.25
278.189	87.25
278.421	77.25
278.652	89.25
278.884	85.25
279.115	79.25
279.347	88.25
279.579	85.25
279.81	87.25
280.042	88.25
280.273	87.25
280.505	82.25
280.736	80.25
280.968	89.25
281.199	96.25
281.431	94.25
281.662	90.25
281.894	90.25
282.125	103.25
282.356	103.25
282.588	130.25
282.819	90.25
283.051	90.25
283.282	88.25
283.513	91.25
283.745	86.25
283.976	77.25
284.207	82.25
284.439	94.25
284.67	86.25
284.901	96.25
285.132	91.25
285.364	88.25
285.595	94.25
285.826	74.25
286.057	75.25
286.288	89.25
286.52	88.25
286.751	87.25
286.982	87.25
287.213	90.25
287.444	87.25
287.675	83.25
287.906	86.25
288.138	93.25
288.369	87.25
288.6	95.25
288.831	100.25
289.062	94.25
289.293	97.25
289.524	93.25
289.755	73.25
289.986	76.25
290.217	96.25
290.448	84.25
290.679	83.25
290.91	91.25
291.141	85.25
291.371	86.25
291.602	95.25
291.833	98.25
292.064	87.25
292.295	87.25
292.526	86.25
292.757	91.25
292.987	94.25
293.218	87.25
293.449	84.25
293.68	92.25
293.91	82.25
294.141	96.25
294.372	101.25
294.603	79.25
294.833	88.25
295.064	90.25
295.295	79.25
295.525	105.25
295.756	84.25
295.987	110.25
296.217	102.25
296.448	101.25
296.679	81.25
296.909	91.25
297.14	90.25
297.37	88.25
297.601	90.25
297.831	88.25
298.062	87.25
298.292	85.25
298.523	99.25
298.753	81.25
298.984	87.25
299.214	78.25
299.445	86.25
299.675	97.25
299.905	96.25
300.136	87.25
300.366	84.25
300.597	66.25
300.827	90.25
301.057	100.25
301.288	98.25
301.518	102.25
301.748	98.25
301.979	99.25
302.209	85.25
302.439	96.25
302.669	66.25
302.9	82.25
303.13	96.25
303.36	96.25
303.59	86.25
303.82	86.25
304.051	93.25
304.281	94.25
304.511	101.25
304.741	75.25
304.971	79.25
305.201	90.25
305.431	82.25
305.661	84.25
305.891	98.25
306.121	95.25
306.352	102.25
306.582	90.25
306.812	84.25
307.042	89.25
307.272	101.25
307.502	109.25
307.731	100.25
307.961	91.25
308.191	93.25
308.421	99.25
308.651	74.25
308.881	90.25
309.111	96.25
309.341	92.25
309.571	96.25
309.8	102.25
310.03	90.25
310.26	89.25
310.49	90.25
310.72	83.25
310.949	108.25
311.179	103.25
311.409	99.25
311.639	84.25
311.868	84.25
312.098	92.25
312.328	102.25
312.557	91.25
312.787	99.25
313.017	98.25
313.246	96.25
313.476	83.25
313.706	84.25
313.935	101.25
314.165	94.25
314.394	102.25
314.624	92.25
314.853	88.25
315.083	103.25
315.312	89.25
315.542	94.25
315.771	94.25
316.001	90.25
316.23	84.25
316.46	88.25
316.689	91.25
316.919	78.25
317.148	96.25
317.377	106.25
317.607	102.25
317.836	80.25
318.065	94.25
318.295	94.25
318.524	98.25
318.753	89.25
318.983	95.25
319.212	92.25
319.441	101.25
319.67	99.25
319.9	92.25
320.129	75.25
320.358	80.25
320.587	92.25
320.816	105.25
321.046	102.25
321.275	85.25
321.504	90.25
321.733	96.25
321.962	99.25
322.191	95.25
322.42	93.25
322.649	106.25
322.878	96.25
323.108	108.25
323.337	112.25
323.566	124.25
323.795	140.25
324.024	176.25
324.253	308.25
324.482	592.25
324.71	1182.25
324.939	1614.25
325.168	620.25
325.397	203.25
325.626	120.25
325.855	106.25
326.084	111.25
326.313	116.25
326.542	150.25
326.77	192.25
326.999	352.25
327.228	680.25
327.457	1258.25
327.686	1031.25
327.914	285.25
328.143	162.25
328.372	129.25
328.6	100.25
328.829	105.25
329.058	122.25
329.287	116.25
329.515	111.25
329.744	105.25
329.972	108.25
330.201	108.25
330.43	112.25
330.658	116.25
330.887	128.25
331.115	108.25
331.344	98.25
331.572	95.25
331.801	103.25
332.03	74.25
332.258	90.25
332.486	94.25
332.715	84.25
332.943	88.25
333.172	98.25
333.4	88.25
333.629	105.25
333.857	106.25
334.085	113.25
334.314	107.25
334.542	111.25
334.771	136.25
334.999	103.25
335.227	85.25
335.455	105.25
335.684	83.25
335.912	103.25
336.14	99.25
336.369	95.25
336.597	93.25
336.825	101.25
337.053	71.25
337.281	84.25
337.51	105.25
337.738	97.25
337.966	86.25
338.194	99.25
338.422	102.25
338.65	93.25
338.878	92.25
339.106	100.25
339.334	84.25
339.562	92.25
339.79	78.25
340.018	88.25
340.246	77.25
340.474	77.25
340.702	74.25
340.93	89.25
341.158	86.25
341.386	77.25
341.614	92.25
341.842	100.25
342.07	93.25
342.298	92.25
342.526	94.25
342.754	91.25
342.981	90.25
343.209	87.25
343.437	96.25
343.665	93.25
343.893	96.25
344.12	86.25
344.348	105.25
344.576	89.25
344.804	86.25
345.031	93.25
345.259	94.25
345.487	85.25
345.714	98.25
345.942	93.25
346.17	98.25
346.397	85.25
346.625	87.25
346.853	100.25
347.08	79.25
347.308	88.25
347.535	96.25
347.763	94.25
347.99	85.25
348.218	77.25
348.445	100.25
348.673	110.25
348.9	98.25
349.128	90.25
349.355	86.25
349.583	98.25
349.81	95.25
350.037	77.25
350.265	90.25
350.492	104.25
350.72	94.25
350.947	92.25
351.174	106.25
351.402	117.25
351.629	108.25
351.856	105.25
352.083	98.25
352.311	89.25
352.538	94.25
352.765	99.25
352.992	105.25
353.22	117.25
353.447	109.25
353.674	96.25
353.901	94.25
354.128	88.25
354.355	90.25
354.583	92.25
354.81	86.25
355.037	88.25
355.264	92.25
355.491	92.25
355.718	99.25
355.945	98.25
356.172	82.25
356.399	89.25
356.626	99.25
356.853	85.25
357.08	84.25
357.307	96.25
357.534	93.25
357.761	90.25
357.988	98.25
358.215	90.25
358.441	93.25
358.668	106.25
358.895	93.25
359.122	77.25
359.349	89.25
359.576	82.25
359.802	96.25
360.029	87.25
360.256	104.25
360.483	95.25
360.709	89.25
360.936	93.25
361.163	89.25
361.39	91.25
361.616	98.25
361.843	93.25
362.07	100.25
362.296	84.25
362.523	90.25
362.749	94.25
362.976	85.25
363.203	90.25
363.429	87.25
363.656	87.25
363.882	78.25
364.109	84.25
364.335	106.25
364.562	98.25
364.788	100.25
365.015	86.25
365.241	87.25
365.468	90.25
365.694	102.25
365.92	100.25
366.147	90.25
366.373	96.25
366.599	86.25
366.826	99.25
367.052	83.25
367.278	85.25
367.505	94.25
367.731	87.25
367.957	79.25
368.184	90.25
368.41	98.25
368.636	95.25
368.862	100.25
369.089	95.25
369.315	90.25
369.541	83.25
369.767	90.25
369.993	84.25
370.219	88.25
370.445	93.25
370.672	79.25
370.898	77.25
371.124	98.25
371.35	91.25
371.576	92.25
371.802	103.25
372.028	96.25
372.254	81.25
372.48	102.25
372.706	92.25
372.932	87.25
373.158	82.25
373.384	99.25
373.61	83.25
373.835	97.25
374.061	81.25
374.287	100.25
374.513	80.25
374.739	77.25
374.965	82.25
375.191	96.25
375.416	74.25
375.642	88.25
375.868	100.25
376.094	87.25
376.319	73.25
376.545	91.25
376.771	93.25
376.997	89.25
377.222	79.25
377.448	86.25
377.674	98.25
377.899	79.25
378.125	87.25
378.35	82.25
378.576	104.25
378.802	103.25
379.027	86.25
379.253	92.25
379.478	93.25
379.704	86.25
379.929	97.25
380.155	100.25
380.38	100.25
380.606	100.25
380.831	102.25
381.057	103.25
381.282	94.25
381.507	90.25
381.733	85.25
381.958	101.25
382.184	107.25
382.409	100.25
382.634	103.25
382.86	103.25
383.085	94.25
383.31	115.25
383.535	96.25
383.761	105.25
383.986	109.25
384.211	106.25
384.436	106.25
384.662	94.25
384.887	111.25
385.112	107.25
385.337	120.25
385.562	106.25
385.787	96.25
386.013	119.25
386.238	117.25
386.463	120.25
386.688	118.25
386.913	95.25
387.138	110.25
387.363	103.25
387.588	102.25
387.813	97.25
388.038	118.25
388.263	106.25
388.488	108.25
388.713	103.25
388.938	87.25
389.163	85.25
389.387	90.25
389.612	72.25
389.837	84.25
390.062	104.25
390.287	96.25
390.512	83.25
390.736	92.25
390.961	98.25
391.186	98.25
391.411	98.25
391.636	88.25
391.86	82.25
392.085	86.25
392.31	97.25
392.534	90.25
392.759	87.25
392.984	88.25
393.208	76.25
393.433	92.25
393.658	87.25
393.882	81.25
394.107	90.25
394.331	78.25
394.556	88.25
394.78	88.25
395.005	85.25
395.229	84.25
395.454	80.25
395.678	87.25
395.903	77.25
396.127	70.25
396.352	77.25
396.576	90.25
396.801	100.25
397.025	87.25
397.249	74.25
397.474	86.25
397.698	78.25
397.922	75.25
398.147	96.25
398.371	92.25
398.595	98.25
398.82	87.25
399.044	95.25
399.268	79.25
399.492	85.25
399.717	86.25
399.941	99.25
400.165	94.25
400.389	79.25
400.613	88.25
400.837	86.25
401.062	88.25
401.286	79.25
401.51	83.25
401.734	75.25
401.958	94.25
402.182	111.25
402.406	141.25
402.63	102.25
402.854	83.25
403.078	100.25
403.302	88.25
403.526	88.25
403.75	96.25
403.974	96.25
404.198	90.25
404.422	81.25
404.645	88.25
404.869	73.25
405.093	103.25
405.317	91.25
405.541	106.25
405.765	103.25
405.988	116.25
406.212	157.25
406.436	193.25
406.66	118.25
406.883	100.25
407.107	91.25
407.331	86.25
407.555	93.25
407.778	98.25
408.002	93.25
408.226	92.25
408.449	77.25
408.673	82.25
408.896	91.25
409.12	86.25
409.344	95.25
409.567	76.25
409.791	92.25
410.014	84.25
410.238	103.25
410.461	89.25
410.685	88.25
410.908	90.25
411.132	111.25
411.355	89.25
411.578	94.25
411.802	83.25
412.025	86.25
412.249	78.25
412.472	92.25
412.695	90.25
412.919	89.25
413.142	88.25
413.365	77.25
413.589	89.25
413.812	89.25
414.035	95.25
414.258	87.25
414.482	84.25
414.705	88.25
414.928	79.25
415.151	92.25
415.374	91.25
415.597	72.25
415.821	83.25
416.044	90.25
416.267	89.25
416.49	87.25
416.713	89.25
416.936	84.25
417.159	95.25
417.382	89.25
417.605	99.25
417.828	90.25
418.051	90.25
418.274	94.25
418.497	84.25
418.72	101.25
418.943	88.25
419.166	70.25
419.389	88.25
419.611	88.25
419.834	106.25
420.057	73.25
420.28	80.25
420.503	69.25
420.726	90.25
420.948	84.25
421.171	97.25
421.394	94.25
421.617	97.25
421.839	88.25
422.062	83.25
422.285	79.25
422.507	94.25
422.73	82.25
422.953	82.25
423.175	86.25
423.398	76.25
423.621	73.25
423.843	89.25
424.066	95.25
424.288	82.25
424.511	91.25
424.733	88.25
424.956	100.25
425.178	86.25
425.401	91.25
425.623	98.25
425.846	98.25
426.068	87.25
426.291	77.25
426.513	95.25
426.735	110.25
426.958	95.25
427.18	92.25
427.402	111.25
427.625	148.25
427.847	114.25
428.069	104.25
428.292	82.25
428.514	78.25
428.736	88.25
428.958	84.25
429.181	91.25
429.403	82.25
429.625	84.25
429.847	95.25
430.069	75.25
430.292	90.25
430.514	76.25
430.736	76.25
430.958	87.25
431.18	74.25
431.402	90.25
431.624	93.25
431.846	79.25
432.068	93.25
432.29	73.25
432.512	88.25
432.734	97.25
432.956	90.25
433.178	96.25
433.4	87.25
433.622	86.25
433.844	82.25
434.066	101.25
434.287	89.25
434.509	86.25
434.731	91.25
434.953	92.25
435.175	80.25
435.397	103.25
435.618	94.25
435.84	97.25
436.062	110.25
436.284	108.25
436.505	85.25
436.727	88.25
436.949	93.25
437.17	93.25
437.392	86.25
437.614	74.25
437.835	95.25
438.057	94.25
438.278	93.25
438.5	107.25
438.721	108.25
438.943	88.25
439.165	76.25
439.386	94.25
439.608	73.25
439.829	88.25
440.05	107.25
440.272	116.25
440.493	88.25
440.715	91.25
440.936	88.25
441.158	100.25
441.379	83.25
441.6	94.25
441.822	95.25
442.043	90.25
442.264	110.25
442.486	98.25
442.707	98.25
442.928	85.25
443.149	114.25
443.371	101.25
443.592	100.25
443.813	106.25
444.034	105.25
444.255	88.25
444.476	84.25
444.698	101.25
444.919	93.25
445.14	140.25
445.361	131.25
445.582	107.25
445.803	119.25
446.024	114.25
446.245	126.25
446.466	103.25
446.687	89.25
446.908	90.25
447.129	78.25
447.35	84.25
447.571	84.25
447.792	92.25
448.013	100.25
448.234	111.25
448.455	89.25
448.675	108.25
448.896	102.25
449.117	78.25
449.338	91.25
449.559	111.25
449.779	117.25
450	92.25
450.221	78.25
450.442	83.25
450.662	89.25
450.883	115.25
451.104	115.25
451.324	83.25
451.545	77.25
451.766	82.25
451.986	90.25
452.207	93.25
452.428	96.25
452.648	92.25
452.869	92.25
453.089	99.25
453.31	102.25
453.53	103.25
453.751	91.25
453.971	99.25
454.192	97.25
454.412	95.25
454.633	86.25
454.853	96.25
455.073	96.25
455.294	95.25
455.514	74.25
455.734	95.25
455.955	72.25
456.175	100.25
456.395	78.25
456.616	88.25
456.836	90.25
457.056	94.25
457.276	82.25
457.497	91.25
457.717	83.25
457.937	92.25
458.157	87.25
458.377	88.25
458.598	83.25
458.818	118.25
459.038	130.25
459.258	93.25
459.478	96.25
459.698	87.25
459.918	88.25
460.138	85.25
460.358	91.25
460.578	80.25
460.798	84.25
461.018	80.25
461.238	86.25
461.458	79.25
461.678	83.25
461.898	91.25
462.118	95.25
462.338	78.25
462.558	79.25
462.777	88.25
462.997	92.25
463.217	79.25
463.437	66.25
463.657	69.25
463.876	82.25
464.096	92.25
464.316	86.25
464.536	90.25
464.755	89.25
464.975	98.25
465.195	139.25
465.414	119.25
465.634	81.25
465.854	85.25
466.073	101.25
466.293	78.25
466.512	80.25
466.732	100.25
466.951	86.25
467.171	92.25
467.391	99.25
467.61	99.25
467.829	95.25
468.049	100.25
468.268	92.25
468.488	91.25
468.707	84.25
468.927	89.25
469.146	82.25
469.365	89.25
469.585	90.25
469.804	83.25
470.023	92.25
470.243	101.25
470.462	87.25
470.681	93.25
470.901	93.25
471.12	82.25
471.339	86.25
471.558	92.25
471.777	89.25
471.997	103.25
472.216	117.25
472.435	132.25
472.654	90.25
472.873	83.25
473.092	90.25
473.311	86.25
473.53	91.25
473.749	84.25
473.968	103.25
474.187	94.25
474.406	99.25
474.625	83.25
474.844	92.25
475.063	104.25
475.282	83.25
475.501	87.25
475.72	87.25
475.939	93.25
476.158	94.25
476.377	94.25
476.596	83.25
476.814	93.25
477.033	92.25
477.252	85.25
477.471	91.25
477.69	78.25
477.908	88.25
478.127	87.25
478.346	83.25
478.564	104.25
478.783	95.25
479.002	86.25
479.22	81.25
479.439	87.25
479.658	105.25
479.876	76.25
480.095	93.25
480.313	98.25
480.532	92.25
480.751	90.25
480.969	110.25
481.188	182.25
481.406	139.25
481.624	86.25
481.843	86.25
482.061	90.25
482.28	78.25
482.498	90.25
482.717	95.25
482.935	83.25
483.153	91.25
483.372	101.25
483.59	77.25
483.808	80.25
484.027	86.25
484.245	82.25
484.463	82.25
484.681	100.25
484.9	100.25
485.118	102.25
485.336	101.25
485.554	82.25
485.772	100.25
485.99	103.25
486.209	128.25
486.427	120.25
486.645	116.25
486.863	100.25
487.081	91.25
487.299	94.25
487.517	106.25
487.735	96.25
487.953	86.25
488.171	99.25
488.389	93.25
488.607	98.25
488.825	94.25
489.043	86.25
489.261	80.25
489.479	88.25
489.696	87.25
489.914	79.25
490.132	89.25
490.35	95.25
490.568	93.25
490.786	99.25
491.003	81.25
491.221	80.25
491.439	92.25
491.657	88.25
491.874	86.25
492.092	75.25
492.31	84.25
492.527	93.25
492.745	96.25
492.963	91.25
493.18	95.25
493.398	107.25
493.615	91.25
493.833	80.25
494.05	77.25
494.268	84.25
494.485	106.25
494.703	95.25
494.92	93.25
495.138	89.25
495.355	87.25
495.573	94.25
495.79	90.25
496.008	101.25
496.225	72.25
496.442	84.25
496.66	97.25
496.877	93.25
497.094	94.25
497.312	85.25
497.529	92.25
497.746	85.25
497.963	93.25
498.181	98.25
498.398	102.25
498.615	122.25
498.832	100.25
499.049	98.25
499.267	93.25
499.484	91.25
499.701	95.25
499.918	91.25
500.135	93.25
500.352	96.25
500.569	99.25
500.786	93.25
501.003	102.25
501.22	88.25
501.437	94.25
501.654	102.25
501.871	106.25
502.088	90.25
502.305	100.25
502.522	89.25
502.739	86.25
502.956	103.25
503.172	94.25
503.389	84.25
503.606	103.25
503.823	89.25
504.04	91.25
504.256	93.25
504.473	80.25
504.69	89.25
504.907	100.25
505.123	80.25
505.34	98.25
505.557	86.25
505.773	92.25
505.99	89.25
506.207	96.25
506.423	84.25
506.64	83.25
506.856	83.25
507.073	91.25
507.289	91.25
507.506	92.25
507.722	121.25
507.939	107.25
508.155	89.25
508.372	94.25
508.588	97.25
508.805	99.25
509.021	84.25
509.238	85.25
509.454	99.25
509.67	103.25
509.887	100.25
510.103	115.25
510.319	168.25
510.536	578.25
510.752	1647.25
510.968	472.25
511.184	143.25
511.401	122.25
511.617	102.25
511.833	94.25
512.049	78.25
512.265	74.25
512.481	88.25
512.698	99.25
512.914	91.25
513.13	94.25
513.346	98.25
513.562	98.25
513.778	91.25
513.994	85.25
514.21	97.25
514.426	119.25
514.642	120.25
514.858	109.25
515.074	138.25
515.29	344.25
515.506	1068.25
515.721	394.25
515.937	110.25
516.153	93.25
516.369	94.25
