Data from Circ_1980_H10_HRD10591_00076.txt Node
Date: Wed Jan 03 12:38:13 EST 2024
User: Yrep
Spectrometer: HR+D1059
Trigger mode: 1
Integration Time (sec): 1.000000E-1
Scans to average: 1
Electric dark correction enabled: true
Nonlinearity correction enabled: false
Boxcar width: 0
XAxis mode: Wavelengths
Number of Pixels in Spectrum: 2048
>>>>>Begin Spectral Data<<<<<
223.165	-9.88
223.4	-9.88
223.635	-9.88
223.869	-9.88
224.104	-18.88
224.338	-23.88
224.573	-19.88
224.808	-13.88
225.042	5.12
225.277	-2.88
225.511	-5.88
225.746	-1.88
225.98	13.12
226.215	12.12
226.449	9.12
226.683	16.12
226.918	20.12
227.152	31.12
227.387	30.12
227.621	35.12
227.856	45.12
228.09	56.12
228.324	52.12
228.559	66.12
228.793	57.12
229.027	56.12
229.262	53.12
229.496	57.12
229.73	73.12
229.964	74.12
230.199	65.12
230.433	88.12
230.667	68.12
230.901	87.12
231.136	76.12
231.37	80.12
231.604	86.12
231.838	83.12
232.072	67.12
232.306	76.12
232.541	93.12
232.775	81.12
233.009	55.12
233.243	84.12
233.477	81.12
233.711	84.12
233.945	81.12
234.179	89.12
234.413	79.12
234.647	69.12
234.881	74.12
235.115	65.12
235.349	60.12
235.583	76.12
235.817	81.12
236.051	76.12
236.285	87.12
236.519	67.12
236.753	77.12
236.987	89.12
237.221	76.12
237.455	66.12
237.689	60.12
237.922	89.12
238.156	73.12
238.39	78.12
238.624	68.12
238.858	69.12
239.091	75.12
239.325	83.12
239.559	87.12
239.793	81.12
240.027	62.12
240.26	77.12
240.494	73.12
240.728	71.12
240.961	89.12
241.195	74.12
241.429	80.12
241.662	74.12
241.896	56.12
242.13	67.12
242.363	84.12
242.597	84.12
242.83	80.12
243.064	77.12
243.298	62.12
243.531	72.12
243.765	89.12
243.998	77.12
244.232	78.12
244.465	92.12
244.699	84.12
244.932	77.12
245.166	84.12
245.399	73.12
245.633	80.12
245.866	75.12
246.099	60.12
246.333	89.12
246.566	76.12
246.8	69.12
247.033	86.12
247.266	64.12
247.5	82.12
247.733	82.12
247.966	74.12
248.2	70.12
248.433	83.12
248.666	81.12
248.899	84.12
249.133	72.12
249.366	99.12
249.599	97.12
249.832	72.12
250.066	84.12
250.299	90.12
250.532	81.12
250.765	99.12
250.998	81.12
251.231	84.12
251.465	71.12
251.698	79.12
251.931	75.12
252.164	85.12
252.397	86.12
252.63	67.12
252.863	70.12
253.096	86.12
253.329	75.12
253.562	70.12
253.795	81.12
254.028	80.12
254.261	73.12
254.494	88.12
254.727	88.12
254.96	80.12
255.193	73.12
255.426	82.12
255.659	65.12
255.892	85.12
256.124	84.12
256.357	93.12
256.59	97.12
256.823	85.12
257.056	89.12
257.289	72.12
257.521	68.12
257.754	78.12
257.987	84.12
258.22	71.12
258.452	76.12
258.685	84.12
258.918	92.12
259.151	84.12
259.383	81.12
259.616	92.12
259.849	70.12
260.081	85.12
260.314	81.12
260.547	77.12
260.779	90.12
261.012	84.12
261.244	79.12
261.477	86.12
261.71	97.12
261.942	100.12
262.175	114.12
262.407	87.12
262.64	104.12
262.872	86.12
263.105	94.12
263.337	82.12
263.57	73.12
263.802	90.12
264.035	77.12
264.267	86.12
264.499	76.12
264.732	84.12
264.964	81.12
265.197	88.12
265.429	69.12
265.661	80.12
265.894	84.12
266.126	91.12
266.358	81.12
266.591	74.12
266.823	75.12
267.055	79.12
267.287	87.12
267.52	84.12
267.752	102.12
267.984	81.12
268.216	82.12
268.448	92.12
268.681	86.12
268.913	95.12
269.145	77.12
269.377	91.12
269.609	84.12
269.841	82.12
270.073	86.12
270.306	81.12
270.538	74.12
270.77	69.12
271.002	81.12
271.234	87.12
271.466	98.12
271.698	73.12
271.93	91.12
272.162	84.12
272.394	99.12
272.626	85.12
272.858	83.12
273.09	72.12
273.322	68.12
273.553	76.12
273.785	76.12
274.017	86.12
274.249	87.12
274.481	78.12
274.713	84.12
274.945	76.12
275.176	85.12
275.408	91.12
275.64	86.12
275.872	87.12
276.104	78.12
276.335	88.12
276.567	97.12
276.799	94.12
277.031	101.12
277.262	85.12
277.494	82.12
277.726	85.12
277.957	88.12
278.189	78.12
278.421	94.12
278.652	77.12
278.884	85.12
279.115	84.12
279.347	92.12
279.579	92.12
279.81	81.12
280.042	93.12
280.273	82.12
280.505	92.12
280.736	84.12
280.968	82.12
281.199	76.12
281.431	80.12
281.662	87.12
281.894	102.12
282.125	100.12
282.356	102.12
282.588	120.12
282.819	101.12
283.051	97.12
283.282	81.12
283.513	89.12
283.745	73.12
283.976	96.12
284.207	80.12
284.439	80.12
284.67	84.12
284.901	88.12
285.132	103.12
285.364	64.12
285.595	82.12
285.826	84.12
286.057	74.12
286.288	84.12
286.52	83.12
286.751	90.12
286.982	91.12
287.213	84.12
287.444	91.12
287.675	71.12
287.906	91.12
288.138	87.12
288.369	81.12
288.6	96.12
288.831	75.12
289.062	94.12
289.293	81.12
289.524	95.12
289.755	81.12
289.986	77.12
290.217	96.12
290.448	83.12
290.679	85.12
290.91	86.12
291.141	84.12
291.371	89.12
291.602	84.12
291.833	91.12
292.064	104.12
292.295	80.12
292.526	90.12
292.757	91.12
292.987	89.12
293.218	85.12
293.449	96.12
293.68	81.12
293.91	83.12
294.141	86.12
294.372	86.12
294.603	91.12
294.833	96.12
295.064	92.12
295.295	75.12
295.525	83.12
295.756	98.12
295.987	95.12
296.217	122.12
296.448	95.12
296.679	88.12
296.909	93.12
297.14	76.12
297.37	90.12
297.601	96.12
297.831	77.12
298.062	72.12
298.292	78.12
298.523	89.12
298.753	77.12
298.984	100.12
299.214	96.12
299.445	91.12
299.675	96.12
299.905	88.12
300.136	100.12
300.366	90.12
300.597	75.12
300.827	80.12
301.057	85.12
301.288	96.12
301.518	101.12
301.748	88.12
301.979	100.12
302.209	95.12
302.439	78.12
302.669	88.12
302.9	80.12
303.13	83.12
303.36	92.12
303.59	99.12
303.82	115.12
304.051	92.12
304.281	89.12
304.511	96.12
304.741	80.12
304.971	99.12
305.201	105.12
305.431	74.12
305.661	104.12
305.891	100.12
306.121	96.12
306.352	88.12
306.582	94.12
306.812	92.12
307.042	87.12
307.272	83.12
307.502	92.12
307.731	93.12
307.961	107.12
308.191	96.12
308.421	100.12
308.651	101.12
308.881	88.12
309.111	87.12
309.341	91.12
309.571	111.12
309.8	84.12
310.03	102.12
310.26	90.12
310.49	96.12
310.72	88.12
310.949	109.12
311.179	96.12
311.409	81.12
311.639	91.12
311.868	86.12
312.098	98.12
312.328	124.12
312.557	85.12
312.787	103.12
313.017	117.12
313.246	88.12
313.476	107.12
313.706	96.12
313.935	99.12
314.165	100.12
314.394	96.12
314.624	77.12
314.853	106.12
315.083	90.12
315.312	96.12
315.542	90.12
315.771	86.12
316.001	101.12
316.23	75.12
316.46	106.12
316.689	80.12
316.919	80.12
317.148	102.12
317.377	85.12
317.607	96.12
317.836	91.12
318.065	106.12
318.295	73.12
318.524	90.12
318.753	90.12
318.983	100.12
319.212	101.12
319.441	101.12
319.67	104.12
319.9	91.12
320.129	93.12
320.358	104.12
320.587	92.12
320.816	107.12
321.046	107.12
321.275	88.12
321.504	93.12
321.733	108.12
321.962	96.12
322.191	91.12
322.42	102.12
322.649	109.12
322.878	102.12
323.108	112.12
323.337	112.12
323.566	108.12
323.795	118.12
324.024	160.12
324.253	304.12
324.482	604.12
324.71	1236.12
324.939	1629.12
325.168	593.12
325.397	201.12
325.626	134.12
325.855	113.12
326.084	104.12
326.313	112.12
326.542	125.12
326.77	197.12
326.999	354.12
327.228	699.12
327.457	1270.12
327.686	1000.12
327.914	280.12
328.143	170.12
328.372	130.12
328.6	122.12
328.829	133.12
329.058	96.12
329.287	116.12
329.515	106.12
329.744	103.12
329.972	103.12
330.201	119.12
330.43	117.12
330.658	121.12
330.887	124.12
331.115	116.12
331.344	92.12
331.572	93.12
331.801	96.12
332.03	96.12
332.258	84.12
332.486	98.12
332.715	85.12
332.943	83.12
333.172	86.12
333.4	93.12
333.629	90.12
333.857	107.12
334.085	122.12
334.314	104.12
334.542	132.12
334.771	121.12
334.999	100.12
335.227	84.12
335.455	91.12
335.684	90.12
335.912	110.12
336.14	107.12
336.369	109.12
336.597	84.12
336.825	91.12
337.053	87.12
337.281	81.12
337.51	82.12
337.738	97.12
337.966	79.12
338.194	78.12
338.422	79.12
338.65	77.12
338.878	100.12
339.106	97.12
339.334	83.12
339.562	81.12
339.79	85.12
340.018	86.12
340.246	102.12
340.474	96.12
340.702	90.12
340.93	88.12
341.158	85.12
341.386	90.12
341.614	100.12
341.842	94.12
342.07	94.12
342.298	101.12
342.526	92.12
342.754	88.12
342.981	92.12
343.209	97.12
343.437	102.12
343.665	86.12
343.893	99.12
344.12	99.12
344.348	84.12
344.576	107.12
344.804	94.12
345.031	96.12
345.259	109.12
345.487	101.12
345.714	93.12
345.942	91.12
346.17	95.12
346.397	86.12
346.625	89.12
346.853	84.12
347.08	88.12
347.308	90.12
347.535	91.12
347.763	110.12
347.99	97.12
348.218	103.12
348.445	111.12
348.673	102.12
348.9	74.12
349.128	73.12
349.355	88.12
349.583	78.12
349.81	86.12
350.037	82.12
350.265	105.12
350.492	77.12
350.72	100.12
350.947	105.12
351.174	96.12
351.402	104.12
351.629	99.12
351.856	90.12
352.083	98.12
352.311	108.12
352.538	101.12
352.765	97.12
352.992	98.12
353.22	99.12
353.447	99.12
353.674	91.12
353.901	101.12
354.128	103.12
354.355	88.12
354.583	90.12
354.81	77.12
355.037	101.12
355.264	97.12
355.491	99.12
355.718	96.12
355.945	89.12
356.172	103.12
356.399	89.12
356.626	92.12
356.853	94.12
357.08	93.12
357.307	84.12
357.534	86.12
357.761	78.12
357.988	110.12
358.215	89.12
358.441	106.12
358.668	101.12
358.895	106.12
359.122	102.12
359.349	93.12
359.576	83.12
359.802	97.12
360.029	112.12
360.256	112.12
360.483	89.12
360.709	72.12
360.936	89.12
361.163	108.12
361.39	85.12
361.616	93.12
361.843	85.12
362.07	79.12
362.296	83.12
362.523	82.12
362.749	93.12
362.976	85.12
363.203	89.12
363.429	71.12
363.656	84.12
363.882	86.12
364.109	89.12
364.335	91.12
364.562	89.12
364.788	94.12
365.015	95.12
365.241	103.12
365.468	105.12
365.694	82.12
365.92	101.12
366.147	83.12
366.373	90.12
366.599	84.12
366.826	87.12
367.052	94.12
367.278	89.12
367.505	85.12
367.731	74.12
367.957	86.12
368.184	105.12
368.41	85.12
368.636	97.12
368.862	115.12
369.089	101.12
369.315	96.12
369.541	89.12
369.767	84.12
369.993	94.12
370.219	85.12
370.445	98.12
370.672	82.12
370.898	80.12
371.124	84.12
371.35	83.12
371.576	99.12
371.802	80.12
372.028	82.12
372.254	78.12
372.48	73.12
372.706	98.12
372.932	96.12
373.158	89.12
373.384	85.12
373.61	98.12
373.835	89.12
374.061	96.12
374.287	98.12
374.513	86.12
374.739	81.12
374.965	72.12
375.191	70.12
375.416	89.12
375.642	90.12
375.868	100.12
376.094	80.12
376.319	92.12
376.545	76.12
376.771	73.12
376.997	68.12
377.222	77.12
377.448	94.12
377.674	90.12
377.899	85.12
378.125	80.12
378.35	102.12
378.576	82.12
378.802	81.12
379.027	84.12
379.253	88.12
379.478	86.12
379.704	86.12
379.929	84.12
380.155	98.12
380.38	88.12
380.606	82.12
380.831	92.12
381.057	105.12
381.282	77.12
381.507	86.12
381.733	100.12
381.958	87.12
382.184	99.12
382.409	113.12
382.634	96.12
382.86	92.12
383.085	92.12
383.31	106.12
383.535	88.12
383.761	95.12
383.986	99.12
384.211	98.12
384.436	89.12
384.662	76.12
384.887	91.12
385.112	99.12
385.337	104.12
385.562	98.12
385.787	93.12
386.013	108.12
386.238	109.12
386.463	97.12
386.688	107.12
386.913	99.12
387.138	100.12
387.363	105.12
387.588	103.12
387.813	97.12
388.038	123.12
388.263	96.12
388.488	105.12
388.713	101.12
388.938	88.12
389.163	91.12
389.387	90.12
389.612	106.12
389.837	85.12
390.062	101.12
390.287	85.12
390.512	86.12
390.736	82.12
390.961	79.12
391.186	84.12
391.411	90.12
391.636	78.12
391.86	87.12
392.085	102.12
392.31	77.12
392.534	78.12
392.759	89.12
392.984	75.12
393.208	84.12
393.433	71.12
393.658	94.12
393.882	86.12
394.107	90.12
394.331	88.12
394.556	85.12
394.78	90.12
395.005	76.12
395.229	84.12
395.454	83.12
395.678	74.12
395.903	91.12
396.127	93.12
396.352	96.12
396.576	76.12
396.801	86.12
397.025	80.12
397.249	100.12
397.474	68.12
397.698	80.12
397.922	77.12
398.147	86.12
398.371	76.12
398.595	89.12
398.82	81.12
399.044	89.12
399.268	87.12
399.492	76.12
399.717	95.12
399.941	93.12
400.165	93.12
400.389	78.12
400.613	78.12
400.837	85.12
401.062	81.12
401.286	78.12
401.51	84.12
401.734	81.12
401.958	105.12
402.182	111.12
402.406	121.12
402.63	109.12
402.854	83.12
403.078	80.12
403.302	80.12
403.526	91.12
403.75	77.12
403.974	75.12
404.198	87.12
404.422	77.12
404.645	97.12
404.869	84.12
405.093	84.12
405.317	108.12
405.541	105.12
405.765	86.12
405.988	92.12
406.212	135.12
406.436	190.12
406.66	100.12
406.883	104.12
407.107	91.12
407.331	88.12
407.555	89.12
407.778	93.12
408.002	101.12
408.226	100.12
408.449	88.12
408.673	85.12
408.896	88.12
409.12	95.12
409.344	77.12
409.567	88.12
409.791	74.12
410.014	80.12
410.238	85.12
410.461	91.12
410.685	102.12
410.908	83.12
411.132	96.12
411.355	91.12
411.578	97.12
411.802	96.12
412.025	93.12
412.249	85.12
412.472	104.12
412.695	86.12
412.919	105.12
413.142	92.12
413.365	75.12
413.589	81.12
413.812	84.12
414.035	80.12
414.258	92.12
414.482	104.12
414.705	95.12
414.928	80.12
415.151	86.12
415.374	90.12
415.597	85.12
415.821	84.12
416.044	90.12
416.267	91.12
416.49	74.12
416.713	74.12
416.936	90.12
417.159	77.12
417.382	74.12
417.605	88.12
417.828	83.12
418.051	88.12
418.274	84.12
418.497	92.12
418.72	76.12
418.943	83.12
419.166	83.12
419.389	94.12
419.611	79.12
419.834	77.12
420.057	80.12
420.28	71.12
420.503	84.12
420.726	62.12
420.948	85.12
421.171	85.12
421.394	73.12
421.617	100.12
421.839	84.12
422.062	96.12
422.285	100.12
422.507	98.12
422.73	87.12
422.953	85.12
423.175	86.12
423.398	83.12
423.621	88.12
423.843	80.12
424.066	81.12
424.288	84.12
424.511	93.12
424.733	86.12
424.956	91.12
425.178	86.12
425.401	91.12
425.623	88.12
425.846	102.12
426.068	94.12
426.291	85.12
426.513	88.12
426.735	74.12
426.958	99.12
427.18	89.12
427.402	113.12
427.625	139.12
427.847	116.12
428.069	85.12
428.292	83.12
428.514	84.12
428.736	74.12
428.958	77.12
429.181	85.12
429.403	88.12
429.625	80.12
429.847	81.12
430.069	89.12
430.292	95.12
430.514	84.12
430.736	84.12
430.958	86.12
431.18	96.12
431.402	89.12
431.624	75.12
431.846	86.12
432.068	86.12
432.29	82.12
432.512	73.12
432.734	87.12
432.956	94.12
433.178	82.12
433.4	85.12
433.622	74.12
433.844	78.12
434.066	80.12
434.287	88.12
434.509	86.12
434.731	89.12
434.953	88.12
435.175	74.12
435.397	82.12
435.618	92.12
435.84	97.12
436.062	107.12
436.284	105.12
436.505	106.12
436.727	90.12
436.949	103.12
437.17	95.12
437.392	90.12
437.614	81.12
437.835	88.12
438.057	106.12
438.278	87.12
438.5	98.12
438.721	98.12
438.943	88.12
439.165	75.12
439.386	83.12
439.608	78.12
439.829	86.12
440.05	90.12
440.272	112.12
440.493	83.12
440.715	73.12
440.936	87.12
441.158	87.12
441.379	89.12
441.6	86.12
441.822	89.12
442.043	93.12
442.264	101.12
442.486	75.12
442.707	80.12
442.928	88.12
443.149	106.12
443.371	109.12
443.592	109.12
443.813	97.12
444.034	102.12
444.255	87.12
444.476	93.12
444.698	75.12
444.919	85.12
445.14	125.12
445.361	108.12
445.582	102.12
445.803	104.12
446.024	116.12
446.245	101.12
446.466	101.12
446.687	82.12
446.908	96.12
447.129	80.12
447.35	71.12
447.571	84.12
447.792	93.12
448.013	91.12
448.234	97.12
448.455	83.12
448.675	85.12
448.896	91.12
449.117	90.12
449.338	94.12
449.559	113.12
449.779	108.12
450	97.12
450.221	82.12
450.442	89.12
450.662	84.12
450.883	92.12
451.104	87.12
451.324	90.12
451.545	86.12
451.766	90.12
451.986	81.12
452.207	81.12
452.428	86.12
452.648	78.12
452.869	84.12
453.089	94.12
453.31	119.12
453.53	96.12
453.751	86.12
453.971	93.12
454.192	93.12
454.412	78.12
454.633	81.12
454.853	72.12
455.073	80.12
455.294	87.12
455.514	106.12
455.734	75.12
455.955	82.12
456.175	77.12
456.395	74.12
456.616	77.12
456.836	90.12
457.056	88.12
457.276	78.12
457.497	94.12
457.717	81.12
457.937	78.12
458.157	88.12
458.377	90.12
458.598	89.12
458.818	123.12
459.038	131.12
459.258	90.12
459.478	86.12
459.698	74.12
459.918	74.12
460.138	73.12
460.358	80.12
460.578	76.12
460.798	84.12
461.018	93.12
461.238	99.12
461.458	80.12
461.678	77.12
461.898	80.12
462.118	88.12
462.338	84.12
462.558	86.12
462.777	86.12
462.997	76.12
463.217	90.12
463.437	85.12
463.657	82.12
463.876	89.12
464.096	93.12
464.316	80.12
464.536	84.12
464.755	91.12
464.975	99.12
465.195	142.12
465.414	122.12
465.634	102.12
465.854	79.12
466.073	81.12
466.293	80.12
466.512	82.12
466.732	101.12
466.951	73.12
467.171	84.12
467.391	86.12
467.61	83.12
467.829	100.12
468.049	84.12
468.268	93.12
468.488	90.12
468.707	82.12
468.927	89.12
469.146	92.12
469.365	94.12
469.585	83.12
469.804	81.12
470.023	91.12
470.243	81.12
470.462	116.12
470.681	95.12
470.901	83.12
471.12	84.12
471.339	91.12
471.558	74.12
471.777	93.12
471.997	94.12
472.216	114.12
472.435	129.12
472.654	101.12
472.873	89.12
473.092	80.12
473.311	85.12
473.53	83.12
473.749	102.12
473.968	89.12
474.187	88.12
474.406	86.12
474.625	92.12
474.844	91.12
475.063	70.12
475.282	78.12
475.501	72.12
475.72	100.12
475.939	85.12
476.158	94.12
476.377	83.12
476.596	80.12
476.814	93.12
477.033	99.12
477.252	96.12
477.471	78.12
477.69	93.12
477.908	83.12
478.127	106.12
478.346	84.12
478.564	84.12
478.783	85.12
479.002	87.12
479.22	87.12
479.439	91.12
479.658	92.12
479.876	90.12
480.095	98.12
480.313	90.12
480.532	91.12
480.751	92.12
480.969	122.12
481.188	192.12
481.406	136.12
481.624	76.12
481.843	84.12
482.061	85.12
482.28	96.12
482.498	93.12
482.717	74.12
482.935	84.12
483.153	90.12
483.372	82.12
483.59	84.12
483.808	93.12
484.027	89.12
484.245	101.12
484.463	99.12
484.681	104.12
484.9	81.12
485.118	93.12
485.336	89.12
485.554	96.12
485.772	97.12
485.99	97.12
486.209	117.12
486.427	121.12
486.645	106.12
486.863	115.12
487.081	101.12
487.299	86.12
487.517	91.12
487.735	94.12
487.953	104.12
488.171	105.12
488.389	115.12
488.607	88.12
488.825	92.12
489.043	88.12
489.261	92.12
489.479	69.12
489.696	88.12
489.914	93.12
490.132	97.12
490.35	97.12
490.568	88.12
490.786	75.12
491.003	85.12
491.221	81.12
491.439	86.12
491.657	84.12
491.874	75.12
492.092	88.12
492.31	98.12
492.527	86.12
492.745	101.12
492.963	90.12
493.18	89.12
493.398	88.12
493.615	99.12
493.833	96.12
494.05	88.12
494.268	90.12
494.485	82.12
494.703	72.12
494.92	78.12
495.138	88.12
495.355	91.12
495.573	96.12
495.79	82.12
496.008	77.12
496.225	102.12
496.442	76.12
496.66	104.12
496.877	95.12
497.094	85.12
497.312	77.12
497.529	90.12
497.746	98.12
497.963	101.12
498.181	83.12
498.398	96.12
498.615	88.12
498.832	97.12
499.049	81.12
499.267	99.12
499.484	90.12
499.701	83.12
499.918	88.12
500.135	81.12
500.352	90.12
500.569	98.12
500.786	100.12
501.003	93.12
501.22	94.12
501.437	85.12
501.654	94.12
501.871	95.12
502.088	92.12
502.305	93.12
502.522	88.12
502.739	89.12
502.956	94.12
503.172	95.12
503.389	95.12
503.606	102.12
503.823	89.12
504.04	97.12
504.256	104.12
504.473	84.12
504.69	86.12
504.907	95.12
505.123	92.12
505.34	88.12
505.557	80.12
505.773	89.12
505.99	90.12
506.207	96.12
506.423	86.12
506.64	93.12
506.856	91.12
507.073	90.12
507.289	88.12
507.506	94.12
507.722	112.12
507.939	84.12
508.155	91.12
508.372	91.12
508.588	103.12
508.805	100.12
509.021	98.12
509.238	95.12
509.454	94.12
509.67	77.12
509.887	109.12
510.103	117.12
510.319	172.12
510.536	586.12
510.752	1757.12
510.968	506.12
511.184	136.12
511.401	108.12
511.617	91.12
511.833	86.12
512.049	100.12
512.265	80.12
512.481	96.12
512.698	94.12
512.914	94.12
513.13	86.12
513.346	94.12
513.562	93.12
513.778	98.12
513.994	104.12
514.21	84.12
514.426	104.12
514.642	119.12
514.858	106.12
515.074	126.12
515.29	329.12
515.506	1036.12
515.721	393.12
515.937	124.12
516.153	96.12
516.369	101.12
516.585	86.12
