Data from Circ_1980_H10_HRD10591_00039.txt Node
Date: Wed Jan 03 12:38:06 EST 2024
User: Yrep
Spectrometer: HR+D1059
Trigger mode: 1
Integration Time (sec): 1.000000E-1
Scans to average: 1
Electric dark correction enabled: true
Nonlinearity correction enabled: false
Boxcar width: 0
XAxis mode: Wavelengths
Number of Pixels in Spectrum: 2048
>>>>>Begin Spectral Data<<<<<
223.165	-17
223.4	-17
223.635	-17
223.869	-35
224.104	-15
224.338	-10
224.573	-4
224.808	-25
225.042	-13
225.277	-17
225.511	-8
225.746	-13
225.98	20
226.215	14
226.449	26
226.683	32
226.918	32
227.152	33
227.387	33
227.621	51
227.856	39
228.09	40
228.324	35
228.559	54
228.793	63
229.027	54
229.262	68
229.496	65
229.73	93
229.964	84
230.199	81
230.433	58
230.667	76
230.901	66
231.136	85
231.37	81
231.604	96
231.838	87
232.072	86
232.306	73
232.541	68
232.775	78
233.009	77
233.243	82
233.477	90
233.711	80
233.945	77
234.179	92
234.413	95
234.647	87
234.881	80
235.115	89
235.349	80
235.583	69
235.817	84
236.051	76
236.285	73
236.519	86
236.753	72
236.987	79
237.221	88
237.455	79
237.689	79
237.922	71
238.156	75
238.39	78
238.624	75
238.858	84
239.091	69
239.325	78
239.559	79
239.793	67
240.027	79
240.26	82
240.494	84
240.728	76
240.961	65
241.195	75
241.429	79
241.662	87
241.896	63
242.13	82
242.363	67
242.597	70
242.83	79
243.064	78
243.298	86
243.531	86
243.765	76
243.998	93
244.232	79
244.465	76
244.699	73
244.932	78
245.166	80
245.399	72
245.633	72
245.866	90
246.099	89
246.333	87
246.566	77
246.8	84
247.033	86
247.266	77
247.5	72
247.733	78
247.966	96
248.2	86
248.433	87
248.666	78
248.899	91
249.133	90
249.366	96
249.599	92
249.832	80
250.066	84
250.299	90
250.532	88
250.765	86
250.998	77
251.231	69
251.465	84
251.698	72
251.931	79
252.164	78
252.397	70
252.63	76
252.863	78
253.096	74
253.329	79
253.562	80
253.795	89
254.028	81
254.261	71
254.494	73
254.727	86
254.96	89
255.193	75
255.426	76
255.659	78
255.892	86
256.124	79
256.357	78
256.59	77
256.823	92
257.056	68
257.289	79
257.521	80
257.754	86
257.987	82
258.22	79
258.452	76
258.685	73
258.918	88
259.151	82
259.383	75
259.616	92
259.849	81
260.081	90
260.314	78
260.547	84
260.779	80
261.012	73
261.244	87
261.477	97
261.71	86
261.942	98
262.175	102
262.407	86
262.64	81
262.872	90
263.105	70
263.337	93
263.57	85
263.802	80
264.035	84
264.267	84
264.499	76
264.732	79
264.964	73
265.197	85
265.429	71
265.661	73
265.894	84
266.126	87
266.358	90
266.591	89
266.823	94
267.055	82
267.287	94
267.52	82
267.752	92
267.984	88
268.216	86
268.448	94
268.681	80
268.913	85
269.145	87
269.377	86
269.609	88
269.841	86
270.073	89
270.306	87
270.538	86
270.77	96
271.002	80
271.234	80
271.466	89
271.698	86
271.93	97
272.162	96
272.394	100
272.626	86
272.858	87
273.09	95
273.322	81
273.553	76
273.785	95
274.017	92
274.249	96
274.481	103
274.713	64
274.945	75
275.176	91
275.408	87
275.64	80
275.872	89
276.104	86
276.335	80
276.567	108
276.799	92
277.031	88
277.262	87
277.494	80
277.726	93
277.957	86
278.189	93
278.421	66
278.652	82
278.884	86
279.115	84
279.347	94
279.579	89
279.81	86
280.042	84
280.273	77
280.505	74
280.736	93
280.968	92
281.199	86
281.431	79
281.662	86
281.894	81
282.125	100
282.356	116
282.588	108
282.819	106
283.051	94
283.282	90
283.513	81
283.745	94
283.976	92
284.207	90
284.439	100
284.67	87
284.901	88
285.132	86
285.364	76
285.595	96
285.826	82
286.057	92
286.288	94
286.52	87
286.751	95
286.982	94
287.213	75
287.444	90
287.675	78
287.906	86
288.138	99
288.369	100
288.6	99
288.831	92
289.062	102
289.293	94
289.524	89
289.755	84
289.986	103
290.217	82
290.448	89
290.679	92
290.91	86
291.141	92
291.371	89
291.602	100
291.833	90
292.064	101
292.295	86
292.526	68
292.757	88
292.987	86
293.218	80
293.449	86
293.68	95
293.91	86
294.141	75
294.372	95
294.603	89
294.833	95
295.064	80
295.295	81
295.525	88
295.756	94
295.987	111
296.217	108
296.448	117
296.679	96
296.909	91
297.14	96
297.37	84
297.601	85
297.831	96
298.062	106
298.292	102
298.523	95
298.753	80
298.984	90
299.214	96
299.445	78
299.675	89
299.905	90
300.136	97
300.366	107
300.597	92
300.827	100
301.057	90
301.288	96
301.518	99
301.748	104
301.979	93
302.209	80
302.439	91
302.669	93
302.9	80
303.13	75
303.36	80
303.59	110
303.82	93
304.051	87
304.281	84
304.511	112
304.741	98
304.971	90
305.201	86
305.431	101
305.661	101
305.891	91
306.121	89
306.352	92
306.582	82
306.812	102
307.042	102
307.272	95
307.502	104
307.731	88
307.961	87
308.191	98
308.421	91
308.651	95
308.881	92
309.111	86
309.341	88
309.571	92
309.8	101
310.03	105
310.26	91
310.49	94
310.72	99
310.949	101
311.179	96
311.409	102
311.639	90
311.868	86
312.098	88
312.328	107
312.557	94
312.787	104
313.017	102
313.246	89
313.476	82
313.706	89
313.935	67
314.165	94
314.394	94
314.624	88
314.853	100
315.083	98
315.312	94
315.542	103
315.771	107
316.001	102
316.23	96
316.46	90
316.689	92
316.919	89
317.148	94
317.377	93
317.607	74
317.836	95
318.065	99
318.295	95
318.524	88
318.753	86
318.983	85
319.212	94
319.441	105
319.67	95
319.9	101
320.129	98
320.358	81
320.587	119
320.816	107
321.046	101
321.275	91
321.504	96
321.733	101
321.962	106
322.191	86
322.42	92
322.649	115
322.878	100
323.108	107
323.337	101
323.566	105
323.795	136
324.024	157
324.253	297
324.482	590
324.71	1182
324.939	1574
325.168	584
325.397	211
325.626	122
325.855	122
326.084	124
326.313	129
326.542	149
326.77	177
326.999	361
327.228	677
327.457	1260
327.686	1011
327.914	284
328.143	153
328.372	129
328.6	120
328.829	114
329.058	125
329.287	111
329.515	91
329.744	101
329.972	107
330.201	121
330.43	110
330.658	110
330.887	109
331.115	116
331.344	96
331.572	92
331.801	105
332.03	98
332.258	94
332.486	94
332.715	91
332.943	98
333.172	106
333.4	99
333.629	93
333.857	96
334.085	109
334.314	101
334.542	142
334.771	123
334.999	100
335.227	95
335.455	96
335.684	85
335.912	93
336.14	92
336.369	98
336.597	91
336.825	96
337.053	87
337.281	80
337.51	103
337.738	105
337.966	94
338.194	101
338.422	84
338.65	104
338.878	97
339.106	96
339.334	98
339.562	89
339.79	91
340.018	101
340.246	95
340.474	92
340.702	102
340.93	95
341.158	87
341.386	84
341.614	87
341.842	86
342.07	71
342.298	85
342.526	81
342.754	92
342.981	94
343.209	82
343.437	94
343.665	103
343.893	104
344.12	97
344.348	92
344.576	94
344.804	99
345.031	92
345.259	78
345.487	88
345.714	99
345.942	80
346.17	110
346.397	86
346.625	89
346.853	99
347.08	77
347.308	104
347.535	86
347.763	95
347.99	89
348.218	84
348.445	97
348.673	105
348.9	106
349.128	105
349.355	97
349.583	82
349.81	119
350.037	76
350.265	100
350.492	92
350.72	106
350.947	99
351.174	102
351.402	96
351.629	96
351.856	96
352.083	104
352.311	98
352.538	101
352.765	101
352.992	122
353.22	91
353.447	95
353.674	110
353.901	91
354.128	80
354.355	81
354.583	82
354.81	93
355.037	95
355.264	115
355.491	94
355.718	95
355.945	105
356.172	93
356.399	106
356.626	102
356.853	96
357.08	96
357.307	96
357.534	90
357.761	89
357.988	91
358.215	101
358.441	91
358.668	93
358.895	94
359.122	91
359.349	97
359.576	96
359.802	92
360.029	108
360.256	104
360.483	101
360.709	86
360.936	106
361.163	105
361.39	88
361.616	94
361.843	89
362.07	92
362.296	96
362.523	97
362.749	87
362.976	88
363.203	87
363.429	95
363.656	86
363.882	92
364.109	94
364.335	96
364.562	90
364.788	90
365.015	96
365.241	95
365.468	102
365.694	98
365.92	94
366.147	96
366.373	97
366.599	103
366.826	86
367.052	95
367.278	88
367.505	104
367.731	82
367.957	82
368.184	98
368.41	96
368.636	99
368.862	105
369.089	105
369.315	109
369.541	104
369.767	78
369.993	111
370.219	87
370.445	95
370.672	90
370.898	100
371.124	96
371.35	101
371.576	79
371.802	94
372.028	88
372.254	94
372.48	91
372.706	101
372.932	97
373.158	91
373.384	95
373.61	90
373.835	95
374.061	101
374.287	103
374.513	94
374.739	86
374.965	106
375.191	111
375.416	94
375.642	94
375.868	91
376.094	89
376.319	71
376.545	95
376.771	100
376.997	105
377.222	96
377.448	94
377.674	93
377.899	103
378.125	81
378.35	92
378.576	88
378.802	94
379.027	87
379.253	95
379.478	100
379.704	89
379.929	92
380.155	94
380.38	104
380.606	97
380.831	92
381.057	106
381.282	101
381.507	101
381.733	102
381.958	91
382.184	93
382.409	106
382.634	116
382.86	92
383.085	106
383.31	107
383.535	110
383.761	109
383.986	106
384.211	102
384.436	107
384.662	99
384.887	102
385.112	112
385.337	117
385.562	94
385.787	98
386.013	108
386.238	110
386.463	117
386.688	115
386.913	114
387.138	109
387.363	104
387.588	117
387.813	108
388.038	102
388.263	103
388.488	119
388.713	99
388.938	84
389.163	91
389.387	77
389.612	84
389.837	81
390.062	90
390.287	93
390.512	90
390.736	95
390.961	96
391.186	98
391.411	101
391.636	96
391.86	96
392.085	86
392.31	85
392.534	100
392.759	80
392.984	92
393.208	94
393.433	81
393.658	84
393.882	84
394.107	84
394.331	91
394.556	86
394.78	96
395.005	87
395.229	82
395.454	89
395.678	81
395.903	88
396.127	94
396.352	96
396.576	95
396.801	92
397.025	92
397.249	103
397.474	99
397.698	95
397.922	97
398.147	95
398.371	90
398.595	98
398.82	89
399.044	87
399.268	93
399.492	77
399.717	104
399.941	84
400.165	91
400.389	95
400.613	94
400.837	92
401.062	93
401.286	79
401.51	90
401.734	92
401.958	87
402.182	119
402.406	125
402.63	108
402.854	79
403.078	88
403.302	103
403.526	92
403.75	82
403.974	88
404.198	91
404.422	100
404.645	90
404.869	89
405.093	102
405.317	84
405.541	92
405.765	89
405.988	117
406.212	145
406.436	170
406.66	113
406.883	98
407.107	103
407.331	85
407.555	101
407.778	103
408.002	79
408.226	76
408.449	88
408.673	92
408.896	97
409.12	98
409.344	101
409.567	77
409.791	82
410.014	81
410.238	80
410.461	93
410.685	87
410.908	101
411.132	105
411.355	101
411.578	86
411.802	92
412.025	91
412.249	85
412.472	89
412.695	95
412.919	95
413.142	117
413.365	90
413.589	86
413.812	90
414.035	89
414.258	101
414.482	88
414.705	97
414.928	97
415.151	102
415.374	110
415.597	89
415.821	90
416.044	84
416.267	97
416.49	91
416.713	101
416.936	82
417.159	94
417.382	88
417.605	73
417.828	95
418.051	86
418.274	94
418.497	80
418.72	84
418.943	93
419.166	99
419.389	84
419.611	79
419.834	89
420.057	85
420.28	82
420.503	93
420.726	84
420.948	91
421.171	89
421.394	90
421.617	85
421.839	84
422.062	93
422.285	93
422.507	84
422.73	91
422.953	79
423.175	96
423.398	92
423.621	97
423.843	86
424.066	89
424.288	91
424.511	96
424.733	80
424.956	94
425.178	82
425.401	86
425.623	96
425.846	98
426.068	92
426.291	85
426.513	97
426.735	88
426.958	98
427.18	91
427.402	128
427.625	139
427.847	113
428.069	99
428.292	93
428.514	100
428.736	76
428.958	73
429.181	90
429.403	84
429.625	88
429.847	93
430.069	93
430.292	79
430.514	99
430.736	92
430.958	84
431.18	77
431.402	82
431.624	92
431.846	84
432.068	85
432.29	88
432.512	90
432.734	80
432.956	101
433.178	105
433.4	94
433.622	79
433.844	82
434.066	90
434.287	95
434.509	93
434.731	98
434.953	87
435.175	118
435.397	96
435.618	85
435.84	104
436.062	106
436.284	103
436.505	85
436.727	89
436.949	86
437.17	79
437.392	87
437.614	85
437.835	90
438.057	104
438.278	96
438.5	101
438.721	99
438.943	88
439.165	92
439.386	87
439.608	90
439.829	94
440.05	113
440.272	114
440.493	82
440.715	92
440.936	88
441.158	79
441.379	94
441.6	87
441.822	95
442.043	103
442.264	88
442.486	88
442.707	96
442.928	87
443.149	114
443.371	114
443.592	109
443.813	106
444.034	93
444.255	87
444.476	105
444.698	93
444.919	90
445.14	124
445.361	126
445.582	107
445.803	113
446.024	126
446.245	117
446.466	91
446.687	96
446.908	96
447.129	70
447.35	88
447.571	98
447.792	91
448.013	90
448.234	98
448.455	82
448.675	104
448.896	88
449.117	92
449.338	102
449.559	119
449.779	113
450	91
450.221	78
450.442	95
450.662	93
450.883	104
451.104	108
451.324	94
451.545	77
451.766	88
451.986	86
452.207	91
452.428	108
452.648	85
452.869	107
453.089	91
453.31	103
453.53	97
453.751	103
453.971	91
454.192	96
454.412	80
454.633	85
454.853	82
455.073	78
455.294	87
455.514	91
455.734	84
455.955	94
456.175	81
456.395	71
456.616	92
456.836	97
457.056	74
457.276	78
457.497	87
457.717	76
457.937	93
458.157	81
458.377	97
458.598	109
458.818	129
459.038	128
459.258	110
459.478	99
459.698	89
459.918	96
460.138	89
460.358	91
460.578	85
460.798	84
461.018	89
461.238	91
461.458	87
461.678	92
461.898	80
462.118	73
462.338	96
462.558	91
462.777	94
462.997	101
463.217	73
463.437	91
463.657	86
463.876	99
464.096	80
464.316	94
464.536	90
464.755	89
464.975	109
465.195	133
465.414	133
465.634	91
465.854	95
466.073	94
466.293	85
466.512	77
466.732	86
466.951	79
467.171	86
467.391	88
467.61	102
467.829	94
468.049	104
468.268	113
468.488	80
468.707	94
468.927	84
469.146	96
469.365	89
469.585	91
469.804	95
470.023	100
470.243	86
470.462	93
470.681	100
470.901	92
471.12	94
471.339	81
471.558	105
471.777	95
471.997	101
472.216	104
472.435	128
472.654	80
472.873	90
473.092	92
473.311	79
473.53	96
473.749	78
473.968	98
474.187	104
474.406	88
474.625	93
474.844	86
475.063	81
475.282	72
475.501	81
475.72	93
475.939	70
476.158	96
476.377	70
476.596	82
476.814	93
477.033	103
477.252	84
477.471	81
477.69	93
477.908	96
478.127	86
478.346	80
478.564	83
478.783	92
479.002	81
479.22	91
479.439	103
479.658	94
479.876	92
480.095	93
480.313	90
480.532	81
480.751	83
480.969	100
481.188	178
481.406	138
481.624	104
481.843	81
482.061	89
482.28	86
482.498	85
482.717	88
482.935	94
483.153	97
483.372	96
483.59	88
483.808	82
484.027	95
484.245	96
484.463	86
484.681	87
484.9	102
485.118	93
485.336	100
485.554	101
485.772	97
485.99	101
486.209	109
486.427	100
486.645	103
486.863	110
487.081	87
487.299	98
487.517	94
487.735	94
487.953	91
488.171	101
488.389	94
488.607	100
488.825	93
489.043	96
489.261	109
489.479	103
489.696	99
489.914	96
490.132	86
490.35	90
490.568	90
490.786	97
491.003	91
491.221	81
491.439	100
491.657	99
491.874	106
492.092	107
492.31	88
492.527	83
492.745	88
492.963	82
493.18	88
493.398	80
493.615	97
493.833	102
494.05	97
494.268	86
494.485	79
494.703	84
494.92	84
495.138	85
495.355	82
495.573	90
495.79	98
496.008	86
496.225	86
496.442	112
496.66	96
496.877	100
497.094	95
497.312	70
497.529	72
497.746	89
497.963	86
498.181	83
498.398	100
498.615	100
498.832	85
499.049	96
499.267	100
499.484	73
499.701	86
499.918	103
500.135	100
500.352	108
500.569	95
500.786	92
501.003	82
501.22	88
501.437	81
501.654	79
501.871	108
502.088	101
502.305	89
502.522	96
502.739	70
502.956	92
503.172	76
503.389	95
503.606	109
503.823	91
504.04	106
504.256	95
504.473	104
504.69	87
504.907	106
505.123	98
505.34	87
505.557	93
505.773	100
505.99	93
506.207	97
506.423	91
506.64	94
506.856	93
507.073	99
507.289	104
507.506	109
507.722	100
507.939	90
508.155	92
508.372	100
508.588	87
508.805	71
509.021	103
509.238	79
509.454	102
509.67	100
509.887	112
510.103	116
510.319	177
510.536	524
510.752	1587
510.968	484
511.184	124
511.401	100
511.617	80
511.833	98
512.049	101
512.265	104
512.481	84
512.698	81
512.914	80
513.13	78
513.346	87
513.562	102
513.778	90
513.994	92
514.21	103
514.426	105
514.642	100
514.858	104
515.074	140
515.29	312
515.506	960
515.721	374
515.937	135
516.153	110
516.369	84
516.585	90
516.801	87
517.016	94
517.232	88
517.448	91
517.664	80
517.879	94
518.095	95
518.311	88
518.527	87
518.742	89
518.958	92
519.173	82
519.389	101
519.605	81
519.82	100
520.036	86
520.251	112
520.467	93
520.682	92
520.898	103
521.113	116
521.329	125
521.544	144
521.76	379
521.975	1550
522.19	922
522.406	230
522.621	118
522.836	105
523.052	98
523.267	78
523.482	88
523.698	103
523.913	112
524.128	93
524.343	97
524.559	103
524.774	87
524.989	90
525.204	105
525.419	103
525.634	86
525.849	85
526.064	88
526.28	93
526.495	92
526.71	100
526.925	85
527.14	77
527.355	84
527.57	87
527.785	90
527.999	90
528.214	93
528.429	81
528.644	96
528.859	101
529.074	96
529.289	122
529.503	138
529.718	110
529.933	77
530.148	87
530.363	95
530.577	94
530.792	100
531.007	89
531.221	92
531.436	89
531.651	84
531.865	88
532.08	85
532.295	92
532.509	89
532.724	87
532.938	89
533.153	94
533.367	93
533.582	96
533.796	101
534.011	100
534.225	91
534.44	88
534.654	95
534.868	95
535.083	82
535.297	88
535.511	100
535.726	105
535.94	97
536.154	98
536.369	100
536.583	83
536.797	85
537.011	108
537.225	88
537.44	87
537.654	93
537.868	103
538.082	87
538.296	88
538.51	93
538.724	101
538.938	88
539.153	97
539.367	99
539.581	85
539.795	70
540.009	90
540.222	89
540.436	113
540.65	94
540.864	100
541.078	90
541.292	82
541.506	89
541.72	81
541.934	89
542.147	92
542.361	79
542.575	92
542.789	96
543.002	88
543.216	96
543.43	99
543.644	80
543.857	96
544.071	89
544.285	103
544.498	92
544.712	99
544.925	93
545.139	87
545.352	95
545.566	91
545.779	82
545.993	95
546.206	100
546.42	89
546.633	96
546.847	97
547.06	89
547.274	88
547.487	98
547.7	92
547.914	99
548.127	95
548.34	86
548.554	84
548.767	84
548.98	86
549.193	102
549.407	80
549.62	92
549.833	103
550.046	94
550.259	94
550.473	94
550.686	97
550.899	93
551.112	96
551.325	78
551.538	86
551.751	92
551.964	97
552.177	91
552.39	93
552.603	98
552.816	83
553.029	82
553.242	84
553.455	104
553.667	92
553.88	97
554.093	97
554.306	92
554.519	90
554.732	92
554.944	96
555.157	94
555.37	94
555.583	97
555.795	100
556.008	96
556.221	92
556.433	86
556.646	101
556.859	87
557.071	88
557.284	93
557.496	88
557.709	89
557.921	83
558.134	89
558.346	96
558.559	90
558.771	92
558.984	107
559.196	93
559.409	86
559.621	98
559.833	92
560.046	103
560.258	93
560.47	81
560.683	96
560.895	96
561.107	93
561.32	96
561.532	98
561.744	74
561.956	97
562.168	93
562.381	106
562.593	98
562.805	101
563.017	90
563.229	90
563.441	93
563.653	91
563.865	105
564.077	89
564.289	94
564.501	93
564.713	96
564.925	96
565.137	93
565.349	106
565.561	82
565.773	85
565.985	98
566.197	77
566.408	86
566.62	96
566.832	97
567.044	87
567.255	78
567.467	69
567.679	88
567.891	84
568.102	77
568.314	92
568.526	88
568.737	103
568.949	86
569.161	97
569.372	87
569.584	106
569.795	100
570.007	107
570.218	195
570.43	124
570.641	93
570.853	78
571.064	90
571.276	97
571.487	86
571.698	83
571.91	96
572.121	89
572.333	91
572.544	90
572.755	85
572.966	94
573.178	90
573.389	84
573.6	93
573.811	81
574.023	95
574.234	90
574.445	86
574.656	94
574.867	91
575.078	103
575.289	95
575.501	96
575.712	98
575.923	88
576.134	86
576.345	97
576.556	80
576.767	83
576.978	92
577.188	79
577.399	104
577.61	98
577.821	88
578.032	91
578.243	197
578.454	527
578.665	170
578.875	116
579.086	94
579.297	87
579.508	84
579.718	101
579.929	93
580.14	69
580.35	81
580.561	92
580.772	92
580.982	90
581.193	89
581.403	77
581.614	71
581.825	85
582.035	100
582.246	96
582.456	87
582.667	104
582.877	97
583.087	84
583.298	93
583.508	79
583.719	104
583.929	101
584.139	102
