Data from Circ_1980_H10_HRD10591_00060.txt Node
Date: Wed Jan 03 12:38:10 EST 2024
User: Yrep
Spectrometer: HR+D1059
Trigger mode: 1
Integration Time (sec): 1.000000E-1
Scans to average: 1
Electric dark correction enabled: true
Nonlinearity correction enabled: false
Boxcar width: 0
XAxis mode: Wavelengths
Number of Pixels in Spectrum: 2048
>>>>>Begin Spectral Data<<<<<
223.165	-9.12
223.4	-9.12
223.635	-9.12
223.869	-28.12
224.104	-32.12
224.338	-21.12
224.573	-7.12
224.808	-29.12
225.042	-5.12
225.277	-3.12
225.511	5.88
225.746	17.88
225.98	11.88
226.215	-3.12
226.449	11.88
226.683	27.88
226.918	24.88
227.152	37.88
227.387	32.88
227.621	35.88
227.856	58.88
228.09	52.88
228.324	59.88
228.559	62.88
228.793	54.88
229.027	59.88
229.262	82.88
229.496	67.88
229.73	74.88
229.964	74.88
230.199	77.88
230.433	83.88
230.667	68.88
230.901	78.88
231.136	86.88
231.37	82.88
231.604	82.88
231.838	71.88
232.072	76.88
232.306	76.88
232.541	83.88
232.775	78.88
233.009	90.88
233.243	90.88
233.477	73.88
233.711	82.88
233.945	84.88
234.179	79.88
234.413	69.88
234.647	76.88
234.881	73.88
235.115	77.88
235.349	79.88
235.583	71.88
235.817	78.88
236.051	66.88
236.285	100.88
236.519	79.88
236.753	96.88
236.987	82.88
237.221	76.88
237.455	78.88
237.689	79.88
237.922	83.88
238.156	82.88
238.39	80.88
238.624	76.88
238.858	76.88
239.091	77.88
239.325	90.88
239.559	74.88
239.793	79.88
240.027	76.88
240.26	95.88
240.494	70.88
240.728	66.88
240.961	68.88
241.195	78.88
241.429	89.88
241.662	60.88
241.896	86.88
242.13	83.88
242.363	64.88
242.597	56.88
242.83	85.88
243.064	79.88
243.298	78.88
243.531	87.88
243.765	83.88
243.998	76.88
244.232	77.88
244.465	86.88
244.699	72.88
244.932	92.88
245.166	90.88
245.399	69.88
245.633	74.88
245.866	89.88
246.099	90.88
246.333	82.88
246.566	78.88
246.8	64.88
247.033	68.88
247.266	86.88
247.5	68.88
247.733	86.88
247.966	67.88
248.2	83.88
248.433	84.88
248.666	82.88
248.899	90.88
249.133	89.88
249.366	93.88
249.599	90.88
249.832	87.88
250.066	86.88
250.299	83.88
250.532	92.88
250.765	72.88
250.998	67.88
251.231	87.88
251.465	88.88
251.698	71.88
251.931	67.88
252.164	84.88
252.397	84.88
252.63	88.88
252.863	89.88
253.096	88.88
253.329	68.88
253.562	86.88
253.795	82.88
254.028	84.88
254.261	89.88
254.494	85.88
254.727	71.88
254.96	69.88
255.193	71.88
255.426	79.88
255.659	75.88
255.892	74.88
256.124	88.88
256.357	80.88
256.59	72.88
256.823	88.88
257.056	76.88
257.289	79.88
257.521	66.88
257.754	80.88
257.987	74.88
258.22	85.88
258.452	99.88
258.685	90.88
258.918	90.88
259.151	79.88
259.383	84.88
259.616	68.88
259.849	86.88
260.081	80.88
260.314	77.88
260.547	79.88
260.779	79.88
261.012	81.88
261.244	77.88
261.477	74.88
261.71	96.88
261.942	103.88
262.175	100.88
262.407	77.88
262.64	92.88
262.872	80.88
263.105	63.88
263.337	86.88
263.57	85.88
263.802	80.88
264.035	73.88
264.267	79.88
264.499	88.88
264.732	80.88
264.964	89.88
265.197	74.88
265.429	87.88
265.661	76.88
265.894	92.88
266.126	70.88
266.358	86.88
266.591	73.88
266.823	77.88
267.055	78.88
267.287	67.88
267.52	78.88
267.752	86.88
267.984	72.88
268.216	78.88
268.448	87.88
268.681	89.88
268.913	84.88
269.145	80.88
269.377	79.88
269.609	76.88
269.841	79.88
270.073	89.88
270.306	99.88
270.538	75.88
270.77	82.88
271.002	68.88
271.234	86.88
271.466	80.88
271.698	85.88
271.93	84.88
272.162	91.88
272.394	91.88
272.626	86.88
272.858	79.88
273.09	74.88
273.322	82.88
273.553	84.88
273.785	70.88
274.017	96.88
274.249	81.88
274.481	88.88
274.713	95.88
274.945	82.88
275.176	81.88
275.408	106.88
275.64	102.88
275.872	76.88
276.104	86.88
276.335	91.88
276.567	76.88
276.799	104.88
277.031	92.88
277.262	86.88
277.494	84.88
277.726	85.88
277.957	86.88
278.189	84.88
278.421	80.88
278.652	77.88
278.884	83.88
279.115	104.88
279.347	87.88
279.579	78.88
279.81	94.88
280.042	98.88
280.273	85.88
280.505	84.88
280.736	92.88
280.968	88.88
281.199	88.88
281.431	99.88
281.662	96.88
281.894	86.88
282.125	79.88
282.356	109.88
282.588	115.88
282.819	100.88
283.051	86.88
283.282	77.88
283.513	98.88
283.745	94.88
283.976	86.88
284.207	81.88
284.439	90.88
284.67	75.88
284.901	92.88
285.132	86.88
285.364	87.88
285.595	102.88
285.826	76.88
286.057	82.88
286.288	73.88
286.52	97.88
286.751	86.88
286.982	88.88
287.213	86.88
287.444	88.88
287.675	77.88
287.906	98.88
288.138	90.88
288.369	90.88
288.6	90.88
288.831	91.88
289.062	94.88
289.293	80.88
289.524	86.88
289.755	84.88
289.986	82.88
290.217	93.88
290.448	79.88
290.679	91.88
290.91	78.88
291.141	86.88
291.371	103.88
291.602	81.88
291.833	79.88
292.064	80.88
292.295	90.88
292.526	80.88
292.757	84.88
292.987	94.88
293.218	97.88
293.449	84.88
293.68	95.88
293.91	84.88
294.141	102.88
294.372	90.88
294.603	88.88
294.833	85.88
295.064	87.88
295.295	87.88
295.525	84.88
295.756	102.88
295.987	95.88
296.217	126.88
296.448	118.88
296.679	86.88
296.909	100.88
297.14	98.88
297.37	85.88
297.601	67.88
297.831	102.88
298.062	107.88
298.292	97.88
298.523	94.88
298.753	82.88
298.984	95.88
299.214	85.88
299.445	94.88
299.675	85.88
299.905	90.88
300.136	82.88
300.366	80.88
300.597	74.88
300.827	99.88
301.057	84.88
301.288	104.88
301.518	90.88
301.748	94.88
301.979	101.88
302.209	84.88
302.439	92.88
302.669	99.88
302.9	78.88
303.13	88.88
303.36	86.88
303.59	97.88
303.82	92.88
304.051	99.88
304.281	84.88
304.511	96.88
304.741	96.88
304.971	83.88
305.201	93.88
305.431	94.88
305.661	80.88
305.891	93.88
306.121	98.88
306.352	101.88
306.582	90.88
306.812	89.88
307.042	89.88
307.272	82.88
307.502	85.88
307.731	89.88
307.961	79.88
308.191	90.88
308.421	93.88
308.651	94.88
308.881	102.88
309.111	88.88
309.341	96.88
309.571	99.88
309.8	90.88
310.03	97.88
310.26	96.88
310.49	98.88
310.72	89.88
310.949	101.88
311.179	99.88
311.409	80.88
311.639	92.88
311.868	97.88
312.098	87.88
312.328	104.88
312.557	101.88
312.787	83.88
313.017	103.88
313.246	86.88
313.476	77.88
313.706	86.88
313.935	95.88
314.165	92.88
314.394	91.88
314.624	91.88
314.853	98.88
315.083	94.88
315.312	75.88
315.542	91.88
315.771	96.88
316.001	100.88
316.23	84.88
316.46	87.88
316.689	85.88
316.919	93.88
317.148	103.88
317.377	97.88
317.607	103.88
317.836	97.88
318.065	90.88
318.295	75.88
318.524	93.88
318.753	96.88
318.983	102.88
319.212	94.88
319.441	94.88
319.67	116.88
319.9	94.88
320.129	104.88
320.358	84.88
320.587	88.88
320.816	120.88
321.046	98.88
321.275	102.88
321.504	77.88
321.733	88.88
321.962	95.88
322.191	100.88
322.42	79.88
322.649	98.88
322.878	91.88
323.108	102.88
323.337	104.88
323.566	108.88
323.795	120.88
324.024	186.88
324.253	308.88
324.482	634.88
324.71	1304.88
324.939	1649.88
325.168	619.88
325.397	198.88
325.626	134.88
325.855	120.88
326.084	118.88
326.313	119.88
326.542	130.88
326.77	179.88
326.999	357.88
327.228	762.88
327.457	1320.88
327.686	1044.88
327.914	286.88
328.143	168.88
328.372	137.88
328.6	121.88
328.829	105.88
329.058	94.88
329.287	111.88
329.515	101.88
329.744	100.88
329.972	110.88
330.201	106.88
330.43	133.88
330.658	117.88
330.887	139.88
331.115	94.88
331.344	100.88
331.572	97.88
331.801	79.88
332.03	83.88
332.258	91.88
332.486	89.88
332.715	95.88
332.943	110.88
333.172	90.88
333.4	85.88
333.629	110.88
333.857	96.88
334.085	92.88
334.314	103.88
334.542	118.88
334.771	134.88
334.999	109.88
335.227	101.88
335.455	85.88
335.684	89.88
335.912	87.88
336.14	91.88
336.369	102.88
336.597	84.88
336.825	89.88
337.053	95.88
337.281	98.88
337.51	95.88
337.738	92.88
337.966	98.88
338.194	96.88
338.422	95.88
338.65	76.88
338.878	98.88
339.106	91.88
339.334	100.88
339.562	90.88
339.79	94.88
340.018	107.88
340.246	86.88
340.474	90.88
340.702	101.88
340.93	93.88
341.158	85.88
341.386	88.88
341.614	79.88
341.842	79.88
342.07	92.88
342.298	93.88
342.526	98.88
342.754	90.88
342.981	93.88
343.209	84.88
343.437	104.88
343.665	75.88
343.893	71.88
344.12	100.88
344.348	93.88
344.576	103.88
344.804	86.88
345.031	92.88
345.259	103.88
345.487	86.88
345.714	82.88
345.942	85.88
346.17	78.88
346.397	97.88
346.625	102.88
346.853	79.88
347.08	86.88
347.308	86.88
347.535	77.88
347.763	98.88
347.99	87.88
348.218	110.88
348.445	104.88
348.673	75.88
348.9	94.88
349.128	98.88
349.355	98.88
349.583	101.88
349.81	91.88
350.037	92.88
350.265	96.88
350.492	101.88
350.72	95.88
350.947	106.88
351.174	107.88
351.402	96.88
351.629	101.88
351.856	100.88
352.083	116.88
352.311	104.88
352.538	96.88
352.765	106.88
352.992	103.88
353.22	114.88
353.447	100.88
353.674	109.88
353.901	96.88
354.128	72.88
354.355	87.88
354.583	92.88
354.81	92.88
355.037	98.88
355.264	93.88
355.491	79.88
355.718	88.88
355.945	86.88
356.172	84.88
356.399	97.88
356.626	90.88
356.853	82.88
357.08	90.88
357.307	98.88
357.534	88.88
357.761	92.88
357.988	100.88
358.215	87.88
358.441	91.88
358.668	86.88
358.895	82.88
359.122	88.88
359.349	78.88
359.576	96.88
359.802	101.88
360.029	88.88
360.256	103.88
360.483	80.88
360.709	97.88
360.936	98.88
361.163	83.88
361.39	91.88
361.616	95.88
361.843	97.88
362.07	103.88
362.296	89.88
362.523	85.88
362.749	101.88
362.976	95.88
363.203	82.88
363.429	80.88
363.656	90.88
363.882	98.88
364.109	86.88
364.335	92.88
364.562	86.88
364.788	84.88
365.015	90.88
365.241	87.88
365.468	118.88
365.694	90.88
365.92	94.88
366.147	91.88
366.373	88.88
366.599	86.88
366.826	95.88
367.052	93.88
367.278	102.88
367.505	92.88
367.731	98.88
367.957	91.88
368.184	104.88
368.41	92.88
368.636	105.88
368.862	114.88
369.089	110.88
369.315	94.88
369.541	106.88
369.767	89.88
369.993	88.88
370.219	97.88
370.445	90.88
370.672	90.88
370.898	100.88
371.124	84.88
371.35	87.88
371.576	76.88
371.802	82.88
372.028	103.88
372.254	103.88
372.48	99.88
372.706	87.88
372.932	84.88
373.158	87.88
373.384	78.88
373.61	107.88
373.835	82.88
374.061	86.88
374.287	88.88
374.513	104.88
374.739	82.88
374.965	86.88
375.191	95.88
375.416	86.88
375.642	98.88
375.868	88.88
376.094	84.88
376.319	92.88
376.545	95.88
376.771	87.88
376.997	100.88
377.222	91.88
377.448	86.88
377.674	98.88
377.899	94.88
378.125	88.88
378.35	90.88
378.576	100.88
378.802	101.88
379.027	95.88
379.253	101.88
379.478	95.88
379.704	96.88
379.929	108.88
380.155	84.88
380.38	106.88
380.606	84.88
380.831	98.88
381.057	90.88
381.282	88.88
381.507	116.88
381.733	93.88
381.958	95.88
382.184	106.88
382.409	102.88
382.634	108.88
382.86	90.88
383.085	96.88
383.31	94.88
383.535	105.88
383.761	106.88
383.986	107.88
384.211	102.88
384.436	101.88
384.662	97.88
384.887	99.88
385.112	93.88
385.337	96.88
385.562	100.88
385.787	113.88
386.013	110.88
386.238	118.88
386.463	112.88
386.688	112.88
386.913	111.88
387.138	100.88
387.363	124.88
387.588	102.88
387.813	110.88
388.038	108.88
388.263	129.88
388.488	112.88
388.713	92.88
388.938	100.88
389.163	105.88
389.387	94.88
389.612	95.88
389.837	94.88
390.062	89.88
390.287	96.88
390.512	95.88
390.736	95.88
390.961	85.88
391.186	111.88
391.411	102.88
391.636	95.88
391.86	86.88
392.085	94.88
392.31	84.88
392.534	79.88
392.759	86.88
392.984	81.88
393.208	85.88
393.433	100.88
393.658	81.88
393.882	83.88
394.107	95.88
394.331	79.88
394.556	101.88
394.78	88.88
395.005	91.88
395.229	75.88
395.454	102.88
395.678	96.88
395.903	92.88
396.127	86.88
396.352	86.88
396.576	85.88
396.801	84.88
397.025	78.88
397.249	99.88
397.474	90.88
397.698	88.88
397.922	94.88
398.147	87.88
398.371	94.88
398.595	76.88
398.82	86.88
399.044	98.88
399.268	86.88
399.492	98.88
399.717	88.88
399.941	103.88
400.165	93.88
400.389	95.88
400.613	82.88
400.837	98.88
401.062	91.88
401.286	88.88
401.51	109.88
401.734	85.88
401.958	98.88
402.182	99.88
402.406	124.88
402.63	98.88
402.854	87.88
403.078	90.88
403.302	90.88
403.526	82.88
403.75	95.88
403.974	94.88
404.198	84.88
404.422	90.88
404.645	91.88
404.869	93.88
405.093	86.88
405.317	89.88
405.541	96.88
405.765	100.88
405.988	111.88
406.212	148.88
406.436	176.88
406.66	131.88
406.883	96.88
407.107	88.88
407.331	84.88
407.555	110.88
407.778	90.88
408.002	96.88
408.226	98.88
408.449	95.88
408.673	93.88
408.896	96.88
409.12	82.88
409.344	80.88
409.567	85.88
409.791	90.88
410.014	101.88
410.238	89.88
410.461	95.88
410.685	105.88
410.908	104.88
411.132	100.88
411.355	103.88
411.578	95.88
411.802	99.88
412.025	98.88
412.249	111.88
412.472	105.88
412.695	105.88
412.919	101.88
413.142	89.88
413.365	90.88
413.589	90.88
413.812	85.88
414.035	83.88
414.258	86.88
414.482	86.88
414.705	88.88
414.928	90.88
415.151	87.88
415.374	90.88
415.597	89.88
415.821	97.88
416.044	94.88
416.267	101.88
416.49	82.88
416.713	90.88
416.936	80.88
417.159	96.88
417.382	80.88
417.605	91.88
417.828	102.88
418.051	94.88
418.274	100.88
418.497	83.88
418.72	80.88
418.943	97.88
419.166	98.88
419.389	84.88
419.611	78.88
419.834	82.88
420.057	104.88
420.28	90.88
420.503	93.88
420.726	92.88
420.948	95.88
421.171	101.88
421.394	85.88
421.617	92.88
421.839	94.88
422.062	89.88
422.285	83.88
422.507	102.88
422.73	86.88
422.953	94.88
423.175	82.88
423.398	80.88
423.621	94.88
423.843	95.88
424.066	77.88
424.288	93.88
424.511	89.88
424.733	104.88
424.956	80.88
425.178	102.88
425.401	103.88
425.623	115.88
425.846	90.88
426.068	89.88
426.291	82.88
426.513	96.88
426.735	92.88
426.958	96.88
427.18	89.88
427.402	114.88
427.625	123.88
427.847	127.88
428.069	117.88
428.292	91.88
428.514	100.88
428.736	94.88
428.958	75.88
429.181	86.88
429.403	80.88
429.625	96.88
429.847	85.88
430.069	82.88
430.292	92.88
430.514	78.88
430.736	82.88
430.958	92.88
431.18	79.88
431.402	93.88
431.624	91.88
431.846	103.88
432.068	87.88
432.29	90.88
432.512	102.88
432.734	78.88
432.956	93.88
433.178	100.88
433.4	108.88
433.622	85.88
433.844	90.88
434.066	95.88
434.287	86.88
434.509	76.88
434.731	90.88
434.953	72.88
435.175	88.88
435.397	104.88
435.618	86.88
435.84	103.88
436.062	117.88
436.284	96.88
436.505	89.88
436.727	100.88
436.949	98.88
437.17	88.88
437.392	75.88
437.614	96.88
437.835	100.88
438.057	111.88
438.278	100.88
438.5	100.88
438.721	102.88
438.943	94.88
439.165	98.88
439.386	98.88
439.608	83.88
439.829	81.88
440.05	106.88
440.272	109.88
440.493	90.88
440.715	87.88
440.936	103.88
441.158	82.88
441.379	86.88
441.6	90.88
441.822	63.88
442.043	99.88
442.264	101.88
442.486	86.88
442.707	94.88
442.928	98.88
443.149	112.88
443.371	112.88
443.592	98.88
443.813	106.88
444.034	114.88
444.255	92.88
444.476	86.88
444.698	98.88
444.919	89.88
445.14	117.88
445.361	108.88
445.582	109.88
445.803	121.88
446.024	124.88
446.245	124.88
446.466	85.88
446.687	87.88
446.908	94.88
447.129	90.88
447.35	103.88
447.571	86.88
447.792	98.88
448.013	91.88
448.234	99.88
448.455	86.88
448.675	105.88
448.896	106.88
449.117	86.88
449.338	99.88
449.559	110.88
449.779	119.88
450	103.88
450.221	94.88
450.442	94.88
450.662	98.88
450.883	95.88
451.104	116.88
451.324	84.88
451.545	76.88
451.766	87.88
451.986	92.88
452.207	94.88
452.428	91.88
452.648	101.88
452.869	110.88
453.089	105.88
453.31	100.88
453.53	88.88
453.751	93.88
453.971	80.88
454.192	93.88
454.412	95.88
454.633	77.88
454.853	86.88
455.073	85.88
455.294	78.88
455.514	97.88
455.734	90.88
455.955	84.88
456.175	87.88
456.395	88.88
456.616	75.88
456.836	104.88
457.056	74.88
457.276	87.88
457.497	81.88
457.717	90.88
457.937	86.88
458.157	92.88
458.377	82.88
458.598	106.88
458.818	123.88
459.038	137.88
459.258	105.88
459.478	92.88
459.698	71.88
459.918	108.88
460.138	81.88
460.358	85.88
460.578	75.88
460.798	99.88
461.018	98.88
461.238	90.88
461.458	86.88
461.678	90.88
461.898	90.88
462.118	92.88
462.338	94.88
462.558	79.88
462.777	84.88
462.997	88.88
463.217	86.88
463.437	68.88
463.657	101.88
463.876	73.88
464.096	86.88
464.316	84.88
464.536	96.88
464.755	95.88
464.975	112.88
465.195	131.88
465.414	129.88
465.634	92.88
465.854	79.88
466.073	86.88
466.293	91.88
466.512	79.88
466.732	85.88
466.951	82.88
467.171	102.88
467.391	89.88
467.61	88.88
467.829	78.88
468.049	100.88
468.268	98.88
468.488	92.88
468.707	107.88
468.927	84.88
469.146	79.88
469.365	77.88
469.585	78.88
469.804	88.88
470.023	80.88
470.243	92.88
470.462	104.88
470.681	101.88
470.901	84.88
471.12	86.88
471.339	91.88
471.558	96.88
471.777	71.88
471.997	94.88
472.216	106.88
472.435	135.88
472.654	98.88
472.873	91.88
473.092	84.88
473.311	98.88
473.53	91.88
473.749	99.88
473.968	90.88
474.187	84.88
474.406	96.88
474.625	86.88
474.844	99.88
475.063	94.88
475.282	93.88
475.501	69.88
475.72	85.88
475.939	104.88
476.158	110.88
476.377	95.88
476.596	105.88
476.814	95.88
477.033	77.88
477.252	84.88
477.471	97.88
477.69	76.88
477.908	74.88
478.127	98.88
478.346	77.88
478.564	82.88
478.783	90.88
479.002	91.88
479.22	102.88
479.439	110.88
479.658	99.88
479.876	102.88
480.095	73.88
480.313	94.88
480.532	95.88
480.751	85.88
480.969	107.88
481.188	188.88
481.406	142.88
481.624	90.88
481.843	88.88
482.061	88.88
482.28	81.88
482.498	88.88
482.717	86.88
482.935	89.88
483.153	99.88
483.372	92.88
483.59	96.88
483.808	87.88
484.027	95.88
484.245	102.88
484.463	83.88
484.681	94.88
484.9	83.88
485.118	98.88
485.336	89.88
485.554	91.88
485.772	106.88
485.99	113.88
486.209	102.88
486.427	112.88
486.645	114.88
486.863	99.88
487.081	109.88
487.299	91.88
487.517	90.88
487.735	95.88
487.953	98.88
488.171	97.88
488.389	106.88
488.607	99.88
488.825	96.88
489.043	95.88
489.261	92.88
489.479	95.88
489.696	103.88
489.914	110.88
490.132	92.88
490.35	95.88
490.568	89.88
490.786	85.88
491.003	93.88
491.221	90.88
491.439	104.88
491.657	103.88
491.874	97.88
492.092	79.88
492.31	87.88
492.527	102.88
492.745	90.88
492.963	94.88
493.18	87.88
493.398	95.88
493.615	99.88
493.833	90.88
494.05	90.88
494.268	91.88
494.485	94.88
494.703	97.88
494.92	98.88
495.138	98.88
495.355	86.88
495.573	91.88
495.79	88.88
496.008	101.88
496.225	80.88
496.442	76.88
496.66	106.88
496.877	90.88
497.094	85.88
497.312	82.88
497.529	89.88
497.746	86.88
497.963	77.88
498.181	83.88
498.398	104.88
498.615	108.88
498.832	98.88
499.049	87.88
499.267	96.88
499.484	82.88
499.701	87.88
499.918	100.88
500.135	88.88
500.352	103.88
500.569	101.88
500.786	77.88
501.003	92.88
501.22	98.88
501.437	80.88
501.654	90.88
501.871	109.88
502.088	86.88
502.305	82.88
502.522	89.88
502.739	84.88
502.956	86.88
503.172	87.88
503.389	78.88
503.606	98.88
503.823	95.88
504.04	86.88
504.256	90.88
504.473	99.88
504.69	98.88
504.907	92.88
505.123	101.88
505.34	98.88
505.557	84.88
505.773	83.88
505.99	86.88
506.207	84.88
506.423	108.88
506.64	96.88
506.856	86.88
507.073	87.88
507.289	88.88
507.506	105.88
507.722	100.88
507.939	98.88
508.155	107.88
508.372	90.88
508.588	91.88
508.805	96.88
509.021	98.88
509.238	93.88
509.454	100.88
509.67	114.88
509.887	102.88
510.103	127.88
510.319	180.88
510.536	607.88
510.752	1792.88
510.968	507.88
511.184	135.88
511.401	108.88
511.617	110.88
511.833	80.88
512.049	91.88
512.265	88.88
512.481	98.88
512.698	100.88
512.914	92.88
513.13	91.88
513.346	89.88
513.562	94.88
513.778	97.88
513.994	106.88
514.21	95.88
514.426	116.88
514.642	126.88
514.858	121.88
515.074	143.88
515.29	322.88
515.506	1064.88
515.721	398.88
515.937	132.88
