Data from Circ_1980_H10_HRD10591_00070.txt Node
Date: Wed Jan 03 12:38:12 EST 2024
User: Yrep
Spectrometer: HR+D1059
Trigger mode: 1
Integration Time (sec): 1.000000E-1
Scans to average: 1
Electric dark correction enabled: true
Nonlinearity correction enabled: false
Boxcar width: 0
XAxis mode: Wavelengths
Number of Pixels in Spectrum: 2048
>>>>>Begin Spectral Data<<<<<
223.165	-18.88
223.4	-18.88
223.635	-18.88
223.869	-17.88
224.104	-32.88
224.338	-16.88
224.573	-19.88
224.808	-16.88
225.042	1.12
225.277	-4.88
225.511	8.12
225.746	24.12
225.98	5.12
226.215	22.12
226.449	6.12
226.683	8.12
226.918	14.12
227.152	39.12
227.387	34.12
227.621	41.12
227.856	49.12
228.09	55.12
228.324	53.12
228.559	49.12
228.793	65.12
229.027	64.12
229.262	67.12
229.496	85.12
229.73	62.12
229.964	77.12
230.199	82.12
230.433	69.12
230.667	81.12
230.901	78.12
231.136	79.12
231.37	103.12
231.604	83.12
231.838	85.12
232.072	87.12
232.306	86.12
232.541	75.12
232.775	81.12
233.009	93.12
233.243	84.12
233.477	102.12
233.711	83.12
233.945	83.12
234.179	86.12
234.413	84.12
234.647	96.12
234.881	101.12
235.115	87.12
235.349	98.12
235.583	76.12
235.817	85.12
236.051	75.12
236.285	93.12
236.519	86.12
236.753	72.12
236.987	97.12
237.221	88.12
237.455	98.12
237.689	71.12
237.922	86.12
238.156	75.12
238.39	79.12
238.624	64.12
238.858	86.12
239.091	73.12
239.325	99.12
239.559	79.12
239.793	62.12
240.027	82.12
240.26	80.12
240.494	81.12
240.728	72.12
240.961	77.12
241.195	82.12
241.429	87.12
241.662	83.12
241.896	81.12
242.13	85.12
242.363	80.12
242.597	75.12
242.83	78.12
243.064	64.12
243.298	82.12
243.531	79.12
243.765	76.12
243.998	73.12
244.232	93.12
244.465	85.12
244.699	87.12
244.932	98.12
245.166	82.12
245.399	91.12
245.633	75.12
245.866	89.12
246.099	83.12
246.333	73.12
246.566	87.12
246.8	82.12
247.033	85.12
247.266	79.12
247.5	87.12
247.733	91.12
247.966	80.12
248.2	81.12
248.433	80.12
248.666	79.12
248.899	79.12
249.133	91.12
249.366	106.12
249.599	80.12
249.832	89.12
250.066	91.12
250.299	82.12
250.532	90.12
250.765	89.12
250.998	79.12
251.231	87.12
251.465	82.12
251.698	80.12
251.931	81.12
252.164	91.12
252.397	85.12
252.63	88.12
252.863	94.12
253.096	96.12
253.329	97.12
253.562	82.12
253.795	92.12
254.028	87.12
254.261	79.12
254.494	74.12
254.727	89.12
254.96	80.12
255.193	95.12
255.426	82.12
255.659	89.12
255.892	86.12
256.124	92.12
256.357	98.12
256.59	88.12
256.823	93.12
257.056	81.12
257.289	77.12
257.521	89.12
257.754	85.12
257.987	81.12
258.22	75.12
258.452	90.12
258.685	89.12
258.918	92.12
259.151	92.12
259.383	80.12
259.616	105.12
259.849	97.12
260.081	86.12
260.314	96.12
260.547	83.12
260.779	87.12
261.012	82.12
261.244	92.12
261.477	109.12
261.71	86.12
261.942	99.12
262.175	90.12
262.407	71.12
262.64	76.12
262.872	92.12
263.105	83.12
263.337	93.12
263.57	95.12
263.802	93.12
264.035	80.12
264.267	76.12
264.499	103.12
264.732	80.12
264.964	80.12
265.197	85.12
265.429	89.12
265.661	96.12
265.894	78.12
266.126	72.12
266.358	85.12
266.591	90.12
266.823	101.12
267.055	105.12
267.287	87.12
267.52	90.12
267.752	97.12
267.984	89.12
268.216	85.12
268.448	101.12
268.681	97.12
268.913	88.12
269.145	86.12
269.377	87.12
269.609	94.12
269.841	85.12
270.073	75.12
270.306	85.12
270.538	101.12
270.77	101.12
271.002	99.12
271.234	77.12
271.466	79.12
271.698	97.12
271.93	89.12
272.162	90.12
272.394	92.12
272.626	85.12
272.858	78.12
273.09	89.12
273.322	87.12
273.553	88.12
273.785	86.12
274.017	87.12
274.249	81.12
274.481	83.12
274.713	105.12
274.945	78.12
275.176	101.12
275.408	81.12
275.64	89.12
275.872	86.12
276.104	85.12
276.335	81.12
276.567	95.12
276.799	103.12
277.031	102.12
277.262	95.12
277.494	95.12
277.726	95.12
277.957	86.12
278.189	99.12
278.421	88.12
278.652	105.12
278.884	91.12
279.115	98.12
279.347	82.12
279.579	102.12
279.81	97.12
280.042	95.12
280.273	81.12
280.505	85.12
280.736	95.12
280.968	94.12
281.199	94.12
281.431	100.12
281.662	94.12
281.894	95.12
282.125	105.12
282.356	82.12
282.588	103.12
282.819	105.12
283.051	101.12
283.282	87.12
283.513	96.12
283.745	96.12
283.976	81.12
284.207	88.12
284.439	103.12
284.67	100.12
284.901	90.12
285.132	82.12
285.364	86.12
285.595	96.12
285.826	103.12
286.057	81.12
286.288	100.12
286.52	102.12
286.751	89.12
286.982	96.12
287.213	97.12
287.444	96.12
287.675	94.12
287.906	95.12
288.138	86.12
288.369	85.12
288.6	96.12
288.831	98.12
289.062	99.12
289.293	93.12
289.524	82.12
289.755	89.12
289.986	94.12
290.217	77.12
290.448	88.12
290.679	90.12
290.91	89.12
291.141	88.12
291.371	95.12
291.602	76.12
291.833	89.12
292.064	95.12
292.295	102.12
292.526	98.12
292.757	79.12
292.987	93.12
293.218	86.12
293.449	101.12
293.68	91.12
293.91	97.12
294.141	92.12
294.372	88.12
294.603	81.12
294.833	86.12
295.064	101.12
295.295	83.12
295.525	92.12
295.756	98.12
295.987	95.12
296.217	113.12
296.448	104.12
296.679	108.12
296.909	88.12
297.14	101.12
297.37	87.12
297.601	93.12
297.831	81.12
298.062	104.12
298.292	97.12
298.523	93.12
298.753	86.12
298.984	105.12
299.214	96.12
299.445	79.12
299.675	106.12
299.905	87.12
300.136	98.12
300.366	89.12
300.597	82.12
300.827	92.12
301.057	97.12
301.288	98.12
301.518	103.12
301.748	85.12
301.979	103.12
302.209	99.12
302.439	88.12
302.669	92.12
302.9	89.12
303.13	111.12
303.36	95.12
303.59	103.12
303.82	109.12
304.051	109.12
304.281	90.12
304.511	97.12
304.741	89.12
304.971	78.12
305.201	88.12
305.431	91.12
305.661	83.12
305.891	75.12
306.121	91.12
306.352	103.12
306.582	97.12
306.812	102.12
307.042	93.12
307.272	107.12
307.502	92.12
307.731	117.12
307.961	112.12
308.191	102.12
308.421	80.12
308.651	80.12
308.881	96.12
309.111	91.12
309.341	90.12
309.571	103.12
309.8	80.12
310.03	91.12
310.26	88.12
310.49	105.12
310.72	98.12
310.949	101.12
311.179	94.12
311.409	88.12
311.639	112.12
311.868	109.12
312.098	86.12
312.328	94.12
312.557	93.12
312.787	86.12
313.017	94.12
313.246	103.12
313.476	104.12
313.706	89.12
313.935	104.12
314.165	104.12
314.394	91.12
314.624	99.12
314.853	109.12
315.083	91.12
315.312	82.12
315.542	91.12
315.771	109.12
316.001	85.12
316.23	92.12
316.46	85.12
316.689	81.12
316.919	83.12
317.148	90.12
317.377	106.12
317.607	92.12
317.836	106.12
318.065	107.12
318.295	93.12
318.524	92.12
318.753	100.12
318.983	95.12
319.212	104.12
319.441	103.12
319.67	121.12
319.9	103.12
320.129	103.12
320.358	98.12
320.587	109.12
320.816	89.12
321.046	84.12
321.275	92.12
321.504	101.12
321.733	113.12
321.962	95.12
322.191	97.12
322.42	98.12
322.649	96.12
322.878	106.12
323.108	110.12
323.337	118.12
323.566	117.12
323.795	119.12
324.024	172.12
324.253	295.12
324.482	576.12
324.71	1137.12
324.939	1498.12
325.168	593.12
325.397	191.12
325.626	125.12
325.855	120.12
326.084	106.12
326.313	121.12
326.542	143.12
326.77	192.12
326.999	337.12
327.228	658.12
327.457	1153.12
327.686	973.12
327.914	279.12
328.143	181.12
328.372	130.12
328.6	114.12
328.829	117.12
329.058	106.12
329.287	134.12
329.515	122.12
329.744	108.12
329.972	113.12
330.201	105.12
330.43	124.12
330.658	115.12
330.887	126.12
331.115	105.12
331.344	97.12
331.572	93.12
331.801	114.12
332.03	106.12
332.258	95.12
332.486	102.12
332.715	95.12
332.943	91.12
333.172	101.12
333.4	95.12
333.629	120.12
333.857	102.12
334.085	107.12
334.314	104.12
334.542	131.12
334.771	102.12
334.999	105.12
335.227	94.12
335.455	105.12
335.684	92.12
335.912	90.12
336.14	106.12
336.369	98.12
336.597	94.12
336.825	90.12
337.053	93.12
337.281	87.12
337.51	105.12
337.738	99.12
337.966	94.12
338.194	83.12
338.422	91.12
338.65	98.12
338.878	76.12
339.106	97.12
339.334	98.12
339.562	99.12
339.79	101.12
340.018	90.12
340.246	95.12
340.474	101.12
340.702	91.12
340.93	86.12
341.158	101.12
341.386	110.12
341.614	103.12
341.842	99.12
342.07	89.12
342.298	106.12
342.526	90.12
342.754	95.12
342.981	101.12
343.209	106.12
343.437	98.12
343.665	91.12
343.893	98.12
344.12	97.12
344.348	93.12
344.576	92.12
344.804	91.12
345.031	93.12
345.259	94.12
345.487	91.12
345.714	93.12
345.942	96.12
346.17	99.12
346.397	108.12
346.625	82.12
346.853	105.12
347.08	102.12
347.308	102.12
347.535	90.12
347.763	94.12
347.99	106.12
348.218	101.12
348.445	104.12
348.673	104.12
348.9	99.12
349.128	88.12
349.355	90.12
349.583	95.12
349.81	94.12
350.037	99.12
350.265	93.12
350.492	77.12
350.72	89.12
350.947	105.12
351.174	108.12
351.402	110.12
351.629	89.12
351.856	111.12
352.083	106.12
352.311	106.12
352.538	100.12
352.765	111.12
352.992	105.12
353.22	105.12
353.447	112.12
353.674	114.12
353.901	97.12
354.128	96.12
354.355	86.12
354.583	109.12
354.81	98.12
355.037	102.12
355.264	107.12
355.491	106.12
355.718	105.12
355.945	104.12
356.172	97.12
356.399	107.12
356.626	98.12
356.853	101.12
357.08	96.12
357.307	106.12
357.534	78.12
357.761	95.12
357.988	89.12
358.215	111.12
358.441	109.12
358.668	103.12
358.895	101.12
359.122	96.12
359.349	93.12
359.576	81.12
359.802	87.12
360.029	119.12
360.256	102.12
360.483	101.12
360.709	85.12
360.936	88.12
361.163	102.12
361.39	106.12
361.616	103.12
361.843	78.12
362.07	98.12
362.296	103.12
362.523	98.12
362.749	98.12
362.976	89.12
363.203	103.12
363.429	95.12
363.656	85.12
363.882	83.12
364.109	101.12
364.335	97.12
364.562	91.12
364.788	91.12
365.015	80.12
365.241	82.12
365.468	94.12
365.694	90.12
365.92	110.12
366.147	95.12
366.373	93.12
366.599	80.12
366.826	95.12
367.052	107.12
367.278	102.12
367.505	81.12
367.731	101.12
367.957	94.12
368.184	84.12
368.41	89.12
368.636	101.12
368.862	102.12
369.089	105.12
369.315	103.12
369.541	103.12
369.767	89.12
369.993	87.12
370.219	94.12
370.445	89.12
370.672	91.12
370.898	88.12
371.124	100.12
371.35	87.12
371.576	96.12
371.802	92.12
372.028	85.12
372.254	105.12
372.48	96.12
372.706	99.12
372.932	93.12
373.158	78.12
373.384	89.12
373.61	95.12
373.835	107.12
374.061	90.12
374.287	96.12
374.513	88.12
374.739	70.12
374.965	91.12
375.191	105.12
375.416	84.12
375.642	101.12
375.868	100.12
376.094	97.12
376.319	76.12
376.545	92.12
376.771	85.12
376.997	88.12
377.222	82.12
377.448	81.12
377.674	99.12
377.899	99.12
378.125	94.12
378.35	109.12
378.576	82.12
378.802	82.12
379.027	90.12
379.253	93.12
379.478	110.12
379.704	88.12
379.929	95.12
380.155	103.12
380.38	101.12
380.606	85.12
380.831	98.12
381.057	95.12
381.282	81.12
381.507	89.12
381.733	108.12
381.958	91.12
382.184	105.12
382.409	102.12
382.634	85.12
382.86	110.12
383.085	104.12
383.31	103.12
383.535	104.12
383.761	97.12
383.986	95.12
384.211	95.12
384.436	98.12
384.662	109.12
384.887	106.12
385.112	99.12
385.337	112.12
385.562	97.12
385.787	106.12
386.013	113.12
386.238	107.12
386.463	101.12
386.688	123.12
386.913	98.12
387.138	97.12
387.363	113.12
387.588	106.12
387.813	93.12
388.038	109.12
388.263	115.12
388.488	113.12
388.713	97.12
388.938	98.12
389.163	110.12
389.387	94.12
389.612	101.12
389.837	83.12
390.062	97.12
390.287	109.12
390.512	87.12
390.736	91.12
390.961	98.12
391.186	102.12
391.411	91.12
391.636	99.12
391.86	93.12
392.085	97.12
392.31	95.12
392.534	80.12
392.759	93.12
392.984	108.12
393.208	93.12
393.433	97.12
393.658	102.12
393.882	89.12
394.107	98.12
394.331	82.12
394.556	85.12
394.78	98.12
395.005	98.12
395.229	94.12
395.454	88.12
395.678	108.12
395.903	97.12
396.127	96.12
396.352	83.12
396.576	97.12
396.801	98.12
397.025	85.12
397.249	91.12
397.474	86.12
397.698	83.12
397.922	85.12
398.147	91.12
398.371	91.12
398.595	87.12
398.82	86.12
399.044	88.12
399.268	81.12
399.492	101.12
399.717	90.12
399.941	96.12
400.165	89.12
400.389	68.12
400.613	87.12
400.837	87.12
401.062	87.12
401.286	83.12
401.51	87.12
401.734	80.12
401.958	95.12
402.182	119.12
402.406	125.12
402.63	113.12
402.854	88.12
403.078	87.12
403.302	92.12
403.526	87.12
403.75	106.12
403.974	102.12
404.198	86.12
404.422	99.12
404.645	105.12
404.869	92.12
405.093	98.12
405.317	85.12
405.541	93.12
405.765	93.12
405.988	108.12
406.212	143.12
406.436	177.12
406.66	113.12
406.883	94.12
407.107	82.12
407.331	97.12
407.555	112.12
407.778	96.12
408.002	95.12
408.226	87.12
408.449	90.12
408.673	79.12
408.896	85.12
409.12	94.12
409.344	91.12
409.567	97.12
409.791	85.12
410.014	86.12
410.238	93.12
410.461	93.12
410.685	99.12
410.908	104.12
411.132	109.12
411.355	97.12
411.578	104.12
411.802	92.12
412.025	96.12
412.249	93.12
412.472	93.12
412.695	110.12
412.919	103.12
413.142	95.12
413.365	90.12
413.589	99.12
413.812	101.12
414.035	98.12
414.258	75.12
414.482	74.12
414.705	75.12
414.928	92.12
415.151	87.12
415.374	96.12
415.597	80.12
415.821	85.12
416.044	90.12
416.267	97.12
416.49	87.12
416.713	95.12
416.936	81.12
417.159	79.12
417.382	83.12
417.605	97.12
417.828	91.12
418.051	85.12
418.274	89.12
418.497	91.12
418.72	88.12
418.943	108.12
419.166	83.12
419.389	89.12
419.611	86.12
419.834	89.12
420.057	75.12
420.28	108.12
420.503	91.12
420.726	93.12
420.948	99.12
421.171	91.12
421.394	105.12
421.617	89.12
421.839	85.12
422.062	101.12
422.285	106.12
422.507	97.12
422.73	94.12
422.953	90.12
423.175	79.12
423.398	96.12
423.621	91.12
423.843	83.12
424.066	75.12
424.288	79.12
424.511	98.12
424.733	109.12
424.956	93.12
425.178	100.12
425.401	114.12
425.623	93.12
425.846	87.12
426.068	79.12
426.291	87.12
426.513	81.12
426.735	96.12
426.958	88.12
427.18	94.12
427.402	118.12
427.625	121.12
427.847	109.12
428.069	95.12
428.292	100.12
428.514	87.12
428.736	92.12
428.958	90.12
429.181	96.12
429.403	106.12
429.625	86.12
429.847	89.12
430.069	87.12
430.292	83.12
430.514	76.12
430.736	97.12
430.958	95.12
431.18	80.12
431.402	91.12
431.624	89.12
431.846	79.12
432.068	93.12
432.29	91.12
432.512	85.12
432.734	86.12
432.956	98.12
433.178	113.12
433.4	91.12
433.622	104.12
433.844	98.12
434.066	85.12
434.287	81.12
434.509	88.12
434.731	95.12
434.953	90.12
435.175	98.12
435.397	92.12
435.618	78.12
435.84	90.12
436.062	100.12
436.284	110.12
436.505	89.12
436.727	84.12
436.949	96.12
437.17	89.12
437.392	78.12
437.614	97.12
437.835	98.12
438.057	95.12
438.278	89.12
438.5	99.12
438.721	102.12
438.943	103.12
439.165	89.12
439.386	85.12
439.608	101.12
439.829	97.12
440.05	98.12
440.272	121.12
440.493	90.12
440.715	88.12
440.936	94.12
441.158	91.12
441.379	90.12
441.6	110.12
441.822	90.12
442.043	96.12
442.264	90.12
442.486	105.12
442.707	93.12
442.928	95.12
443.149	124.12
443.371	103.12
443.592	106.12
443.813	107.12
444.034	103.12
444.255	96.12
444.476	91.12
444.698	81.12
444.919	87.12
445.14	127.12
445.361	121.12
445.582	97.12
445.803	105.12
446.024	112.12
446.245	114.12
446.466	102.12
446.687	91.12
446.908	85.12
447.129	87.12
447.35	87.12
447.571	97.12
447.792	79.12
448.013	91.12
448.234	85.12
448.455	89.12
448.675	108.12
448.896	98.12
449.117	92.12
449.338	102.12
449.559	114.12
449.779	115.12
450	104.12
450.221	93.12
450.442	94.12
450.662	110.12
450.883	91.12
451.104	108.12
451.324	94.12
451.545	82.12
451.766	91.12
451.986	85.12
452.207	80.12
452.428	87.12
452.648	89.12
452.869	92.12
453.089	93.12
453.31	106.12
453.53	101.12
453.751	89.12
453.971	96.12
454.192	117.12
454.412	95.12
454.633	86.12
454.853	95.12
455.073	89.12
455.294	87.12
455.514	101.12
455.734	94.12
455.955	90.12
456.175	80.12
456.395	109.12
456.616	96.12
456.836	94.12
457.056	82.12
457.276	96.12
457.497	85.12
457.717	81.12
457.937	89.12
458.157	89.12
458.377	87.12
458.598	98.12
458.818	117.12
459.038	133.12
459.258	104.12
459.478	90.12
459.698	92.12
459.918	94.12
460.138	92.12
460.358	82.12
460.578	93.12
460.798	93.12
461.018	91.12
461.238	77.12
461.458	72.12
461.678	82.12
461.898	97.12
462.118	81.12
462.338	85.12
462.558	93.12
462.777	81.12
462.997	83.12
463.217	77.12
463.437	93.12
463.657	79.12
463.876	97.12
464.096	87.12
464.316	86.12
464.536	99.12
464.755	98.12
464.975	104.12
465.195	135.12
465.414	122.12
465.634	87.12
465.854	97.12
466.073	89.12
466.293	95.12
466.512	89.12
466.732	97.12
466.951	105.12
467.171	106.12
467.391	82.12
467.61	84.12
467.829	97.12
468.049	103.12
468.268	102.12
468.488	104.12
468.707	95.12
468.927	78.12
469.146	79.12
469.365	101.12
469.585	90.12
469.804	97.12
470.023	94.12
470.243	95.12
470.462	99.12
470.681	109.12
470.901	84.12
471.12	87.12
471.339	83.12
471.558	85.12
471.777	92.12
471.997	103.12
472.216	121.12
472.435	125.12
472.654	90.12
472.873	92.12
473.092	92.12
473.311	82.12
473.53	83.12
473.749	93.12
473.968	99.12
474.187	94.12
474.406	100.12
474.625	101.12
474.844	79.12
475.063	106.12
475.282	93.12
475.501	99.12
475.72	94.12
475.939	93.12
476.158	90.12
476.377	98.12
476.596	92.12
476.814	89.12
477.033	93.12
477.252	79.12
477.471	90.12
477.69	67.12
477.908	94.12
478.127	93.12
478.346	87.12
478.564	99.12
478.783	101.12
479.002	94.12
479.22	93.12
479.439	108.12
479.658	86.12
479.876	94.12
480.095	106.12
480.313	102.12
480.532	100.12
480.751	85.12
480.969	103.12
481.188	172.12
481.406	136.12
481.624	102.12
481.843	101.12
482.061	103.12
482.28	87.12
482.498	93.12
482.717	89.12
482.935	93.12
483.153	91.12
483.372	94.12
483.59	96.12
483.808	85.12
484.027	94.12
484.245	87.12
484.463	96.12
484.681	121.12
484.9	91.12
485.118	101.12
485.336	103.12
485.554	88.12
485.772	122.12
485.99	112.12
486.209	98.12
486.427	95.12
486.645	110.12
486.863	113.12
487.081	105.12
487.299	102.12
487.517	97.12
487.735	96.12
487.953	97.12
488.171	101.12
488.389	89.12
488.607	103.12
488.825	97.12
489.043	76.12
489.261	86.12
489.479	105.12
489.696	95.12
489.914	93.12
490.132	90.12
490.35	87.12
490.568	102.12
490.786	85.12
491.003	80.12
491.221	89.12
491.439	96.12
491.657	95.12
491.874	102.12
492.092	99.12
492.31	90.12
492.527	112.12
492.745	98.12
492.963	91.12
493.18	97.12
493.398	104.12
493.615	103.12
493.833	85.12
494.05	93.12
494.268	100.12
494.485	95.12
494.703	85.12
494.92	104.12
495.138	96.12
495.355	99.12
495.573	82.12
495.79	82.12
496.008	98.12
496.225	87.12
496.442	92.12
496.66	97.12
496.877	81.12
497.094	106.12
497.312	98.12
497.529	93.12
497.746	92.12
497.963	90.12
498.181	99.12
498.398	99.12
498.615	104.12
498.832	102.12
499.049	109.12
499.267	88.12
499.484	92.12
499.701	82.12
499.918	75.12
500.135	90.12
500.352	87.12
500.569	98.12
500.786	103.12
501.003	87.12
501.22	77.12
501.437	85.12
501.654	102.12
501.871	89.12
502.088	93.12
502.305	97.12
502.522	95.12
502.739	94.12
502.956	98.12
503.172	97.12
503.389	84.12
503.606	93.12
503.823	102.12
504.04	99.12
504.256	89.12
504.473	91.12
504.69	97.12
504.907	111.12
505.123	89.12
505.34	110.12
505.557	98.12
505.773	108.12
505.99	91.12
506.207	95.12
506.423	79.12
506.64	97.12
506.856	100.12
507.073	96.12
507.289	98.12
507.506	95.12
507.722	103.12
507.939	98.12
508.155	105.12
508.372	107.12
508.588	109.12
508.805	85.12
509.021	90.12
509.238	92.12
509.454	94.12
509.67	104.12
509.887	95.12
510.103	115.12
510.319	167.12
510.536	550.12
510.752	1602.12
510.968	463.12
511.184	132.12
511.401	120.12
511.617	95.12
511.833	99.12
512.049	108.12
512.265	100.12
512.481	90.12
512.698	84.12
512.914	98.12
513.13	87.12
513.346	104.12
513.562	93.12
513.778	105.12
513.994	103.12
514.21	110.12
514.426	107.12
514.642	115.12
514.858	106.12
