Data from Circ_1980_H10_HRD10591_00077.txt Node
Date: Wed Jan 03 12:38:13 EST 2024
User: Yrep
Spectrometer: HR+D1059
Trigger mode: 1
Integration Time (sec): 1.000000E-1
Scans to average: 1
Electric dark correction enabled: true
Nonlinearity correction enabled: false
Boxcar width: 0
XAxis mode: Wavelengths
Number of Pixels in Spectrum: 2048
>>>>>Begin Spectral Data<<<<<
223.165	-11.38
223.4	-11.38
223.635	-11.38
223.869	-23.38
224.104	-20.38
224.338	-9.38
224.573	-20.38
224.808	-15.38
225.042	-3.38
225.277	-18.38
225.511	-6.38
225.746	6.62
225.98	0.62
226.215	8.62
226.449	20.62
226.683	30.62
226.918	29.62
227.152	31.62
227.387	29.62
227.621	37.62
227.856	40.62
228.09	46.62
228.324	59.62
228.559	50.62
228.793	50.62
229.027	67.62
229.262	66.62
229.496	67.62
229.73	74.62
229.964	77.62
230.199	89.62
230.433	75.62
230.667	90.62
230.901	78.62
231.136	71.62
231.37	79.62
231.604	71.62
231.838	89.62
232.072	76.62
232.306	76.62
232.541	76.62
232.775	80.62
233.009	88.62
233.243	89.62
233.477	84.62
233.711	84.62
233.945	78.62
234.179	84.62
234.413	76.62
234.647	76.62
234.881	85.62
235.115	89.62
235.349	79.62
235.583	85.62
235.817	73.62
236.051	70.62
236.285	85.62
236.519	84.62
236.753	80.62
236.987	75.62
237.221	83.62
237.455	68.62
237.689	80.62
237.922	87.62
238.156	63.62
238.39	83.62
238.624	64.62
238.858	77.62
239.091	69.62
239.325	80.62
239.559	88.62
239.793	80.62
240.027	62.62
240.26	76.62
240.494	77.62
240.728	73.62
240.961	77.62
241.195	94.62
241.429	69.62
241.662	75.62
241.896	88.62
242.13	85.62
242.363	85.62
242.597	84.62
242.83	85.62
243.064	70.62
243.298	86.62
243.531	79.62
243.765	86.62
243.998	73.62
244.232	76.62
244.465	83.62
244.699	87.62
244.932	75.62
245.166	83.62
245.399	85.62
245.633	105.62
245.866	79.62
246.099	76.62
246.333	70.62
246.566	76.62
246.8	78.62
247.033	99.62
247.266	62.62
247.5	92.62
247.733	83.62
247.966	82.62
248.2	65.62
248.433	76.62
248.666	83.62
248.899	73.62
249.133	88.62
249.366	106.62
249.599	96.62
249.832	75.62
250.066	87.62
250.299	80.62
250.532	76.62
250.765	79.62
250.998	71.62
251.231	88.62
251.465	72.62
251.698	91.62
251.931	85.62
252.164	92.62
252.397	75.62
252.63	75.62
252.863	84.62
253.096	75.62
253.329	86.62
253.562	96.62
253.795	84.62
254.028	99.62
254.261	91.62
254.494	87.62
254.727	77.62
254.96	96.62
255.193	88.62
255.426	79.62
255.659	76.62
255.892	84.62
256.124	68.62
256.357	78.62
256.59	73.62
256.823	85.62
257.056	73.62
257.289	87.62
257.521	85.62
257.754	97.62
257.987	92.62
258.22	71.62
258.452	91.62
258.685	91.62
258.918	91.62
259.151	88.62
259.383	88.62
259.616	83.62
259.849	92.62
260.081	80.62
260.314	80.62
260.547	88.62
260.779	80.62
261.012	91.62
261.244	77.62
261.477	91.62
261.71	101.62
261.942	111.62
262.175	121.62
262.407	99.62
262.64	90.62
262.872	76.62
263.105	76.62
263.337	99.62
263.57	85.62
263.802	78.62
264.035	85.62
264.267	94.62
264.499	101.62
264.732	75.62
264.964	75.62
265.197	78.62
265.429	89.62
265.661	97.62
265.894	84.62
266.126	104.62
266.358	77.62
266.591	84.62
266.823	83.62
267.055	72.62
267.287	75.62
267.52	91.62
267.752	73.62
267.984	88.62
268.216	70.62
268.448	94.62
268.681	100.62
268.913	84.62
269.145	80.62
269.377	85.62
269.609	73.62
269.841	78.62
270.073	83.62
270.306	83.62
270.538	81.62
270.77	86.62
271.002	78.62
271.234	81.62
271.466	82.62
271.698	84.62
271.93	95.62
272.162	85.62
272.394	75.62
272.626	83.62
272.858	87.62
273.09	77.62
273.322	87.62
273.553	94.62
273.785	90.62
274.017	80.62
274.249	85.62
274.481	83.62
274.713	92.62
274.945	95.62
275.176	77.62
275.408	87.62
275.64	92.62
275.872	91.62
276.104	86.62
276.335	97.62
276.567	104.62
276.799	115.62
277.031	99.62
277.262	90.62
277.494	93.62
277.726	95.62
277.957	78.62
278.189	86.62
278.421	88.62
278.652	79.62
278.884	94.62
279.115	75.62
279.347	77.62
279.579	73.62
279.81	90.62
280.042	75.62
280.273	90.62
280.505	84.62
280.736	79.62
280.968	75.62
281.199	92.62
281.431	99.62
281.662	81.62
281.894	72.62
282.125	93.62
282.356	115.62
282.588	132.62
282.819	121.62
283.051	87.62
283.282	89.62
283.513	94.62
283.745	89.62
283.976	93.62
284.207	83.62
284.439	84.62
284.67	97.62
284.901	89.62
285.132	92.62
285.364	90.62
285.595	85.62
285.826	81.62
286.057	84.62
286.288	85.62
286.52	97.62
286.751	91.62
286.982	92.62
287.213	65.62
287.444	81.62
287.675	86.62
287.906	95.62
288.138	83.62
288.369	82.62
288.6	95.62
288.831	86.62
289.062	84.62
289.293	101.62
289.524	80.62
289.755	71.62
289.986	87.62
290.217	91.62
290.448	95.62
290.679	74.62
290.91	98.62
291.141	90.62
291.371	87.62
291.602	91.62
291.833	99.62
292.064	81.62
292.295	83.62
292.526	97.62
292.757	97.62
292.987	95.62
293.218	83.62
293.449	92.62
293.68	88.62
293.91	71.62
294.141	80.62
294.372	78.62
294.603	85.62
294.833	74.62
295.064	92.62
295.295	91.62
295.525	97.62
295.756	105.62
295.987	125.62
296.217	137.62
296.448	112.62
296.679	87.62
296.909	87.62
297.14	84.62
297.37	89.62
297.601	97.62
297.831	86.62
298.062	107.62
298.292	88.62
298.523	95.62
298.753	81.62
298.984	69.62
299.214	88.62
299.445	98.62
299.675	92.62
299.905	100.62
300.136	89.62
300.366	81.62
300.597	94.62
300.827	107.62
301.057	94.62
301.288	96.62
301.518	102.62
301.748	86.62
301.979	106.62
302.209	76.62
302.439	86.62
302.669	94.62
302.9	100.62
303.13	95.62
303.36	89.62
303.59	101.62
303.82	98.62
304.051	95.62
304.281	92.62
304.511	110.62
304.741	92.62
304.971	97.62
305.201	98.62
305.431	83.62
305.661	89.62
305.891	89.62
306.121	91.62
306.352	105.62
306.582	102.62
306.812	90.62
307.042	89.62
307.272	92.62
307.502	105.62
307.731	83.62
307.961	97.62
308.191	97.62
308.421	100.62
308.651	110.62
308.881	94.62
309.111	118.62
309.341	108.62
309.571	89.62
309.8	99.62
310.03	108.62
310.26	96.62
310.49	99.62
310.72	99.62
310.949	109.62
311.179	107.62
311.409	86.62
311.639	97.62
311.868	98.62
312.098	94.62
312.328	109.62
312.557	102.62
312.787	104.62
313.017	98.62
313.246	100.62
313.476	93.62
313.706	94.62
313.935	105.62
314.165	93.62
314.394	93.62
314.624	99.62
314.853	96.62
315.083	90.62
315.312	96.62
315.542	93.62
315.771	85.62
316.001	93.62
316.23	80.62
316.46	74.62
316.689	96.62
316.919	92.62
317.148	91.62
317.377	103.62
317.607	98.62
317.836	88.62
318.065	91.62
318.295	91.62
318.524	94.62
318.753	87.62
318.983	95.62
319.212	98.62
319.441	99.62
319.67	102.62
319.9	98.62
320.129	87.62
320.358	97.62
320.587	99.62
320.816	91.62
321.046	108.62
321.275	102.62
321.504	98.62
321.733	101.62
321.962	99.62
322.191	109.62
322.42	93.62
322.649	108.62
322.878	101.62
323.108	102.62
323.337	132.62
323.566	120.62
323.795	135.62
324.024	172.62
324.253	331.62
324.482	682.62
324.71	1425.62
324.939	1861.62
325.168	708.62
325.397	211.62
325.626	137.62
325.855	119.62
326.084	120.62
326.313	112.62
326.542	141.62
326.77	201.62
326.999	404.62
327.228	803.62
327.457	1464.62
327.686	1131.62
327.914	351.62
328.143	177.62
328.372	149.62
328.6	118.62
328.829	123.62
329.058	121.62
329.287	134.62
329.515	110.62
329.744	102.62
329.972	108.62
330.201	131.62
330.43	129.62
330.658	134.62
330.887	126.62
331.115	113.62
331.344	93.62
331.572	94.62
331.801	91.62
332.03	104.62
332.258	97.62
332.486	107.62
332.715	107.62
332.943	92.62
333.172	92.62
333.4	96.62
333.629	110.62
333.857	110.62
334.085	119.62
334.314	105.62
334.542	141.62
334.771	127.62
334.999	99.62
335.227	99.62
335.455	92.62
335.684	105.62
335.912	108.62
336.14	88.62
336.369	99.62
336.597	90.62
336.825	95.62
337.053	95.62
337.281	96.62
337.51	92.62
337.738	96.62
337.966	124.62
338.194	87.62
338.422	97.62
338.65	93.62
338.878	103.62
339.106	93.62
339.334	78.62
339.562	99.62
339.79	97.62
340.018	92.62
340.246	97.62
340.474	98.62
340.702	91.62
340.93	100.62
341.158	96.62
341.386	107.62
341.614	104.62
341.842	87.62
342.07	95.62
342.298	92.62
342.526	93.62
342.754	94.62
342.981	90.62
343.209	90.62
343.437	103.62
343.665	102.62
343.893	104.62
344.12	98.62
344.348	92.62
344.576	88.62
344.804	87.62
345.031	92.62
345.259	106.62
345.487	104.62
345.714	96.62
345.942	77.62
346.17	71.62
346.397	83.62
346.625	93.62
346.853	97.62
347.08	82.62
347.308	100.62
347.535	80.62
347.763	94.62
347.99	95.62
348.218	84.62
348.445	89.62
348.673	100.62
348.9	88.62
349.128	97.62
349.355	105.62
349.583	101.62
349.81	96.62
350.037	100.62
350.265	85.62
350.492	84.62
350.72	103.62
350.947	107.62
351.174	109.62
351.402	108.62
351.629	110.62
351.856	107.62
352.083	98.62
352.311	99.62
352.538	103.62
352.765	99.62
352.992	115.62
353.22	121.62
353.447	92.62
353.674	97.62
353.901	91.62
354.128	102.62
354.355	95.62
354.583	105.62
354.81	103.62
355.037	92.62
355.264	107.62
355.491	94.62
355.718	99.62
355.945	87.62
356.172	88.62
356.399	95.62
356.626	98.62
356.853	97.62
357.08	94.62
357.307	102.62
357.534	88.62
357.761	99.62
357.988	105.62
358.215	99.62
358.441	97.62
358.668	92.62
358.895	78.62
359.122	99.62
359.349	99.62
359.576	77.62
359.802	81.62
360.029	99.62
360.256	108.62
360.483	81.62
360.709	100.62
360.936	102.62
361.163	87.62
361.39	92.62
361.616	95.62
361.843	99.62
362.07	95.62
362.296	91.62
362.523	85.62
362.749	88.62
362.976	90.62
363.203	83.62
363.429	91.62
363.656	118.62
363.882	99.62
364.109	92.62
364.335	104.62
364.562	80.62
364.788	90.62
365.015	112.62
365.241	107.62
365.468	105.62
365.694	110.62
365.92	94.62
366.147	89.62
366.373	79.62
366.599	90.62
366.826	94.62
367.052	97.62
367.278	85.62
367.505	99.62
367.731	106.62
367.957	92.62
368.184	97.62
368.41	102.62
368.636	101.62
368.862	120.62
369.089	119.62
369.315	83.62
369.541	84.62
369.767	99.62
369.993	96.62
370.219	81.62
370.445	96.62
370.672	103.62
370.898	84.62
371.124	90.62
371.35	108.62
371.576	91.62
371.802	91.62
372.028	80.62
372.254	75.62
372.48	87.62
372.706	99.62
372.932	93.62
373.158	87.62
373.384	106.62
373.61	93.62
373.835	88.62
374.061	90.62
374.287	97.62
374.513	72.62
374.739	98.62
374.965	95.62
375.191	88.62
375.416	81.62
375.642	75.62
375.868	91.62
376.094	94.62
376.319	69.62
376.545	88.62
376.771	87.62
376.997	112.62
377.222	89.62
377.448	105.62
377.674	83.62
377.899	93.62
378.125	86.62
378.35	88.62
378.576	88.62
378.802	84.62
379.027	90.62
379.253	93.62
379.478	100.62
379.704	85.62
379.929	93.62
380.155	89.62
380.38	92.62
380.606	99.62
380.831	89.62
381.057	94.62
381.282	104.62
381.507	97.62
381.733	88.62
381.958	106.62
382.184	110.62
382.409	90.62
382.634	100.62
382.86	91.62
383.085	100.62
383.31	99.62
383.535	103.62
383.761	91.62
383.986	94.62
384.211	100.62
384.436	98.62
384.662	87.62
384.887	111.62
385.112	109.62
385.337	112.62
385.562	102.62
385.787	98.62
386.013	124.62
386.238	114.62
386.463	111.62
386.688	100.62
386.913	95.62
387.138	101.62
387.363	106.62
387.588	91.62
387.813	106.62
388.038	110.62
388.263	113.62
388.488	101.62
388.713	104.62
388.938	83.62
389.163	89.62
389.387	94.62
389.612	89.62
389.837	91.62
390.062	80.62
390.287	91.62
390.512	75.62
390.736	76.62
390.961	101.62
391.186	85.62
391.411	100.62
391.636	88.62
391.86	87.62
392.085	82.62
392.31	83.62
392.534	86.62
392.759	87.62
392.984	79.62
393.208	89.62
393.433	109.62
393.658	94.62
393.882	88.62
394.107	93.62
394.331	70.62
394.556	83.62
394.78	90.62
395.005	107.62
395.229	101.62
395.454	93.62
395.678	88.62
395.903	97.62
396.127	77.62
396.352	85.62
396.576	90.62
396.801	76.62
397.025	90.62
397.249	90.62
397.474	88.62
397.698	83.62
397.922	83.62
398.147	86.62
398.371	93.62
398.595	96.62
398.82	90.62
399.044	83.62
399.268	86.62
399.492	89.62
399.717	87.62
399.941	93.62
400.165	81.62
400.389	93.62
400.613	95.62
400.837	88.62
401.062	93.62
401.286	98.62
401.51	112.62
401.734	105.62
401.958	103.62
402.182	93.62
402.406	159.62
402.63	116.62
402.854	83.62
403.078	85.62
403.302	91.62
403.526	92.62
403.75	89.62
403.974	89.62
404.198	85.62
404.422	95.62
404.645	91.62
404.869	100.62
405.093	93.62
405.317	90.62
405.541	91.62
405.765	128.62
405.988	113.62
406.212	147.62
406.436	191.62
406.66	142.62
406.883	101.62
407.107	95.62
407.331	100.62
407.555	94.62
407.778	103.62
408.002	96.62
408.226	93.62
408.449	103.62
408.673	85.62
408.896	93.62
409.12	108.62
409.344	81.62
409.567	83.62
409.791	94.62
410.014	93.62
410.238	86.62
410.461	91.62
410.685	103.62
410.908	95.62
411.132	101.62
411.355	94.62
411.578	93.62
411.802	75.62
412.025	96.62
412.249	103.62
412.472	85.62
412.695	101.62
412.919	85.62
413.142	84.62
413.365	101.62
413.589	97.62
413.812	101.62
414.035	108.62
414.258	80.62
414.482	81.62
414.705	75.62
414.928	102.62
415.151	94.62
415.374	90.62
415.597	93.62
415.821	97.62
416.044	89.62
416.267	90.62
416.49	81.62
416.713	97.62
416.936	93.62
417.159	70.62
417.382	95.62
417.605	92.62
417.828	86.62
418.051	96.62
418.274	80.62
418.497	93.62
418.72	85.62
418.943	95.62
419.166	99.62
419.389	84.62
419.611	103.62
419.834	97.62
420.057	86.62
420.28	92.62
420.503	89.62
420.726	96.62
420.948	103.62
421.171	104.62
421.394	99.62
421.617	85.62
421.839	94.62
422.062	90.62
422.285	100.62
422.507	96.62
422.73	102.62
422.953	91.62
423.175	85.62
423.398	84.62
423.621	85.62
423.843	100.62
424.066	84.62
424.288	89.62
424.511	81.62
424.733	84.62
424.956	106.62
425.178	95.62
425.401	105.62
425.623	96.62
425.846	96.62
426.068	95.62
426.291	87.62
426.513	87.62
426.735	101.62
426.958	101.62
427.18	116.62
427.402	122.62
427.625	156.62
427.847	110.62
428.069	106.62
428.292	79.62
428.514	99.62
428.736	89.62
428.958	73.62
429.181	88.62
429.403	79.62
429.625	93.62
429.847	89.62
430.069	92.62
430.292	85.62
430.514	94.62
430.736	101.62
430.958	91.62
431.18	81.62
431.402	83.62
431.624	77.62
431.846	86.62
432.068	100.62
432.29	89.62
432.512	88.62
432.734	89.62
432.956	94.62
433.178	87.62
433.4	88.62
433.622	105.62
433.844	88.62
434.066	96.62
434.287	86.62
434.509	91.62
434.731	88.62
434.953	105.62
435.175	91.62
435.397	88.62
435.618	103.62
435.84	92.62
436.062	103.62
436.284	108.62
436.505	104.62
436.727	107.62
436.949	95.62
437.17	85.62
437.392	97.62
437.614	96.62
437.835	101.62
438.057	119.62
438.278	93.62
438.5	109.62
438.721	113.62
438.943	108.62
439.165	92.62
439.386	90.62
439.608	81.62
439.829	103.62
440.05	111.62
440.272	162.62
440.493	102.62
440.715	100.62
440.936	101.62
441.158	90.62
441.379	83.62
441.6	100.62
441.822	88.62
442.043	94.62
442.264	101.62
442.486	88.62
442.707	89.62
442.928	115.62
443.149	130.62
443.371	113.62
443.592	103.62
443.813	99.62
444.034	95.62
444.255	108.62
444.476	114.62
444.698	91.62
444.919	87.62
445.14	129.62
445.361	111.62
445.582	111.62
445.803	120.62
446.024	116.62
446.245	116.62
446.466	105.62
446.687	108.62
446.908	91.62
447.129	85.62
447.35	97.62
447.571	110.62
447.792	96.62
448.013	107.62
448.234	102.62
448.455	92.62
448.675	113.62
448.896	102.62
449.117	84.62
449.338	91.62
449.559	109.62
449.779	129.62
450	96.62
450.221	94.62
450.442	94.62
450.662	90.62
450.883	98.62
451.104	107.62
451.324	106.62
451.545	97.62
451.766	86.62
451.986	78.62
452.207	97.62
452.428	101.62
452.648	101.62
452.869	102.62
453.089	105.62
453.31	109.62
453.53	89.62
453.751	93.62
453.971	109.62
454.192	100.62
454.412	87.62
454.633	88.62
454.853	81.62
455.073	93.62
455.294	93.62
455.514	103.62
455.734	81.62
455.955	86.62
456.175	88.62
456.395	84.62
456.616	97.62
456.836	77.62
457.056	64.62
457.276	72.62
457.497	93.62
457.717	93.62
457.937	93.62
458.157	88.62
458.377	89.62
458.598	108.62
458.818	128.62
459.038	139.62
459.258	108.62
459.478	81.62
459.698	95.62
459.918	99.62
460.138	93.62
460.358	71.62
460.578	80.62
460.798	95.62
461.018	98.62
461.238	79.62
461.458	75.62
461.678	82.62
461.898	84.62
462.118	85.62
462.338	93.62
462.558	81.62
462.777	82.62
462.997	80.62
463.217	83.62
463.437	86.62
463.657	100.62
463.876	92.62
464.096	91.62
464.316	96.62
464.536	91.62
464.755	90.62
464.975	102.62
465.195	158.62
465.414	144.62
465.634	95.62
465.854	92.62
466.073	96.62
466.293	113.62
466.512	81.62
466.732	91.62
466.951	96.62
467.171	92.62
467.391	91.62
467.61	105.62
467.829	105.62
468.049	105.62
468.268	111.62
468.488	104.62
468.707	87.62
468.927	99.62
469.146	92.62
469.365	95.62
469.585	102.62
469.804	109.62
470.023	94.62
470.243	91.62
470.462	94.62
470.681	108.62
470.901	96.62
471.12	90.62
471.339	91.62
471.558	107.62
471.777	76.62
471.997	103.62
472.216	120.62
472.435	149.62
472.654	106.62
472.873	86.62
473.092	103.62
473.311	93.62
473.53	89.62
473.749	97.62
473.968	97.62
474.187	103.62
474.406	101.62
474.625	87.62
474.844	70.62
475.063	90.62
475.282	77.62
475.501	92.62
475.72	83.62
475.939	87.62
476.158	96.62
476.377	93.62
476.596	91.62
476.814	81.62
477.033	87.62
477.252	95.62
477.471	85.62
477.69	92.62
477.908	87.62
478.127	84.62
478.346	72.62
478.564	87.62
478.783	96.62
479.002	91.62
479.22	103.62
479.439	95.62
479.658	111.62
479.876	103.62
480.095	106.62
480.313	94.62
480.532	96.62
480.751	101.62
480.969	110.62
481.188	215.62
481.406	148.62
481.624	93.62
481.843	79.62
482.061	95.62
482.28	75.62
482.498	90.62
482.717	101.62
482.935	92.62
483.153	93.62
483.372	83.62
483.59	94.62
483.808	81.62
484.027	107.62
484.245	113.62
484.463	80.62
484.681	91.62
484.9	87.62
485.118	93.62
485.336	101.62
485.554	105.62
485.772	103.62
485.99	113.62
486.209	120.62
486.427	109.62
486.645	109.62
486.863	118.62
487.081	103.62
487.299	103.62
487.517	100.62
487.735	79.62
487.953	90.62
488.171	97.62
488.389	87.62
488.607	89.62
488.825	106.62
489.043	85.62
489.261	101.62
489.479	91.62
489.696	72.62
489.914	80.62
490.132	84.62
490.35	97.62
490.568	92.62
490.786	89.62
491.003	97.62
491.221	99.62
491.439	86.62
491.657	97.62
491.874	96.62
492.092	96.62
492.31	92.62
492.527	91.62
492.745	93.62
492.963	93.62
493.18	76.62
493.398	108.62
493.615	112.62
493.833	99.62
494.05	86.62
494.268	87.62
494.485	86.62
494.703	96.62
494.92	90.62
495.138	85.62
495.355	89.62
495.573	98.62
495.79	91.62
496.008	92.62
496.225	90.62
496.442	90.62
496.66	99.62
496.877	80.62
497.094	103.62
497.312	83.62
497.529	84.62
497.746	101.62
497.963	99.62
498.181	75.62
498.398	103.62
498.615	119.62
498.832	101.62
499.049	93.62
499.267	95.62
499.484	95.62
499.701	80.62
499.918	97.62
500.135	85.62
500.352	85.62
500.569	88.62
500.786	95.62
501.003	83.62
501.22	88.62
501.437	95.62
501.654	104.62
501.871	107.62
502.088	97.62
502.305	83.62
502.522	89.62
502.739	99.62
502.956	90.62
503.172	78.62
503.389	106.62
503.606	97.62
503.823	93.62
504.04	98.62
504.256	89.62
504.473	89.62
504.69	85.62
504.907	94.62
505.123	85.62
505.34	88.62
505.557	79.62
505.773	91.62
505.99	85.62
506.207	88.62
506.423	95.62
506.64	98.62
506.856	98.62
507.073	103.62
507.289	103.62
507.506	85.62
507.722	106.62
507.939	105.62
508.155	95.62
508.372	99.62
508.588	107.62
508.805	89.62
509.021	95.62
509.238	99.62
509.454	82.62
509.67	94.62
509.887	109.62
510.103	131.62
510.319	198.62
510.536	708.62
510.752	2168.62
510.968	581.62
511.184	160.62
511.401	95.62
511.617	96.62
511.833	100.62
512.049	95.62
512.265	91.62
512.481	92.62
512.698	107.62
512.914	99.62
513.13	96.62
513.346	85.62
513.562	104.62
513.778	92.62
513.994	109.62
514.21	107.62
514.426	115.62
514.642	124.62
514.858	120.62
515.074	171.62
