Data from Circ_1980_H10_HRD10591_00013.txt Node
Date: Wed Jan 03 12:38:00 EST 2024
User: Yrep
Spectrometer: HR+D1059
Trigger mode: 1
Integration Time (sec): 1.000000E-1
Scans to average: 1
Electric dark correction enabled: true
Nonlinearity correction enabled: false
Boxcar width: 0
XAxis mode: Wavelengths
Number of Pixels in Spectrum: 2048
>>>>>Begin Spectral Data<<<<<
223.165	-10.56
223.4	-10.56
223.635	-10.56
223.869	-10.56
224.104	-17.56
224.338	-21.56
224.573	-23.56
224.808	-10.56
225.042	-12.56
225.277	-11.56
225.511	2.44
225.746	4.44
225.98	10.44
226.215	12.44
226.449	8.44
226.683	21.44
226.918	30.44
227.152	28.44
227.387	35.44
227.621	34.44
227.856	46.44
228.09	31.44
228.324	56.44
228.559	48.44
228.793	67.44
229.027	72.44
229.262	60.44
229.496	66.44
229.73	84.44
229.964	78.44
230.199	67.44
230.433	69.44
230.667	77.44
230.901	66.44
231.136	80.44
231.37	65.44
231.604	71.44
231.838	88.44
232.072	68.44
232.306	76.44
232.541	83.44
232.775	70.44
233.009	80.44
233.243	75.44
233.477	80.44
233.711	80.44
233.945	87.44
234.179	72.44
234.413	77.44
234.647	73.44
234.881	90.44
235.115	81.44
235.349	84.44
235.583	56.44
235.817	84.44
236.051	80.44
236.285	76.44
236.519	61.44
236.753	93.44
236.987	73.44
237.221	79.44
237.455	83.44
237.689	74.44
237.922	79.44
238.156	73.44
238.39	70.44
238.624	72.44
238.858	67.44
239.091	77.44
239.325	63.44
239.559	64.44
239.793	83.44
240.027	82.44
240.26	80.44
240.494	80.44
240.728	69.44
240.961	86.44
241.195	84.44
241.429	69.44
241.662	70.44
241.896	57.44
242.13	59.44
242.363	65.44
242.597	56.44
242.83	94.44
243.064	82.44
243.298	88.44
243.531	76.44
243.765	75.44
243.998	65.44
244.232	77.44
244.465	76.44
244.699	83.44
244.932	75.44
245.166	76.44
245.399	75.44
245.633	70.44
245.866	78.44
246.099	84.44
246.333	74.44
246.566	80.44
246.8	73.44
247.033	77.44
247.266	80.44
247.5	73.44
247.733	85.44
247.966	77.44
248.2	77.44
248.433	69.44
248.666	66.44
248.899	92.44
249.133	72.44
249.366	92.44
249.599	80.44
249.832	83.44
250.066	75.44
250.299	61.44
250.532	73.44
250.765	83.44
250.998	74.44
251.231	68.44
251.465	73.44
251.698	66.44
251.931	65.44
252.164	65.44
252.397	91.44
252.63	73.44
252.863	68.44
253.096	82.44
253.329	98.44
253.562	78.44
253.795	86.44
254.028	80.44
254.261	73.44
254.494	80.44
254.727	74.44
254.96	74.44
255.193	84.44
255.426	69.44
255.659	83.44
255.892	84.44
256.124	81.44
256.357	77.44
256.59	82.44
256.823	81.44
257.056	96.44
257.289	84.44
257.521	76.44
257.754	81.44
257.987	78.44
258.22	72.44
258.452	81.44
258.685	85.44
258.918	83.44
259.151	81.44
259.383	88.44
259.616	62.44
259.849	76.44
260.081	85.44
260.314	83.44
260.547	69.44
260.779	74.44
261.012	90.44
261.244	88.44
261.477	99.44
261.71	88.44
261.942	104.44
262.175	102.44
262.407	80.44
262.64	75.44
262.872	83.44
263.105	86.44
263.337	81.44
263.57	86.44
263.802	85.44
264.035	91.44
264.267	93.44
264.499	90.44
264.732	82.44
264.964	76.44
265.197	84.44
265.429	91.44
265.661	78.44
265.894	92.44
266.126	83.44
266.358	80.44
266.591	72.44
266.823	82.44
267.055	88.44
267.287	89.44
267.52	88.44
267.752	90.44
267.984	81.44
268.216	89.44
268.448	71.44
268.681	78.44
268.913	83.44
269.145	81.44
269.377	87.44
269.609	73.44
269.841	84.44
270.073	82.44
270.306	76.44
270.538	70.44
270.77	56.44
271.002	80.44
271.234	100.44
271.466	86.44
271.698	83.44
271.93	90.44
272.162	85.44
272.394	95.44
272.626	82.44
272.858	69.44
273.09	85.44
273.322	82.44
273.553	94.44
273.785	108.44
274.017	74.44
274.249	79.44
274.481	77.44
274.713	74.44
274.945	77.44
275.176	83.44
275.408	88.44
275.64	73.44
275.872	84.44
276.104	80.44
276.335	87.44
276.567	82.44
276.799	78.44
277.031	81.44
277.262	94.44
277.494	80.44
277.726	87.44
277.957	84.44
278.189	90.44
278.421	85.44
278.652	92.44
278.884	88.44
279.115	94.44
279.347	89.44
279.579	90.44
279.81	93.44
280.042	76.44
280.273	79.44
280.505	81.44
280.736	77.44
280.968	82.44
281.199	96.44
281.431	97.44
281.662	77.44
281.894	99.44
282.125	95.44
282.356	101.44
282.588	120.44
282.819	107.44
283.051	89.44
283.282	86.44
283.513	83.44
283.745	89.44
283.976	77.44
284.207	96.44
284.439	89.44
284.67	82.44
284.901	80.44
285.132	92.44
285.364	77.44
285.595	81.44
285.826	80.44
286.057	91.44
286.288	95.44
286.52	82.44
286.751	72.44
286.982	75.44
287.213	84.44
287.444	88.44
287.675	89.44
287.906	81.44
288.138	95.44
288.369	81.44
288.6	64.44
288.831	80.44
289.062	86.44
289.293	80.44
289.524	76.44
289.755	76.44
289.986	88.44
290.217	91.44
290.448	85.44
290.679	65.44
290.91	92.44
291.141	84.44
291.371	88.44
291.602	77.44
291.833	83.44
292.064	76.44
292.295	93.44
292.526	88.44
292.757	87.44
292.987	82.44
293.218	67.44
293.449	93.44
293.68	62.44
293.91	90.44
294.141	84.44
294.372	100.44
294.603	94.44
294.833	67.44
295.064	82.44
295.295	86.44
295.525	91.44
295.756	86.44
295.987	94.44
296.217	102.44
296.448	98.44
296.679	80.44
296.909	82.44
297.14	87.44
297.37	90.44
297.601	91.44
297.831	98.44
298.062	108.44
298.292	88.44
298.523	75.44
298.753	91.44
298.984	78.44
299.214	81.44
299.445	96.44
299.675	90.44
299.905	75.44
300.136	85.44
300.366	92.44
300.597	93.44
300.827	88.44
301.057	84.44
301.288	81.44
301.518	76.44
301.748	82.44
301.979	96.44
302.209	85.44
302.439	84.44
302.669	106.44
302.9	86.44
303.13	104.44
303.36	89.44
303.59	100.44
303.82	92.44
304.051	86.44
304.281	89.44
304.511	105.44
304.741	104.44
304.971	92.44
305.201	86.44
305.431	84.44
305.661	109.44
305.891	94.44
306.121	91.44
306.352	100.44
306.582	102.44
306.812	87.44
307.042	78.44
307.272	93.44
307.502	83.44
307.731	101.44
307.961	93.44
308.191	88.44
308.421	96.44
308.651	95.44
308.881	86.44
309.111	91.44
309.341	95.44
309.571	77.44
309.8	97.44
310.03	90.44
310.26	104.44
310.49	74.44
310.72	93.44
310.949	85.44
311.179	101.44
311.409	77.44
311.639	80.44
311.868	93.44
312.098	88.44
312.328	82.44
312.557	98.44
312.787	89.44
313.017	90.44
313.246	92.44
313.476	90.44
313.706	81.44
313.935	91.44
314.165	107.44
314.394	93.44
314.624	97.44
314.853	102.44
315.083	85.44
315.312	84.44
315.542	88.44
315.771	88.44
316.001	87.44
316.23	88.44
316.46	92.44
316.689	80.44
316.919	95.44
317.148	95.44
317.377	103.44
317.607	87.44
317.836	88.44
318.065	85.44
318.295	97.44
318.524	91.44
318.753	82.44
318.983	103.44
319.212	90.44
319.441	108.44
319.67	92.44
319.9	84.44
320.129	99.44
320.358	91.44
320.587	87.44
320.816	100.44
321.046	84.44
321.275	90.44
321.504	91.44
321.733	85.44
321.962	88.44
322.191	90.44
322.42	111.44
322.649	102.44
322.878	105.44
323.108	92.44
323.337	108.44
323.566	112.44
323.795	119.44
324.024	150.44
324.253	291.44
324.482	577.44
324.71	1121.44
324.939	1490.44
325.168	566.44
325.397	187.44
325.626	122.44
325.855	115.44
326.084	113.44
326.313	112.44
326.542	123.44
326.77	184.44
326.999	324.44
327.228	648.44
327.457	1174.44
327.686	942.44
327.914	281.44
328.143	152.44
328.372	137.44
328.6	114.44
328.829	107.44
329.058	113.44
329.287	105.44
329.515	103.44
329.744	105.44
329.972	90.44
330.201	103.44
330.43	113.44
330.658	99.44
330.887	111.44
331.115	107.44
331.344	92.44
331.572	105.44
331.801	102.44
332.03	110.44
332.258	96.44
332.486	77.44
332.715	93.44
332.943	89.44
333.172	84.44
333.4	92.44
333.629	90.44
333.857	108.44
334.085	113.44
334.314	116.44
334.542	106.44
334.771	106.44
334.999	102.44
335.227	89.44
335.455	96.44
335.684	94.44
335.912	106.44
336.14	90.44
336.369	98.44
336.597	98.44
336.825	103.44
337.053	84.44
337.281	89.44
337.51	102.44
337.738	91.44
337.966	80.44
338.194	82.44
338.422	90.44
338.65	73.44
338.878	88.44
339.106	100.44
339.334	85.44
339.562	89.44
339.79	91.44
340.018	85.44
340.246	92.44
340.474	81.44
340.702	77.44
340.93	90.44
341.158	97.44
341.386	85.44
341.614	87.44
341.842	91.44
342.07	84.44
342.298	90.44
342.526	84.44
342.754	87.44
342.981	88.44
343.209	91.44
343.437	101.44
343.665	88.44
343.893	76.44
344.12	76.44
344.348	80.44
344.576	83.44
344.804	90.44
345.031	82.44
345.259	86.44
345.487	84.44
345.714	87.44
345.942	98.44
346.17	85.44
346.397	85.44
346.625	87.44
346.853	89.44
347.08	93.44
347.308	95.44
347.535	96.44
347.763	81.44
347.99	96.44
348.218	113.44
348.445	98.44
348.673	97.44
348.9	94.44
349.128	95.44
349.355	92.44
349.583	101.44
349.81	77.44
350.037	93.44
350.265	98.44
350.492	94.44
350.72	88.44
350.947	101.44
351.174	99.44
351.402	99.44
351.629	97.44
351.856	94.44
352.083	100.44
352.311	87.44
352.538	107.44
352.765	113.44
352.992	111.44
353.22	105.44
353.447	109.44
353.674	85.44
353.901	82.44
354.128	96.44
354.355	84.44
354.583	94.44
354.81	96.44
355.037	83.44
355.264	98.44
355.491	90.44
355.718	88.44
355.945	105.44
356.172	89.44
356.399	92.44
356.626	97.44
356.853	91.44
357.08	81.44
357.307	83.44
357.534	85.44
357.761	99.44
357.988	107.44
358.215	99.44
358.441	101.44
358.668	92.44
358.895	102.44
359.122	87.44
359.349	95.44
359.576	97.44
359.802	95.44
360.029	80.44
360.256	92.44
360.483	85.44
360.709	81.44
360.936	94.44
361.163	104.44
361.39	91.44
361.616	84.44
361.843	96.44
362.07	93.44
362.296	82.44
362.523	86.44
362.749	94.44
362.976	80.44
363.203	65.44
363.429	76.44
363.656	96.44
363.882	83.44
364.109	89.44
364.335	93.44
364.562	83.44
364.788	76.44
365.015	94.44
365.241	101.44
365.468	100.44
365.694	96.44
365.92	69.44
366.147	97.44
366.373	77.44
366.599	86.44
366.826	90.44
367.052	88.44
367.278	94.44
367.505	89.44
367.731	85.44
367.957	83.44
368.184	86.44
368.41	77.44
368.636	108.44
368.862	91.44
369.089	100.44
369.315	88.44
369.541	89.44
369.767	95.44
369.993	77.44
370.219	78.44
370.445	71.44
370.672	77.44
370.898	93.44
371.124	96.44
371.35	94.44
371.576	84.44
371.802	100.44
372.028	96.44
372.254	101.44
372.48	86.44
372.706	88.44
372.932	97.44
373.158	80.44
373.384	92.44
373.61	84.44
373.835	92.44
374.061	92.44
374.287	100.44
374.513	99.44
374.739	91.44
374.965	86.44
375.191	81.44
375.416	102.44
375.642	87.44
375.868	84.44
376.094	97.44
376.319	102.44
376.545	91.44
376.771	95.44
376.997	83.44
377.222	86.44
377.448	94.44
377.674	86.44
377.899	90.44
378.125	96.44
378.35	98.44
378.576	92.44
378.802	105.44
379.027	71.44
379.253	94.44
379.478	103.44
379.704	97.44
379.929	108.44
380.155	98.44
380.38	95.44
380.606	106.44
380.831	104.44
381.057	86.44
381.282	102.44
381.507	97.44
381.733	101.44
381.958	108.44
382.184	108.44
382.409	115.44
382.634	115.44
382.86	111.44
383.085	114.44
383.31	105.44
383.535	108.44
383.761	94.44
383.986	103.44
384.211	101.44
384.436	112.44
384.662	102.44
384.887	110.44
385.112	114.44
385.337	122.44
385.562	122.44
385.787	95.44
386.013	113.44
386.238	110.44
386.463	121.44
386.688	122.44
386.913	117.44
387.138	112.44
387.363	110.44
387.588	101.44
387.813	102.44
388.038	114.44
388.263	100.44
388.488	99.44
388.713	94.44
388.938	91.44
389.163	98.44
389.387	91.44
389.612	94.44
389.837	88.44
390.062	93.44
390.287	99.44
390.512	102.44
390.736	87.44
390.961	84.44
391.186	97.44
391.411	102.44
391.636	89.44
391.86	80.44
392.085	103.44
392.31	86.44
392.534	84.44
392.759	70.44
392.984	79.44
393.208	90.44
393.433	101.44
393.658	82.44
393.882	92.44
394.107	83.44
394.331	96.44
394.556	94.44
394.78	80.44
395.005	74.44
395.229	74.44
395.454	73.44
395.678	81.44
395.903	85.44
396.127	85.44
396.352	81.44
396.576	92.44
396.801	91.44
397.025	86.44
397.249	88.44
397.474	83.44
397.698	85.44
397.922	94.44
398.147	86.44
398.371	85.44
398.595	95.44
398.82	84.44
399.044	89.44
399.268	84.44
399.492	97.44
399.717	90.44
399.941	93.44
400.165	95.44
400.389	89.44
400.613	78.44
400.837	100.44
401.062	94.44
401.286	92.44
401.51	75.44
401.734	93.44
401.958	96.44
402.182	121.44
402.406	122.44
402.63	104.44
402.854	88.44
403.078	80.44
403.302	84.44
403.526	85.44
403.75	101.44
403.974	95.44
404.198	76.44
404.422	80.44
404.645	96.44
404.869	94.44
405.093	90.44
405.317	81.44
405.541	101.44
405.765	88.44
405.988	103.44
406.212	129.44
406.436	144.44
406.66	125.44
406.883	89.44
407.107	91.44
407.331	92.44
407.555	93.44
407.778	87.44
408.002	89.44
408.226	89.44
408.449	86.44
408.673	94.44
408.896	93.44
409.12	89.44
409.344	86.44
409.567	82.44
409.791	88.44
410.014	89.44
410.238	93.44
410.461	90.44
410.685	100.44
410.908	84.44
411.132	91.44
411.355	92.44
411.578	106.44
411.802	92.44
412.025	89.44
412.249	90.44
412.472	94.44
412.695	95.44
412.919	98.44
413.142	92.44
413.365	84.44
413.589	79.44
413.812	84.44
414.035	77.44
414.258	90.44
414.482	93.44
414.705	102.44
414.928	92.44
415.151	88.44
415.374	95.44
415.597	95.44
415.821	70.44
416.044	80.44
416.267	94.44
416.49	76.44
416.713	88.44
416.936	86.44
417.159	89.44
417.382	86.44
417.605	90.44
417.828	85.44
418.051	90.44
418.274	87.44
418.497	91.44
418.72	84.44
418.943	84.44
419.166	95.44
419.389	91.44
419.611	92.44
419.834	87.44
420.057	99.44
420.28	90.44
420.503	80.44
420.726	84.44
420.948	97.44
421.171	92.44
421.394	84.44
421.617	92.44
421.839	84.44
422.062	78.44
422.285	99.44
422.507	99.44
422.73	93.44
422.953	92.44
423.175	80.44
423.398	85.44
423.621	90.44
423.843	99.44
424.066	98.44
424.288	95.44
424.511	91.44
424.733	84.44
424.956	95.44
425.178	80.44
425.401	80.44
425.623	104.44
425.846	102.44
426.068	83.44
426.291	91.44
426.513	85.44
426.735	84.44
426.958	94.44
427.18	107.44
427.402	121.44
427.625	123.44
427.847	108.44
428.069	95.44
428.292	90.44
428.514	87.44
428.736	72.44
428.958	85.44
429.181	93.44
429.403	97.44
429.625	89.44
429.847	80.44
430.069	88.44
430.292	83.44
430.514	88.44
430.736	84.44
430.958	74.44
431.18	93.44
431.402	84.44
431.624	105.44
431.846	75.44
432.068	84.44
432.29	89.44
432.512	92.44
432.734	89.44
432.956	96.44
433.178	83.44
433.4	95.44
433.622	72.44
433.844	94.44
434.066	96.44
434.287	95.44
434.509	93.44
434.731	93.44
434.953	89.44
435.175	90.44
435.397	86.44
435.618	97.44
435.84	103.44
436.062	102.44
436.284	88.44
436.505	87.44
436.727	88.44
436.949	98.44
437.17	92.44
437.392	97.44
437.614	88.44
437.835	94.44
438.057	100.44
438.278	110.44
438.5	86.44
438.721	90.44
438.943	95.44
439.165	87.44
439.386	78.44
439.608	97.44
439.829	97.44
440.05	106.44
440.272	100.44
440.493	89.44
440.715	92.44
440.936	84.44
441.158	89.44
441.379	82.44
441.6	95.44
441.822	94.44
442.043	89.44
442.264	86.44
442.486	86.44
442.707	77.44
442.928	91.44
443.149	111.44
443.371	101.44
443.592	96.44
443.813	77.44
444.034	82.44
444.255	80.44
444.476	97.44
444.698	80.44
444.919	71.44
445.14	116.44
445.361	105.44
445.582	99.44
445.803	96.44
446.024	115.44
446.245	108.44
446.466	88.44
446.687	89.44
446.908	90.44
447.129	94.44
447.35	84.44
447.571	81.44
447.792	88.44
448.013	88.44
448.234	98.44
448.455	82.44
448.675	96.44
448.896	105.44
449.117	95.44
449.338	93.44
449.559	110.44
449.779	115.44
450	88.44
450.221	89.44
450.442	97.44
450.662	98.44
450.883	89.44
451.104	100.44
451.324	97.44
451.545	98.44
451.766	104.44
451.986	83.44
452.207	87.44
452.428	87.44
452.648	94.44
452.869	106.44
453.089	102.44
453.31	104.44
453.53	64.44
453.751	84.44
453.971	91.44
454.192	92.44
454.412	94.44
454.633	72.44
454.853	92.44
455.073	86.44
455.294	90.44
455.514	92.44
455.734	61.44
455.955	92.44
456.175	83.44
456.395	72.44
456.616	82.44
456.836	82.44
457.056	85.44
457.276	75.44
457.497	67.44
457.717	76.44
457.937	82.44
458.157	78.44
458.377	75.44
458.598	84.44
458.818	116.44
459.038	116.44
459.258	107.44
459.478	80.44
459.698	91.44
459.918	84.44
460.138	61.44
460.358	86.44
460.578	75.44
460.798	88.44
461.018	77.44
461.238	86.44
461.458	92.44
461.678	67.44
461.898	96.44
462.118	66.44
462.338	88.44
462.558	82.44
462.777	90.44
462.997	78.44
463.217	86.44
463.437	83.44
463.657	90.44
463.876	89.44
464.096	88.44
464.316	89.44
464.536	98.44
464.755	88.44
464.975	98.44
465.195	122.44
465.414	124.44
465.634	91.44
465.854	80.44
466.073	77.44
466.293	72.44
466.512	78.44
466.732	92.44
466.951	103.44
467.171	89.44
467.391	94.44
467.61	88.44
467.829	92.44
468.049	86.44
468.268	94.44
468.488	76.44
468.707	90.44
468.927	60.44
469.146	88.44
469.365	93.44
469.585	100.44
469.804	106.44
470.023	88.44
470.243	86.44
470.462	92.44
470.681	106.44
470.901	92.44
471.12	91.44
471.339	77.44
471.558	68.44
471.777	86.44
471.997	89.44
472.216	104.44
472.435	137.44
472.654	96.44
472.873	89.44
473.092	82.44
473.311	89.44
473.53	85.44
473.749	94.44
473.968	112.44
474.187	76.44
474.406	85.44
474.625	93.44
474.844	81.44
475.063	84.44
475.282	100.44
475.501	81.44
475.72	82.44
475.939	75.44
476.158	83.44
476.377	85.44
476.596	82.44
476.814	88.44
477.033	102.44
477.252	83.44
477.471	85.44
477.69	85.44
477.908	89.44
478.127	89.44
478.346	98.44
478.564	79.44
478.783	92.44
479.002	91.44
479.22	82.44
479.439	92.44
479.658	93.44
479.876	88.44
480.095	96.44
480.313	94.44
480.532	88.44
480.751	95.44
480.969	102.44
481.188	172.44
481.406	139.44
481.624	94.44
481.843	80.44
482.061	72.44
482.28	90.44
482.498	85.44
482.717	85.44
482.935	88.44
483.153	97.44
483.372	88.44
483.59	96.44
483.808	82.44
484.027	82.44
484.245	96.44
484.463	71.44
484.681	102.44
484.9	87.44
485.118	100.44
485.336	98.44
485.554	102.44
485.772	106.44
485.99	99.44
486.209	94.44
486.427	105.44
486.645	98.44
486.863	107.44
487.081	104.44
487.299	97.44
487.517	83.44
487.735	91.44
487.953	84.44
488.171	106.44
488.389	103.44
488.607	104.44
488.825	89.44
489.043	84.44
489.261	76.44
489.479	98.44
489.696	98.44
489.914	85.44
490.132	75.44
490.35	84.44
490.568	96.44
490.786	81.44
491.003	81.44
491.221	91.44
491.439	85.44
491.657	92.44
491.874	108.44
492.092	87.44
492.31	95.44
492.527	84.44
492.745	80.44
492.963	104.44
493.18	98.44
493.398	85.44
493.615	87.44
493.833	90.44
494.05	71.44
494.268	78.44
494.485	92.44
494.703	85.44
494.92	91.44
495.138	72.44
495.355	84.44
495.573	101.44
495.79	90.44
496.008	94.44
496.225	85.44
496.442	84.44
496.66	86.44
496.877	84.44
497.094	82.44
497.312	90.44
497.529	96.44
497.746	85.44
497.963	97.44
498.181	89.44
498.398	93.44
498.615	87.44
498.832	98.44
499.049	94.44
499.267	81.44
499.484	85.44
499.701	95.44
499.918	92.44
500.135	82.44
500.352	93.44
500.569	85.44
500.786	76.44
501.003	96.44
501.22	86.44
501.437	98.44
501.654	86.44
501.871	92.44
502.088	106.44
502.305	85.44
502.522	67.44
502.739	89.44
502.956	94.44
503.172	98.44
503.389	93.44
503.606	110.44
503.823	92.44
504.04	93.44
504.256	88.44
504.473	80.44
504.69	85.44
504.907	97.44
505.123	78.44
505.34	94.44
505.557	97.44
505.773	90.44
505.99	85.44
506.207	102.44
506.423	95.44
506.64	91.44
506.856	99.44
507.073	88.44
507.289	93.44
507.506	77.44
507.722	96.44
507.939	96.44
508.155	81.44
508.372	70.44
508.588	82.44
508.805	84.44
509.021	82.44
509.238	100.44
509.454	116.44
509.67	91.44
509.887	105.44
510.103	114.44
510.319	159.44
510.536	525.44
510.752	1516.44
510.968	448.44
511.184	123.44
511.401	94.44
511.617	82.44
511.833	97.44
512.049	80.44
512.265	89.44
512.481	86.44
512.698	92.44
512.914	100.44
513.13	89.44
513.346	102.44
513.562	96.44
513.778	89.44
513.994	103.44
514.21	93.44
514.426	91.44
514.642	118.44
514.858	96.44
515.074	132.44
515.29	306.44
515.506	910.44
515.721	357.44
515.937	119.44
516.153	102.44
516.369	105.44
516.585	93.44
516.801	84.44
