Data from Circ_1980_H10_HRD10591_00036.txt Node
Date: Wed Jan 03 12:38:05 EST 2024
User: Yrep
Spectrometer: HR+D1059
Trigger mode: 1
Integration Time (sec): 1.000000E-1
Scans to average: 1
Electric dark correction enabled: true
Nonlinearity correction enabled: false
Boxcar width: 0
XAxis mode: Wavelengths
Number of Pixels in Spectrum: 2048
>>>>>Begin Spectral Data<<<<<
223.165	-9.5
223.4	-9.5
223.635	-9.5
223.869	-16.5
224.104	-24.5
224.338	-23.5
224.573	-23.5
224.808	-14.5
225.042	1.5
225.277	-10.5
225.511	16.5
225.746	0.5
225.98	-5.5
226.215	22.5
226.449	10.5
226.683	9.5
226.918	23.5
227.152	43.5
227.387	25.5
227.621	19.5
227.856	31.5
228.09	42.5
228.324	33.5
228.559	48.5
228.793	71.5
229.027	64.5
229.262	52.5
229.496	61.5
229.73	70.5
229.964	67.5
230.199	85.5
230.433	84.5
230.667	73.5
230.901	78.5
231.136	80.5
231.37	70.5
231.604	76.5
231.838	74.5
232.072	90.5
232.306	81.5
232.541	78.5
232.775	79.5
233.009	73.5
233.243	70.5
233.477	67.5
233.711	74.5
233.945	90.5
234.179	84.5
234.413	75.5
234.647	80.5
234.881	82.5
235.115	84.5
235.349	78.5
235.583	95.5
235.817	78.5
236.051	75.5
236.285	90.5
236.519	76.5
236.753	75.5
236.987	63.5
237.221	70.5
237.455	71.5
237.689	69.5
237.922	83.5
238.156	80.5
238.39	62.5
238.624	71.5
238.858	69.5
239.091	76.5
239.325	65.5
239.559	70.5
239.793	71.5
240.027	70.5
240.26	78.5
240.494	71.5
240.728	69.5
240.961	68.5
241.195	71.5
241.429	64.5
241.662	66.5
241.896	68.5
242.13	85.5
242.363	74.5
242.597	62.5
242.83	67.5
243.064	69.5
243.298	66.5
243.531	66.5
243.765	79.5
243.998	67.5
244.232	86.5
244.465	78.5
244.699	73.5
244.932	84.5
245.166	64.5
245.399	75.5
245.633	81.5
245.866	70.5
246.099	68.5
246.333	81.5
246.566	75.5
246.8	66.5
247.033	71.5
247.266	87.5
247.5	82.5
247.733	86.5
247.966	79.5
248.2	67.5
248.433	80.5
248.666	69.5
248.899	96.5
249.133	96.5
249.366	86.5
249.599	79.5
249.832	67.5
250.066	81.5
250.299	70.5
250.532	66.5
250.765	74.5
250.998	71.5
251.231	78.5
251.465	76.5
251.698	73.5
251.931	90.5
252.164	81.5
252.397	64.5
252.63	93.5
252.863	94.5
253.096	70.5
253.329	83.5
253.562	78.5
253.795	84.5
254.028	55.5
254.261	71.5
254.494	80.5
254.727	74.5
254.96	76.5
255.193	72.5
255.426	73.5
255.659	80.5
255.892	99.5
256.124	79.5
256.357	81.5
256.59	71.5
256.823	67.5
257.056	81.5
257.289	72.5
257.521	80.5
257.754	73.5
257.987	78.5
258.22	74.5
258.452	72.5
258.685	67.5
258.918	90.5
259.151	82.5
259.383	81.5
259.616	81.5
259.849	89.5
260.081	80.5
260.314	84.5
260.547	75.5
260.779	72.5
261.012	70.5
261.244	83.5
261.477	85.5
261.71	89.5
261.942	105.5
262.175	96.5
262.407	82.5
262.64	74.5
262.872	89.5
263.105	78.5
263.337	89.5
263.57	83.5
263.802	78.5
264.035	66.5
264.267	75.5
264.499	79.5
264.732	79.5
264.964	74.5
265.197	82.5
265.429	82.5
265.661	79.5
265.894	72.5
266.126	86.5
266.358	79.5
266.591	70.5
266.823	86.5
267.055	72.5
267.287	91.5
267.52	80.5
267.752	93.5
267.984	83.5
268.216	79.5
268.448	84.5
268.681	76.5
268.913	86.5
269.145	88.5
269.377	85.5
269.609	83.5
269.841	93.5
270.073	87.5
270.306	100.5
270.538	70.5
270.77	83.5
271.002	67.5
271.234	92.5
271.466	87.5
271.698	90.5
271.93	83.5
272.162	91.5
272.394	96.5
272.626	82.5
272.858	84.5
273.09	83.5
273.322	90.5
273.553	74.5
273.785	70.5
274.017	78.5
274.249	89.5
274.481	87.5
274.713	82.5
274.945	85.5
275.176	88.5
275.408	92.5
275.64	73.5
275.872	74.5
276.104	79.5
276.335	90.5
276.567	98.5
276.799	94.5
277.031	81.5
277.262	78.5
277.494	81.5
277.726	71.5
277.957	78.5
278.189	84.5
278.421	83.5
278.652	89.5
278.884	91.5
279.115	82.5
279.347	85.5
279.579	86.5
279.81	90.5
280.042	83.5
280.273	75.5
280.505	82.5
280.736	70.5
280.968	83.5
281.199	84.5
281.431	75.5
281.662	98.5
281.894	78.5
282.125	85.5
282.356	101.5
282.588	112.5
282.819	96.5
283.051	90.5
283.282	83.5
283.513	76.5
283.745	89.5
283.976	78.5
284.207	83.5
284.439	80.5
284.67	72.5
284.901	68.5
285.132	80.5
285.364	85.5
285.595	89.5
285.826	72.5
286.057	85.5
286.288	81.5
286.52	68.5
286.751	82.5
286.982	86.5
287.213	89.5
287.444	96.5
287.675	78.5
287.906	82.5
288.138	70.5
288.369	82.5
288.6	76.5
288.831	78.5
289.062	80.5
289.293	79.5
289.524	89.5
289.755	80.5
289.986	69.5
290.217	83.5
290.448	89.5
290.679	78.5
290.91	82.5
291.141	82.5
291.371	80.5
291.602	88.5
291.833	89.5
292.064	67.5
292.295	89.5
292.526	83.5
292.757	86.5
292.987	73.5
293.218	82.5
293.449	89.5
293.68	88.5
293.91	81.5
294.141	96.5
294.372	90.5
294.603	108.5
294.833	90.5
295.064	86.5
295.295	91.5
295.525	78.5
295.756	84.5
295.987	91.5
296.217	113.5
296.448	116.5
296.679	87.5
296.909	78.5
297.14	98.5
297.37	90.5
297.601	87.5
297.831	81.5
298.062	96.5
298.292	86.5
298.523	79.5
298.753	80.5
298.984	80.5
299.214	91.5
299.445	82.5
299.675	94.5
299.905	105.5
300.136	88.5
300.366	88.5
300.597	97.5
300.827	80.5
301.057	89.5
301.288	82.5
301.518	82.5
301.748	85.5
301.979	95.5
302.209	98.5
302.439	100.5
302.669	92.5
302.9	92.5
303.13	87.5
303.36	87.5
303.59	87.5
303.82	100.5
304.051	95.5
304.281	88.5
304.511	80.5
304.741	87.5
304.971	83.5
305.201	92.5
305.431	83.5
305.661	91.5
305.891	87.5
306.121	92.5
306.352	103.5
306.582	108.5
306.812	72.5
307.042	87.5
307.272	70.5
307.502	98.5
307.731	94.5
307.961	79.5
308.191	91.5
308.421	94.5
308.651	81.5
308.881	96.5
309.111	85.5
309.341	92.5
309.571	104.5
309.8	87.5
310.03	94.5
310.26	95.5
310.49	82.5
310.72	94.5
310.949	87.5
311.179	94.5
311.409	97.5
311.639	86.5
311.868	90.5
312.098	84.5
312.328	89.5
312.557	92.5
312.787	90.5
313.017	98.5
313.246	98.5
313.476	72.5
313.706	82.5
313.935	99.5
314.165	105.5
314.394	93.5
314.624	78.5
314.853	89.5
315.083	87.5
315.312	85.5
315.542	73.5
315.771	76.5
316.001	86.5
316.23	88.5
316.46	85.5
316.689	72.5
316.919	98.5
317.148	86.5
317.377	94.5
317.607	100.5
317.836	99.5
318.065	78.5
318.295	72.5
318.524	84.5
318.753	90.5
318.983	84.5
319.212	99.5
319.441	94.5
319.67	66.5
319.9	90.5
320.129	86.5
320.358	99.5
320.587	89.5
320.816	89.5
321.046	85.5
321.275	86.5
321.504	89.5
321.733	87.5
321.962	94.5
322.191	94.5
322.42	89.5
322.649	90.5
322.878	99.5
323.108	100.5
323.337	107.5
323.566	112.5
323.795	115.5
324.024	169.5
324.253	267.5
324.482	506.5
324.71	1094.5
324.939	1432.5
325.168	544.5
325.397	184.5
325.626	118.5
325.855	121.5
326.084	108.5
326.313	111.5
326.542	112.5
326.77	185.5
326.999	312.5
327.228	641.5
327.457	1156.5
327.686	905.5
327.914	272.5
328.143	150.5
328.372	124.5
328.6	96.5
328.829	114.5
329.058	100.5
329.287	92.5
329.515	114.5
329.744	95.5
329.972	91.5
330.201	101.5
330.43	112.5
330.658	110.5
330.887	98.5
331.115	105.5
331.344	106.5
331.572	94.5
331.801	89.5
332.03	82.5
332.258	78.5
332.486	97.5
332.715	88.5
332.943	90.5
333.172	105.5
333.4	88.5
333.629	71.5
333.857	99.5
334.085	98.5
334.314	96.5
334.542	118.5
334.771	114.5
334.999	100.5
335.227	85.5
335.455	86.5
335.684	83.5
335.912	100.5
336.14	92.5
336.369	81.5
336.597	94.5
336.825	102.5
337.053	89.5
337.281	107.5
337.51	91.5
337.738	83.5
337.966	98.5
338.194	92.5
338.422	90.5
338.65	89.5
338.878	101.5
339.106	96.5
339.334	86.5
339.562	89.5
339.79	87.5
340.018	95.5
340.246	88.5
340.474	73.5
340.702	88.5
340.93	84.5
341.158	92.5
341.386	99.5
341.614	80.5
341.842	80.5
342.07	86.5
342.298	90.5
342.526	68.5
342.754	91.5
342.981	68.5
343.209	78.5
343.437	92.5
343.665	85.5
343.893	77.5
344.12	78.5
344.348	95.5
344.576	82.5
344.804	71.5
345.031	102.5
345.259	86.5
345.487	87.5
345.714	94.5
345.942	87.5
346.17	86.5
346.397	86.5
346.625	106.5
346.853	91.5
347.08	93.5
347.308	73.5
347.535	96.5
347.763	86.5
347.99	97.5
348.218	116.5
348.445	80.5
348.673	103.5
348.9	84.5
349.128	103.5
349.355	102.5
349.583	85.5
349.81	87.5
350.037	92.5
350.265	82.5
350.492	78.5
350.72	98.5
350.947	90.5
351.174	107.5
351.402	89.5
351.629	82.5
351.856	97.5
352.083	99.5
352.311	91.5
352.538	108.5
352.765	110.5
352.992	98.5
353.22	108.5
353.447	90.5
353.674	101.5
353.901	98.5
354.128	96.5
354.355	95.5
354.583	111.5
354.81	97.5
355.037	85.5
355.264	104.5
355.491	102.5
355.718	90.5
355.945	95.5
356.172	95.5
356.399	89.5
356.626	98.5
356.853	96.5
357.08	89.5
357.307	86.5
357.534	85.5
357.761	93.5
357.988	89.5
358.215	98.5
358.441	90.5
358.668	95.5
358.895	99.5
359.122	94.5
359.349	99.5
359.576	83.5
359.802	95.5
360.029	99.5
360.256	83.5
360.483	95.5
360.709	87.5
360.936	100.5
361.163	92.5
361.39	99.5
361.616	88.5
361.843	88.5
362.07	76.5
362.296	92.5
362.523	82.5
362.749	86.5
362.976	89.5
363.203	99.5
363.429	95.5
363.656	76.5
363.882	80.5
364.109	89.5
364.335	76.5
364.562	81.5
364.788	98.5
365.015	78.5
365.241	106.5
365.468	98.5
365.694	94.5
365.92	76.5
366.147	100.5
366.373	93.5
366.599	86.5
366.826	66.5
367.052	92.5
367.278	78.5
367.505	96.5
367.731	91.5
367.957	82.5
368.184	79.5
368.41	86.5
368.636	87.5
368.862	109.5
369.089	91.5
369.315	81.5
369.541	86.5
369.767	89.5
369.993	95.5
370.219	91.5
370.445	78.5
370.672	71.5
370.898	71.5
371.124	79.5
371.35	81.5
371.576	87.5
371.802	73.5
372.028	82.5
372.254	76.5
372.48	95.5
372.706	85.5
372.932	91.5
373.158	89.5
373.384	85.5
373.61	96.5
373.835	92.5
374.061	86.5
374.287	72.5
374.513	90.5
374.739	78.5
374.965	84.5
375.191	86.5
375.416	78.5
375.642	85.5
375.868	88.5
376.094	81.5
376.319	92.5
376.545	100.5
376.771	100.5
376.997	74.5
377.222	88.5
377.448	93.5
377.674	91.5
377.899	90.5
378.125	83.5
378.35	86.5
378.576	96.5
378.802	83.5
379.027	86.5
379.253	90.5
379.478	99.5
379.704	92.5
379.929	99.5
380.155	67.5
380.38	75.5
380.606	89.5
380.831	84.5
381.057	95.5
381.282	83.5
381.507	87.5
381.733	91.5
381.958	81.5
382.184	94.5
382.409	86.5
382.634	98.5
382.86	98.5
383.085	92.5
383.31	104.5
383.535	103.5
383.761	92.5
383.986	96.5
384.211	101.5
384.436	101.5
384.662	112.5
384.887	111.5
385.112	103.5
385.337	108.5
385.562	99.5
385.787	95.5
386.013	106.5
386.238	114.5
386.463	88.5
386.688	122.5
386.913	108.5
387.138	104.5
387.363	113.5
387.588	98.5
387.813	97.5
388.038	89.5
388.263	115.5
388.488	114.5
388.713	88.5
388.938	83.5
389.163	94.5
389.387	81.5
389.612	102.5
389.837	81.5
390.062	89.5
390.287	76.5
390.512	101.5
390.736	98.5
390.961	83.5
391.186	91.5
391.411	90.5
391.636	99.5
391.86	73.5
392.085	87.5
392.31	89.5
392.534	92.5
392.759	82.5
392.984	67.5
393.208	86.5
393.433	84.5
393.658	89.5
393.882	75.5
394.107	76.5
394.331	85.5
394.556	84.5
394.78	92.5
395.005	94.5
395.229	96.5
395.454	85.5
395.678	62.5
395.903	76.5
396.127	94.5
396.352	95.5
396.576	68.5
396.801	83.5
397.025	82.5
397.249	86.5
397.474	90.5
397.698	91.5
397.922	73.5
398.147	88.5
398.371	73.5
398.595	78.5
398.82	80.5
399.044	95.5
399.268	72.5
399.492	88.5
399.717	99.5
399.941	87.5
400.165	89.5
400.389	81.5
400.613	103.5
400.837	90.5
401.062	91.5
401.286	86.5
401.51	82.5
401.734	82.5
401.958	57.5
402.182	106.5
402.406	115.5
402.63	83.5
402.854	90.5
403.078	94.5
403.302	83.5
403.526	73.5
403.75	87.5
403.974	85.5
404.198	86.5
404.422	79.5
404.645	64.5
404.869	73.5
405.093	78.5
405.317	93.5
405.541	76.5
405.765	100.5
405.988	86.5
406.212	132.5
406.436	154.5
406.66	108.5
406.883	85.5
407.107	79.5
407.331	75.5
407.555	89.5
407.778	87.5
408.002	104.5
408.226	85.5
408.449	78.5
408.673	85.5
408.896	89.5
409.12	83.5
409.344	84.5
409.567	78.5
409.791	71.5
410.014	82.5
410.238	86.5
410.461	92.5
410.685	89.5
410.908	78.5
411.132	85.5
411.355	79.5
411.578	80.5
411.802	86.5
412.025	81.5
412.249	82.5
412.472	89.5
412.695	83.5
412.919	86.5
413.142	88.5
413.365	69.5
413.589	85.5
413.812	73.5
414.035	91.5
414.258	72.5
414.482	90.5
414.705	96.5
414.928	89.5
415.151	89.5
415.374	87.5
415.597	80.5
415.821	71.5
416.044	81.5
416.267	79.5
416.49	76.5
416.713	91.5
416.936	85.5
417.159	87.5
417.382	81.5
417.605	95.5
417.828	103.5
418.051	54.5
418.274	70.5
418.497	99.5
418.72	78.5
418.943	87.5
419.166	101.5
419.389	91.5
419.611	71.5
419.834	86.5
420.057	86.5
420.28	82.5
420.503	83.5
420.726	80.5
420.948	83.5
421.171	83.5
421.394	94.5
421.617	95.5
421.839	96.5
422.062	74.5
422.285	85.5
422.507	80.5
422.73	94.5
422.953	95.5
423.175	87.5
423.398	82.5
423.621	83.5
423.843	78.5
424.066	89.5
424.288	80.5
424.511	97.5
424.733	90.5
424.956	99.5
425.178	91.5
425.401	84.5
425.623	85.5
425.846	88.5
426.068	83.5
426.291	79.5
426.513	91.5
426.735	83.5
426.958	92.5
427.18	102.5
427.402	112.5
427.625	126.5
427.847	107.5
428.069	92.5
428.292	85.5
428.514	81.5
428.736	94.5
428.958	78.5
429.181	79.5
429.403	77.5
429.625	88.5
429.847	83.5
430.069	89.5
430.292	87.5
430.514	87.5
430.736	74.5
430.958	79.5
431.18	80.5
431.402	80.5
431.624	74.5
431.846	72.5
432.068	85.5
432.29	92.5
432.512	86.5
432.734	87.5
432.956	91.5
433.178	79.5
433.4	98.5
433.622	75.5
433.844	92.5
434.066	86.5
434.287	83.5
434.509	94.5
434.731	84.5
434.953	84.5
435.175	79.5
435.397	91.5
435.618	79.5
435.84	88.5
436.062	114.5
436.284	101.5
436.505	90.5
436.727	89.5
436.949	87.5
437.17	82.5
437.392	72.5
437.614	80.5
437.835	90.5
438.057	100.5
438.278	87.5
438.5	79.5
438.721	100.5
438.943	92.5
439.165	85.5
439.386	87.5
439.608	80.5
439.829	80.5
440.05	102.5
440.272	106.5
440.493	84.5
440.715	90.5
440.936	79.5
441.158	90.5
441.379	81.5
441.6	86.5
441.822	93.5
442.043	95.5
442.264	95.5
442.486	89.5
442.707	92.5
442.928	84.5
443.149	99.5
443.371	96.5
443.592	97.5
443.813	88.5
444.034	80.5
444.255	95.5
444.476	81.5
444.698	93.5
444.919	95.5
445.14	120.5
445.361	108.5
445.582	101.5
445.803	115.5
446.024	106.5
446.245	93.5
446.466	84.5
446.687	78.5
446.908	80.5
447.129	82.5
447.35	95.5
447.571	93.5
447.792	96.5
448.013	87.5
448.234	101.5
448.455	94.5
448.675	105.5
448.896	94.5
449.117	88.5
449.338	86.5
449.559	111.5
449.779	112.5
450	78.5
450.221	89.5
450.442	78.5
450.662	82.5
450.883	95.5
451.104	90.5
451.324	83.5
451.545	88.5
451.766	91.5
451.986	78.5
452.207	79.5
452.428	80.5
452.648	86.5
452.869	103.5
453.089	91.5
453.31	85.5
453.53	97.5
453.751	86.5
453.971	88.5
454.192	97.5
454.412	78.5
454.633	84.5
454.853	74.5
455.073	85.5
455.294	91.5
455.514	91.5
455.734	82.5
455.955	76.5
456.175	77.5
456.395	95.5
456.616	82.5
456.836	86.5
457.056	86.5
457.276	66.5
457.497	94.5
457.717	88.5
457.937	89.5
458.157	95.5
458.377	83.5
458.598	89.5
458.818	126.5
459.038	103.5
459.258	104.5
459.478	88.5
459.698	79.5
459.918	78.5
460.138	73.5
460.358	75.5
460.578	73.5
460.798	94.5
461.018	89.5
461.238	82.5
461.458	81.5
461.678	86.5
461.898	91.5
462.118	79.5
462.338	80.5
462.558	84.5
462.777	87.5
462.997	79.5
463.217	80.5
463.437	85.5
463.657	86.5
463.876	81.5
464.096	82.5
464.316	82.5
464.536	84.5
464.755	72.5
464.975	118.5
465.195	115.5
465.414	120.5
465.634	94.5
465.854	78.5
466.073	84.5
466.293	86.5
466.512	71.5
466.732	85.5
466.951	78.5
467.171	91.5
467.391	82.5
467.61	96.5
467.829	80.5
468.049	86.5
468.268	86.5
468.488	75.5
468.707	71.5
468.927	79.5
469.146	106.5
469.365	93.5
469.585	82.5
469.804	79.5
470.023	85.5
470.243	77.5
470.462	83.5
470.681	92.5
470.901	90.5
471.12	76.5
471.339	73.5
471.558	84.5
471.777	84.5
471.997	87.5
472.216	93.5
472.435	117.5
472.654	93.5
472.873	94.5
473.092	90.5
473.311	88.5
473.53	82.5
473.749	82.5
473.968	83.5
474.187	78.5
474.406	102.5
474.625	79.5
474.844	80.5
475.063	75.5
475.282	90.5
475.501	88.5
475.72	77.5
475.939	81.5
476.158	103.5
476.377	82.5
476.596	70.5
476.814	82.5
477.033	69.5
477.252	87.5
477.471	80.5
477.69	84.5
477.908	89.5
478.127	89.5
478.346	87.5
478.564	65.5
478.783	92.5
479.002	78.5
479.22	94.5
479.439	90.5
479.658	89.5
479.876	74.5
480.095	70.5
480.313	88.5
480.532	96.5
480.751	84.5
480.969	96.5
481.188	172.5
481.406	122.5
481.624	103.5
481.843	90.5
482.061	90.5
482.28	81.5
482.498	74.5
482.717	82.5
482.935	84.5
483.153	83.5
483.372	86.5
483.59	73.5
483.808	87.5
484.027	75.5
484.245	90.5
484.463	86.5
484.681	74.5
484.9	85.5
485.118	84.5
485.336	100.5
485.554	99.5
485.772	104.5
485.99	99.5
486.209	89.5
486.427	104.5
486.645	90.5
486.863	90.5
487.081	95.5
487.299	99.5
487.517	89.5
487.735	64.5
487.953	80.5
488.171	99.5
488.389	87.5
488.607	90.5
488.825	85.5
489.043	76.5
489.261	78.5
489.479	91.5
489.696	80.5
489.914	87.5
490.132	79.5
490.35	81.5
490.568	86.5
490.786	79.5
491.003	72.5
491.221	80.5
491.439	91.5
491.657	89.5
491.874	83.5
492.092	90.5
492.31	96.5
492.527	75.5
492.745	96.5
492.963	81.5
493.18	87.5
493.398	82.5
493.615	71.5
493.833	88.5
494.05	83.5
494.268	91.5
494.485	89.5
494.703	88.5
494.92	79.5
495.138	97.5
495.355	99.5
495.573	66.5
495.79	97.5
496.008	91.5
496.225	94.5
496.442	92.5
496.66	104.5
496.877	98.5
497.094	83.5
497.312	97.5
497.529	85.5
497.746	77.5
497.963	77.5
498.181	81.5
498.398	85.5
498.615	89.5
498.832	92.5
499.049	87.5
499.267	87.5
499.484	90.5
499.701	90.5
499.918	92.5
500.135	89.5
500.352	94.5
500.569	69.5
500.786	79.5
501.003	72.5
501.22	90.5
501.437	79.5
501.654	100.5
501.871	83.5
502.088	86.5
502.305	82.5
502.522	86.5
502.739	85.5
502.956	66.5
503.172	83.5
503.389	81.5
503.606	98.5
503.823	88.5
504.04	79.5
504.256	93.5
504.473	72.5
504.69	89.5
504.907	84.5
505.123	90.5
505.34	74.5
505.557	74.5
505.773	84.5
505.99	78.5
506.207	87.5
506.423	79.5
506.64	79.5
506.856	74.5
507.073	82.5
507.289	80.5
507.506	90.5
507.722	101.5
507.939	98.5
508.155	94.5
508.372	93.5
508.588	83.5
508.805	66.5
509.021	95.5
509.238	92.5
509.454	91.5
509.67	99.5
509.887	106.5
510.103	97.5
510.319	150.5
510.536	484.5
510.752	1419.5
510.968	422.5
511.184	121.5
511.401	96.5
511.617	94.5
511.833	91.5
512.049	90.5
512.265	97.5
512.481	82.5
512.698	76.5
512.914	92.5
513.13	100.5
513.346	85.5
513.562	99.5
513.778	82.5
513.994	98.5
514.21	92.5
514.426	98.5
514.642	111.5
514.858	103.5
515.074	126.5
515.29	294.5
515.506	856.5
515.721	323.5
515.937	124.5
516.153	88.5
516.369	80.5
516.585	87.5
516.801	78.5
517.016	88.5
517.232	81.5
517.448	87.5
517.664	90.5
517.879	92.5
518.095	95.5
518.311	84.5
518.527	88.5
518.742	88.5
518.958	70.5
519.173	98.5
519.389	82.5
519.605	100.5
519.82	90.5
520.036	116.5
520.251	91.5
520.467	89.5
520.682	87.5
520.898	87.5
521.113	97.5
521.329	104.5
521.544	157.5
521.76	334.5
521.975	1355.5
522.19	824.5
522.406	192.5
522.621	105.5
522.836	92.5
523.052	101.5
523.267	86.5
523.482	78.5
523.698	81.5
523.913	88.5
524.128	88.5
524.343	91.5
524.559	92.5
524.774	79.5
524.989	79.5
525.204	91.5
525.419	92.5
525.634	83.5
525.849	82.5
526.064	83.5
526.28	81.5
526.495	75.5
526.71	95.5
526.925	81.5
527.14	87.5
527.355	82.5
527.57	90.5
527.785	90.5
527.999	80.5
528.214	80.5
528.429	105.5
528.644	86.5
528.859	94.5
529.074	88.5
529.289	106.5
529.503	132.5
529.718	76.5
529.933	90.5
530.148	75.5
530.363	82.5
530.577	80.5
530.792	85.5
531.007	71.5
531.221	97.5
531.436	84.5
531.651	80.5
531.865	104.5
532.08	83.5
532.295	83.5
532.509	102.5
532.724	88.5
532.938	84.5
533.153	100.5
533.367	90.5
533.582	86.5
533.796	95.5
534.011	73.5
534.225	95.5
534.44	94.5
534.654	90.5
534.868	86.5
535.083	98.5
535.297	91.5
535.511	92.5
535.726	85.5
535.94	92.5
536.154	90.5
536.369	81.5
536.583	97.5
536.797	97.5
537.011	80.5
537.225	98.5
537.44	78.5
537.654	85.5
537.868	86.5
