Data from Circ_1980_H10_HRD10591_00033.txt Node
Date: Wed Jan 03 12:38:04 EST 2024
User: Yrep
Spectrometer: HR+D1059
Trigger mode: 1
Integration Time (sec): 1.000000E-1
Scans to average: 1
Electric dark correction enabled: true
Nonlinearity correction enabled: false
Boxcar width: 0
XAxis mode: Wavelengths
Number of Pixels in Spectrum: 2048
>>>>>Begin Spectral Data<<<<<
223.165	-19.06
223.4	-19.06
223.635	-19.06
223.869	-17.06
224.104	-25.06
224.338	-16.06
224.573	-24.06
224.808	-24.06
225.042	-0.06
225.277	-14.06
225.511	-0.06
225.746	3.94
225.98	8.94
226.215	15.94
226.449	26.94
226.683	26.94
226.918	38.94
227.152	17.94
227.387	18.94
227.621	22.94
227.856	49.94
228.09	37.94
228.324	43.94
228.559	54.94
228.793	62.94
229.027	46.94
229.262	71.94
229.496	56.94
229.73	81.94
229.964	67.94
230.199	75.94
230.433	75.94
230.667	61.94
230.901	66.94
231.136	61.94
231.37	71.94
231.604	78.94
231.838	72.94
232.072	73.94
232.306	74.94
232.541	74.94
232.775	77.94
233.009	74.94
233.243	80.94
233.477	70.94
233.711	65.94
233.945	59.94
234.179	78.94
234.413	61.94
234.647	71.94
234.881	71.94
235.115	77.94
235.349	65.94
235.583	70.94
235.817	74.94
236.051	62.94
236.285	66.94
236.519	58.94
236.753	81.94
236.987	79.94
237.221	78.94
237.455	78.94
237.689	69.94
237.922	83.94
238.156	73.94
238.39	72.94
238.624	61.94
238.858	72.94
239.091	82.94
239.325	50.94
239.559	71.94
239.793	82.94
240.027	64.94
240.26	62.94
240.494	52.94
240.728	71.94
240.961	66.94
241.195	71.94
241.429	58.94
241.662	77.94
241.896	66.94
242.13	66.94
242.363	69.94
242.597	78.94
242.83	69.94
243.064	61.94
243.298	70.94
243.531	69.94
243.765	78.94
243.998	84.94
244.232	72.94
244.465	69.94
244.699	81.94
244.932	72.94
245.166	64.94
245.399	77.94
245.633	77.94
245.866	70.94
246.099	60.94
246.333	67.94
246.566	68.94
246.8	79.94
247.033	73.94
247.266	69.94
247.5	76.94
247.733	69.94
247.966	80.94
248.2	82.94
248.433	70.94
248.666	73.94
248.899	69.94
249.133	88.94
249.366	84.94
249.599	90.94
249.832	82.94
250.066	74.94
250.299	78.94
250.532	74.94
250.765	79.94
250.998	63.94
251.231	73.94
251.465	70.94
251.698	71.94
251.931	74.94
252.164	64.94
252.397	80.94
252.63	66.94
252.863	72.94
253.096	64.94
253.329	89.94
253.562	78.94
253.795	81.94
254.028	73.94
254.261	58.94
254.494	66.94
254.727	74.94
254.96	85.94
255.193	79.94
255.426	78.94
255.659	63.94
255.892	66.94
256.124	73.94
256.357	66.94
256.59	63.94
256.823	75.94
257.056	67.94
257.289	69.94
257.521	67.94
257.754	81.94
257.987	73.94
258.22	77.94
258.452	69.94
258.685	70.94
258.918	86.94
259.151	76.94
259.383	71.94
259.616	86.94
259.849	79.94
260.081	80.94
260.314	73.94
260.547	69.94
260.779	74.94
261.012	88.94
261.244	77.94
261.477	71.94
261.71	90.94
261.942	110.94
262.175	103.94
262.407	81.94
262.64	83.94
262.872	77.94
263.105	82.94
263.337	83.94
263.57	70.94
263.802	86.94
264.035	67.94
264.267	77.94
264.499	91.94
264.732	84.94
264.964	71.94
265.197	83.94
265.429	79.94
265.661	70.94
265.894	74.94
266.126	84.94
266.358	77.94
266.591	79.94
266.823	86.94
267.055	70.94
267.287	66.94
267.52	91.94
267.752	87.94
267.984	72.94
268.216	63.94
268.448	74.94
268.681	76.94
268.913	81.94
269.145	73.94
269.377	72.94
269.609	76.94
269.841	85.94
270.073	74.94
270.306	76.94
270.538	87.94
270.77	72.94
271.002	81.94
271.234	77.94
271.466	86.94
271.698	81.94
271.93	81.94
272.162	93.94
272.394	85.94
272.626	74.94
272.858	74.94
273.09	87.94
273.322	68.94
273.553	83.94
273.785	85.94
274.017	63.94
274.249	85.94
274.481	79.94
274.713	64.94
274.945	89.94
275.176	90.94
275.408	86.94
275.64	90.94
275.872	78.94
276.104	71.94
276.335	87.94
276.567	85.94
276.799	121.94
277.031	85.94
277.262	81.94
277.494	85.94
277.726	79.94
277.957	75.94
278.189	86.94
278.421	70.94
278.652	82.94
278.884	77.94
279.115	72.94
279.347	80.94
279.579	83.94
279.81	75.94
280.042	85.94
280.273	84.94
280.505	78.94
280.736	80.94
280.968	50.94
281.199	70.94
281.431	79.94
281.662	73.94
281.894	86.94
282.125	83.94
282.356	103.94
282.588	111.94
282.819	93.94
283.051	93.94
283.282	59.94
283.513	82.94
283.745	79.94
283.976	80.94
284.207	79.94
284.439	80.94
284.67	72.94
284.901	78.94
285.132	77.94
285.364	77.94
285.595	75.94
285.826	73.94
286.057	93.94
286.288	82.94
286.52	81.94
286.751	68.94
286.982	77.94
287.213	93.94
287.444	85.94
287.675	84.94
287.906	79.94
288.138	65.94
288.369	89.94
288.6	82.94
288.831	78.94
289.062	85.94
289.293	87.94
289.524	79.94
289.755	67.94
289.986	79.94
290.217	78.94
290.448	107.94
290.679	84.94
290.91	95.94
291.141	71.94
291.371	92.94
291.602	93.94
291.833	79.94
292.064	83.94
292.295	75.94
292.526	83.94
292.757	79.94
292.987	65.94
293.218	84.94
293.449	93.94
293.68	82.94
293.91	86.94
294.141	82.94
294.372	71.94
294.603	93.94
294.833	85.94
295.064	82.94
295.295	85.94
295.525	84.94
295.756	86.94
295.987	99.94
296.217	101.94
296.448	87.94
296.679	86.94
296.909	87.94
297.14	87.94
297.37	78.94
297.601	86.94
297.831	81.94
298.062	92.94
298.292	81.94
298.523	81.94
298.753	85.94
298.984	82.94
299.214	88.94
299.445	71.94
299.675	77.94
299.905	81.94
300.136	75.94
300.366	85.94
300.597	81.94
300.827	83.94
301.057	88.94
301.288	90.94
301.518	81.94
301.748	75.94
301.979	97.94
302.209	93.94
302.439	100.94
302.669	81.94
302.9	89.94
303.13	77.94
303.36	82.94
303.59	85.94
303.82	85.94
304.051	73.94
304.281	82.94
304.511	95.94
304.741	94.94
304.971	73.94
305.201	78.94
305.431	81.94
305.661	93.94
305.891	86.94
306.121	80.94
306.352	86.94
306.582	88.94
306.812	99.94
307.042	95.94
307.272	83.94
307.502	77.94
307.731	85.94
307.961	87.94
308.191	69.94
308.421	72.94
308.651	94.94
308.881	89.94
309.111	87.94
309.341	86.94
309.571	82.94
309.8	90.94
310.03	77.94
310.26	88.94
310.49	93.94
310.72	77.94
310.949	88.94
311.179	91.94
311.409	77.94
311.639	81.94
311.868	86.94
312.098	95.94
312.328	96.94
312.557	102.94
312.787	88.94
313.017	93.94
313.246	70.94
313.476	87.94
313.706	87.94
313.935	84.94
314.165	101.94
314.394	95.94
314.624	87.94
314.853	90.94
315.083	81.94
315.312	94.94
315.542	99.94
315.771	80.94
316.001	86.94
316.23	87.94
316.46	78.94
316.689	83.94
316.919	87.94
317.148	88.94
317.377	86.94
317.607	80.94
317.836	77.94
318.065	70.94
318.295	84.94
318.524	80.94
318.753	74.94
318.983	93.94
319.212	86.94
319.441	88.94
319.67	84.94
319.9	82.94
320.129	86.94
320.358	86.94
320.587	78.94
320.816	70.94
321.046	96.94
321.275	79.94
321.504	98.94
321.733	91.94
321.962	91.94
322.191	85.94
322.42	97.94
322.649	74.94
322.878	89.94
323.108	99.94
323.337	97.94
323.566	117.94
323.795	129.94
324.024	161.94
324.253	275.94
324.482	561.94
324.71	1102.94
324.939	1469.94
325.168	547.94
325.397	175.94
325.626	127.94
325.855	115.94
326.084	102.94
326.313	102.94
326.542	113.94
326.77	165.94
326.999	333.94
327.228	622.94
327.457	1145.94
327.686	929.94
327.914	273.94
328.143	165.94
328.372	128.94
328.6	98.94
328.829	99.94
329.058	101.94
329.287	110.94
329.515	98.94
329.744	97.94
329.972	91.94
330.201	103.94
330.43	108.94
330.658	104.94
330.887	110.94
331.115	94.94
331.344	81.94
331.572	76.94
331.801	93.94
332.03	86.94
332.258	101.94
332.486	86.94
332.715	79.94
332.943	83.94
333.172	103.94
333.4	81.94
333.629	87.94
333.857	82.94
334.085	96.94
334.314	88.94
334.542	132.94
334.771	115.94
334.999	110.94
335.227	86.94
335.455	81.94
335.684	88.94
335.912	98.94
336.14	86.94
336.369	94.94
336.597	95.94
336.825	91.94
337.053	77.94
337.281	88.94
337.51	85.94
337.738	95.94
337.966	79.94
338.194	81.94
338.422	74.94
338.65	95.94
338.878	89.94
339.106	79.94
339.334	73.94
339.562	86.94
339.79	86.94
340.018	77.94
340.246	71.94
340.474	94.94
340.702	87.94
340.93	82.94
341.158	94.94
341.386	83.94
341.614	93.94
341.842	81.94
342.07	69.94
342.298	80.94
342.526	91.94
342.754	86.94
342.981	83.94
343.209	81.94
343.437	86.94
343.665	70.94
343.893	90.94
344.12	70.94
344.348	79.94
344.576	95.94
344.804	86.94
345.031	89.94
345.259	93.94
345.487	95.94
345.714	94.94
345.942	93.94
346.17	81.94
346.397	86.94
346.625	82.94
346.853	79.94
347.08	83.94
347.308	99.94
347.535	79.94
347.763	80.94
347.99	104.94
348.218	86.94
348.445	87.94
348.673	86.94
348.9	101.94
349.128	94.94
349.355	80.94
349.583	75.94
349.81	75.94
350.037	115.94
350.265	87.94
350.492	98.94
350.72	101.94
350.947	93.94
351.174	98.94
351.402	99.94
351.629	86.94
351.856	72.94
352.083	99.94
352.311	89.94
352.538	94.94
352.765	97.94
352.992	102.94
353.22	101.94
353.447	88.94
353.674	89.94
353.901	98.94
354.128	94.94
354.355	81.94
354.583	94.94
354.81	79.94
355.037	89.94
355.264	95.94
355.491	95.94
355.718	86.94
355.945	94.94
356.172	95.94
356.399	70.94
356.626	98.94
356.853	85.94
357.08	87.94
357.307	83.94
357.534	80.94
357.761	98.94
357.988	84.94
358.215	81.94
358.441	97.94
358.668	96.94
358.895	81.94
359.122	80.94
359.349	80.94
359.576	75.94
359.802	91.94
360.029	75.94
360.256	85.94
360.483	90.94
360.709	92.94
360.936	91.94
361.163	85.94
361.39	89.94
361.616	90.94
361.843	91.94
362.07	79.94
362.296	90.94
362.523	84.94
362.749	79.94
362.976	82.94
363.203	88.94
363.429	78.94
363.656	81.94
363.882	70.94
364.109	82.94
364.335	90.94
364.562	86.94
364.788	93.94
365.015	99.94
365.241	85.94
365.468	96.94
365.694	83.94
365.92	95.94
366.147	87.94
366.373	93.94
366.599	89.94
366.826	81.94
367.052	71.94
367.278	74.94
367.505	94.94
367.731	79.94
367.957	88.94
368.184	77.94
368.41	91.94
368.636	93.94
368.862	93.94
369.089	101.94
369.315	80.94
369.541	81.94
369.767	72.94
369.993	87.94
370.219	79.94
370.445	79.94
370.672	91.94
370.898	86.94
371.124	93.94
371.35	85.94
371.576	86.94
371.802	78.94
372.028	80.94
372.254	84.94
372.48	80.94
372.706	72.94
372.932	71.94
373.158	82.94
373.384	85.94
373.61	82.94
373.835	85.94
374.061	90.94
374.287	84.94
374.513	83.94
374.739	81.94
374.965	81.94
375.191	79.94
375.416	75.94
375.642	92.94
375.868	82.94
376.094	78.94
376.319	77.94
376.545	81.94
376.771	86.94
376.997	79.94
377.222	91.94
377.448	89.94
377.674	88.94
377.899	85.94
378.125	97.94
378.35	92.94
378.576	81.94
378.802	92.94
379.027	87.94
379.253	94.94
379.478	111.94
379.704	81.94
379.929	73.94
380.155	90.94
380.38	92.94
380.606	88.94
380.831	82.94
381.057	91.94
381.282	88.94
381.507	96.94
381.733	91.94
381.958	88.94
382.184	93.94
382.409	95.94
382.634	88.94
382.86	92.94
383.085	99.94
383.31	94.94
383.535	101.94
383.761	95.94
383.986	86.94
384.211	93.94
384.436	89.94
384.662	95.94
384.887	89.94
385.112	104.94
385.337	112.94
385.562	106.94
385.787	102.94
386.013	99.94
386.238	118.94
386.463	97.94
386.688	109.94
386.913	112.94
387.138	120.94
387.363	97.94
387.588	95.94
387.813	91.94
388.038	97.94
388.263	121.94
388.488	100.94
388.713	96.94
388.938	83.94
389.163	74.94
389.387	85.94
389.612	86.94
389.837	86.94
390.062	78.94
390.287	69.94
390.512	85.94
390.736	90.94
390.961	82.94
391.186	110.94
391.411	83.94
391.636	83.94
391.86	77.94
392.085	72.94
392.31	79.94
392.534	89.94
392.759	90.94
392.984	81.94
393.208	81.94
393.433	88.94
393.658	82.94
393.882	87.94
394.107	86.94
394.331	78.94
394.556	86.94
394.78	92.94
395.005	83.94
395.229	97.94
395.454	75.94
395.678	65.94
395.903	94.94
396.127	71.94
396.352	84.94
396.576	89.94
396.801	90.94
397.025	73.94
397.249	89.94
397.474	75.94
397.698	71.94
397.922	83.94
398.147	91.94
398.371	88.94
398.595	79.94
398.82	87.94
399.044	80.94
399.268	82.94
399.492	74.94
399.717	87.94
399.941	86.94
400.165	82.94
400.389	87.94
400.613	95.94
400.837	70.94
401.062	81.94
401.286	77.94
401.51	87.94
401.734	88.94
401.958	95.94
402.182	103.94
402.406	118.94
402.63	107.94
402.854	83.94
403.078	83.94
403.302	71.94
403.526	85.94
403.75	78.94
403.974	81.94
404.198	85.94
404.422	72.94
404.645	66.94
404.869	81.94
405.093	86.94
405.317	82.94
405.541	83.94
405.765	73.94
405.988	77.94
406.212	143.94
406.436	161.94
406.66	123.94
406.883	91.94
407.107	84.94
407.331	90.94
407.555	96.94
407.778	74.94
408.002	85.94
408.226	74.94
408.449	83.94
408.673	79.94
408.896	93.94
409.12	85.94
409.344	81.94
409.567	85.94
409.791	83.94
410.014	90.94
410.238	94.94
410.461	86.94
410.685	87.94
410.908	79.94
411.132	94.94
411.355	90.94
411.578	78.94
411.802	76.94
412.025	82.94
412.249	99.94
412.472	81.94
412.695	82.94
412.919	79.94
413.142	93.94
413.365	75.94
413.589	86.94
413.812	85.94
414.035	82.94
414.258	89.94
414.482	84.94
414.705	87.94
414.928	89.94
415.151	81.94
415.374	78.94
415.597	89.94
415.821	84.94
416.044	87.94
416.267	61.94
416.49	98.94
416.713	95.94
416.936	91.94
417.159	84.94
417.382	90.94
417.605	73.94
417.828	68.94
418.051	92.94
418.274	74.94
418.497	89.94
418.72	74.94
418.943	79.94
419.166	85.94
419.389	80.94
419.611	89.94
419.834	78.94
420.057	86.94
420.28	92.94
420.503	71.94
420.726	93.94
420.948	82.94
421.171	88.94
421.394	68.94
421.617	82.94
421.839	89.94
422.062	90.94
422.285	91.94
422.507	92.94
422.73	88.94
422.953	91.94
423.175	82.94
423.398	87.94
423.621	86.94
423.843	72.94
424.066	65.94
424.288	61.94
424.511	84.94
424.733	92.94
424.956	91.94
425.178	81.94
425.401	101.94
425.623	103.94
425.846	78.94
426.068	80.94
426.291	86.94
426.513	95.94
426.735	78.94
426.958	85.94
427.18	82.94
427.402	111.94
427.625	122.94
427.847	111.94
428.069	103.94
428.292	82.94
428.514	84.94
428.736	77.94
428.958	92.94
429.181	79.94
429.403	79.94
429.625	71.94
429.847	75.94
430.069	86.94
430.292	89.94
430.514	80.94
430.736	85.94
430.958	74.94
431.18	91.94
431.402	82.94
431.624	81.94
431.846	69.94
432.068	73.94
432.29	66.94
432.512	77.94
432.734	90.94
432.956	85.94
433.178	91.94
433.4	98.94
433.622	79.94
433.844	94.94
434.066	77.94
434.287	88.94
434.509	76.94
434.731	67.94
434.953	83.94
435.175	89.94
435.397	73.94
435.618	81.94
435.84	91.94
436.062	101.94
436.284	95.94
436.505	92.94
436.727	83.94
436.949	98.94
437.17	82.94
437.392	65.94
437.614	86.94
437.835	101.94
438.057	103.94
438.278	91.94
438.5	78.94
438.721	104.94
438.943	90.94
439.165	94.94
439.386	81.94
439.608	89.94
439.829	78.94
440.05	98.94
440.272	114.94
440.493	93.94
440.715	81.94
440.936	87.94
441.158	90.94
441.379	87.94
441.6	91.94
441.822	79.94
442.043	89.94
442.264	78.94
442.486	82.94
442.707	74.94
442.928	72.94
443.149	97.94
443.371	97.94
443.592	99.94
443.813	95.94
444.034	93.94
444.255	93.94
444.476	94.94
444.698	85.94
444.919	81.94
445.14	130.94
445.361	112.94
445.582	94.94
445.803	113.94
446.024	113.94
446.245	112.94
446.466	91.94
446.687	85.94
446.908	77.94
447.129	72.94
447.35	77.94
447.571	85.94
447.792	82.94
448.013	85.94
448.234	80.94
448.455	83.94
448.675	84.94
448.896	91.94
449.117	88.94
449.338	95.94
449.559	112.94
449.779	107.94
450	81.94
450.221	74.94
450.442	90.94
450.662	79.94
450.883	91.94
451.104	96.94
451.324	83.94
451.545	89.94
451.766	96.94
451.986	79.94
452.207	69.94
452.428	86.94
452.648	89.94
452.869	90.94
453.089	98.94
453.31	97.94
453.53	84.94
453.751	92.94
453.971	101.94
454.192	104.94
454.412	83.94
454.633	72.94
454.853	84.94
455.073	77.94
455.294	73.94
455.514	80.94
455.734	78.94
455.955	87.94
456.175	98.94
456.395	86.94
456.616	79.94
456.836	75.94
457.056	87.94
457.276	75.94
457.497	88.94
457.717	78.94
457.937	84.94
458.157	86.94
458.377	72.94
458.598	87.94
458.818	92.94
459.038	110.94
459.258	86.94
459.478	68.94
459.698	90.94
459.918	90.94
460.138	75.94
460.358	71.94
460.578	79.94
460.798	83.94
461.018	83.94
461.238	77.94
461.458	78.94
461.678	65.94
461.898	85.94
462.118	79.94
462.338	74.94
462.558	83.94
462.777	74.94
462.997	83.94
463.217	78.94
463.437	76.94
463.657	85.94
463.876	82.94
464.096	72.94
464.316	85.94
464.536	90.94
464.755	84.94
464.975	85.94
465.195	135.94
465.414	124.94
465.634	85.94
465.854	88.94
466.073	84.94
466.293	77.94
466.512	89.94
466.732	78.94
466.951	84.94
467.171	74.94
467.391	95.94
467.61	81.94
467.829	90.94
468.049	88.94
468.268	102.94
468.488	84.94
468.707	74.94
468.927	87.94
469.146	78.94
469.365	85.94
469.585	90.94
469.804	94.94
470.023	97.94
470.243	89.94
470.462	88.94
470.681	86.94
470.901	91.94
471.12	90.94
471.339	80.94
471.558	88.94
471.777	78.94
471.997	81.94
472.216	100.94
472.435	127.94
472.654	93.94
472.873	81.94
473.092	95.94
473.311	75.94
473.53	79.94
473.749	94.94
473.968	92.94
474.187	90.94
474.406	89.94
474.625	82.94
474.844	88.94
475.063	74.94
475.282	89.94
475.501	85.94
475.72	90.94
475.939	98.94
476.158	74.94
476.377	85.94
476.596	65.94
476.814	81.94
477.033	79.94
477.252	84.94
477.471	83.94
477.69	78.94
477.908	74.94
478.127	81.94
478.346	75.94
478.564	90.94
478.783	102.94
479.002	102.94
479.22	95.94
479.439	93.94
479.658	88.94
479.876	78.94
480.095	60.94
480.313	90.94
480.532	88.94
480.751	94.94
480.969	89.94
481.188	170.94
481.406	146.94
481.624	85.94
481.843	71.94
482.061	75.94
482.28	85.94
482.498	97.94
482.717	87.94
482.935	86.94
483.153	70.94
483.372	92.94
483.59	87.94
483.808	88.94
484.027	73.94
484.245	87.94
484.463	82.94
484.681	97.94
484.9	90.94
485.118	103.94
485.336	84.94
485.554	91.94
485.772	97.94
485.99	89.94
486.209	92.94
486.427	109.94
486.645	106.94
486.863	92.94
487.081	110.94
487.299	104.94
487.517	87.94
487.735	84.94
487.953	87.94
488.171	89.94
488.389	93.94
488.607	89.94
488.825	99.94
489.043	92.94
489.261	90.94
489.479	71.94
489.696	78.94
489.914	81.94
490.132	75.94
490.35	91.94
490.568	80.94
490.786	85.94
491.003	83.94
491.221	83.94
491.439	98.94
491.657	84.94
491.874	77.94
492.092	76.94
492.31	68.94
492.527	79.94
492.745	103.94
492.963	94.94
493.18	90.94
493.398	81.94
493.615	95.94
493.833	88.94
494.05	83.94
494.268	74.94
494.485	61.94
494.703	82.94
494.92	91.94
495.138	87.94
495.355	77.94
495.573	95.94
495.79	80.94
496.008	92.94
496.225	81.94
496.442	81.94
496.66	85.94
496.877	102.94
497.094	80.94
497.312	83.94
497.529	74.94
497.746	95.94
497.963	85.94
498.181	75.94
498.398	89.94
498.615	94.94
498.832	89.94
499.049	93.94
499.267	91.94
499.484	88.94
499.701	92.94
499.918	73.94
500.135	84.94
500.352	79.94
500.569	88.94
500.786	90.94
501.003	86.94
501.22	68.94
501.437	85.94
501.654	81.94
501.871	106.94
502.088	84.94
502.305	78.94
502.522	70.94
502.739	73.94
502.956	69.94
503.172	86.94
503.389	82.94
503.606	96.94
503.823	87.94
504.04	91.94
504.256	73.94
504.473	72.94
504.69	75.94
504.907	89.94
505.123	73.94
505.34	77.94
505.557	79.94
505.773	81.94
505.99	81.94
506.207	90.94
506.423	82.94
506.64	85.94
506.856	70.94
507.073	83.94
507.289	79.94
507.506	71.94
507.722	96.94
507.939	89.94
508.155	87.94
508.372	104.94
508.588	100.94
508.805	103.94
509.021	79.94
509.238	74.94
509.454	87.94
509.67	89.94
509.887	98.94
510.103	82.94
510.319	158.94
510.536	512.94
510.752	1528.94
510.968	445.94
511.184	129.94
511.401	104.94
511.617	99.94
511.833	73.94
512.049	96.94
512.265	78.94
512.481	86.94
512.698	92.94
512.914	77.94
513.13	83.94
513.346	94.94
513.562	93.94
513.778	99.94
513.994	95.94
514.21	94.94
514.426	99.94
514.642	106.94
514.858	105.94
515.074	130.94
515.29	307.94
515.506	924.94
515.721	331.94
515.937	119.94
516.153	93.94
516.369	89.94
516.585	86.94
516.801	91.94
517.016	82.94
517.232	84.94
517.448	89.94
517.664	94.94
517.879	101.94
518.095	77.94
518.311	84.94
