Data from Circ_1980_H10_HRD10591_00078.txt Node
Date: Wed Jan 03 12:38:13 EST 2024
User: Yrep
Spectrometer: HR+D1059
Trigger mode: 1
Integration Time (sec): 1.000000E-1
Scans to average: 1
Electric dark correction enabled: true
Nonlinearity correction enabled: false
Boxcar width: 0
XAxis mode: Wavelengths
Number of Pixels in Spectrum: 2048
>>>>>Begin Spectral Data<<<<<
223.165	-7.38
223.4	-7.38
223.635	-7.38
223.869	-13.38
224.104	-27.38
224.338	-19.38
224.573	0.62
224.808	-8.38
225.042	-11.38
225.277	-7.38
225.511	-4.38
225.746	11.62
225.98	10.62
226.215	8.62
226.449	5.62
226.683	5.62
226.918	17.62
227.152	38.62
227.387	31.62
227.621	34.62
227.856	39.62
228.09	52.62
228.324	41.62
228.559	55.62
228.793	65.62
229.027	67.62
229.262	54.62
229.496	55.62
229.73	72.62
229.964	67.62
230.199	68.62
230.433	53.62
230.667	74.62
230.901	71.62
231.136	84.62
231.37	64.62
231.604	86.62
231.838	84.62
232.072	68.62
232.306	81.62
232.541	74.62
232.775	81.62
233.009	68.62
233.243	77.62
233.477	85.62
233.711	90.62
233.945	77.62
234.179	71.62
234.413	80.62
234.647	84.62
234.881	73.62
235.115	78.62
235.349	80.62
235.583	79.62
235.817	66.62
236.051	80.62
236.285	76.62
236.519	78.62
236.753	77.62
236.987	71.62
237.221	88.62
237.455	72.62
237.689	74.62
237.922	94.62
238.156	82.62
238.39	86.62
238.624	83.62
238.858	89.62
239.091	62.62
239.325	60.62
239.559	81.62
239.793	75.62
240.027	74.62
240.26	79.62
240.494	75.62
240.728	66.62
240.961	72.62
241.195	70.62
241.429	63.62
241.662	60.62
241.896	66.62
242.13	60.62
242.363	66.62
242.597	78.62
242.83	74.62
243.064	84.62
243.298	93.62
243.531	50.62
243.765	68.62
243.998	77.62
244.232	74.62
244.465	71.62
244.699	75.62
244.932	79.62
245.166	84.62
245.399	89.62
245.633	83.62
245.866	75.62
246.099	78.62
246.333	72.62
246.566	67.62
246.8	70.62
247.033	67.62
247.266	75.62
247.5	82.62
247.733	75.62
247.966	75.62
248.2	81.62
248.433	70.62
248.666	80.62
248.899	88.62
249.133	83.62
249.366	80.62
249.599	86.62
249.832	88.62
250.066	69.62
250.299	82.62
250.532	72.62
250.765	66.62
250.998	83.62
251.231	82.62
251.465	88.62
251.698	69.62
251.931	70.62
252.164	80.62
252.397	84.62
252.63	84.62
252.863	82.62
253.096	78.62
253.329	82.62
253.562	75.62
253.795	84.62
254.028	80.62
254.261	71.62
254.494	80.62
254.727	78.62
254.96	82.62
255.193	88.62
255.426	65.62
255.659	73.62
255.892	71.62
256.124	82.62
256.357	79.62
256.59	78.62
256.823	70.62
257.056	80.62
257.289	81.62
257.521	81.62
257.754	63.62
257.987	78.62
258.22	80.62
258.452	82.62
258.685	92.62
258.918	78.62
259.151	87.62
259.383	83.62
259.616	92.62
259.849	79.62
260.081	87.62
260.314	80.62
260.547	75.62
260.779	90.62
261.012	74.62
261.244	84.62
261.477	90.62
261.71	81.62
261.942	94.62
262.175	106.62
262.407	82.62
262.64	69.62
262.872	72.62
263.105	83.62
263.337	73.62
263.57	81.62
263.802	87.62
264.035	95.62
264.267	80.62
264.499	84.62
264.732	83.62
264.964	66.62
265.197	78.62
265.429	74.62
265.661	93.62
265.894	70.62
266.126	80.62
266.358	70.62
266.591	76.62
266.823	77.62
267.055	91.62
267.287	107.62
267.52	66.62
267.752	72.62
267.984	91.62
268.216	88.62
268.448	83.62
268.681	75.62
268.913	73.62
269.145	72.62
269.377	60.62
269.609	71.62
269.841	90.62
270.073	86.62
270.306	82.62
270.538	78.62
270.77	82.62
271.002	87.62
271.234	70.62
271.466	80.62
271.698	74.62
271.93	84.62
272.162	91.62
272.394	81.62
272.626	92.62
272.858	87.62
273.09	81.62
273.322	79.62
273.553	82.62
273.785	80.62
274.017	90.62
274.249	87.62
274.481	83.62
274.713	81.62
274.945	88.62
275.176	86.62
275.408	79.62
275.64	73.62
275.872	86.62
276.104	88.62
276.335	90.62
276.567	72.62
276.799	100.62
277.031	90.62
277.262	80.62
277.494	86.62
277.726	75.62
277.957	83.62
278.189	90.62
278.421	90.62
278.652	90.62
278.884	86.62
279.115	76.62
279.347	76.62
279.579	83.62
279.81	79.62
280.042	75.62
280.273	76.62
280.505	74.62
280.736	84.62
280.968	73.62
281.199	78.62
281.431	77.62
281.662	76.62
281.894	97.62
282.125	99.62
282.356	107.62
282.588	108.62
282.819	103.62
283.051	89.62
283.282	86.62
283.513	82.62
283.745	90.62
283.976	65.62
284.207	71.62
284.439	72.62
284.67	88.62
284.901	81.62
285.132	83.62
285.364	88.62
285.595	74.62
285.826	78.62
286.057	84.62
286.288	90.62
286.52	88.62
286.751	86.62
286.982	86.62
287.213	85.62
287.444	89.62
287.675	79.62
287.906	84.62
288.138	98.62
288.369	89.62
288.6	89.62
288.831	88.62
289.062	97.62
289.293	82.62
289.524	88.62
289.755	86.62
289.986	78.62
290.217	98.62
290.448	89.62
290.679	88.62
290.91	80.62
291.141	80.62
291.371	72.62
291.602	80.62
291.833	75.62
292.064	71.62
292.295	98.62
292.526	80.62
292.757	94.62
292.987	78.62
293.218	87.62
293.449	84.62
293.68	86.62
293.91	90.62
294.141	89.62
294.372	81.62
294.603	98.62
294.833	71.62
295.064	66.62
295.295	98.62
295.525	81.62
295.756	88.62
295.987	106.62
296.217	128.62
296.448	106.62
296.679	91.62
296.909	90.62
297.14	81.62
297.37	83.62
297.601	76.62
297.831	86.62
298.062	93.62
298.292	74.62
298.523	82.62
298.753	102.62
298.984	73.62
299.214	74.62
299.445	69.62
299.675	90.62
299.905	77.62
300.136	87.62
300.366	82.62
300.597	88.62
300.827	86.62
301.057	88.62
301.288	98.62
301.518	92.62
301.748	81.62
301.979	101.62
302.209	94.62
302.439	91.62
302.669	79.62
302.9	72.62
303.13	104.62
303.36	100.62
303.59	85.62
303.82	95.62
304.051	83.62
304.281	86.62
304.511	79.62
304.741	89.62
304.971	96.62
305.201	100.62
305.431	82.62
305.661	75.62
305.891	86.62
306.121	84.62
306.352	95.62
306.582	102.62
306.812	94.62
307.042	75.62
307.272	95.62
307.502	92.62
307.731	90.62
307.961	84.62
308.191	79.62
308.421	74.62
308.651	91.62
308.881	93.62
309.111	89.62
309.341	84.62
309.571	95.62
309.8	96.62
310.03	86.62
310.26	90.62
310.49	90.62
310.72	96.62
310.949	90.62
311.179	95.62
311.409	83.62
311.639	87.62
311.868	100.62
312.098	79.62
312.328	107.62
312.557	98.62
312.787	89.62
313.017	95.62
313.246	94.62
313.476	91.62
313.706	85.62
313.935	88.62
314.165	90.62
314.394	80.62
314.624	84.62
314.853	80.62
315.083	79.62
315.312	95.62
315.542	82.62
315.771	92.62
316.001	76.62
316.23	93.62
316.46	80.62
316.689	74.62
316.919	94.62
317.148	90.62
317.377	99.62
317.607	85.62
317.836	105.62
318.065	87.62
318.295	82.62
318.524	86.62
318.753	102.62
318.983	97.62
319.212	102.62
319.441	89.62
319.67	88.62
319.9	84.62
320.129	76.62
320.358	91.62
320.587	80.62
320.816	92.62
321.046	111.62
321.275	103.62
321.504	81.62
321.733	74.62
321.962	86.62
322.191	89.62
322.42	87.62
322.649	94.62
322.878	90.62
323.108	106.62
323.337	114.62
323.566	117.62
323.795	128.62
324.024	182.62
324.253	295.62
324.482	594.62
324.71	1238.62
324.939	1606.62
325.168	611.62
325.397	198.62
325.626	130.62
325.855	114.62
326.084	103.62
326.313	120.62
326.542	134.62
326.77	192.62
326.999	348.62
327.228	716.62
327.457	1292.62
327.686	1033.62
327.914	295.62
328.143	169.62
328.372	130.62
328.6	116.62
328.829	112.62
329.058	108.62
329.287	120.62
329.515	107.62
329.744	104.62
329.972	106.62
330.201	103.62
330.43	124.62
330.658	110.62
330.887	126.62
331.115	115.62
331.344	94.62
331.572	83.62
331.801	97.62
332.03	93.62
332.258	86.62
332.486	101.62
332.715	86.62
332.943	96.62
333.172	98.62
333.4	96.62
333.629	101.62
333.857	103.62
334.085	81.62
334.314	117.62
334.542	112.62
334.771	126.62
334.999	98.62
335.227	74.62
335.455	102.62
335.684	89.62
335.912	105.62
336.14	88.62
336.369	101.62
336.597	90.62
336.825	90.62
337.053	89.62
337.281	87.62
337.51	95.62
337.738	84.62
337.966	97.62
338.194	96.62
338.422	82.62
338.65	83.62
338.878	98.62
339.106	88.62
339.334	93.62
339.562	89.62
339.79	89.62
340.018	83.62
340.246	80.62
340.474	91.62
340.702	92.62
340.93	86.62
341.158	92.62
341.386	88.62
341.614	105.62
341.842	97.62
342.07	87.62
342.298	85.62
342.526	89.62
342.754	95.62
342.981	79.62
343.209	100.62
343.437	96.62
343.665	87.62
343.893	90.62
344.12	75.62
344.348	97.62
344.576	92.62
344.804	69.62
345.031	84.62
345.259	107.62
345.487	85.62
345.714	95.62
345.942	91.62
346.17	91.62
346.397	87.62
346.625	85.62
346.853	95.62
347.08	86.62
347.308	95.62
347.535	95.62
347.763	103.62
347.99	88.62
348.218	94.62
348.445	88.62
348.673	90.62
348.9	100.62
349.128	87.62
349.355	90.62
349.583	87.62
349.81	91.62
350.037	82.62
350.265	86.62
350.492	97.62
350.72	88.62
350.947	93.62
351.174	107.62
351.402	95.62
351.629	97.62
351.856	86.62
352.083	99.62
352.311	97.62
352.538	89.62
352.765	104.62
352.992	110.62
353.22	94.62
353.447	107.62
353.674	87.62
353.901	100.62
354.128	102.62
354.355	98.62
354.583	87.62
354.81	97.62
355.037	99.62
355.264	88.62
355.491	102.62
355.718	92.62
355.945	93.62
356.172	110.62
356.399	94.62
356.626	100.62
356.853	90.62
357.08	83.62
357.307	96.62
357.534	74.62
357.761	98.62
357.988	89.62
358.215	102.62
358.441	80.62
358.668	80.62
358.895	86.62
359.122	83.62
359.349	86.62
359.576	105.62
359.802	94.62
360.029	97.62
360.256	96.62
360.483	92.62
360.709	78.62
360.936	86.62
361.163	95.62
361.39	84.62
361.616	95.62
361.843	74.62
362.07	88.62
362.296	87.62
362.523	85.62
362.749	94.62
362.976	84.62
363.203	85.62
363.429	80.62
363.656	91.62
363.882	92.62
364.109	82.62
364.335	75.62
364.562	100.62
364.788	96.62
365.015	95.62
365.241	94.62
365.468	103.62
365.694	88.62
365.92	85.62
366.147	80.62
366.373	87.62
366.599	102.62
366.826	88.62
367.052	88.62
367.278	90.62
367.505	92.62
367.731	88.62
367.957	87.62
368.184	91.62
368.41	99.62
368.636	110.62
368.862	108.62
369.089	86.62
369.315	96.62
369.541	92.62
369.767	91.62
369.993	78.62
370.219	77.62
370.445	84.62
370.672	76.62
370.898	77.62
371.124	92.62
371.35	89.62
371.576	82.62
371.802	75.62
372.028	80.62
372.254	91.62
372.48	92.62
372.706	84.62
372.932	88.62
373.158	74.62
373.384	85.62
373.61	81.62
373.835	90.62
374.061	102.62
374.287	97.62
374.513	86.62
374.739	75.62
374.965	80.62
375.191	89.62
375.416	75.62
375.642	81.62
375.868	83.62
376.094	85.62
376.319	83.62
376.545	102.62
376.771	90.62
376.997	100.62
377.222	92.62
377.448	92.62
377.674	84.62
377.899	94.62
378.125	83.62
378.35	82.62
378.576	83.62
378.802	85.62
379.027	92.62
379.253	91.62
379.478	98.62
379.704	97.62
379.929	91.62
380.155	98.62
380.38	90.62
380.606	85.62
380.831	89.62
381.057	101.62
381.282	88.62
381.507	90.62
381.733	78.62
381.958	96.62
382.184	95.62
382.409	101.62
382.634	101.62
382.86	100.62
383.085	101.62
383.31	103.62
383.535	98.62
383.761	94.62
383.986	95.62
384.211	99.62
384.436	98.62
384.662	95.62
384.887	102.62
385.112	94.62
385.337	93.62
385.562	97.62
385.787	87.62
386.013	101.62
386.238	115.62
386.463	107.62
386.688	107.62
386.913	111.62
387.138	107.62
387.363	84.62
387.588	94.62
387.813	103.62
388.038	107.62
388.263	114.62
388.488	105.62
388.713	101.62
388.938	92.62
389.163	89.62
389.387	80.62
389.612	94.62
389.837	81.62
390.062	76.62
390.287	82.62
390.512	100.62
390.736	92.62
390.961	97.62
391.186	97.62
391.411	100.62
391.636	107.62
391.86	83.62
392.085	75.62
392.31	79.62
392.534	100.62
392.759	91.62
392.984	98.62
393.208	94.62
393.433	91.62
393.658	87.62
393.882	85.62
394.107	92.62
394.331	82.62
394.556	83.62
394.78	94.62
395.005	80.62
395.229	98.62
395.454	69.62
395.678	74.62
395.903	91.62
396.127	87.62
396.352	71.62
396.576	78.62
396.801	74.62
397.025	78.62
397.249	81.62
397.474	86.62
397.698	89.62
397.922	91.62
398.147	85.62
398.371	86.62
398.595	82.62
398.82	80.62
399.044	86.62
399.268	84.62
399.492	98.62
399.717	89.62
399.941	90.62
400.165	95.62
400.389	90.62
400.613	83.62
400.837	89.62
401.062	83.62
401.286	90.62
401.51	91.62
401.734	87.62
401.958	89.62
402.182	110.62
402.406	132.62
402.63	113.62
402.854	95.62
403.078	99.62
403.302	94.62
403.526	94.62
403.75	104.62
403.974	87.62
404.198	88.62
404.422	79.62
404.645	85.62
404.869	99.62
405.093	96.62
405.317	90.62
405.541	90.62
405.765	91.62
405.988	107.62
406.212	137.62
406.436	178.62
406.66	121.62
406.883	93.62
407.107	89.62
407.331	95.62
407.555	91.62
407.778	93.62
408.002	86.62
408.226	73.62
408.449	88.62
408.673	78.62
408.896	90.62
409.12	87.62
409.344	84.62
409.567	104.62
409.791	104.62
410.014	77.62
410.238	88.62
410.461	88.62
410.685	102.62
410.908	90.62
411.132	106.62
411.355	91.62
411.578	92.62
411.802	94.62
412.025	94.62
412.249	80.62
412.472	94.62
412.695	99.62
412.919	86.62
413.142	83.62
413.365	80.62
413.589	82.62
413.812	82.62
414.035	71.62
414.258	82.62
414.482	94.62
414.705	99.62
414.928	84.62
415.151	90.62
415.374	95.62
415.597	86.62
415.821	86.62
416.044	95.62
416.267	95.62
416.49	93.62
416.713	95.62
416.936	93.62
417.159	76.62
417.382	87.62
417.605	90.62
417.828	83.62
418.051	97.62
418.274	97.62
418.497	92.62
418.72	94.62
418.943	86.62
419.166	74.62
419.389	87.62
419.611	84.62
419.834	92.62
420.057	89.62
420.28	93.62
420.503	78.62
420.726	91.62
420.948	91.62
421.171	80.62
421.394	88.62
421.617	87.62
421.839	73.62
422.062	91.62
422.285	79.62
422.507	88.62
422.73	98.62
422.953	74.62
423.175	86.62
423.398	72.62
423.621	92.62
423.843	80.62
424.066	94.62
424.288	76.62
424.511	94.62
424.733	75.62
424.956	86.62
425.178	93.62
425.401	90.62
425.623	81.62
425.846	87.62
426.068	90.62
426.291	85.62
426.513	83.62
426.735	96.62
426.958	90.62
427.18	95.62
427.402	112.62
427.625	146.62
427.847	113.62
428.069	98.62
428.292	80.62
428.514	72.62
428.736	94.62
428.958	101.62
429.181	89.62
429.403	107.62
429.625	90.62
429.847	86.62
430.069	90.62
430.292	94.62
430.514	84.62
430.736	99.62
430.958	92.62
431.18	72.62
431.402	92.62
431.624	88.62
431.846	79.62
432.068	71.62
432.29	89.62
432.512	75.62
432.734	82.62
432.956	92.62
433.178	87.62
433.4	83.62
433.622	97.62
433.844	87.62
434.066	104.62
434.287	98.62
434.509	85.62
434.731	85.62
434.953	91.62
435.175	90.62
435.397	87.62
435.618	89.62
435.84	89.62
436.062	96.62
436.284	102.62
436.505	78.62
436.727	98.62
436.949	95.62
437.17	88.62
437.392	91.62
437.614	66.62
437.835	93.62
438.057	100.62
438.278	86.62
438.5	107.62
438.721	102.62
438.943	97.62
439.165	91.62
439.386	71.62
439.608	94.62
439.829	94.62
440.05	101.62
440.272	114.62
440.493	94.62
440.715	71.62
440.936	83.62
441.158	87.62
441.379	73.62
441.6	78.62
441.822	90.62
442.043	95.62
442.264	87.62
442.486	88.62
442.707	80.62
442.928	90.62
443.149	121.62
443.371	109.62
443.592	95.62
443.813	103.62
444.034	99.62
444.255	90.62
444.476	80.62
444.698	81.62
444.919	85.62
445.14	112.62
445.361	104.62
445.582	112.62
445.803	130.62
446.024	110.62
446.245	123.62
446.466	94.62
446.687	88.62
446.908	78.62
447.129	82.62
447.35	63.62
447.571	82.62
447.792	88.62
448.013	82.62
448.234	93.62
448.455	87.62
448.675	91.62
448.896	106.62
449.117	105.62
449.338	101.62
449.559	119.62
449.779	98.62
450	88.62
450.221	84.62
450.442	94.62
450.662	74.62
450.883	95.62
451.104	89.62
451.324	91.62
451.545	92.62
451.766	81.62
451.986	88.62
452.207	83.62
452.428	83.62
452.648	87.62
452.869	99.62
453.089	94.62
453.31	115.62
453.53	99.62
453.751	86.62
453.971	99.62
454.192	86.62
454.412	79.62
454.633	75.62
454.853	81.62
455.073	98.62
455.294	91.62
455.514	108.62
455.734	86.62
455.955	82.62
456.175	79.62
456.395	72.62
456.616	82.62
456.836	82.62
457.056	91.62
457.276	87.62
457.497	84.62
457.717	79.62
457.937	75.62
458.157	78.62
458.377	80.62
458.598	101.62
458.818	117.62
459.038	123.62
459.258	98.62
459.478	95.62
459.698	75.62
459.918	72.62
460.138	66.62
460.358	83.62
460.578	77.62
460.798	82.62
461.018	97.62
461.238	78.62
461.458	81.62
461.678	81.62
461.898	82.62
462.118	86.62
462.338	79.62
462.558	73.62
462.777	77.62
462.997	69.62
463.217	95.62
463.437	78.62
463.657	91.62
463.876	87.62
464.096	86.62
464.316	88.62
464.536	86.62
464.755	71.62
464.975	76.62
465.195	114.62
465.414	118.62
465.634	89.62
465.854	69.62
466.073	75.62
466.293	76.62
466.512	74.62
466.732	83.62
466.951	105.62
467.171	81.62
467.391	78.62
467.61	105.62
467.829	88.62
468.049	94.62
468.268	95.62
468.488	74.62
468.707	80.62
468.927	72.62
469.146	88.62
469.365	91.62
469.585	84.62
469.804	84.62
470.023	81.62
470.243	82.62
470.462	94.62
470.681	88.62
470.901	89.62
471.12	102.62
471.339	86.62
471.558	92.62
471.777	85.62
471.997	83.62
472.216	116.62
472.435	136.62
472.654	80.62
472.873	79.62
473.092	78.62
473.311	93.62
473.53	76.62
473.749	99.62
473.968	83.62
474.187	82.62
474.406	76.62
474.625	80.62
474.844	92.62
475.063	86.62
475.282	84.62
475.501	82.62
475.72	91.62
475.939	81.62
476.158	80.62
476.377	82.62
476.596	68.62
476.814	91.62
477.033	73.62
477.252	80.62
477.471	79.62
477.69	80.62
477.908	78.62
478.127	83.62
478.346	90.62
478.564	80.62
478.783	82.62
479.002	80.62
479.22	85.62
479.439	94.62
479.658	92.62
479.876	75.62
480.095	86.62
480.313	99.62
480.532	87.62
480.751	86.62
480.969	112.62
481.188	176.62
481.406	136.62
481.624	96.62
481.843	82.62
482.061	74.62
482.28	81.62
482.498	88.62
482.717	83.62
482.935	88.62
483.153	85.62
483.372	83.62
483.59	96.62
483.808	88.62
484.027	91.62
484.245	71.62
484.463	104.62
484.681	97.62
484.9	86.62
485.118	100.62
485.336	100.62
485.554	107.62
485.772	92.62
485.99	98.62
486.209	105.62
486.427	107.62
486.645	109.62
486.863	111.62
487.081	98.62
487.299	96.62
487.517	95.62
487.735	93.62
487.953	88.62
488.171	86.62
488.389	95.62
488.607	96.62
488.825	89.62
489.043	76.62
489.261	97.62
489.479	84.62
489.696	86.62
489.914	66.62
490.132	90.62
490.35	84.62
490.568	65.62
490.786	92.62
491.003	90.62
491.221	84.62
491.439	97.62
491.657	87.62
491.874	80.62
492.092	88.62
492.31	98.62
492.527	84.62
492.745	90.62
492.963	91.62
493.18	89.62
493.398	79.62
493.615	94.62
493.833	85.62
494.05	80.62
494.268	83.62
494.485	86.62
494.703	85.62
494.92	87.62
495.138	71.62
495.355	87.62
495.573	86.62
495.79	82.62
496.008	78.62
496.225	90.62
496.442	85.62
496.66	87.62
496.877	81.62
497.094	82.62
497.312	99.62
497.529	78.62
497.746	72.62
497.963	90.62
498.181	95.62
498.398	103.62
498.615	109.62
498.832	86.62
499.049	105.62
499.267	81.62
499.484	85.62
499.701	83.62
499.918	86.62
500.135	97.62
500.352	91.62
500.569	74.62
500.786	95.62
501.003	94.62
501.22	86.62
501.437	83.62
501.654	58.62
501.871	101.62
502.088	92.62
502.305	92.62
502.522	72.62
502.739	81.62
502.956	88.62
503.172	84.62
503.389	100.62
503.606	73.62
503.823	80.62
504.04	89.62
504.256	91.62
504.473	74.62
504.69	95.62
504.907	92.62
505.123	95.62
505.34	84.62
505.557	83.62
505.773	96.62
505.99	74.62
506.207	74.62
506.423	78.62
506.64	92.62
506.856	70.62
507.073	78.62
507.289	77.62
507.506	87.62
507.722	101.62
507.939	99.62
508.155	86.62
508.372	86.62
508.588	91.62
508.805	87.62
509.021	87.62
509.238	107.62
509.454	82.62
509.67	88.62
509.887	105.62
510.103	111.62
510.319	169.62
510.536	574.62
510.752	1736.62
510.968	496.62
511.184	117.62
511.401	104.62
511.617	72.62
511.833	96.62
512.049	87.62
512.265	89.62
512.481	92.62
512.698	81.62
512.914	86.62
513.13	91.62
513.346	65.62
513.562	92.62
513.778	89.62
513.994	88.62
514.21	94.62
514.426	111.62
514.642	111.62
514.858	99.62
515.074	135.62
515.29	326.62
515.506	1013.62
515.721	381.62
515.937	129.62
516.153	92.62
516.369	120.62
516.585	83.62
516.801	87.62
517.016	97.62
517.232	75.62
517.448	91.62
