Data from Circ_1980_H10_HRD10591_00027.txt Node
Date: Wed Jan 03 12:38:03 EST 2024
User: Yrep
Spectrometer: HR+D1059
Trigger mode: 1
Integration Time (sec): 1.000000E-1
Scans to average: 1
Electric dark correction enabled: true
Nonlinearity correction enabled: false
Boxcar width: 0
XAxis mode: Wavelengths
Number of Pixels in Spectrum: 2048
>>>>>Begin Spectral Data<<<<<
223.165	-13.69
223.4	-13.69
223.635	-13.69
223.869	-18.69
224.104	-39.69
224.338	-24.69
224.573	-24.69
224.808	-4.69
225.042	-9.69
225.277	-7.69
225.511	1.31
225.746	11.31
225.98	15.31
226.215	17.31
226.449	14.31
226.683	28.31
226.918	32.31
227.152	23.31
227.387	27.31
227.621	39.31
227.856	40.31
228.09	38.31
228.324	64.31
228.559	50.31
228.793	51.31
229.027	58.31
229.262	71.31
229.496	53.31
229.73	73.31
229.964	52.31
230.199	79.31
230.433	69.31
230.667	63.31
230.901	73.31
231.136	75.31
231.37	65.31
231.604	72.31
231.838	73.31
232.072	67.31
232.306	77.31
232.541	79.31
232.775	82.31
233.009	68.31
233.243	59.31
233.477	71.31
233.711	81.31
233.945	73.31
234.179	76.31
234.413	89.31
234.647	71.31
234.881	77.31
235.115	79.31
235.349	63.31
235.583	78.31
235.817	79.31
236.051	61.31
236.285	67.31
236.519	64.31
236.753	72.31
236.987	75.31
237.221	60.31
237.455	70.31
237.689	65.31
237.922	79.31
238.156	73.31
238.39	75.31
238.624	67.31
238.858	67.31
239.091	61.31
239.325	71.31
239.559	86.31
239.793	90.31
240.027	65.31
240.26	71.31
240.494	77.31
240.728	82.31
240.961	68.31
241.195	77.31
241.429	79.31
241.662	72.31
241.896	70.31
242.13	59.31
242.363	70.31
242.597	81.31
242.83	75.31
243.064	67.31
243.298	73.31
243.531	79.31
243.765	96.31
243.998	74.31
244.232	78.31
244.465	80.31
244.699	72.31
244.932	76.31
245.166	70.31
245.399	75.31
245.633	77.31
245.866	72.31
246.099	69.31
246.333	63.31
246.566	68.31
246.8	76.31
247.033	63.31
247.266	72.31
247.5	73.31
247.733	71.31
247.966	78.31
248.2	70.31
248.433	83.31
248.666	49.31
248.899	55.31
249.133	67.31
249.366	104.31
249.599	74.31
249.832	73.31
250.066	61.31
250.299	68.31
250.532	64.31
250.765	61.31
250.998	82.31
251.231	64.31
251.465	67.31
251.698	62.31
251.931	78.31
252.164	65.31
252.397	71.31
252.63	54.31
252.863	73.31
253.096	68.31
253.329	81.31
253.562	68.31
253.795	80.31
254.028	78.31
254.261	71.31
254.494	70.31
254.727	76.31
254.96	66.31
255.193	77.31
255.426	73.31
255.659	93.31
255.892	73.31
256.124	83.31
256.357	73.31
256.59	78.31
256.823	77.31
257.056	79.31
257.289	80.31
257.521	91.31
257.754	70.31
257.987	81.31
258.22	75.31
258.452	70.31
258.685	67.31
258.918	70.31
259.151	74.31
259.383	77.31
259.616	85.31
259.849	81.31
260.081	73.31
260.314	73.31
260.547	66.31
260.779	68.31
261.012	86.31
261.244	80.31
261.477	84.31
261.71	75.31
261.942	99.31
262.175	87.31
262.407	80.31
262.64	78.31
262.872	81.31
263.105	68.31
263.337	89.31
263.57	72.31
263.802	94.31
264.035	69.31
264.267	63.31
264.499	67.31
264.732	77.31
264.964	66.31
265.197	68.31
265.429	84.31
265.661	79.31
265.894	80.31
266.126	76.31
266.358	80.31
266.591	82.31
266.823	60.31
267.055	73.31
267.287	93.31
267.52	79.31
267.752	89.31
267.984	85.31
268.216	77.31
268.448	63.31
268.681	83.31
268.913	65.31
269.145	79.31
269.377	77.31
269.609	69.31
269.841	78.31
270.073	61.31
270.306	89.31
270.538	79.31
270.77	70.31
271.002	75.31
271.234	70.31
271.466	79.31
271.698	80.31
271.93	76.31
272.162	76.31
272.394	89.31
272.626	70.31
272.858	95.31
273.09	84.31
273.322	77.31
273.553	86.31
273.785	76.31
274.017	59.31
274.249	77.31
274.481	85.31
274.713	76.31
274.945	90.31
275.176	80.31
275.408	70.31
275.64	83.31
275.872	74.31
276.104	86.31
276.335	87.31
276.567	94.31
276.799	92.31
277.031	80.31
277.262	87.31
277.494	72.31
277.726	79.31
277.957	79.31
278.189	73.31
278.421	64.31
278.652	78.31
278.884	77.31
279.115	81.31
279.347	78.31
279.579	66.31
279.81	88.31
280.042	73.31
280.273	68.31
280.505	75.31
280.736	77.31
280.968	83.31
281.199	71.31
281.431	69.31
281.662	79.31
281.894	81.31
282.125	88.31
282.356	93.31
282.588	93.31
282.819	103.31
283.051	92.31
283.282	68.31
283.513	88.31
283.745	81.31
283.976	76.31
284.207	77.31
284.439	72.31
284.67	81.31
284.901	70.31
285.132	69.31
285.364	68.31
285.595	88.31
285.826	89.31
286.057	85.31
286.288	85.31
286.52	66.31
286.751	77.31
286.982	75.31
287.213	89.31
287.444	68.31
287.675	83.31
287.906	74.31
288.138	85.31
288.369	91.31
288.6	77.31
288.831	81.31
289.062	81.31
289.293	88.31
289.524	72.31
289.755	83.31
289.986	70.31
290.217	86.31
290.448	83.31
290.679	70.31
290.91	83.31
291.141	71.31
291.371	77.31
291.602	88.31
291.833	94.31
292.064	79.31
292.295	61.31
292.526	77.31
292.757	87.31
292.987	81.31
293.218	84.31
293.449	88.31
293.68	73.31
293.91	83.31
294.141	89.31
294.372	70.31
294.603	91.31
294.833	84.31
295.064	91.31
295.295	79.31
295.525	88.31
295.756	95.31
295.987	87.31
296.217	105.31
296.448	96.31
296.679	82.31
296.909	83.31
297.14	87.31
297.37	80.31
297.601	79.31
297.831	71.31
298.062	75.31
298.292	86.31
298.523	82.31
298.753	81.31
298.984	75.31
299.214	71.31
299.445	83.31
299.675	68.31
299.905	81.31
300.136	85.31
300.366	65.31
300.597	84.31
300.827	88.31
301.057	92.31
301.288	89.31
301.518	90.31
301.748	81.31
301.979	81.31
302.209	93.31
302.439	81.31
302.669	81.31
302.9	91.31
303.13	86.31
303.36	62.31
303.59	77.31
303.82	104.31
304.051	86.31
304.281	79.31
304.511	86.31
304.741	87.31
304.971	81.31
305.201	91.31
305.431	63.31
305.661	87.31
305.891	79.31
306.121	80.31
306.352	80.31
306.582	95.31
306.812	70.31
307.042	82.31
307.272	86.31
307.502	80.31
307.731	90.31
307.961	84.31
308.191	75.31
308.421	91.31
308.651	71.31
308.881	100.31
309.111	82.31
309.341	90.31
309.571	71.31
309.8	72.31
310.03	87.31
310.26	87.31
310.49	79.31
310.72	79.31
310.949	78.31
311.179	81.31
311.409	69.31
311.639	75.31
311.868	71.31
312.098	89.31
312.328	85.31
312.557	87.31
312.787	96.31
313.017	84.31
313.246	91.31
313.476	80.31
313.706	84.31
313.935	87.31
314.165	96.31
314.394	73.31
314.624	75.31
314.853	81.31
315.083	82.31
315.312	84.31
315.542	76.31
315.771	92.31
316.001	93.31
316.23	86.31
316.46	80.31
316.689	90.31
316.919	94.31
317.148	78.31
317.377	80.31
317.607	90.31
317.836	89.31
318.065	91.31
318.295	81.31
318.524	80.31
318.753	77.31
318.983	86.31
319.212	87.31
319.441	88.31
319.67	100.31
319.9	79.31
320.129	79.31
320.358	89.31
320.587	89.31
320.816	84.31
321.046	84.31
321.275	90.31
321.504	81.31
321.733	92.31
321.962	98.31
322.191	85.31
322.42	87.31
322.649	94.31
322.878	95.31
323.108	94.31
323.337	110.31
323.566	108.31
323.795	111.31
324.024	163.31
324.253	286.31
324.482	576.31
324.71	1173.31
324.939	1571.31
325.168	571.31
325.397	197.31
325.626	116.31
325.855	111.31
326.084	102.31
326.313	110.31
326.542	130.31
326.77	184.31
326.999	324.31
327.228	699.31
327.457	1261.31
327.686	985.31
327.914	286.31
328.143	153.31
328.372	128.31
328.6	114.31
328.829	85.31
329.058	97.31
329.287	105.31
329.515	89.31
329.744	90.31
329.972	79.31
330.201	100.31
330.43	110.31
330.658	106.31
330.887	129.31
331.115	91.31
331.344	92.31
331.572	89.31
331.801	102.31
332.03	87.31
332.258	95.31
332.486	84.31
332.715	85.31
332.943	79.31
333.172	89.31
333.4	78.31
333.629	81.31
333.857	83.31
334.085	93.31
334.314	100.31
334.542	111.31
334.771	114.31
334.999	82.31
335.227	71.31
335.455	79.31
335.684	89.31
335.912	99.31
336.14	88.31
336.369	79.31
336.597	83.31
336.825	72.31
337.053	99.31
337.281	95.31
337.51	72.31
337.738	100.31
337.966	70.31
338.194	84.31
338.422	90.31
338.65	89.31
338.878	79.31
339.106	79.31
339.334	77.31
339.562	79.31
339.79	78.31
340.018	87.31
340.246	77.31
340.474	97.31
340.702	81.31
340.93	78.31
341.158	84.31
341.386	84.31
341.614	73.31
341.842	79.31
342.07	77.31
342.298	81.31
342.526	102.31
342.754	80.31
342.981	93.31
343.209	92.31
343.437	101.31
343.665	83.31
343.893	86.31
344.12	81.31
344.348	79.31
344.576	91.31
344.804	89.31
345.031	91.31
345.259	86.31
345.487	86.31
345.714	87.31
345.942	82.31
346.17	81.31
346.397	70.31
346.625	83.31
346.853	89.31
347.08	95.31
347.308	82.31
347.535	83.31
347.763	77.31
347.99	91.31
348.218	97.31
348.445	86.31
348.673	83.31
348.9	80.31
349.128	81.31
349.355	77.31
349.583	80.31
349.81	96.31
350.037	83.31
350.265	70.31
350.492	80.31
350.72	74.31
350.947	111.31
351.174	96.31
351.402	112.31
351.629	84.31
351.856	84.31
352.083	92.31
352.311	84.31
352.538	81.31
352.765	91.31
352.992	101.31
353.22	94.31
353.447	90.31
353.674	111.31
353.901	87.31
354.128	77.31
354.355	93.31
354.583	96.31
354.81	86.31
355.037	75.31
355.264	83.31
355.491	88.31
355.718	81.31
355.945	79.31
356.172	83.31
356.399	86.31
356.626	84.31
356.853	68.31
357.08	79.31
357.307	79.31
357.534	89.31
357.761	80.31
357.988	83.31
358.215	77.31
358.441	87.31
358.668	93.31
358.895	86.31
359.122	92.31
359.349	77.31
359.576	95.31
359.802	86.31
360.029	102.31
360.256	85.31
360.483	92.31
360.709	104.31
360.936	84.31
361.163	65.31
361.39	87.31
361.616	73.31
361.843	81.31
362.07	95.31
362.296	97.31
362.523	89.31
362.749	94.31
362.976	83.31
363.203	93.31
363.429	75.31
363.656	70.31
363.882	83.31
364.109	81.31
364.335	75.31
364.562	79.31
364.788	90.31
365.015	91.31
365.241	95.31
365.468	87.31
365.694	95.31
365.92	85.31
366.147	94.31
366.373	62.31
366.599	80.31
366.826	73.31
367.052	84.31
367.278	87.31
367.505	80.31
367.731	77.31
367.957	75.31
368.184	80.31
368.41	87.31
368.636	108.31
368.862	101.31
369.089	96.31
369.315	91.31
369.541	80.31
369.767	69.31
369.993	77.31
370.219	86.31
370.445	78.31
370.672	82.31
370.898	78.31
371.124	70.31
371.35	81.31
371.576	78.31
371.802	71.31
372.028	92.31
372.254	95.31
372.48	81.31
372.706	88.31
372.932	71.31
373.158	82.31
373.384	80.31
373.61	95.31
373.835	70.31
374.061	79.31
374.287	91.31
374.513	82.31
374.739	72.31
374.965	82.31
375.191	80.31
375.416	89.31
375.642	94.31
375.868	89.31
376.094	79.31
376.319	88.31
376.545	89.31
376.771	85.31
376.997	77.31
377.222	79.31
377.448	80.31
377.674	91.31
377.899	65.31
378.125	81.31
378.35	84.31
378.576	91.31
378.802	87.31
379.027	96.31
379.253	99.31
379.478	87.31
379.704	94.31
379.929	85.31
380.155	93.31
380.38	101.31
380.606	65.31
380.831	79.31
381.057	96.31
381.282	96.31
381.507	89.31
381.733	89.31
381.958	92.31
382.184	109.31
382.409	87.31
382.634	83.31
382.86	86.31
383.085	97.31
383.31	83.31
383.535	105.31
383.761	91.31
383.986	89.31
384.211	98.31
384.436	93.31
384.662	103.31
384.887	96.31
385.112	93.31
385.337	105.31
385.562	105.31
385.787	97.31
386.013	99.31
386.238	137.31
386.463	97.31
386.688	111.31
386.913	94.31
387.138	100.31
387.363	85.31
387.588	100.31
387.813	98.31
388.038	100.31
388.263	125.31
388.488	112.31
388.713	79.31
388.938	90.31
389.163	94.31
389.387	83.31
389.612	92.31
389.837	85.31
390.062	79.31
390.287	92.31
390.512	83.31
390.736	99.31
390.961	85.31
391.186	81.31
391.411	95.31
391.636	97.31
391.86	81.31
392.085	75.31
392.31	90.31
392.534	77.31
392.759	95.31
392.984	72.31
393.208	86.31
393.433	88.31
393.658	82.31
393.882	85.31
394.107	80.31
394.331	75.31
394.556	88.31
394.78	92.31
395.005	57.31
395.229	69.31
395.454	84.31
395.678	88.31
395.903	85.31
396.127	86.31
396.352	84.31
396.576	77.31
396.801	76.31
397.025	88.31
397.249	75.31
397.474	85.31
397.698	60.31
397.922	83.31
398.147	64.31
398.371	79.31
398.595	81.31
398.82	78.31
399.044	72.31
399.268	83.31
399.492	83.31
399.717	55.31
399.941	87.31
400.165	83.31
400.389	89.31
400.613	70.31
400.837	80.31
401.062	82.31
401.286	78.31
401.51	80.31
401.734	77.31
401.958	83.31
402.182	83.31
402.406	114.31
402.63	86.31
402.854	85.31
403.078	92.31
403.302	83.31
403.526	67.31
403.75	79.31
403.974	78.31
404.198	71.31
404.422	87.31
404.645	77.31
404.869	89.31
405.093	89.31
405.317	84.31
405.541	85.31
405.765	92.31
405.988	91.31
406.212	129.31
406.436	163.31
406.66	119.31
406.883	85.31
407.107	104.31
407.331	78.31
407.555	88.31
407.778	84.31
408.002	76.31
408.226	77.31
408.449	80.31
408.673	78.31
408.896	87.31
409.12	92.31
409.344	80.31
409.567	82.31
409.791	93.31
410.014	86.31
410.238	81.31
410.461	82.31
410.685	96.31
410.908	88.31
411.132	93.31
411.355	108.31
411.578	83.31
411.802	98.31
412.025	82.31
412.249	90.31
412.472	79.31
412.695	92.31
412.919	96.31
413.142	88.31
413.365	67.31
413.589	78.31
413.812	91.31
414.035	73.31
414.258	83.31
414.482	86.31
414.705	80.31
414.928	99.31
415.151	94.31
415.374	84.31
415.597	88.31
415.821	80.31
416.044	75.31
416.267	83.31
416.49	87.31
416.713	89.31
416.936	84.31
417.159	89.31
417.382	68.31
417.605	96.31
417.828	83.31
418.051	72.31
418.274	87.31
418.497	80.31
418.72	83.31
418.943	80.31
419.166	79.31
419.389	93.31
419.611	87.31
419.834	68.31
420.057	64.31
420.28	68.31
420.503	91.31
420.726	88.31
420.948	84.31
421.171	83.31
421.394	58.31
421.617	71.31
421.839	86.31
422.062	91.31
422.285	80.31
422.507	89.31
422.73	86.31
422.953	82.31
423.175	71.31
423.398	72.31
423.621	81.31
423.843	85.31
424.066	84.31
424.288	77.31
424.511	93.31
424.733	92.31
424.956	89.31
425.178	88.31
425.401	75.31
425.623	77.31
425.846	87.31
426.068	79.31
426.291	98.31
426.513	92.31
426.735	72.31
426.958	75.31
427.18	91.31
427.402	95.31
427.625	126.31
427.847	104.31
428.069	118.31
428.292	84.31
428.514	83.31
428.736	80.31
428.958	81.31
429.181	84.31
429.403	83.31
429.625	85.31
429.847	82.31
430.069	86.31
430.292	85.31
430.514	86.31
430.736	77.31
430.958	96.31
431.18	83.31
431.402	84.31
431.624	89.31
431.846	85.31
432.068	80.31
432.29	87.31
432.512	89.31
432.734	77.31
432.956	86.31
433.178	89.31
433.4	91.31
433.622	77.31
433.844	67.31
434.066	91.31
434.287	94.31
434.509	97.31
434.731	82.31
434.953	73.31
435.175	93.31
435.397	81.31
435.618	94.31
435.84	101.31
436.062	95.31
436.284	100.31
436.505	95.31
436.727	96.31
436.949	84.31
437.17	90.31
437.392	70.31
437.614	76.31
437.835	94.31
438.057	91.31
438.278	94.31
438.5	80.31
438.721	100.31
438.943	85.31
439.165	73.31
439.386	79.31
439.608	93.31
439.829	89.31
440.05	109.31
440.272	104.31
440.493	86.31
440.715	67.31
440.936	88.31
441.158	78.31
441.379	92.31
441.6	94.31
441.822	84.31
442.043	79.31
442.264	89.31
442.486	93.31
442.707	72.31
442.928	83.31
443.149	95.31
443.371	115.31
443.592	102.31
443.813	81.31
444.034	88.31
444.255	92.31
444.476	79.31
444.698	92.31
444.919	68.31
445.14	125.31
445.361	118.31
445.582	103.31
445.803	109.31
446.024	107.31
446.245	113.31
446.466	87.31
446.687	85.31
446.908	71.31
447.129	90.31
447.35	78.31
447.571	79.31
447.792	85.31
448.013	87.31
448.234	97.31
448.455	86.31
448.675	101.31
448.896	102.31
449.117	91.31
449.338	90.31
449.559	97.31
449.779	102.31
450	82.31
450.221	76.31
450.442	96.31
450.662	84.31
450.883	89.31
451.104	90.31
451.324	86.31
451.545	89.31
451.766	98.31
451.986	93.31
452.207	79.31
452.428	86.31
452.648	96.31
452.869	92.31
453.089	84.31
453.31	101.31
453.53	85.31
453.751	92.31
453.971	90.31
454.192	87.31
454.412	84.31
454.633	89.31
454.853	83.31
455.073	89.31
455.294	78.31
455.514	96.31
455.734	79.31
455.955	72.31
456.175	81.31
456.395	70.31
456.616	75.31
456.836	87.31
457.056	91.31
457.276	69.31
457.497	79.31
457.717	67.31
457.937	63.31
458.157	69.31
458.377	85.31
458.598	91.31
458.818	117.31
459.038	104.31
459.258	88.31
459.478	75.31
459.698	68.31
459.918	87.31
460.138	72.31
460.358	79.31
460.578	88.31
460.798	68.31
461.018	89.31
461.238	87.31
461.458	73.31
461.678	73.31
461.898	94.31
462.118	88.31
462.338	76.31
462.558	88.31
462.777	79.31
462.997	85.31
463.217	88.31
463.437	90.31
463.657	83.31
463.876	78.31
464.096	79.31
464.316	84.31
464.536	79.31
464.755	66.31
464.975	94.31
465.195	113.31
465.414	105.31
465.634	84.31
465.854	83.31
466.073	85.31
466.293	93.31
466.512	84.31
466.732	79.31
466.951	70.31
467.171	83.31
467.391	95.31
467.61	89.31
467.829	95.31
468.049	103.31
468.268	96.31
468.488	70.31
468.707	77.31
468.927	75.31
469.146	72.31
469.365	84.31
469.585	85.31
469.804	87.31
470.023	110.31
470.243	89.31
470.462	90.31
470.681	95.31
470.901	86.31
471.12	82.31
471.339	74.31
471.558	72.31
471.777	88.31
471.997	70.31
472.216	84.31
472.435	118.31
472.654	76.31
472.873	100.31
473.092	72.31
473.311	86.31
473.53	77.31
473.749	83.31
473.968	79.31
474.187	88.31
474.406	88.31
474.625	84.31
474.844	85.31
475.063	97.31
475.282	78.31
475.501	82.31
475.72	86.31
475.939	79.31
476.158	84.31
476.377	77.31
476.596	81.31
476.814	85.31
477.033	93.31
477.252	82.31
477.471	79.31
477.69	61.31
477.908	70.31
478.127	85.31
478.346	94.31
478.564	91.31
478.783	93.31
479.002	89.31
479.22	110.31
479.439	93.31
479.658	86.31
479.876	90.31
480.095	72.31
480.313	91.31
480.532	75.31
480.751	78.31
480.969	101.31
481.188	169.31
481.406	122.31
481.624	94.31
481.843	80.31
482.061	72.31
482.28	69.31
482.498	80.31
482.717	98.31
482.935	82.31
483.153	96.31
483.372	91.31
483.59	83.31
483.808	77.31
484.027	88.31
484.245	88.31
484.463	79.31
484.681	89.31
484.9	89.31
485.118	89.31
485.336	100.31
485.554	80.31
485.772	102.31
485.99	93.31
486.209	113.31
486.427	97.31
486.645	93.31
486.863	95.31
487.081	101.31
487.299	88.31
487.517	88.31
487.735	91.31
487.953	75.31
488.171	89.31
488.389	92.31
488.607	93.31
488.825	82.31
489.043	87.31
489.261	69.31
489.479	70.31
489.696	66.31
489.914	78.31
490.132	98.31
490.35	87.31
490.568	85.31
490.786	76.31
491.003	87.31
491.221	91.31
491.439	80.31
491.657	85.31
491.874	93.31
492.092	80.31
492.31	89.31
492.527	83.31
492.745	78.31
492.963	93.31
493.18	84.31
493.398	64.31
493.615	87.31
493.833	74.31
494.05	84.31
494.268	85.31
494.485	82.31
494.703	79.31
494.92	77.31
495.138	92.31
495.355	89.31
495.573	81.31
495.79	85.31
496.008	79.31
496.225	73.31
496.442	85.31
496.66	81.31
496.877	80.31
497.094	90.31
497.312	89.31
497.529	76.31
497.746	85.31
497.963	87.31
498.181	89.31
498.398	88.31
498.615	93.31
498.832	101.31
499.049	89.31
499.267	65.31
499.484	104.31
499.701	73.31
499.918	72.31
500.135	86.31
500.352	92.31
500.569	88.31
500.786	84.31
501.003	77.31
501.22	77.31
501.437	73.31
501.654	90.31
501.871	88.31
502.088	87.31
502.305	102.31
502.522	75.31
502.739	89.31
502.956	84.31
503.172	77.31
503.389	67.31
503.606	94.31
503.823	81.31
504.04	72.31
504.256	86.31
504.473	75.31
504.69	81.31
504.907	93.31
505.123	72.31
505.34	72.31
505.557	88.31
505.773	94.31
505.99	92.31
506.207	78.31
506.423	89.31
506.64	98.31
506.856	79.31
507.073	77.31
507.289	67.31
507.506	93.31
507.722	91.31
507.939	105.31
508.155	92.31
508.372	96.31
508.588	75.31
508.805	78.31
509.021	72.31
509.238	93.31
509.454	92.31
509.67	91.31
509.887	94.31
510.103	110.31
510.319	167.31
510.536	531.31
510.752	1551.31
510.968	441.31
511.184	135.31
511.401	113.31
511.617	101.31
511.833	91.31
512.049	107.31
512.265	96.31
512.481	89.31
512.698	75.31
512.914	90.31
513.13	100.31
513.346	85.31
513.562	79.31
513.778	90.31
513.994	70.31
514.21	77.31
514.426	104.31
514.642	115.31
514.858	112.31
515.074	133.31
515.29	297.31
515.506	895.31
515.721	341.31
515.937	122.31
516.153	101.31
516.369	94.31
516.585	91.31
516.801	81.31
517.016	79.31
517.232	83.31
517.448	90.31
517.664	96.31
517.879	76.31
518.095	83.31
518.311	85.31
