Data from Circ_1980_H10_HRD10591_00021.txt Node
Date: Wed Jan 03 12:38:02 EST 2024
User: Yrep
Spectrometer: HR+D1059
Trigger mode: 1
Integration Time (sec): 1.000000E-1
Scans to average: 1
Electric dark correction enabled: true
Nonlinearity correction enabled: false
Boxcar width: 0
XAxis mode: Wavelengths
Number of Pixels in Spectrum: 2048
>>>>>Begin Spectral Data<<<<<
223.165	-4.25
223.4	-4.25
223.635	-4.25
223.869	2.75
224.104	-26.25
224.338	-8.25
224.573	-14.25
224.808	-20.25
225.042	-12.25
225.277	-2.25
225.511	-11.25
225.746	0.75
225.98	1.75
226.215	4.75
226.449	12.75
226.683	20.75
226.918	24.75
227.152	30.75
227.387	20.75
227.621	36.75
227.856	39.75
228.09	33.75
228.324	52.75
228.559	52.75
228.793	59.75
229.027	66.75
229.262	58.75
229.496	52.75
229.73	68.75
229.964	68.75
230.199	74.75
230.433	67.75
230.667	80.75
230.901	83.75
231.136	69.75
231.37	78.75
231.604	75.75
231.838	79.75
232.072	84.75
232.306	71.75
232.541	75.75
232.775	87.75
233.009	91.75
233.243	90.75
233.477	85.75
233.711	73.75
233.945	68.75
234.179	85.75
234.413	71.75
234.647	75.75
234.881	75.75
235.115	71.75
235.349	93.75
235.583	75.75
235.817	84.75
236.051	82.75
236.285	73.75
236.519	88.75
236.753	67.75
236.987	64.75
237.221	79.75
237.455	79.75
237.689	79.75
237.922	69.75
238.156	85.75
238.39	82.75
238.624	72.75
238.858	72.75
239.091	69.75
239.325	86.75
239.559	50.75
239.793	90.75
240.027	93.75
240.26	79.75
240.494	70.75
240.728	70.75
240.961	66.75
241.195	56.75
241.429	72.75
241.662	56.75
241.896	81.75
242.13	82.75
242.363	82.75
242.597	66.75
242.83	63.75
243.064	74.75
243.298	62.75
243.531	70.75
243.765	76.75
243.998	74.75
244.232	67.75
244.465	73.75
244.699	69.75
244.932	63.75
245.166	74.75
245.399	80.75
245.633	83.75
245.866	66.75
246.099	67.75
246.333	80.75
246.566	64.75
246.8	69.75
247.033	68.75
247.266	76.75
247.5	71.75
247.733	88.75
247.966	73.75
248.2	71.75
248.433	86.75
248.666	72.75
248.899	88.75
249.133	71.75
249.366	88.75
249.599	75.75
249.832	91.75
250.066	64.75
250.299	73.75
250.532	66.75
250.765	78.75
250.998	51.75
251.231	84.75
251.465	75.75
251.698	72.75
251.931	79.75
252.164	82.75
252.397	78.75
252.63	74.75
252.863	94.75
253.096	72.75
253.329	79.75
253.562	64.75
253.795	78.75
254.028	82.75
254.261	84.75
254.494	67.75
254.727	72.75
254.96	52.75
255.193	73.75
255.426	80.75
255.659	80.75
255.892	86.75
256.124	87.75
256.357	80.75
256.59	80.75
256.823	80.75
257.056	80.75
257.289	72.75
257.521	70.75
257.754	91.75
257.987	76.75
258.22	79.75
258.452	88.75
258.685	84.75
258.918	74.75
259.151	72.75
259.383	80.75
259.616	76.75
259.849	85.75
260.081	74.75
260.314	84.75
260.547	76.75
260.779	86.75
261.012	74.75
261.244	80.75
261.477	92.75
261.71	83.75
261.942	107.75
262.175	112.75
262.407	78.75
262.64	89.75
262.872	90.75
263.105	82.75
263.337	87.75
263.57	87.75
263.802	66.75
264.035	75.75
264.267	81.75
264.499	89.75
264.732	87.75
264.964	74.75
265.197	74.75
265.429	80.75
265.661	80.75
265.894	86.75
266.126	71.75
266.358	68.75
266.591	71.75
266.823	83.75
267.055	73.75
267.287	70.75
267.52	80.75
267.752	87.75
267.984	81.75
268.216	76.75
268.448	72.75
268.681	83.75
268.913	75.75
269.145	75.75
269.377	83.75
269.609	86.75
269.841	72.75
270.073	75.75
270.306	88.75
270.538	94.75
270.77	81.75
271.002	78.75
271.234	86.75
271.466	76.75
271.698	80.75
271.93	93.75
272.162	83.75
272.394	78.75
272.626	91.75
272.858	91.75
273.09	90.75
273.322	82.75
273.553	88.75
273.785	73.75
274.017	84.75
274.249	84.75
274.481	79.75
274.713	66.75
274.945	86.75
275.176	98.75
275.408	66.75
275.64	71.75
275.872	67.75
276.104	85.75
276.335	71.75
276.567	95.75
276.799	94.75
277.031	80.75
277.262	88.75
277.494	84.75
277.726	83.75
277.957	84.75
278.189	74.75
278.421	78.75
278.652	69.75
278.884	79.75
279.115	93.75
279.347	87.75
279.579	86.75
279.81	88.75
280.042	79.75
280.273	82.75
280.505	78.75
280.736	80.75
280.968	72.75
281.199	76.75
281.431	90.75
281.662	76.75
281.894	78.75
282.125	92.75
282.356	98.75
282.588	116.75
282.819	104.75
283.051	67.75
283.282	79.75
283.513	77.75
283.745	90.75
283.976	79.75
284.207	69.75
284.439	85.75
284.67	80.75
284.901	80.75
285.132	81.75
285.364	72.75
285.595	88.75
285.826	73.75
286.057	79.75
286.288	98.75
286.52	91.75
286.751	75.75
286.982	84.75
287.213	79.75
287.444	84.75
287.675	82.75
287.906	91.75
288.138	86.75
288.369	96.75
288.6	95.75
288.831	98.75
289.062	91.75
289.293	82.75
289.524	75.75
289.755	87.75
289.986	84.75
290.217	69.75
290.448	100.75
290.679	83.75
290.91	83.75
291.141	80.75
291.371	87.75
291.602	75.75
291.833	83.75
292.064	85.75
292.295	71.75
292.526	95.75
292.757	79.75
292.987	64.75
293.218	82.75
293.449	83.75
293.68	92.75
293.91	86.75
294.141	73.75
294.372	66.75
294.603	79.75
294.833	81.75
295.064	87.75
295.295	97.75
295.525	91.75
295.756	78.75
295.987	108.75
296.217	116.75
296.448	114.75
296.679	81.75
296.909	96.75
297.14	88.75
297.37	86.75
297.601	68.75
297.831	92.75
298.062	72.75
298.292	82.75
298.523	88.75
298.753	84.75
298.984	80.75
299.214	84.75
299.445	85.75
299.675	78.75
299.905	94.75
300.136	94.75
300.366	78.75
300.597	92.75
300.827	84.75
301.057	99.75
301.288	89.75
301.518	95.75
301.748	102.75
301.979	86.75
302.209	75.75
302.439	75.75
302.669	81.75
302.9	76.75
303.13	89.75
303.36	94.75
303.59	91.75
303.82	99.75
304.051	92.75
304.281	66.75
304.511	95.75
304.741	94.75
304.971	86.75
305.201	73.75
305.431	95.75
305.661	87.75
305.891	93.75
306.121	95.75
306.352	82.75
306.582	94.75
306.812	92.75
307.042	90.75
307.272	87.75
307.502	99.75
307.731	108.75
307.961	86.75
308.191	74.75
308.421	76.75
308.651	90.75
308.881	78.75
309.111	94.75
309.341	79.75
309.571	90.75
309.8	96.75
310.03	94.75
310.26	73.75
310.49	87.75
310.72	93.75
310.949	95.75
311.179	94.75
311.409	84.75
311.639	102.75
311.868	90.75
312.098	88.75
312.328	87.75
312.557	109.75
312.787	98.75
313.017	86.75
313.246	88.75
313.476	92.75
313.706	102.75
313.935	98.75
314.165	82.75
314.394	90.75
314.624	90.75
314.853	84.75
315.083	98.75
315.312	91.75
315.542	95.75
315.771	88.75
316.001	83.75
316.23	74.75
316.46	86.75
316.689	81.75
316.919	82.75
317.148	92.75
317.377	91.75
317.607	88.75
317.836	82.75
318.065	83.75
318.295	96.75
318.524	83.75
318.753	108.75
318.983	88.75
319.212	90.75
319.441	91.75
319.67	91.75
319.9	75.75
320.129	84.75
320.358	86.75
320.587	84.75
320.816	89.75
321.046	97.75
321.275	95.75
321.504	84.75
321.733	80.75
321.962	100.75
322.191	110.75
322.42	80.75
322.649	96.75
322.878	86.75
323.108	97.75
323.337	100.75
323.566	129.75
323.795	136.75
324.024	167.75
324.253	282.75
324.482	586.75
324.71	1129.75
324.939	1509.75
325.168	584.75
325.397	208.75
325.626	123.75
325.855	121.75
326.084	114.75
326.313	111.75
326.542	130.75
326.77	194.75
326.999	331.75
327.228	684.75
327.457	1215.75
327.686	988.75
327.914	289.75
328.143	154.75
328.372	133.75
328.6	95.75
328.829	112.75
329.058	104.75
329.287	95.75
329.515	96.75
329.744	103.75
329.972	75.75
330.201	103.75
330.43	114.75
330.658	114.75
330.887	113.75
331.115	108.75
331.344	74.75
331.572	78.75
331.801	89.75
332.03	89.75
332.258	75.75
332.486	94.75
332.715	82.75
332.943	95.75
333.172	90.75
333.4	88.75
333.629	98.75
333.857	99.75
334.085	98.75
334.314	96.75
334.542	118.75
334.771	102.75
334.999	83.75
335.227	91.75
335.455	78.75
335.684	88.75
335.912	92.75
336.14	84.75
336.369	99.75
336.597	89.75
336.825	89.75
337.053	86.75
337.281	82.75
337.51	79.75
337.738	80.75
337.966	98.75
338.194	93.75
338.422	95.75
338.65	92.75
338.878	85.75
339.106	73.75
339.334	92.75
339.562	87.75
339.79	86.75
340.018	94.75
340.246	88.75
340.474	84.75
340.702	85.75
340.93	80.75
341.158	89.75
341.386	83.75
341.614	96.75
341.842	80.75
342.07	92.75
342.298	96.75
342.526	84.75
342.754	89.75
342.981	94.75
343.209	80.75
343.437	102.75
343.665	79.75
343.893	92.75
344.12	86.75
344.348	94.75
344.576	83.75
344.804	87.75
345.031	77.75
345.259	94.75
345.487	79.75
345.714	91.75
345.942	91.75
346.17	75.75
346.397	74.75
346.625	66.75
346.853	71.75
347.08	82.75
347.308	96.75
347.535	83.75
347.763	82.75
347.99	96.75
348.218	95.75
348.445	89.75
348.673	94.75
348.9	91.75
349.128	90.75
349.355	82.75
349.583	96.75
349.81	89.75
350.037	82.75
350.265	91.75
350.492	83.75
350.72	75.75
350.947	97.75
351.174	82.75
351.402	94.75
351.629	113.75
351.856	106.75
352.083	102.75
352.311	98.75
352.538	104.75
352.765	100.75
352.992	107.75
353.22	103.75
353.447	86.75
353.674	106.75
353.901	98.75
354.128	85.75
354.355	103.75
354.583	98.75
354.81	91.75
355.037	86.75
355.264	90.75
355.491	101.75
355.718	94.75
355.945	99.75
356.172	98.75
356.399	76.75
356.626	94.75
356.853	86.75
357.08	88.75
357.307	95.75
357.534	80.75
357.761	96.75
357.988	93.75
358.215	99.75
358.441	85.75
358.668	84.75
358.895	81.75
359.122	100.75
359.349	83.75
359.576	82.75
359.802	82.75
360.029	82.75
360.256	87.75
360.483	81.75
360.709	86.75
360.936	97.75
361.163	100.75
361.39	88.75
361.616	82.75
361.843	75.75
362.07	91.75
362.296	96.75
362.523	90.75
362.749	79.75
362.976	78.75
363.203	71.75
363.429	67.75
363.656	63.75
363.882	82.75
364.109	85.75
364.335	88.75
364.562	74.75
364.788	78.75
365.015	86.75
365.241	73.75
365.468	102.75
365.694	89.75
365.92	90.75
366.147	99.75
366.373	78.75
366.599	94.75
366.826	78.75
367.052	80.75
367.278	83.75
367.505	80.75
367.731	98.75
367.957	97.75
368.184	93.75
368.41	81.75
368.636	85.75
368.862	104.75
369.089	91.75
369.315	83.75
369.541	82.75
369.767	86.75
369.993	76.75
370.219	106.75
370.445	92.75
370.672	87.75
370.898	101.75
371.124	98.75
371.35	82.75
371.576	99.75
371.802	95.75
372.028	80.75
372.254	92.75
372.48	63.75
372.706	78.75
372.932	84.75
373.158	75.75
373.384	86.75
373.61	101.75
373.835	91.75
374.061	87.75
374.287	79.75
374.513	79.75
374.739	98.75
374.965	84.75
375.191	88.75
375.416	93.75
375.642	83.75
375.868	80.75
376.094	94.75
376.319	95.75
376.545	86.75
376.771	88.75
376.997	95.75
377.222	90.75
377.448	86.75
377.674	78.75
377.899	90.75
378.125	85.75
378.35	73.75
378.576	93.75
378.802	83.75
379.027	105.75
379.253	99.75
379.478	88.75
379.704	103.75
379.929	93.75
380.155	85.75
380.38	90.75
380.606	104.75
380.831	92.75
381.057	93.75
381.282	87.75
381.507	84.75
381.733	89.75
381.958	94.75
382.184	83.75
382.409	76.75
382.634	96.75
382.86	93.75
383.085	104.75
383.31	94.75
383.535	100.75
383.761	81.75
383.986	102.75
384.211	97.75
384.436	104.75
384.662	98.75
384.887	94.75
385.112	102.75
385.337	88.75
385.562	109.75
385.787	115.75
386.013	113.75
386.238	113.75
386.463	97.75
386.688	114.75
386.913	104.75
387.138	103.75
387.363	109.75
387.588	104.75
387.813	96.75
388.038	100.75
388.263	122.75
388.488	123.75
388.713	111.75
388.938	97.75
389.163	95.75
389.387	100.75
389.612	78.75
389.837	80.75
390.062	82.75
390.287	81.75
390.512	90.75
390.736	75.75
390.961	74.75
391.186	80.75
391.411	102.75
391.636	98.75
391.86	84.75
392.085	95.75
392.31	83.75
392.534	80.75
392.759	91.75
392.984	82.75
393.208	90.75
393.433	84.75
393.658	85.75
393.882	74.75
394.107	85.75
394.331	79.75
394.556	74.75
394.78	82.75
395.005	86.75
395.229	83.75
395.454	88.75
395.678	74.75
395.903	85.75
396.127	85.75
396.352	96.75
396.576	74.75
396.801	80.75
397.025	82.75
397.249	87.75
397.474	84.75
397.698	79.75
397.922	82.75
398.147	80.75
398.371	84.75
398.595	85.75
398.82	84.75
399.044	82.75
399.268	88.75
399.492	101.75
399.717	79.75
399.941	74.75
400.165	66.75
400.389	80.75
400.613	78.75
400.837	80.75
401.062	73.75
401.286	75.75
401.51	75.75
401.734	79.75
401.958	97.75
402.182	110.75
402.406	131.75
402.63	95.75
402.854	84.75
403.078	75.75
403.302	84.75
403.526	98.75
403.75	79.75
403.974	96.75
404.198	85.75
404.422	78.75
404.645	89.75
404.869	94.75
405.093	88.75
405.317	93.75
405.541	102.75
405.765	82.75
405.988	111.75
406.212	132.75
406.436	172.75
406.66	117.75
406.883	86.75
407.107	75.75
407.331	100.75
407.555	88.75
407.778	94.75
408.002	82.75
408.226	77.75
408.449	94.75
408.673	83.75
408.896	81.75
409.12	81.75
409.344	92.75
409.567	99.75
409.791	98.75
410.014	96.75
410.238	90.75
410.461	73.75
410.685	80.75
410.908	91.75
411.132	89.75
411.355	91.75
411.578	95.75
411.802	87.75
412.025	89.75
412.249	81.75
412.472	80.75
412.695	71.75
412.919	89.75
413.142	76.75
413.365	90.75
413.589	83.75
413.812	79.75
414.035	80.75
414.258	91.75
414.482	82.75
414.705	89.75
414.928	102.75
415.151	111.75
415.374	102.75
415.597	79.75
415.821	88.75
416.044	79.75
416.267	73.75
416.49	75.75
416.713	92.75
416.936	78.75
417.159	71.75
417.382	73.75
417.605	87.75
417.828	82.75
418.051	106.75
418.274	83.75
418.497	74.75
418.72	71.75
418.943	83.75
419.166	84.75
419.389	93.75
419.611	81.75
419.834	80.75
420.057	93.75
420.28	74.75
420.503	85.75
420.726	83.75
420.948	87.75
421.171	97.75
421.394	86.75
421.617	75.75
421.839	96.75
422.062	80.75
422.285	88.75
422.507	78.75
422.73	85.75
422.953	86.75
423.175	94.75
423.398	89.75
423.621	75.75
423.843	86.75
424.066	87.75
424.288	79.75
424.511	82.75
424.733	87.75
424.956	79.75
425.178	88.75
425.401	85.75
425.623	80.75
425.846	78.75
426.068	65.75
426.291	80.75
426.513	78.75
426.735	79.75
426.958	85.75
427.18	94.75
427.402	112.75
427.625	133.75
427.847	118.75
428.069	87.75
428.292	82.75
428.514	84.75
428.736	84.75
428.958	72.75
429.181	74.75
429.403	84.75
429.625	72.75
429.847	72.75
430.069	96.75
430.292	70.75
430.514	86.75
430.736	92.75
430.958	84.75
431.18	82.75
431.402	81.75
431.624	71.75
431.846	82.75
432.068	86.75
432.29	80.75
432.512	90.75
432.734	80.75
432.956	86.75
433.178	92.75
433.4	93.75
433.622	86.75
433.844	92.75
434.066	92.75
434.287	95.75
434.509	67.75
434.731	70.75
434.953	92.75
435.175	94.75
435.397	93.75
435.618	98.75
435.84	97.75
436.062	96.75
436.284	109.75
436.505	93.75
436.727	95.75
436.949	85.75
437.17	80.75
437.392	72.75
437.614	78.75
437.835	85.75
438.057	104.75
438.278	103.75
438.5	85.75
438.721	90.75
438.943	81.75
439.165	92.75
439.386	93.75
439.608	80.75
439.829	95.75
440.05	97.75
440.272	122.75
440.493	87.75
440.715	73.75
440.936	90.75
441.158	92.75
441.379	78.75
441.6	80.75
441.822	66.75
442.043	81.75
442.264	90.75
442.486	89.75
442.707	84.75
442.928	100.75
443.149	105.75
443.371	112.75
443.592	93.75
443.813	96.75
444.034	84.75
444.255	88.75
444.476	80.75
444.698	98.75
444.919	97.75
445.14	115.75
445.361	99.75
445.582	89.75
445.803	100.75
446.024	108.75
446.245	115.75
446.466	96.75
446.687	85.75
446.908	75.75
447.129	92.75
447.35	72.75
447.571	82.75
447.792	77.75
448.013	90.75
448.234	96.75
448.455	100.75
448.675	99.75
448.896	105.75
449.117	103.75
449.338	99.75
449.559	116.75
449.779	108.75
450	100.75
450.221	82.75
450.442	86.75
450.662	90.75
450.883	98.75
451.104	86.75
451.324	89.75
451.545	94.75
451.766	96.75
451.986	81.75
452.207	82.75
452.428	85.75
452.648	88.75
452.869	92.75
453.089	101.75
453.31	96.75
453.53	83.75
453.751	82.75
453.971	92.75
454.192	94.75
454.412	77.75
454.633	78.75
454.853	91.75
455.073	68.75
455.294	72.75
455.514	90.75
455.734	97.75
455.955	88.75
456.175	75.75
456.395	74.75
456.616	93.75
456.836	81.75
457.056	70.75
457.276	84.75
457.497	81.75
457.717	79.75
457.937	92.75
458.157	84.75
458.377	88.75
458.598	97.75
458.818	130.75
459.038	117.75
459.258	103.75
459.478	79.75
459.698	87.75
459.918	81.75
460.138	89.75
460.358	85.75
460.578	69.75
460.798	72.75
461.018	92.75
461.238	80.75
461.458	89.75
461.678	89.75
461.898	79.75
462.118	86.75
462.338	75.75
462.558	80.75
462.777	73.75
462.997	88.75
463.217	95.75
463.437	85.75
463.657	92.75
463.876	96.75
464.096	89.75
464.316	88.75
464.536	92.75
464.755	76.75
464.975	90.75
465.195	112.75
465.414	110.75
465.634	84.75
465.854	73.75
466.073	88.75
466.293	92.75
466.512	81.75
466.732	92.75
466.951	92.75
467.171	88.75
467.391	92.75
467.61	91.75
467.829	79.75
468.049	95.75
468.268	98.75
468.488	82.75
468.707	93.75
468.927	90.75
469.146	86.75
469.365	67.75
469.585	78.75
469.804	78.75
470.023	83.75
470.243	90.75
470.462	90.75
470.681	100.75
470.901	84.75
471.12	70.75
471.339	82.75
471.558	83.75
471.777	93.75
471.997	82.75
472.216	107.75
472.435	111.75
472.654	101.75
472.873	87.75
473.092	91.75
473.311	85.75
473.53	80.75
473.749	76.75
473.968	93.75
474.187	94.75
474.406	91.75
474.625	79.75
474.844	91.75
475.063	73.75
475.282	81.75
475.501	80.75
475.72	94.75
475.939	98.75
476.158	90.75
476.377	73.75
476.596	75.75
476.814	83.75
477.033	71.75
477.252	87.75
477.471	82.75
477.69	92.75
477.908	90.75
478.127	79.75
478.346	84.75
478.564	94.75
478.783	93.75
479.002	96.75
479.22	85.75
479.439	82.75
479.658	96.75
479.876	72.75
480.095	91.75
480.313	84.75
480.532	89.75
480.751	96.75
480.969	106.75
481.188	173.75
481.406	138.75
481.624	94.75
481.843	78.75
482.061	91.75
482.28	78.75
482.498	75.75
482.717	86.75
482.935	76.75
483.153	79.75
483.372	75.75
483.59	102.75
483.808	83.75
484.027	92.75
484.245	78.75
484.463	83.75
484.681	106.75
484.9	83.75
485.118	96.75
485.336	88.75
485.554	64.75
485.772	90.75
485.99	103.75
486.209	91.75
486.427	100.75
486.645	98.75
486.863	106.75
487.081	85.75
487.299	96.75
487.517	81.75
487.735	83.75
487.953	87.75
488.171	94.75
488.389	96.75
488.607	86.75
488.825	80.75
489.043	94.75
489.261	95.75
489.479	96.75
489.696	76.75
489.914	91.75
490.132	77.75
490.35	83.75
490.568	81.75
490.786	83.75
491.003	80.75
491.221	90.75
491.439	82.75
491.657	84.75
491.874	98.75
492.092	87.75
492.31	85.75
492.527	91.75
492.745	71.75
492.963	86.75
493.18	95.75
493.398	96.75
493.615	96.75
493.833	92.75
494.05	86.75
494.268	91.75
494.485	98.75
494.703	73.75
494.92	70.75
495.138	94.75
495.355	90.75
495.573	81.75
495.79	102.75
496.008	86.75
496.225	80.75
496.442	90.75
496.66	79.75
496.877	84.75
497.094	87.75
497.312	81.75
497.529	90.75
497.746	81.75
497.963	81.75
498.181	74.75
498.398	92.75
498.615	98.75
498.832	100.75
499.049	83.75
499.267	83.75
499.484	86.75
499.701	77.75
499.918	78.75
500.135	76.75
500.352	90.75
500.569	82.75
500.786	91.75
501.003	83.75
501.22	94.75
501.437	75.75
501.654	80.75
501.871	92.75
502.088	103.75
502.305	85.75
502.522	85.75
502.739	81.75
502.956	68.75
503.172	92.75
503.389	104.75
503.606	104.75
503.823	86.75
504.04	92.75
504.256	83.75
504.473	98.75
504.69	86.75
504.907	90.75
505.123	96.75
505.34	88.75
505.557	86.75
505.773	74.75
505.99	84.75
506.207	89.75
506.423	92.75
506.64	76.75
506.856	75.75
507.073	83.75
507.289	92.75
507.506	71.75
507.722	96.75
507.939	104.75
508.155	94.75
508.372	78.75
508.588	88.75
508.805	100.75
509.021	95.75
509.238	94.75
509.454	96.75
509.67	93.75
509.887	85.75
510.103	106.75
510.319	161.75
510.536	543.75
510.752	1654.75
510.968	486.75
511.184	129.75
511.401	98.75
511.617	83.75
511.833	87.75
512.049	95.75
512.265	89.75
512.481	75.75
512.698	96.75
512.914	98.75
513.13	88.75
513.346	87.75
513.562	87.75
513.778	94.75
513.994	91.75
514.21	82.75
514.426	97.75
514.642	99.75
514.858	100.75
515.074	132.75
515.29	329.75
515.506	997.75
515.721	365.75
515.937	126.75
516.153	100.75
516.369	90.75
516.585	79.75
516.801	86.75
517.016	93.75
517.232	82.75
517.448	89.75
517.664	91.75
517.879	92.75
