Data from Circ_1980_H10_HRD10591_00004.txt Node
Date: Wed Jan 03 12:37:59 EST 2024
User: Yrep
Spectrometer: HR+D1059
Trigger mode: 1
Integration Time (sec): 1.000000E-1
Scans to average: 1
Electric dark correction enabled: true
Nonlinearity correction enabled: false
Boxcar width: 0
XAxis mode: Wavelengths
Number of Pixels in Spectrum: 2048
>>>>>Begin Spectral Data<<<<<
223.165	-18.88
223.4	-18.88
223.635	-18.88
223.869	-10.88
224.104	-20.88
224.338	-10.88
224.573	-22.88
224.808	-12.88
225.042	-16.88
225.277	3.12
225.511	-2.88
225.746	10.12
225.98	5.12
226.215	17.12
226.449	7.12
226.683	6.12
226.918	26.12
227.152	42.12
227.387	47.12
227.621	48.12
227.856	35.12
228.09	47.12
228.324	52.12
228.559	56.12
228.793	61.12
229.027	69.12
229.262	61.12
229.496	61.12
229.73	63.12
229.964	84.12
230.199	79.12
230.433	78.12
230.667	73.12
230.901	78.12
231.136	83.12
231.37	77.12
231.604	86.12
231.838	79.12
232.072	59.12
232.306	84.12
232.541	88.12
232.775	86.12
233.009	69.12
233.243	84.12
233.477	70.12
233.711	78.12
233.945	78.12
234.179	80.12
234.413	90.12
234.647	94.12
234.881	83.12
235.115	79.12
235.349	69.12
235.583	84.12
235.817	70.12
236.051	72.12
236.285	69.12
236.519	73.12
236.753	88.12
236.987	74.12
237.221	81.12
237.455	78.12
237.689	78.12
237.922	90.12
238.156	84.12
238.39	71.12
238.624	90.12
238.858	69.12
239.091	88.12
239.325	90.12
239.559	64.12
239.793	88.12
240.027	78.12
240.26	77.12
240.494	69.12
240.728	70.12
240.961	93.12
241.195	79.12
241.429	82.12
241.662	79.12
241.896	79.12
242.13	88.12
242.363	79.12
242.597	84.12
242.83	87.12
243.064	83.12
243.298	77.12
243.531	59.12
243.765	78.12
243.998	83.12
244.232	77.12
244.465	86.12
244.699	93.12
244.932	72.12
245.166	82.12
245.399	70.12
245.633	73.12
245.866	77.12
246.099	78.12
246.333	79.12
246.566	94.12
246.8	76.12
247.033	72.12
247.266	68.12
247.5	70.12
247.733	66.12
247.966	72.12
248.2	66.12
248.433	86.12
248.666	90.12
248.899	88.12
249.133	80.12
249.366	88.12
249.599	91.12
249.832	84.12
250.066	95.12
250.299	94.12
250.532	80.12
250.765	78.12
250.998	88.12
251.231	92.12
251.465	85.12
251.698	86.12
251.931	80.12
252.164	58.12
252.397	76.12
252.63	87.12
252.863	79.12
253.096	88.12
253.329	79.12
253.562	86.12
253.795	84.12
254.028	75.12
254.261	88.12
254.494	82.12
254.727	88.12
254.96	74.12
255.193	95.12
255.426	91.12
255.659	79.12
255.892	96.12
256.124	66.12
256.357	84.12
256.59	98.12
256.823	89.12
257.056	84.12
257.289	74.12
257.521	79.12
257.754	75.12
257.987	95.12
258.22	76.12
258.452	88.12
258.685	89.12
258.918	91.12
259.151	85.12
259.383	83.12
259.616	87.12
259.849	75.12
260.081	85.12
260.314	83.12
260.547	81.12
260.779	91.12
261.012	89.12
261.244	89.12
261.477	91.12
261.71	91.12
261.942	92.12
262.175	98.12
262.407	97.12
262.64	87.12
262.872	78.12
263.105	92.12
263.337	76.12
263.57	80.12
263.802	76.12
264.035	98.12
264.267	76.12
264.499	87.12
264.732	75.12
264.964	76.12
265.197	90.12
265.429	87.12
265.661	86.12
265.894	75.12
266.126	86.12
266.358	78.12
266.591	77.12
266.823	74.12
267.055	94.12
267.287	75.12
267.52	79.12
267.752	82.12
267.984	75.12
268.216	98.12
268.448	86.12
268.681	98.12
268.913	69.12
269.145	80.12
269.377	75.12
269.609	78.12
269.841	82.12
270.073	90.12
270.306	77.12
270.538	81.12
270.77	75.12
271.002	75.12
271.234	104.12
271.466	106.12
271.698	76.12
271.93	92.12
272.162	100.12
272.394	94.12
272.626	74.12
272.858	91.12
273.09	84.12
273.322	97.12
273.553	80.12
273.785	81.12
274.017	80.12
274.249	76.12
274.481	71.12
274.713	78.12
274.945	91.12
275.176	80.12
275.408	80.12
275.64	82.12
275.872	90.12
276.104	89.12
276.335	91.12
276.567	99.12
276.799	87.12
277.031	95.12
277.262	81.12
277.494	99.12
277.726	99.12
277.957	90.12
278.189	75.12
278.421	98.12
278.652	96.12
278.884	93.12
279.115	84.12
279.347	89.12
279.579	74.12
279.81	96.12
280.042	97.12
280.273	91.12
280.505	78.12
280.736	96.12
280.968	79.12
281.199	98.12
281.431	88.12
281.662	97.12
281.894	104.12
282.125	98.12
282.356	118.12
282.588	126.12
282.819	96.12
283.051	82.12
283.282	88.12
283.513	75.12
283.745	104.12
283.976	90.12
284.207	82.12
284.439	84.12
284.67	90.12
284.901	75.12
285.132	77.12
285.364	90.12
285.595	98.12
285.826	93.12
286.057	85.12
286.288	90.12
286.52	94.12
286.751	94.12
286.982	75.12
287.213	85.12
287.444	86.12
287.675	91.12
287.906	86.12
288.138	94.12
288.369	86.12
288.6	91.12
288.831	87.12
289.062	95.12
289.293	85.12
289.524	86.12
289.755	94.12
289.986	85.12
290.217	85.12
290.448	79.12
290.679	84.12
290.91	87.12
291.141	88.12
291.371	89.12
291.602	99.12
291.833	87.12
292.064	97.12
292.295	92.12
292.526	95.12
292.757	79.12
292.987	82.12
293.218	94.12
293.449	87.12
293.68	80.12
293.91	108.12
294.141	90.12
294.372	94.12
294.603	83.12
294.833	88.12
295.064	86.12
295.295	83.12
295.525	94.12
295.756	101.12
295.987	107.12
296.217	112.12
296.448	127.12
296.679	88.12
296.909	88.12
297.14	95.12
297.37	93.12
297.601	79.12
297.831	84.12
298.062	96.12
298.292	95.12
298.523	95.12
298.753	88.12
298.984	85.12
299.214	82.12
299.445	90.12
299.675	104.12
299.905	88.12
300.136	85.12
300.366	107.12
300.597	99.12
300.827	93.12
301.057	87.12
301.288	94.12
301.518	82.12
301.748	87.12
301.979	104.12
302.209	96.12
302.439	100.12
302.669	101.12
302.9	96.12
303.13	94.12
303.36	103.12
303.59	93.12
303.82	91.12
304.051	90.12
304.281	101.12
304.511	112.12
304.741	85.12
304.971	79.12
305.201	90.12
305.431	85.12
305.661	82.12
305.891	88.12
306.121	85.12
306.352	99.12
306.582	82.12
306.812	96.12
307.042	88.12
307.272	91.12
307.502	94.12
307.731	90.12
307.961	85.12
308.191	89.12
308.421	100.12
308.651	89.12
308.881	84.12
309.111	96.12
309.341	102.12
309.571	91.12
309.8	101.12
310.03	92.12
310.26	82.12
310.49	82.12
310.72	105.12
310.949	94.12
311.179	95.12
311.409	92.12
311.639	90.12
311.868	95.12
312.098	93.12
312.328	107.12
312.557	111.12
312.787	98.12
313.017	90.12
313.246	88.12
313.476	98.12
313.706	80.12
313.935	87.12
314.165	85.12
314.394	96.12
314.624	102.12
314.853	92.12
315.083	89.12
315.312	103.12
315.542	91.12
315.771	92.12
316.001	89.12
316.23	88.12
316.46	79.12
316.689	95.12
316.919	90.12
317.148	91.12
317.377	103.12
317.607	86.12
317.836	102.12
318.065	107.12
318.295	98.12
318.524	104.12
318.753	75.12
318.983	99.12
319.212	86.12
319.441	94.12
319.67	93.12
319.9	94.12
320.129	87.12
320.358	88.12
320.587	86.12
320.816	95.12
321.046	93.12
321.275	91.12
321.504	86.12
321.733	94.12
321.962	102.12
322.191	92.12
322.42	116.12
322.649	111.12
322.878	95.12
323.108	101.12
323.337	100.12
323.566	106.12
323.795	129.12
324.024	168.12
324.253	298.12
324.482	624.12
324.71	1237.12
324.939	1618.12
325.168	619.12
325.397	198.12
325.626	122.12
325.855	120.12
326.084	107.12
326.313	117.12
326.542	140.12
326.77	183.12
326.999	368.12
327.228	699.12
327.457	1255.12
327.686	1021.12
327.914	297.12
328.143	179.12
328.372	119.12
328.6	114.12
328.829	111.12
329.058	92.12
329.287	111.12
329.515	105.12
329.744	102.12
329.972	106.12
330.201	124.12
330.43	111.12
330.658	117.12
330.887	121.12
331.115	99.12
331.344	100.12
331.572	103.12
331.801	97.12
332.03	92.12
332.258	101.12
332.486	89.12
332.715	75.12
332.943	85.12
333.172	98.12
333.4	102.12
333.629	93.12
333.857	107.12
334.085	118.12
334.314	112.12
334.542	127.12
334.771	129.12
334.999	99.12
335.227	92.12
335.455	83.12
335.684	90.12
335.912	99.12
336.14	95.12
336.369	99.12
336.597	105.12
336.825	98.12
337.053	76.12
337.281	93.12
337.51	90.12
337.738	89.12
337.966	93.12
338.194	96.12
338.422	97.12
338.65	100.12
338.878	107.12
339.106	87.12
339.334	91.12
339.562	99.12
339.79	81.12
340.018	90.12
340.246	90.12
340.474	95.12
340.702	85.12
340.93	81.12
341.158	101.12
341.386	91.12
341.614	79.12
341.842	86.12
342.07	94.12
342.298	86.12
342.526	97.12
342.754	83.12
342.981	95.12
343.209	84.12
343.437	86.12
343.665	83.12
343.893	91.12
344.12	94.12
344.348	96.12
344.576	102.12
344.804	86.12
345.031	106.12
345.259	93.12
345.487	89.12
345.714	98.12
345.942	87.12
346.17	84.12
346.397	91.12
346.625	90.12
346.853	86.12
347.08	82.12
347.308	86.12
347.535	76.12
347.763	92.12
347.99	91.12
348.218	102.12
348.445	107.12
348.673	102.12
348.9	94.12
349.128	92.12
349.355	89.12
349.583	89.12
349.81	104.12
350.037	98.12
350.265	92.12
350.492	80.12
350.72	100.12
350.947	88.12
351.174	95.12
351.402	102.12
351.629	118.12
351.856	109.12
352.083	101.12
352.311	110.12
352.538	88.12
352.765	103.12
352.992	113.12
353.22	108.12
353.447	103.12
353.674	93.12
353.901	86.12
354.128	104.12
354.355	107.12
354.583	110.12
354.81	101.12
355.037	89.12
355.264	97.12
355.491	100.12
355.718	93.12
355.945	102.12
356.172	98.12
356.399	83.12
356.626	96.12
356.853	100.12
357.08	91.12
357.307	106.12
357.534	97.12
357.761	97.12
357.988	103.12
358.215	105.12
358.441	99.12
358.668	101.12
358.895	106.12
359.122	104.12
359.349	90.12
359.576	84.12
359.802	100.12
360.029	92.12
360.256	98.12
360.483	111.12
360.709	79.12
360.936	96.12
361.163	99.12
361.39	103.12
361.616	83.12
361.843	92.12
362.07	94.12
362.296	97.12
362.523	88.12
362.749	82.12
362.976	92.12
363.203	79.12
363.429	78.12
363.656	105.12
363.882	88.12
364.109	97.12
364.335	93.12
364.562	93.12
364.788	79.12
365.015	114.12
365.241	86.12
365.468	103.12
365.694	109.12
365.92	99.12
366.147	90.12
366.373	98.12
366.599	109.12
366.826	95.12
367.052	101.12
367.278	78.12
367.505	102.12
367.731	98.12
367.957	102.12
368.184	101.12
368.41	100.12
368.636	105.12
368.862	99.12
369.089	103.12
369.315	80.12
369.541	94.12
369.767	88.12
369.993	91.12
370.219	80.12
370.445	77.12
370.672	78.12
370.898	86.12
371.124	101.12
371.35	88.12
371.576	84.12
371.802	83.12
372.028	80.12
372.254	88.12
372.48	89.12
372.706	91.12
372.932	87.12
373.158	92.12
373.384	97.12
373.61	80.12
373.835	96.12
374.061	93.12
374.287	89.12
374.513	100.12
374.739	90.12
374.965	82.12
375.191	102.12
375.416	92.12
375.642	91.12
375.868	90.12
376.094	92.12
376.319	80.12
376.545	86.12
376.771	75.12
376.997	90.12
377.222	87.12
377.448	96.12
377.674	91.12
377.899	75.12
378.125	111.12
378.35	86.12
378.576	97.12
378.802	98.12
379.027	110.12
379.253	103.12
379.478	93.12
379.704	89.12
379.929	94.12
380.155	103.12
380.38	90.12
380.606	86.12
380.831	107.12
381.057	100.12
381.282	106.12
381.507	106.12
381.733	93.12
381.958	105.12
382.184	105.12
382.409	109.12
382.634	118.12
382.86	117.12
383.085	107.12
383.31	108.12
383.535	116.12
383.761	88.12
383.986	94.12
384.211	110.12
384.436	105.12
384.662	115.12
384.887	132.12
385.112	124.12
385.337	138.12
385.562	126.12
385.787	134.12
386.013	135.12
386.238	115.12
386.463	133.12
386.688	121.12
386.913	131.12
387.138	117.12
387.363	123.12
387.588	108.12
387.813	108.12
388.038	105.12
388.263	139.12
388.488	137.12
388.713	99.12
388.938	91.12
389.163	89.12
389.387	87.12
389.612	97.12
389.837	93.12
390.062	100.12
390.287	96.12
390.512	109.12
390.736	84.12
390.961	109.12
391.186	98.12
391.411	102.12
391.636	83.12
391.86	84.12
392.085	94.12
392.31	82.12
392.534	86.12
392.759	93.12
392.984	82.12
393.208	98.12
393.433	86.12
393.658	103.12
393.882	88.12
394.107	97.12
394.331	81.12
394.556	79.12
394.78	84.12
395.005	85.12
395.229	92.12
395.454	98.12
395.678	84.12
395.903	78.12
396.127	91.12
396.352	88.12
396.576	78.12
396.801	78.12
397.025	71.12
397.249	96.12
397.474	87.12
397.698	94.12
397.922	78.12
398.147	88.12
398.371	75.12
398.595	95.12
398.82	95.12
399.044	88.12
399.268	74.12
399.492	70.12
399.717	76.12
399.941	86.12
400.165	86.12
400.389	84.12
400.613	90.12
400.837	90.12
401.062	95.12
401.286	94.12
401.51	82.12
401.734	102.12
401.958	94.12
402.182	108.12
402.406	133.12
402.63	102.12
402.854	91.12
403.078	90.12
403.302	78.12
403.526	86.12
403.75	92.12
403.974	99.12
404.198	87.12
404.422	74.12
404.645	86.12
404.869	96.12
405.093	93.12
405.317	93.12
405.541	108.12
405.765	114.12
405.988	100.12
406.212	151.12
406.436	182.12
406.66	126.12
406.883	87.12
407.107	85.12
407.331	100.12
407.555	102.12
407.778	101.12
408.002	100.12
408.226	86.12
408.449	83.12
408.673	89.12
408.896	101.12
409.12	88.12
409.344	100.12
409.567	100.12
409.791	88.12
410.014	99.12
410.238	98.12
410.461	91.12
410.685	95.12
410.908	107.12
411.132	103.12
411.355	92.12
411.578	95.12
411.802	92.12
412.025	86.12
412.249	107.12
412.472	89.12
412.695	99.12
412.919	94.12
413.142	83.12
413.365	94.12
413.589	88.12
413.812	92.12
414.035	94.12
414.258	103.12
414.482	87.12
414.705	95.12
414.928	89.12
415.151	92.12
415.374	96.12
415.597	92.12
415.821	90.12
416.044	90.12
416.267	94.12
416.49	98.12
416.713	91.12
416.936	93.12
417.159	84.12
417.382	90.12
417.605	74.12
417.828	106.12
418.051	93.12
418.274	92.12
418.497	90.12
418.72	95.12
418.943	86.12
419.166	74.12
419.389	104.12
419.611	84.12
419.834	105.12
420.057	95.12
420.28	95.12
420.503	98.12
420.726	88.12
420.948	86.12
421.171	88.12
421.394	89.12
421.617	88.12
421.839	87.12
422.062	89.12
422.285	88.12
422.507	100.12
422.73	95.12
422.953	95.12
423.175	73.12
423.398	85.12
423.621	85.12
423.843	76.12
424.066	90.12
424.288	74.12
424.511	87.12
424.733	85.12
424.956	83.12
425.178	78.12
425.401	100.12
425.623	88.12
425.846	97.12
426.068	88.12
426.291	91.12
426.513	94.12
426.735	96.12
426.958	85.12
427.18	88.12
427.402	107.12
427.625	139.12
427.847	117.12
428.069	104.12
428.292	90.12
428.514	94.12
428.736	88.12
428.958	73.12
429.181	74.12
429.403	72.12
429.625	83.12
429.847	86.12
430.069	100.12
430.292	85.12
430.514	96.12
430.736	76.12
430.958	84.12
431.18	94.12
431.402	85.12
431.624	77.12
431.846	94.12
432.068	75.12
432.29	84.12
432.512	77.12
432.734	96.12
432.956	94.12
433.178	94.12
433.4	104.12
433.622	105.12
433.844	106.12
434.066	98.12
434.287	83.12
434.509	87.12
434.731	67.12
434.953	90.12
435.175	95.12
435.397	94.12
435.618	97.12
435.84	94.12
436.062	114.12
436.284	103.12
436.505	98.12
436.727	82.12
436.949	88.12
437.17	93.12
437.392	96.12
437.614	100.12
437.835	95.12
438.057	118.12
438.278	105.12
438.5	90.12
438.721	103.12
438.943	86.12
439.165	89.12
439.386	84.12
439.608	82.12
439.829	95.12
440.05	115.12
440.272	128.12
440.493	98.12
440.715	77.12
440.936	92.12
441.158	82.12
441.379	85.12
441.6	89.12
441.822	93.12
442.043	85.12
442.264	99.12
442.486	102.12
442.707	84.12
442.928	91.12
443.149	96.12
443.371	101.12
443.592	98.12
443.813	100.12
444.034	96.12
444.255	90.12
444.476	95.12
444.698	79.12
444.919	94.12
445.14	132.12
445.361	131.12
445.582	115.12
445.803	123.12
446.024	117.12
446.245	102.12
446.466	79.12
446.687	81.12
446.908	86.12
447.129	93.12
447.35	92.12
447.571	87.12
447.792	74.12
448.013	90.12
448.234	100.12
448.455	81.12
448.675	102.12
448.896	107.12
449.117	102.12
449.338	79.12
449.559	123.12
449.779	112.12
450	92.12
450.221	85.12
450.442	84.12
450.662	89.12
450.883	103.12
451.104	105.12
451.324	85.12
451.545	94.12
451.766	92.12
451.986	92.12
452.207	115.12
452.428	90.12
452.648	92.12
452.869	100.12
453.089	105.12
453.31	92.12
453.53	84.12
453.751	101.12
453.971	99.12
454.192	92.12
454.412	90.12
454.633	102.12
454.853	97.12
455.073	96.12
455.294	89.12
455.514	88.12
455.734	98.12
455.955	82.12
456.175	75.12
456.395	82.12
456.616	92.12
456.836	79.12
457.056	106.12
457.276	84.12
457.497	87.12
457.717	84.12
457.937	85.12
458.157	86.12
458.377	77.12
458.598	87.12
458.818	129.12
459.038	134.12
459.258	87.12
459.478	85.12
459.698	93.12
459.918	84.12
460.138	89.12
460.358	86.12
460.578	107.12
460.798	84.12
461.018	90.12
461.238	93.12
461.458	94.12
461.678	79.12
461.898	87.12
462.118	66.12
462.338	82.12
462.558	81.12
462.777	90.12
462.997	92.12
463.217	78.12
463.437	99.12
463.657	79.12
463.876	76.12
464.096	105.12
464.316	94.12
464.536	106.12
464.755	103.12
464.975	88.12
465.195	132.12
465.414	116.12
465.634	90.12
465.854	88.12
466.073	90.12
466.293	96.12
466.512	74.12
466.732	97.12
466.951	88.12
467.171	96.12
467.391	105.12
467.61	100.12
467.829	90.12
468.049	85.12
468.268	105.12
468.488	80.12
468.707	83.12
468.927	86.12
469.146	96.12
469.365	83.12
469.585	74.12
469.804	97.12
470.023	80.12
470.243	76.12
470.462	87.12
470.681	114.12
470.901	101.12
471.12	96.12
471.339	93.12
471.558	89.12
471.777	80.12
471.997	88.12
472.216	109.12
472.435	125.12
472.654	94.12
472.873	92.12
473.092	88.12
473.311	82.12
473.53	97.12
473.749	94.12
473.968	96.12
474.187	92.12
474.406	110.12
474.625	84.12
474.844	91.12
475.063	92.12
475.282	95.12
475.501	82.12
475.72	90.12
475.939	82.12
476.158	93.12
476.377	84.12
476.596	86.12
476.814	99.12
477.033	98.12
477.252	111.12
477.471	92.12
477.69	89.12
477.908	98.12
478.127	85.12
478.346	83.12
478.564	84.12
478.783	87.12
479.002	99.12
479.22	94.12
479.439	89.12
479.658	97.12
479.876	96.12
480.095	103.12
480.313	98.12
480.532	100.12
480.751	83.12
480.969	112.12
481.188	148.12
481.406	130.12
481.624	101.12
481.843	88.12
482.061	84.12
482.28	93.12
482.498	101.12
482.717	99.12
482.935	97.12
483.153	96.12
483.372	97.12
483.59	94.12
483.808	83.12
484.027	82.12
484.245	102.12
484.463	105.12
484.681	82.12
484.9	86.12
485.118	107.12
485.336	108.12
485.554	107.12
485.772	98.12
485.99	94.12
486.209	120.12
486.427	109.12
486.645	116.12
486.863	91.12
487.081	104.12
487.299	82.12
487.517	88.12
487.735	84.12
487.953	103.12
488.171	94.12
488.389	107.12
488.607	101.12
488.825	89.12
489.043	94.12
489.261	101.12
489.479	88.12
489.696	78.12
489.914	86.12
490.132	93.12
490.35	93.12
490.568	83.12
490.786	87.12
491.003	89.12
491.221	102.12
491.439	86.12
491.657	102.12
491.874	94.12
492.092	99.12
492.31	108.12
492.527	83.12
492.745	88.12
492.963	90.12
493.18	79.12
493.398	95.12
493.615	94.12
493.833	76.12
494.05	78.12
494.268	102.12
494.485	98.12
494.703	100.12
494.92	89.12
495.138	79.12
495.355	97.12
495.573	91.12
495.79	92.12
496.008	106.12
496.225	97.12
496.442	88.12
496.66	88.12
496.877	93.12
497.094	83.12
497.312	87.12
497.529	90.12
497.746	107.12
497.963	78.12
498.181	95.12
498.398	100.12
498.615	96.12
498.832	100.12
499.049	90.12
499.267	80.12
499.484	96.12
499.701	95.12
499.918	98.12
500.135	95.12
500.352	102.12
500.569	86.12
500.786	98.12
501.003	89.12
501.22	100.12
501.437	79.12
501.654	99.12
501.871	98.12
502.088	99.12
502.305	104.12
502.522	95.12
502.739	87.12
502.956	100.12
503.172	79.12
503.389	101.12
503.606	104.12
503.823	84.12
504.04	102.12
504.256	96.12
504.473	98.12
504.69	98.12
504.907	87.12
505.123	103.12
505.34	91.12
505.557	109.12
505.773	83.12
505.99	82.12
506.207	95.12
506.423	110.12
506.64	87.12
506.856	85.12
507.073	96.12
507.289	93.12
507.506	95.12
507.722	107.12
507.939	92.12
508.155	98.12
508.372	78.12
508.588	103.12
508.805	80.12
509.021	103.12
509.238	99.12
509.454	101.12
509.67	103.12
509.887	101.12
510.103	119.12
510.319	162.12
510.536	546.12
510.752	1672.12
510.968	474.12
511.184	140.12
511.401	99.12
511.617	104.12
511.833	93.12
512.049	91.12
512.265	90.12
512.481	95.12
512.698	82.12
512.914	88.12
513.13	94.12
513.346	104.12
513.562	89.12
513.778	105.12
513.994	93.12
514.21	100.12
514.426	107.12
514.642	128.12
514.858	116.12
515.074	142.12
515.29	316.12
515.506	950.12
515.721	368.12
