Data from Circ_1980_H10_HRD10591_00092.txt Node
Date: Wed Jan 03 12:38:16 EST 2024
User: Yrep
Spectrometer: HR+D1059
Trigger mode: 1
Integration Time (sec): 1.000000E-1
Scans to average: 1
Electric dark correction enabled: true
Nonlinearity correction enabled: false
Boxcar width: 0
XAxis mode: Wavelengths
Number of Pixels in Spectrum: 2048
>>>>>Begin Spectral Data<<<<<
223.165	-5.75
223.4	-5.75
223.635	-5.75
223.869	-17.75
224.104	-11.75
224.338	-15.75
224.573	-17.75
224.808	-21.75
225.042	3.25
225.277	-6.75
225.511	-5.75
225.746	3.25
225.98	9.25
226.215	16.25
226.449	8.25
226.683	11.25
226.918	21.25
227.152	30.25
227.387	34.25
227.621	35.25
227.856	61.25
228.09	50.25
228.324	49.25
228.559	46.25
228.793	52.25
229.027	63.25
229.262	61.25
229.496	70.25
229.73	74.25
229.964	71.25
230.199	69.25
230.433	84.25
230.667	72.25
230.901	82.25
231.136	86.25
231.37	90.25
231.604	85.25
231.838	79.25
232.072	75.25
232.306	65.25
232.541	85.25
232.775	78.25
233.009	72.25
233.243	93.25
233.477	94.25
233.711	96.25
233.945	80.25
234.179	67.25
234.413	94.25
234.647	72.25
234.881	78.25
235.115	67.25
235.349	67.25
235.583	84.25
235.817	92.25
236.051	70.25
236.285	84.25
236.519	85.25
236.753	79.25
236.987	75.25
237.221	79.25
237.455	88.25
237.689	92.25
237.922	89.25
238.156	87.25
238.39	69.25
238.624	64.25
238.858	71.25
239.091	68.25
239.325	87.25
239.559	94.25
239.793	61.25
240.027	88.25
240.26	68.25
240.494	63.25
240.728	87.25
240.961	64.25
241.195	63.25
241.429	74.25
241.662	67.25
241.896	74.25
242.13	65.25
242.363	86.25
242.597	88.25
242.83	96.25
243.064	72.25
243.298	82.25
243.531	75.25
243.765	74.25
243.998	89.25
244.232	79.25
244.465	89.25
244.699	76.25
244.932	92.25
245.166	85.25
245.399	65.25
245.633	70.25
245.866	74.25
246.099	74.25
246.333	71.25
246.566	69.25
246.8	89.25
247.033	82.25
247.266	77.25
247.5	73.25
247.733	63.25
247.966	65.25
248.2	90.25
248.433	86.25
248.666	79.25
248.899	90.25
249.133	82.25
249.366	101.25
249.599	84.25
249.832	71.25
250.066	86.25
250.299	71.25
250.532	78.25
250.765	87.25
250.998	79.25
251.231	78.25
251.465	77.25
251.698	67.25
251.931	78.25
252.164	94.25
252.397	80.25
252.63	77.25
252.863	85.25
253.096	72.25
253.329	88.25
253.562	75.25
253.795	87.25
254.028	78.25
254.261	69.25
254.494	82.25
254.727	82.25
254.96	87.25
255.193	84.25
255.426	74.25
255.659	78.25
255.892	78.25
256.124	78.25
256.357	76.25
256.59	87.25
256.823	111.25
257.056	88.25
257.289	76.25
257.521	83.25
257.754	74.25
257.987	70.25
258.22	75.25
258.452	72.25
258.685	92.25
258.918	84.25
259.151	86.25
259.383	92.25
259.616	79.25
259.849	70.25
260.081	82.25
260.314	77.25
260.547	79.25
260.779	87.25
261.012	83.25
261.244	68.25
261.477	90.25
261.71	90.25
261.942	104.25
262.175	110.25
262.407	100.25
262.64	78.25
262.872	101.25
263.105	86.25
263.337	89.25
263.57	86.25
263.802	84.25
264.035	84.25
264.267	89.25
264.499	84.25
264.732	93.25
264.964	89.25
265.197	78.25
265.429	73.25
265.661	69.25
265.894	81.25
266.126	94.25
266.358	100.25
266.591	81.25
266.823	82.25
267.055	84.25
267.287	96.25
267.52	72.25
267.752	82.25
267.984	72.25
268.216	76.25
268.448	88.25
268.681	82.25
268.913	84.25
269.145	77.25
269.377	95.25
269.609	80.25
269.841	82.25
270.073	79.25
270.306	102.25
270.538	92.25
270.77	77.25
271.002	86.25
271.234	82.25
271.466	96.25
271.698	84.25
271.93	77.25
272.162	86.25
272.394	84.25
272.626	87.25
272.858	88.25
273.09	85.25
273.322	94.25
273.553	84.25
273.785	98.25
274.017	99.25
274.249	80.25
274.481	95.25
274.713	86.25
274.945	86.25
275.176	79.25
275.408	90.25
275.64	86.25
275.872	91.25
276.104	93.25
276.335	91.25
276.567	98.25
276.799	102.25
277.031	94.25
277.262	98.25
277.494	95.25
277.726	92.25
277.957	84.25
278.189	92.25
278.421	87.25
278.652	93.25
278.884	82.25
279.115	91.25
279.347	87.25
279.579	83.25
279.81	88.25
280.042	84.25
280.273	85.25
280.505	82.25
280.736	92.25
280.968	94.25
281.199	92.25
281.431	102.25
281.662	75.25
281.894	105.25
282.125	82.25
282.356	98.25
282.588	111.25
282.819	109.25
283.051	96.25
283.282	86.25
283.513	83.25
283.745	78.25
283.976	77.25
284.207	75.25
284.439	79.25
284.67	90.25
284.901	94.25
285.132	88.25
285.364	93.25
285.595	77.25
285.826	88.25
286.057	94.25
286.288	93.25
286.52	84.25
286.751	95.25
286.982	88.25
287.213	98.25
287.444	103.25
287.675	85.25
287.906	92.25
288.138	94.25
288.369	76.25
288.6	90.25
288.831	101.25
289.062	96.25
289.293	96.25
289.524	92.25
289.755	102.25
289.986	90.25
290.217	87.25
290.448	73.25
290.679	83.25
290.91	85.25
291.141	88.25
291.371	96.25
291.602	101.25
291.833	91.25
292.064	86.25
292.295	89.25
292.526	92.25
292.757	102.25
292.987	99.25
293.218	91.25
293.449	77.25
293.68	97.25
293.91	84.25
294.141	79.25
294.372	90.25
294.603	66.25
294.833	77.25
295.064	86.25
295.295	84.25
295.525	96.25
295.756	98.25
295.987	108.25
296.217	133.25
296.448	126.25
296.679	87.25
296.909	99.25
297.14	71.25
297.37	93.25
297.601	88.25
297.831	94.25
298.062	87.25
298.292	83.25
298.523	75.25
298.753	91.25
298.984	95.25
299.214	90.25
299.445	92.25
299.675	96.25
299.905	105.25
300.136	82.25
300.366	97.25
300.597	95.25
300.827	79.25
301.057	83.25
301.288	96.25
301.518	91.25
301.748	95.25
301.979	98.25
302.209	88.25
302.439	88.25
302.669	95.25
302.9	95.25
303.13	90.25
303.36	97.25
303.59	68.25
303.82	96.25
304.051	104.25
304.281	90.25
304.511	84.25
304.741	96.25
304.971	88.25
305.201	87.25
305.431	86.25
305.661	98.25
305.891	86.25
306.121	85.25
306.352	83.25
306.582	115.25
306.812	98.25
307.042	106.25
307.272	86.25
307.502	100.25
307.731	109.25
307.961	87.25
308.191	96.25
308.421	94.25
308.651	79.25
308.881	87.25
309.111	92.25
309.341	94.25
309.571	88.25
309.8	93.25
310.03	93.25
310.26	93.25
310.49	113.25
310.72	90.25
310.949	96.25
311.179	93.25
311.409	101.25
311.639	113.25
311.868	98.25
312.098	100.25
312.328	96.25
312.557	101.25
312.787	88.25
313.017	90.25
313.246	80.25
313.476	96.25
313.706	116.25
313.935	107.25
314.165	92.25
314.394	78.25
314.624	93.25
314.853	94.25
315.083	78.25
315.312	93.25
315.542	92.25
315.771	90.25
316.001	107.25
316.23	92.25
316.46	102.25
316.689	84.25
316.919	80.25
317.148	94.25
317.377	102.25
317.607	87.25
317.836	88.25
318.065	101.25
318.295	82.25
318.524	86.25
318.753	71.25
318.983	102.25
319.212	107.25
319.441	85.25
319.67	97.25
319.9	90.25
320.129	108.25
320.358	86.25
320.587	98.25
320.816	95.25
321.046	101.25
321.275	99.25
321.504	101.25
321.733	98.25
321.962	96.25
322.191	104.25
322.42	92.25
322.649	104.25
322.878	115.25
323.108	89.25
323.337	125.25
323.566	123.25
323.795	127.25
324.024	192.25
324.253	327.25
324.482	645.25
324.71	1332.25
324.939	1741.25
325.168	646.25
325.397	208.25
325.626	146.25
325.855	120.25
326.084	125.25
326.313	125.25
326.542	141.25
326.77	182.25
326.999	371.25
327.228	741.25
327.457	1353.25
327.686	1056.25
327.914	300.25
328.143	186.25
328.372	143.25
328.6	131.25
328.829	107.25
329.058	119.25
329.287	119.25
329.515	102.25
329.744	111.25
329.972	106.25
330.201	118.25
330.43	132.25
330.658	128.25
330.887	132.25
331.115	114.25
331.344	90.25
331.572	105.25
331.801	91.25
332.03	99.25
332.258	98.25
332.486	87.25
332.715	92.25
332.943	93.25
333.172	85.25
333.4	104.25
333.629	106.25
333.857	89.25
334.085	109.25
334.314	115.25
334.542	121.25
334.771	128.25
334.999	88.25
335.227	86.25
335.455	91.25
335.684	90.25
335.912	109.25
336.14	98.25
336.369	90.25
336.597	101.25
336.825	91.25
337.053	86.25
337.281	91.25
337.51	105.25
337.738	98.25
337.966	87.25
338.194	77.25
338.422	95.25
338.65	101.25
338.878	103.25
339.106	88.25
339.334	77.25
339.562	89.25
339.79	96.25
340.018	86.25
340.246	87.25
340.474	92.25
340.702	94.25
340.93	104.25
341.158	89.25
341.386	101.25
341.614	101.25
341.842	103.25
342.07	88.25
342.298	94.25
342.526	86.25
342.754	91.25
342.981	102.25
343.209	84.25
343.437	101.25
343.665	101.25
343.893	100.25
344.12	84.25
344.348	86.25
344.576	79.25
344.804	82.25
345.031	94.25
345.259	77.25
345.487	104.25
345.714	94.25
345.942	94.25
346.17	99.25
346.397	104.25
346.625	92.25
346.853	82.25
347.08	95.25
347.308	86.25
347.535	96.25
347.763	116.25
347.99	103.25
348.218	108.25
348.445	106.25
348.673	103.25
348.9	86.25
349.128	94.25
349.355	99.25
349.583	87.25
349.81	91.25
350.037	88.25
350.265	100.25
350.492	96.25
350.72	93.25
350.947	94.25
351.174	105.25
351.402	97.25
351.629	100.25
351.856	104.25
352.083	106.25
352.311	103.25
352.538	97.25
352.765	111.25
352.992	114.25
353.22	112.25
353.447	101.25
353.674	95.25
353.901	103.25
354.128	81.25
354.355	84.25
354.583	99.25
354.81	95.25
355.037	89.25
355.264	112.25
355.491	85.25
355.718	96.25
355.945	104.25
356.172	87.25
356.399	90.25
356.626	102.25
356.853	95.25
357.08	100.25
357.307	99.25
357.534	103.25
357.761	82.25
357.988	86.25
358.215	89.25
358.441	85.25
358.668	102.25
358.895	95.25
359.122	88.25
359.349	86.25
359.576	94.25
359.802	89.25
360.029	122.25
360.256	110.25
360.483	106.25
360.709	97.25
360.936	103.25
361.163	99.25
361.39	97.25
361.616	86.25
361.843	90.25
362.07	86.25
362.296	94.25
362.523	86.25
362.749	88.25
362.976	95.25
363.203	76.25
363.429	90.25
363.656	93.25
363.882	99.25
364.109	92.25
364.335	103.25
364.562	97.25
364.788	97.25
365.015	85.25
365.241	94.25
365.468	105.25
365.694	107.25
365.92	86.25
366.147	84.25
366.373	98.25
366.599	93.25
366.826	95.25
367.052	90.25
367.278	84.25
367.505	95.25
367.731	102.25
367.957	82.25
368.184	93.25
368.41	98.25
368.636	106.25
368.862	119.25
369.089	86.25
369.315	90.25
369.541	98.25
369.767	91.25
369.993	101.25
370.219	76.25
370.445	98.25
370.672	99.25
370.898	82.25
371.124	83.25
371.35	83.25
371.576	94.25
371.802	66.25
372.028	100.25
372.254	96.25
372.48	92.25
372.706	86.25
372.932	89.25
373.158	84.25
373.384	87.25
373.61	93.25
373.835	95.25
374.061	83.25
374.287	85.25
374.513	97.25
374.739	99.25
374.965	95.25
375.191	80.25
375.416	78.25
375.642	89.25
375.868	82.25
376.094	90.25
376.319	88.25
376.545	94.25
376.771	99.25
376.997	90.25
377.222	76.25
377.448	99.25
377.674	88.25
377.899	112.25
378.125	93.25
378.35	107.25
378.576	90.25
378.802	82.25
379.027	89.25
379.253	102.25
379.478	85.25
379.704	83.25
379.929	87.25
380.155	97.25
380.38	97.25
380.606	90.25
380.831	89.25
381.057	97.25
381.282	98.25
381.507	90.25
381.733	110.25
381.958	106.25
382.184	108.25
382.409	98.25
382.634	102.25
382.86	104.25
383.085	85.25
383.31	108.25
383.535	108.25
383.761	104.25
383.986	114.25
384.211	97.25
384.436	98.25
384.662	86.25
384.887	96.25
385.112	98.25
385.337	104.25
385.562	112.25
385.787	86.25
386.013	116.25
386.238	99.25
386.463	102.25
386.688	128.25
386.913	102.25
387.138	98.25
387.363	108.25
387.588	101.25
387.813	100.25
388.038	98.25
388.263	103.25
388.488	99.25
388.713	103.25
388.938	85.25
389.163	88.25
389.387	99.25
389.612	100.25
389.837	86.25
390.062	98.25
390.287	87.25
390.512	90.25
390.736	88.25
390.961	89.25
391.186	82.25
391.411	86.25
391.636	92.25
391.86	79.25
392.085	87.25
392.31	92.25
392.534	71.25
392.759	84.25
392.984	83.25
393.208	82.25
393.433	88.25
393.658	93.25
393.882	83.25
394.107	83.25
394.331	93.25
394.556	94.25
394.78	101.25
395.005	90.25
395.229	80.25
395.454	85.25
395.678	67.25
395.903	94.25
396.127	89.25
396.352	98.25
396.576	90.25
396.801	77.25
397.025	78.25
397.249	91.25
397.474	90.25
397.698	94.25
397.922	78.25
398.147	95.25
398.371	87.25
398.595	82.25
398.82	86.25
399.044	97.25
399.268	94.25
399.492	80.25
399.717	95.25
399.941	80.25
400.165	83.25
400.389	101.25
400.613	81.25
400.837	85.25
401.062	79.25
401.286	77.25
401.51	98.25
401.734	83.25
401.958	98.25
402.182	88.25
402.406	146.25
402.63	111.25
402.854	100.25
403.078	75.25
403.302	89.25
403.526	98.25
403.75	86.25
403.974	92.25
404.198	85.25
404.422	75.25
404.645	87.25
404.869	99.25
405.093	107.25
405.317	100.25
405.541	94.25
405.765	102.25
405.988	103.25
406.212	160.25
406.436	203.25
406.66	134.25
406.883	98.25
407.107	95.25
407.331	92.25
407.555	95.25
407.778	92.25
408.002	95.25
408.226	83.25
408.449	92.25
408.673	83.25
408.896	94.25
409.12	96.25
409.344	83.25
409.567	79.25
409.791	100.25
410.014	88.25
410.238	91.25
410.461	88.25
410.685	94.25
410.908	101.25
411.132	107.25
411.355	106.25
411.578	97.25
411.802	101.25
412.025	98.25
412.249	102.25
412.472	104.25
412.695	93.25
412.919	86.25
413.142	79.25
413.365	90.25
413.589	88.25
413.812	91.25
414.035	99.25
414.258	84.25
414.482	95.25
414.705	101.25
414.928	110.25
415.151	86.25
415.374	93.25
415.597	85.25
415.821	99.25
416.044	94.25
416.267	83.25
416.49	98.25
416.713	93.25
416.936	80.25
417.159	79.25
417.382	78.25
417.605	84.25
417.828	114.25
418.051	99.25
418.274	95.25
418.497	94.25
418.72	71.25
418.943	90.25
419.166	98.25
419.389	91.25
419.611	100.25
419.834	93.25
420.057	107.25
420.28	99.25
420.503	96.25
420.726	95.25
420.948	75.25
421.171	96.25
421.394	98.25
421.617	102.25
421.839	98.25
422.062	88.25
422.285	86.25
422.507	114.25
422.73	91.25
422.953	91.25
423.175	95.25
423.398	95.25
423.621	86.25
423.843	101.25
424.066	84.25
424.288	83.25
424.511	90.25
424.733	87.25
424.956	102.25
425.178	102.25
425.401	103.25
425.623	93.25
425.846	85.25
426.068	102.25
426.291	92.25
426.513	79.25
426.735	76.25
426.958	92.25
427.18	95.25
427.402	136.25
427.625	163.25
427.847	111.25
428.069	101.25
428.292	88.25
428.514	83.25
428.736	76.25
428.958	86.25
429.181	79.25
429.403	85.25
429.625	100.25
429.847	95.25
430.069	92.25
430.292	87.25
430.514	87.25
430.736	89.25
430.958	85.25
431.18	80.25
431.402	87.25
431.624	88.25
431.846	77.25
432.068	98.25
432.29	93.25
432.512	79.25
432.734	98.25
432.956	93.25
433.178	96.25
433.4	93.25
433.622	101.25
433.844	99.25
434.066	89.25
434.287	97.25
434.509	90.25
434.731	82.25
434.953	106.25
435.175	94.25
435.397	93.25
435.618	83.25
435.84	97.25
436.062	115.25
436.284	126.25
436.505	110.25
436.727	103.25
436.949	94.25
437.17	88.25
437.392	106.25
437.614	101.25
437.835	107.25
438.057	109.25
438.278	105.25
438.5	97.25
438.721	108.25
438.943	100.25
439.165	91.25
439.386	90.25
439.608	96.25
439.829	106.25
440.05	96.25
440.272	132.25
440.493	85.25
440.715	80.25
440.936	97.25
441.158	87.25
441.379	90.25
441.6	70.25
441.822	96.25
442.043	93.25
442.264	100.25
442.486	82.25
442.707	96.25
442.928	102.25
443.149	112.25
443.371	108.25
443.592	109.25
443.813	102.25
444.034	107.25
444.255	107.25
444.476	99.25
444.698	90.25
444.919	76.25
445.14	111.25
445.361	107.25
445.582	122.25
445.803	120.25
446.024	138.25
446.245	104.25
446.466	103.25
446.687	87.25
446.908	96.25
447.129	91.25
447.35	94.25
447.571	83.25
447.792	95.25
448.013	92.25
448.234	104.25
448.455	94.25
448.675	104.25
448.896	122.25
449.117	98.25
449.338	88.25
449.559	111.25
449.779	111.25
450	90.25
450.221	81.25
450.442	98.25
450.662	103.25
450.883	94.25
451.104	120.25
451.324	91.25
451.545	92.25
451.766	87.25
451.986	79.25
452.207	88.25
452.428	88.25
452.648	96.25
452.869	96.25
453.089	84.25
453.31	102.25
453.53	87.25
453.751	94.25
453.971	93.25
454.192	90.25
454.412	86.25
454.633	103.25
454.853	90.25
455.073	86.25
455.294	95.25
455.514	96.25
455.734	95.25
455.955	90.25
456.175	78.25
456.395	80.25
456.616	87.25
456.836	96.25
457.056	84.25
457.276	77.25
457.497	79.25
457.717	73.25
457.937	93.25
458.157	96.25
458.377	100.25
458.598	104.25
458.818	140.25
459.038	150.25
459.258	107.25
459.478	86.25
459.698	100.25
459.918	78.25
460.138	86.25
460.358	96.25
460.578	96.25
460.798	89.25
461.018	87.25
461.238	93.25
461.458	85.25
461.678	94.25
461.898	94.25
462.118	87.25
462.338	76.25
462.558	88.25
462.777	73.25
462.997	86.25
463.217	86.25
463.437	88.25
463.657	91.25
463.876	89.25
464.096	91.25
464.316	101.25
464.536	94.25
464.755	86.25
464.975	104.25
465.195	131.25
465.414	147.25
465.634	87.25
465.854	71.25
466.073	81.25
466.293	79.25
466.512	87.25
466.732	90.25
466.951	98.25
467.171	98.25
467.391	93.25
467.61	98.25
467.829	93.25
468.049	86.25
468.268	104.25
468.488	101.25
468.707	96.25
468.927	78.25
469.146	94.25
469.365	91.25
469.585	92.25
469.804	91.25
470.023	91.25
470.243	95.25
470.462	92.25
470.681	111.25
470.901	86.25
471.12	89.25
471.339	82.25
471.558	78.25
471.777	91.25
471.997	94.25
472.216	112.25
472.435	149.25
472.654	111.25
472.873	94.25
473.092	87.25
473.311	85.25
473.53	76.25
473.749	102.25
473.968	84.25
474.187	109.25
474.406	99.25
474.625	87.25
474.844	83.25
475.063	92.25
475.282	83.25
475.501	92.25
475.72	96.25
475.939	87.25
476.158	79.25
476.377	103.25
476.596	93.25
476.814	97.25
477.033	86.25
477.252	93.25
477.471	94.25
477.69	96.25
477.908	94.25
478.127	85.25
478.346	86.25
478.564	94.25
478.783	71.25
479.002	89.25
479.22	78.25
479.439	100.25
479.658	100.25
479.876	91.25
480.095	99.25
480.313	94.25
480.532	90.25
480.751	91.25
480.969	108.25
481.188	203.25
481.406	143.25
481.624	107.25
481.843	86.25
482.061	90.25
482.28	90.25
482.498	78.25
482.717	88.25
482.935	93.25
483.153	93.25
483.372	89.25
483.59	90.25
483.808	88.25
484.027	95.25
484.245	90.25
484.463	88.25
484.681	101.25
484.9	92.25
485.118	88.25
485.336	93.25
485.554	94.25
485.772	107.25
485.99	100.25
486.209	94.25
486.427	115.25
486.645	100.25
486.863	112.25
487.081	115.25
487.299	98.25
487.517	92.25
487.735	83.25
487.953	88.25
488.171	95.25
488.389	104.25
488.607	101.25
488.825	93.25
489.043	75.25
489.261	89.25
489.479	98.25
489.696	76.25
489.914	98.25
490.132	85.25
490.35	94.25
490.568	94.25
490.786	88.25
491.003	84.25
491.221	102.25
491.439	104.25
491.657	101.25
491.874	90.25
492.092	82.25
492.31	81.25
492.527	101.25
492.745	85.25
492.963	79.25
493.18	79.25
493.398	77.25
493.615	96.25
493.833	93.25
494.05	96.25
494.268	90.25
494.485	93.25
494.703	86.25
494.92	94.25
495.138	86.25
495.355	90.25
495.573	89.25
495.79	80.25
496.008	90.25
496.225	96.25
496.442	88.25
496.66	87.25
496.877	82.25
497.094	72.25
497.312	94.25
497.529	99.25
497.746	86.25
497.963	98.25
498.181	83.25
498.398	93.25
498.615	115.25
498.832	90.25
499.049	100.25
499.267	98.25
499.484	87.25
499.701	76.25
499.918	86.25
500.135	85.25
500.352	104.25
500.569	74.25
500.786	91.25
501.003	78.25
501.22	86.25
501.437	97.25
501.654	79.25
501.871	99.25
502.088	87.25
502.305	79.25
502.522	88.25
502.739	91.25
502.956	97.25
503.172	86.25
503.389	90.25
503.606	97.25
503.823	99.25
504.04	97.25
504.256	92.25
504.473	108.25
504.69	73.25
504.907	85.25
505.123	82.25
505.34	92.25
505.557	95.25
505.773	85.25
505.99	84.25
506.207	91.25
506.423	103.25
506.64	79.25
506.856	83.25
507.073	91.25
507.289	100.25
507.506	98.25
507.722	104.25
507.939	106.25
508.155	96.25
508.372	95.25
508.588	97.25
508.805	100.25
509.021	92.25
509.238	89.25
509.454	95.25
509.67	102.25
509.887	98.25
510.103	125.25
510.319	184.25
510.536	646.25
510.752	1956.25
510.968	553.25
511.184	141.25
511.401	109.25
511.617	103.25
511.833	96.25
512.049	101.25
512.265	99.25
512.481	92.25
512.698	99.25
512.914	93.25
513.13	100.25
513.346	92.25
513.562	93.25
513.778	101.25
513.994	115.25
514.21	110.25
514.426	98.25
514.642	128.25
514.858	118.25
515.074	153.25
515.29	377.25
515.506	1190.25
515.721	438.25
