Data from Circ_1980_H10_HRD10591_00053.txt Node
Date: Wed Jan 03 12:38:08 EST 2024
User: Yrep
Spectrometer: HR+D1059
Trigger mode: 1
Integration Time (sec): 1.000000E-1
Scans to average: 1
Electric dark correction enabled: true
Nonlinearity correction enabled: false
Boxcar width: 0
XAxis mode: Wavelengths
Number of Pixels in Spectrum: 2048
>>>>>Begin Spectral Data<<<<<
223.165	-15.62
223.4	-15.62
223.635	-15.62
223.869	-21.62
224.104	-13.62
224.338	-20.62
224.573	-9.62
224.808	-18.62
225.042	-8.62
225.277	-7.62
225.511	0.38
225.746	3.38
225.98	12.38
226.215	29.38
226.449	7.38
226.683	0.38
226.918	28.38
227.152	34.38
227.387	29.38
227.621	32.38
227.856	55.38
228.09	47.38
228.324	40.38
228.559	55.38
228.793	61.38
229.027	51.38
229.262	55.38
229.496	72.38
229.73	77.38
229.964	83.38
230.199	59.38
230.433	65.38
230.667	71.38
230.901	71.38
231.136	73.38
231.37	64.38
231.604	68.38
231.838	79.38
232.072	86.38
232.306	82.38
232.541	88.38
232.775	88.38
233.009	87.38
233.243	79.38
233.477	80.38
233.711	79.38
233.945	61.38
234.179	84.38
234.413	80.38
234.647	73.38
234.881	73.38
235.115	79.38
235.349	73.38
235.583	67.38
235.817	79.38
236.051	82.38
236.285	67.38
236.519	67.38
236.753	89.38
236.987	71.38
237.221	80.38
237.455	79.38
237.689	71.38
237.922	74.38
238.156	83.38
238.39	68.38
238.624	69.38
238.858	95.38
239.091	76.38
239.325	70.38
239.559	78.38
239.793	71.38
240.027	79.38
240.26	82.38
240.494	79.38
240.728	71.38
240.961	79.38
241.195	67.38
241.429	65.38
241.662	67.38
241.896	61.38
242.13	75.38
242.363	77.38
242.597	81.38
242.83	79.38
243.064	70.38
243.298	76.38
243.531	67.38
243.765	60.38
243.998	71.38
244.232	74.38
244.465	84.38
244.699	73.38
244.932	85.38
245.166	75.38
245.399	74.38
245.633	72.38
245.866	73.38
246.099	70.38
246.333	73.38
246.566	71.38
246.8	76.38
247.033	70.38
247.266	68.38
247.5	80.38
247.733	81.38
247.966	89.38
248.2	75.38
248.433	58.38
248.666	82.38
248.899	73.38
249.133	81.38
249.366	81.38
249.599	77.38
249.832	89.38
250.066	74.38
250.299	81.38
250.532	76.38
250.765	79.38
250.998	81.38
251.231	80.38
251.465	69.38
251.698	77.38
251.931	80.38
252.164	72.38
252.397	80.38
252.63	88.38
252.863	72.38
253.096	92.38
253.329	83.38
253.562	84.38
253.795	72.38
254.028	69.38
254.261	80.38
254.494	77.38
254.727	68.38
254.96	72.38
255.193	81.38
255.426	75.38
255.659	79.38
255.892	79.38
256.124	84.38
256.357	76.38
256.59	73.38
256.823	83.38
257.056	81.38
257.289	82.38
257.521	89.38
257.754	92.38
257.987	74.38
258.22	71.38
258.452	80.38
258.685	72.38
258.918	81.38
259.151	83.38
259.383	81.38
259.616	85.38
259.849	73.38
260.081	77.38
260.314	81.38
260.547	85.38
260.779	79.38
261.012	88.38
261.244	81.38
261.477	78.38
261.71	85.38
261.942	99.38
262.175	95.38
262.407	83.38
262.64	65.38
262.872	83.38
263.105	67.38
263.337	71.38
263.57	75.38
263.802	82.38
264.035	64.38
264.267	65.38
264.499	85.38
264.732	87.38
264.964	75.38
265.197	66.38
265.429	82.38
265.661	68.38
265.894	89.38
266.126	95.38
266.358	84.38
266.591	74.38
266.823	86.38
267.055	72.38
267.287	88.38
267.52	83.38
267.752	67.38
267.984	75.38
268.216	76.38
268.448	86.38
268.681	92.38
268.913	76.38
269.145	83.38
269.377	92.38
269.609	85.38
269.841	75.38
270.073	92.38
270.306	88.38
270.538	87.38
270.77	89.38
271.002	89.38
271.234	83.38
271.466	98.38
271.698	76.38
271.93	66.38
272.162	69.38
272.394	100.38
272.626	66.38
272.858	76.38
273.09	76.38
273.322	81.38
273.553	81.38
273.785	84.38
274.017	77.38
274.249	107.38
274.481	91.38
274.713	91.38
274.945	92.38
275.176	80.38
275.408	79.38
275.64	85.38
275.872	75.38
276.104	67.38
276.335	72.38
276.567	81.38
276.799	87.38
277.031	110.38
277.262	83.38
277.494	73.38
277.726	79.38
277.957	79.38
278.189	73.38
278.421	76.38
278.652	90.38
278.884	80.38
279.115	97.38
279.347	84.38
279.579	89.38
279.81	84.38
280.042	83.38
280.273	88.38
280.505	86.38
280.736	93.38
280.968	79.38
281.199	80.38
281.431	100.38
281.662	97.38
281.894	81.38
282.125	95.38
282.356	98.38
282.588	116.38
282.819	105.38
283.051	74.38
283.282	73.38
283.513	89.38
283.745	84.38
283.976	83.38
284.207	86.38
284.439	93.38
284.67	92.38
284.901	88.38
285.132	76.38
285.364	81.38
285.595	85.38
285.826	88.38
286.057	75.38
286.288	101.38
286.52	79.38
286.751	80.38
286.982	98.38
287.213	86.38
287.444	79.38
287.675	80.38
287.906	83.38
288.138	91.38
288.369	87.38
288.6	90.38
288.831	79.38
289.062	70.38
289.293	102.38
289.524	82.38
289.755	93.38
289.986	95.38
290.217	93.38
290.448	76.38
290.679	88.38
290.91	82.38
291.141	89.38
291.371	92.38
291.602	99.38
291.833	96.38
292.064	88.38
292.295	90.38
292.526	77.38
292.757	82.38
292.987	81.38
293.218	90.38
293.449	85.38
293.68	95.38
293.91	91.38
294.141	85.38
294.372	92.38
294.603	93.38
294.833	86.38
295.064	84.38
295.295	82.38
295.525	84.38
295.756	92.38
295.987	111.38
296.217	117.38
296.448	114.38
296.679	119.38
296.909	88.38
297.14	76.38
297.37	99.38
297.601	92.38
297.831	85.38
298.062	84.38
298.292	75.38
298.523	86.38
298.753	75.38
298.984	85.38
299.214	77.38
299.445	80.38
299.675	91.38
299.905	100.38
300.136	92.38
300.366	100.38
300.597	93.38
300.827	87.38
301.057	88.38
301.288	81.38
301.518	88.38
301.748	92.38
301.979	94.38
302.209	99.38
302.439	80.38
302.669	69.38
302.9	83.38
303.13	94.38
303.36	105.38
303.59	90.38
303.82	115.38
304.051	88.38
304.281	85.38
304.511	79.38
304.741	88.38
304.971	89.38
305.201	95.38
305.431	79.38
305.661	72.38
305.891	85.38
306.121	87.38
306.352	95.38
306.582	107.38
306.812	81.38
307.042	83.38
307.272	92.38
307.502	83.38
307.731	84.38
307.961	86.38
308.191	98.38
308.421	79.38
308.651	80.38
308.881	79.38
309.111	88.38
309.341	74.38
309.571	83.38
309.8	79.38
310.03	97.38
310.26	85.38
310.49	92.38
310.72	100.38
310.949	92.38
311.179	86.38
311.409	75.38
311.639	102.38
311.868	83.38
312.098	115.38
312.328	83.38
312.557	95.38
312.787	103.38
313.017	100.38
313.246	90.38
313.476	76.38
313.706	91.38
313.935	92.38
314.165	100.38
314.394	103.38
314.624	87.38
314.853	90.38
315.083	90.38
315.312	84.38
315.542	88.38
315.771	95.38
316.001	79.38
316.23	82.38
316.46	84.38
316.689	82.38
316.919	96.38
317.148	88.38
317.377	103.38
317.607	98.38
317.836	93.38
318.065	101.38
318.295	97.38
318.524	96.38
318.753	105.38
318.983	80.38
319.212	91.38
319.441	102.38
319.67	95.38
319.9	99.38
320.129	88.38
320.358	97.38
320.587	99.38
320.816	95.38
321.046	74.38
321.275	85.38
321.504	93.38
321.733	103.38
321.962	89.38
322.191	90.38
322.42	100.38
322.649	105.38
322.878	92.38
323.108	103.38
323.337	111.38
323.566	109.38
323.795	131.38
324.024	159.38
324.253	288.38
324.482	600.38
324.71	1197.38
324.939	1523.38
325.168	563.38
325.397	192.38
325.626	131.38
325.855	125.38
326.084	109.38
326.313	113.38
326.542	122.38
326.77	188.38
326.999	341.38
327.228	681.38
327.457	1223.38
327.686	963.38
327.914	285.38
328.143	157.38
328.372	141.38
328.6	108.38
328.829	105.38
329.058	106.38
329.287	112.38
329.515	93.38
329.744	101.38
329.972	109.38
330.201	109.38
330.43	119.38
330.658	109.38
330.887	104.38
331.115	104.38
331.344	92.38
331.572	98.38
331.801	91.38
332.03	92.38
332.258	114.38
332.486	96.38
332.715	92.38
332.943	87.38
333.172	82.38
333.4	91.38
333.629	100.38
333.857	102.38
334.085	95.38
334.314	120.38
334.542	119.38
334.771	124.38
334.999	95.38
335.227	76.38
335.455	87.38
335.684	91.38
335.912	84.38
336.14	88.38
336.369	106.38
336.597	102.38
336.825	89.38
337.053	76.38
337.281	81.38
337.51	84.38
337.738	85.38
337.966	84.38
338.194	92.38
338.422	94.38
338.65	87.38
338.878	93.38
339.106	85.38
339.334	101.38
339.562	101.38
339.79	77.38
340.018	88.38
340.246	81.38
340.474	100.38
340.702	105.38
340.93	84.38
341.158	97.38
341.386	87.38
341.614	104.38
341.842	93.38
342.07	91.38
342.298	80.38
342.526	87.38
342.754	85.38
342.981	76.38
343.209	66.38
343.437	89.38
343.665	97.38
343.893	83.38
344.12	101.38
344.348	90.38
344.576	99.38
344.804	73.38
345.031	91.38
345.259	108.38
345.487	94.38
345.714	85.38
345.942	90.38
346.17	96.38
346.397	87.38
346.625	89.38
346.853	86.38
347.08	89.38
347.308	104.38
347.535	100.38
347.763	109.38
347.99	97.38
348.218	98.38
348.445	89.38
348.673	98.38
348.9	89.38
349.128	97.38
349.355	82.38
349.583	87.38
349.81	87.38
350.037	105.38
350.265	90.38
350.492	84.38
350.72	95.38
350.947	95.38
351.174	98.38
351.402	95.38
351.629	94.38
351.856	80.38
352.083	98.38
352.311	95.38
352.538	97.38
352.765	97.38
352.992	98.38
353.22	85.38
353.447	111.38
353.674	94.38
353.901	99.38
354.128	89.38
354.355	99.38
354.583	93.38
354.81	100.38
355.037	94.38
355.264	79.38
355.491	87.38
355.718	96.38
355.945	99.38
356.172	100.38
356.399	102.38
356.626	81.38
356.853	87.38
357.08	99.38
357.307	80.38
357.534	80.38
357.761	92.38
357.988	83.38
358.215	89.38
358.441	91.38
358.668	93.38
358.895	77.38
359.122	88.38
359.349	80.38
359.576	92.38
359.802	90.38
360.029	107.38
360.256	97.38
360.483	97.38
360.709	86.38
360.936	96.38
361.163	92.38
361.39	83.38
361.616	103.38
361.843	93.38
362.07	89.38
362.296	84.38
362.523	80.38
362.749	89.38
362.976	82.38
363.203	98.38
363.429	81.38
363.656	76.38
363.882	106.38
364.109	91.38
364.335	84.38
364.562	82.38
364.788	90.38
365.015	91.38
365.241	90.38
365.468	87.38
365.694	91.38
365.92	80.38
366.147	90.38
366.373	89.38
366.599	87.38
366.826	86.38
367.052	79.38
367.278	83.38
367.505	82.38
367.731	83.38
367.957	93.38
368.184	80.38
368.41	93.38
368.636	115.38
368.862	106.38
369.089	88.38
369.315	84.38
369.541	89.38
369.767	86.38
369.993	92.38
370.219	84.38
370.445	96.38
370.672	76.38
370.898	76.38
371.124	75.38
371.35	84.38
371.576	87.38
371.802	89.38
372.028	87.38
372.254	106.38
372.48	83.38
372.706	70.38
372.932	91.38
373.158	74.38
373.384	87.38
373.61	71.38
373.835	84.38
374.061	84.38
374.287	83.38
374.513	95.38
374.739	87.38
374.965	81.38
375.191	86.38
375.416	77.38
375.642	72.38
375.868	79.38
376.094	88.38
376.319	74.38
376.545	90.38
376.771	73.38
376.997	85.38
377.222	84.38
377.448	81.38
377.674	71.38
377.899	78.38
378.125	82.38
378.35	84.38
378.576	96.38
378.802	95.38
379.027	77.38
379.253	89.38
379.478	86.38
379.704	89.38
379.929	87.38
380.155	79.38
380.38	101.38
380.606	97.38
380.831	90.38
381.057	91.38
381.282	86.38
381.507	95.38
381.733	109.38
381.958	98.38
382.184	94.38
382.409	89.38
382.634	93.38
382.86	91.38
383.085	91.38
383.31	89.38
383.535	97.38
383.761	91.38
383.986	103.38
384.211	93.38
384.436	104.38
384.662	101.38
384.887	91.38
385.112	86.38
385.337	85.38
385.562	91.38
385.787	96.38
386.013	101.38
386.238	111.38
386.463	87.38
386.688	105.38
386.913	84.38
387.138	101.38
387.363	84.38
387.588	96.38
387.813	88.38
388.038	95.38
388.263	107.38
388.488	112.38
388.713	91.38
388.938	91.38
389.163	96.38
389.387	92.38
389.612	80.38
389.837	79.38
390.062	85.38
390.287	91.38
390.512	106.38
390.736	90.38
390.961	86.38
391.186	101.38
391.411	91.38
391.636	84.38
391.86	81.38
392.085	88.38
392.31	83.38
392.534	97.38
392.759	80.38
392.984	69.38
393.208	75.38
393.433	75.38
393.658	83.38
393.882	87.38
394.107	69.38
394.331	95.38
394.556	76.38
394.78	74.38
395.005	80.38
395.229	75.38
395.454	83.38
395.678	97.38
395.903	82.38
396.127	91.38
396.352	81.38
396.576	82.38
396.801	84.38
397.025	84.38
397.249	75.38
397.474	85.38
397.698	89.38
397.922	81.38
398.147	73.38
398.371	95.38
398.595	78.38
398.82	81.38
399.044	53.38
399.268	81.38
399.492	72.38
399.717	86.38
399.941	74.38
400.165	88.38
400.389	76.38
400.613	84.38
400.837	71.38
401.062	88.38
401.286	88.38
401.51	92.38
401.734	95.38
401.958	77.38
402.182	107.38
402.406	118.38
402.63	96.38
402.854	93.38
403.078	74.38
403.302	75.38
403.526	90.38
403.75	80.38
403.974	79.38
404.198	89.38
404.422	72.38
404.645	91.38
404.869	83.38
405.093	93.38
405.317	80.38
405.541	81.38
405.765	85.38
405.988	111.38
406.212	135.38
406.436	164.38
406.66	118.38
406.883	101.38
407.107	81.38
407.331	95.38
407.555	89.38
407.778	97.38
408.002	90.38
408.226	96.38
408.449	88.38
408.673	88.38
408.896	83.38
409.12	88.38
409.344	84.38
409.567	79.38
409.791	107.38
410.014	91.38
410.238	89.38
410.461	91.38
410.685	86.38
410.908	106.38
411.132	109.38
411.355	80.38
411.578	94.38
411.802	82.38
412.025	91.38
412.249	91.38
412.472	81.38
412.695	63.38
412.919	92.38
413.142	77.38
413.365	84.38
413.589	87.38
413.812	87.38
414.035	88.38
414.258	96.38
414.482	100.38
414.705	87.38
414.928	88.38
415.151	86.38
415.374	99.38
415.597	85.38
415.821	109.38
416.044	72.38
416.267	88.38
416.49	86.38
416.713	82.38
416.936	83.38
417.159	64.38
417.382	87.38
417.605	89.38
417.828	80.38
418.051	81.38
418.274	92.38
418.497	85.38
418.72	82.38
418.943	92.38
419.166	84.38
419.389	96.38
419.611	88.38
419.834	83.38
420.057	101.38
420.28	92.38
420.503	76.38
420.726	95.38
420.948	85.38
421.171	90.38
421.394	97.38
421.617	88.38
421.839	80.38
422.062	76.38
422.285	89.38
422.507	98.38
422.73	103.38
422.953	77.38
423.175	92.38
423.398	84.38
423.621	84.38
423.843	91.38
424.066	86.38
424.288	101.38
424.511	98.38
424.733	84.38
424.956	99.38
425.178	99.38
425.401	76.38
425.623	97.38
425.846	100.38
426.068	95.38
426.291	91.38
426.513	81.38
426.735	82.38
426.958	71.38
427.18	84.38
427.402	116.38
427.625	138.38
427.847	104.38
428.069	93.38
428.292	86.38
428.514	88.38
428.736	77.38
428.958	87.38
429.181	95.38
429.403	86.38
429.625	82.38
429.847	87.38
430.069	97.38
430.292	69.38
430.514	90.38
430.736	73.38
430.958	83.38
431.18	75.38
431.402	96.38
431.624	92.38
431.846	86.38
432.068	83.38
432.29	94.38
432.512	88.38
432.734	77.38
432.956	76.38
433.178	89.38
433.4	89.38
433.622	76.38
433.844	86.38
434.066	76.38
434.287	71.38
434.509	86.38
434.731	87.38
434.953	92.38
435.175	84.38
435.397	84.38
435.618	83.38
435.84	89.38
436.062	119.38
436.284	119.38
436.505	89.38
436.727	108.38
436.949	102.38
437.17	88.38
437.392	89.38
437.614	87.38
437.835	84.38
438.057	104.38
438.278	97.38
438.5	76.38
438.721	95.38
438.943	103.38
439.165	77.38
439.386	70.38
439.608	98.38
439.829	86.38
440.05	92.38
440.272	106.38
440.493	87.38
440.715	97.38
440.936	75.38
441.158	81.38
441.379	86.38
441.6	81.38
441.822	79.38
442.043	73.38
442.264	86.38
442.486	93.38
442.707	84.38
442.928	109.38
443.149	106.38
443.371	102.38
443.592	95.38
443.813	100.38
444.034	92.38
444.255	97.38
444.476	77.38
444.698	86.38
444.919	77.38
445.14	119.38
445.361	124.38
445.582	100.38
445.803	108.38
446.024	104.38
446.245	106.38
446.466	100.38
446.687	78.38
446.908	99.38
447.129	107.38
447.35	92.38
447.571	85.38
447.792	88.38
448.013	94.38
448.234	99.38
448.455	85.38
448.675	87.38
448.896	104.38
449.117	91.38
449.338	103.38
449.559	107.38
449.779	109.38
450	93.38
450.221	88.38
450.442	80.38
450.662	98.38
450.883	97.38
451.104	109.38
451.324	86.38
451.545	81.38
451.766	89.38
451.986	72.38
452.207	76.38
452.428	92.38
452.648	87.38
452.869	93.38
453.089	92.38
453.31	98.38
453.53	85.38
453.751	81.38
453.971	85.38
454.192	77.38
454.412	95.38
454.633	79.38
454.853	70.38
455.073	89.38
455.294	103.38
455.514	95.38
455.734	96.38
455.955	83.38
456.175	73.38
456.395	75.38
456.616	74.38
456.836	76.38
457.056	79.38
457.276	81.38
457.497	80.38
457.717	70.38
457.937	80.38
458.157	88.38
458.377	82.38
458.598	100.38
458.818	137.38
459.038	115.38
459.258	102.38
459.478	72.38
459.698	86.38
459.918	101.38
460.138	81.38
460.358	105.38
460.578	70.38
460.798	74.38
461.018	82.38
461.238	101.38
461.458	88.38
461.678	81.38
461.898	85.38
462.118	78.38
462.338	90.38
462.558	87.38
462.777	75.38
462.997	82.38
463.217	71.38
463.437	71.38
463.657	75.38
463.876	68.38
464.096	72.38
464.316	84.38
464.536	85.38
464.755	92.38
464.975	93.38
465.195	124.38
465.414	116.38
465.634	71.38
465.854	73.38
466.073	79.38
466.293	76.38
466.512	88.38
466.732	93.38
466.951	87.38
467.171	79.38
467.391	89.38
467.61	86.38
467.829	104.38
468.049	93.38
468.268	99.38
468.488	81.38
468.707	91.38
468.927	76.38
469.146	77.38
469.365	86.38
469.585	83.38
469.804	100.38
470.023	83.38
470.243	87.38
470.462	85.38
470.681	88.38
470.901	83.38
471.12	85.38
471.339	73.38
471.558	83.38
471.777	74.38
471.997	95.38
472.216	113.38
472.435	139.38
472.654	92.38
472.873	84.38
473.092	76.38
473.311	81.38
473.53	83.38
473.749	80.38
473.968	98.38
474.187	94.38
474.406	84.38
474.625	95.38
474.844	93.38
475.063	82.38
475.282	85.38
475.501	87.38
475.72	84.38
475.939	76.38
476.158	76.38
476.377	71.38
476.596	78.38
476.814	79.38
477.033	89.38
477.252	85.38
477.471	87.38
477.69	83.38
477.908	68.38
478.127	84.38
478.346	81.38
478.564	96.38
478.783	99.38
479.002	87.38
479.22	89.38
479.439	83.38
479.658	92.38
479.876	75.38
480.095	90.38
480.313	89.38
480.532	90.38
480.751	85.38
480.969	102.38
481.188	174.38
481.406	132.38
481.624	79.38
481.843	84.38
482.061	78.38
482.28	100.38
482.498	73.38
482.717	85.38
482.935	78.38
483.153	79.38
483.372	83.38
483.59	88.38
483.808	96.38
484.027	97.38
484.245	101.38
484.463	86.38
484.681	99.38
484.9	95.38
485.118	108.38
485.336	82.38
485.554	100.38
485.772	113.38
485.99	109.38
486.209	104.38
486.427	109.38
486.645	104.38
486.863	106.38
487.081	105.38
487.299	89.38
487.517	96.38
487.735	93.38
487.953	92.38
488.171	86.38
488.389	101.38
488.607	111.38
488.825	80.38
489.043	85.38
489.261	86.38
489.479	81.38
489.696	83.38
489.914	84.38
490.132	81.38
490.35	82.38
490.568	86.38
490.786	88.38
491.003	75.38
491.221	89.38
491.439	86.38
491.657	101.38
491.874	99.38
492.092	77.38
492.31	105.38
492.527	79.38
492.745	95.38
492.963	88.38
493.18	97.38
493.398	107.38
493.615	89.38
493.833	88.38
494.05	75.38
494.268	97.38
494.485	75.38
494.703	69.38
494.92	97.38
495.138	89.38
495.355	80.38
495.573	93.38
495.79	84.38
496.008	89.38
496.225	90.38
496.442	89.38
496.66	80.38
496.877	99.38
497.094	106.38
497.312	82.38
497.529	92.38
497.746	89.38
497.963	75.38
498.181	78.38
498.398	92.38
498.615	97.38
498.832	101.38
499.049	83.38
499.267	83.38
499.484	82.38
499.701	85.38
499.918	88.38
500.135	87.38
500.352	83.38
500.569	79.38
500.786	86.38
501.003	99.38
501.22	109.38
501.437	89.38
501.654	92.38
501.871	103.38
502.088	84.38
502.305	90.38
502.522	81.38
502.739	82.38
502.956	96.38
503.172	82.38
503.389	88.38
503.606	106.38
503.823	97.38
504.04	75.38
504.256	90.38
504.473	82.38
504.69	73.38
504.907	96.38
505.123	93.38
505.34	77.38
505.557	68.38
505.773	93.38
505.99	92.38
506.207	90.38
506.423	67.38
506.64	83.38
506.856	84.38
507.073	103.38
507.289	77.38
507.506	88.38
507.722	88.38
507.939	88.38
508.155	92.38
508.372	76.38
508.588	81.38
508.805	82.38
509.021	95.38
509.238	91.38
509.454	88.38
509.67	84.38
509.887	97.38
510.103	112.38
510.319	159.38
510.536	530.38
510.752	1701.38
510.968	477.38
511.184	115.38
511.401	101.38
511.617	92.38
511.833	99.38
512.049	83.38
512.265	95.38
512.481	69.38
512.698	96.38
512.914	78.38
513.13	85.38
513.346	91.38
513.562	88.38
513.778	87.38
513.994	83.38
514.21	80.38
514.426	101.38
514.642	119.38
514.858	99.38
515.074	129.38
515.29	330.38
515.506	997.38
515.721	377.38
515.937	132.38
516.153	97.38
516.369	91.38
516.585	92.38
516.801	94.38
517.016	92.38
517.232	107.38
