Data from Circ_1980_H10_HRD10591_00056.txt Node
Date: Wed Jan 03 12:38:09 EST 2024
User: Yrep
Spectrometer: HR+D1059
Trigger mode: 1
Integration Time (sec): 1.000000E-1
Scans to average: 1
Electric dark correction enabled: true
Nonlinearity correction enabled: false
Boxcar width: 0
XAxis mode: Wavelengths
Number of Pixels in Spectrum: 2048
>>>>>Begin Spectral Data<<<<<
223.165	-20.62
223.4	-20.62
223.635	-20.62
223.869	-7.62
224.104	-17.62
224.338	-19.62
224.573	-21.62
224.808	-21.62
225.042	-13.62
225.277	-9.62
225.511	-12.62
225.746	9.38
225.98	14.38
226.215	22.38
226.449	16.38
226.683	30.38
226.918	29.38
227.152	22.38
227.387	45.38
227.621	34.38
227.856	58.38
228.09	61.38
228.324	58.38
228.559	55.38
228.793	68.38
229.027	78.38
229.262	63.38
229.496	82.38
229.73	64.38
229.964	82.38
230.199	75.38
230.433	73.38
230.667	93.38
230.901	86.38
231.136	79.38
231.37	84.38
231.604	93.38
231.838	78.38
232.072	86.38
232.306	72.38
232.541	86.38
232.775	70.38
233.009	92.38
233.243	75.38
233.477	71.38
233.711	85.38
233.945	88.38
234.179	85.38
234.413	71.38
234.647	89.38
234.881	89.38
235.115	68.38
235.349	74.38
235.583	77.38
235.817	63.38
236.051	72.38
236.285	83.38
236.519	87.38
236.753	87.38
236.987	91.38
237.221	86.38
237.455	98.38
237.689	68.38
237.922	84.38
238.156	78.38
238.39	81.38
238.624	82.38
238.858	83.38
239.091	78.38
239.325	84.38
239.559	70.38
239.793	87.38
240.027	80.38
240.26	93.38
240.494	87.38
240.728	84.38
240.961	85.38
241.195	68.38
241.429	78.38
241.662	84.38
241.896	77.38
242.13	80.38
242.363	87.38
242.597	78.38
242.83	75.38
243.064	78.38
243.298	71.38
243.531	73.38
243.765	86.38
243.998	75.38
244.232	82.38
244.465	98.38
244.699	71.38
244.932	60.38
245.166	63.38
245.399	71.38
245.633	73.38
245.866	87.38
246.099	84.38
246.333	75.38
246.566	77.38
246.8	85.38
247.033	74.38
247.266	69.38
247.5	74.38
247.733	76.38
247.966	96.38
248.2	87.38
248.433	72.38
248.666	74.38
248.899	78.38
249.133	87.38
249.366	86.38
249.599	90.38
249.832	66.38
250.066	86.38
250.299	90.38
250.532	80.38
250.765	86.38
250.998	85.38
251.231	85.38
251.465	78.38
251.698	67.38
251.931	74.38
252.164	73.38
252.397	78.38
252.63	88.38
252.863	89.38
253.096	87.38
253.329	86.38
253.562	81.38
253.795	63.38
254.028	86.38
254.261	74.38
254.494	72.38
254.727	73.38
254.96	78.38
255.193	87.38
255.426	90.38
255.659	81.38
255.892	91.38
256.124	80.38
256.357	74.38
256.59	103.38
256.823	66.38
257.056	83.38
257.289	78.38
257.521	89.38
257.754	73.38
257.987	86.38
258.22	98.38
258.452	78.38
258.685	94.38
258.918	76.38
259.151	82.38
259.383	90.38
259.616	92.38
259.849	93.38
260.081	88.38
260.314	69.38
260.547	74.38
260.779	83.38
261.012	83.38
261.244	84.38
261.477	90.38
261.71	84.38
261.942	114.38
262.175	104.38
262.407	95.38
262.64	66.38
262.872	92.38
263.105	82.38
263.337	99.38
263.57	75.38
263.802	74.38
264.035	83.38
264.267	74.38
264.499	84.38
264.732	76.38
264.964	75.38
265.197	92.38
265.429	83.38
265.661	84.38
265.894	100.38
266.126	93.38
266.358	76.38
266.591	78.38
266.823	78.38
267.055	83.38
267.287	84.38
267.52	79.38
267.752	88.38
267.984	111.38
268.216	76.38
268.448	108.38
268.681	94.38
268.913	84.38
269.145	87.38
269.377	85.38
269.609	77.38
269.841	77.38
270.073	92.38
270.306	85.38
270.538	91.38
270.77	73.38
271.002	80.38
271.234	104.38
271.466	96.38
271.698	94.38
271.93	72.38
272.162	95.38
272.394	85.38
272.626	92.38
272.858	88.38
273.09	88.38
273.322	87.38
273.553	72.38
273.785	82.38
274.017	102.38
274.249	93.38
274.481	102.38
274.713	90.38
274.945	71.38
275.176	86.38
275.408	90.38
275.64	101.38
275.872	97.38
276.104	94.38
276.335	92.38
276.567	79.38
276.799	107.38
277.031	99.38
277.262	99.38
277.494	90.38
277.726	98.38
277.957	87.38
278.189	87.38
278.421	77.38
278.652	82.38
278.884	98.38
279.115	96.38
279.347	85.38
279.579	75.38
279.81	86.38
280.042	85.38
280.273	86.38
280.505	93.38
280.736	86.38
280.968	93.38
281.199	91.38
281.431	94.38
281.662	94.38
281.894	101.38
282.125	82.38
282.356	101.38
282.588	120.38
282.819	110.38
283.051	95.38
283.282	72.38
283.513	85.38
283.745	96.38
283.976	107.38
284.207	86.38
284.439	84.38
284.67	86.38
284.901	79.38
285.132	86.38
285.364	95.38
285.595	84.38
285.826	82.38
286.057	93.38
286.288	87.38
286.52	102.38
286.751	75.38
286.982	87.38
287.213	84.38
287.444	77.38
287.675	82.38
287.906	92.38
288.138	85.38
288.369	86.38
288.6	100.38
288.831	86.38
289.062	87.38
289.293	95.38
289.524	100.38
289.755	79.38
289.986	90.38
290.217	92.38
290.448	92.38
290.679	97.38
290.91	102.38
291.141	94.38
291.371	87.38
291.602	87.38
291.833	96.38
292.064	103.38
292.295	107.38
292.526	75.38
292.757	92.38
292.987	72.38
293.218	96.38
293.449	86.38
293.68	107.38
293.91	88.38
294.141	98.38
294.372	98.38
294.603	94.38
294.833	88.38
295.064	93.38
295.295	100.38
295.525	88.38
295.756	103.38
295.987	102.38
296.217	121.38
296.448	118.38
296.679	76.38
296.909	106.38
297.14	97.38
297.37	86.38
297.601	87.38
297.831	91.38
298.062	86.38
298.292	104.38
298.523	85.38
298.753	96.38
298.984	84.38
299.214	103.38
299.445	92.38
299.675	95.38
299.905	85.38
300.136	105.38
300.366	103.38
300.597	96.38
300.827	87.38
301.057	92.38
301.288	98.38
301.518	91.38
301.748	87.38
301.979	96.38
302.209	90.38
302.439	97.38
302.669	101.38
302.9	91.38
303.13	91.38
303.36	87.38
303.59	104.38
303.82	108.38
304.051	100.38
304.281	99.38
304.511	89.38
304.741	87.38
304.971	84.38
305.201	90.38
305.431	93.38
305.661	102.38
305.891	90.38
306.121	87.38
306.352	101.38
306.582	104.38
306.812	100.38
307.042	102.38
307.272	95.38
307.502	103.38
307.731	100.38
307.961	91.38
308.191	95.38
308.421	98.38
308.651	88.38
308.881	96.38
309.111	91.38
309.341	94.38
309.571	98.38
309.8	91.38
310.03	92.38
310.26	107.38
310.49	88.38
310.72	109.38
310.949	90.38
311.179	88.38
311.409	93.38
311.639	83.38
311.868	92.38
312.098	92.38
312.328	92.38
312.557	86.38
312.787	91.38
313.017	104.38
313.246	111.38
313.476	91.38
313.706	79.38
313.935	90.38
314.165	104.38
314.394	98.38
314.624	101.38
314.853	100.38
315.083	105.38
315.312	97.38
315.542	106.38
315.771	82.38
316.001	97.38
316.23	92.38
316.46	77.38
316.689	87.38
316.919	94.38
317.148	86.38
317.377	82.38
317.607	94.38
317.836	94.38
318.065	89.38
318.295	96.38
318.524	91.38
318.753	95.38
318.983	82.38
319.212	97.38
319.441	86.38
319.67	101.38
319.9	82.38
320.129	90.38
320.358	94.38
320.587	82.38
320.816	93.38
321.046	105.38
321.275	90.38
321.504	108.38
321.733	90.38
321.962	92.38
322.191	96.38
322.42	98.38
322.649	117.38
322.878	106.38
323.108	116.38
323.337	110.38
323.566	115.38
323.795	120.38
324.024	169.38
324.253	327.38
324.482	644.38
324.71	1254.38
324.939	1626.38
325.168	613.38
325.397	217.38
325.626	118.38
325.855	111.38
326.084	118.38
326.313	94.38
326.542	134.38
326.77	202.38
326.999	372.38
327.228	709.38
327.457	1256.38
327.686	1034.38
327.914	303.38
328.143	158.38
328.372	137.38
328.6	110.38
328.829	114.38
329.058	123.38
329.287	118.38
329.515	102.38
329.744	107.38
329.972	98.38
330.201	120.38
330.43	126.38
330.658	116.38
330.887	118.38
331.115	119.38
331.344	103.38
331.572	88.38
331.801	84.38
332.03	94.38
332.258	99.38
332.486	95.38
332.715	104.38
332.943	83.38
333.172	95.38
333.4	90.38
333.629	100.38
333.857	121.38
334.085	108.38
334.314	114.38
334.542	127.38
334.771	136.38
334.999	86.38
335.227	92.38
335.455	99.38
335.684	88.38
335.912	104.38
336.14	97.38
336.369	100.38
336.597	89.38
336.825	101.38
337.053	94.38
337.281	98.38
337.51	100.38
337.738	92.38
337.966	106.38
338.194	102.38
338.422	95.38
338.65	118.38
338.878	101.38
339.106	85.38
339.334	91.38
339.562	99.38
339.79	97.38
340.018	89.38
340.246	93.38
340.474	84.38
340.702	84.38
340.93	105.38
341.158	88.38
341.386	96.38
341.614	108.38
341.842	104.38
342.07	86.38
342.298	90.38
342.526	93.38
342.754	98.38
342.981	80.38
343.209	86.38
343.437	89.38
343.665	99.38
343.893	90.38
344.12	90.38
344.348	104.38
344.576	88.38
344.804	93.38
345.031	98.38
345.259	109.38
345.487	96.38
345.714	94.38
345.942	108.38
346.17	101.38
346.397	84.38
346.625	96.38
346.853	108.38
347.08	91.38
347.308	93.38
347.535	96.38
347.763	110.38
347.99	103.38
348.218	99.38
348.445	103.38
348.673	93.38
348.9	101.38
349.128	107.38
349.355	110.38
349.583	96.38
349.81	98.38
350.037	89.38
350.265	83.38
350.492	101.38
350.72	96.38
350.947	109.38
351.174	105.38
351.402	99.38
351.629	95.38
351.856	82.38
352.083	95.38
352.311	96.38
352.538	112.38
352.765	114.38
352.992	107.38
353.22	119.38
353.447	111.38
353.674	109.38
353.901	102.38
354.128	96.38
354.355	106.38
354.583	81.38
354.81	92.38
355.037	91.38
355.264	74.38
355.491	94.38
355.718	101.38
355.945	96.38
356.172	75.38
356.399	103.38
356.626	88.38
356.853	92.38
357.08	84.38
357.307	91.38
357.534	104.38
357.761	100.38
357.988	102.38
358.215	101.38
358.441	96.38
358.668	90.38
358.895	100.38
359.122	91.38
359.349	90.38
359.576	103.38
359.802	93.38
360.029	99.38
360.256	111.38
360.483	88.38
360.709	94.38
360.936	104.38
361.163	104.38
361.39	83.38
361.616	79.38
361.843	90.38
362.07	96.38
362.296	102.38
362.523	94.38
362.749	86.38
362.976	90.38
363.203	89.38
363.429	98.38
363.656	90.38
363.882	91.38
364.109	93.38
364.335	81.38
364.562	102.38
364.788	90.38
365.015	91.38
365.241	98.38
365.468	99.38
365.694	98.38
365.92	107.38
366.147	88.38
366.373	96.38
366.599	85.38
366.826	79.38
367.052	85.38
367.278	86.38
367.505	89.38
367.731	87.38
367.957	92.38
368.184	96.38
368.41	97.38
368.636	109.38
368.862	110.38
369.089	98.38
369.315	94.38
369.541	86.38
369.767	85.38
369.993	95.38
370.219	87.38
370.445	94.38
370.672	83.38
370.898	89.38
371.124	95.38
371.35	87.38
371.576	87.38
371.802	94.38
372.028	89.38
372.254	94.38
372.48	96.38
372.706	81.38
372.932	104.38
373.158	92.38
373.384	95.38
373.61	82.38
373.835	84.38
374.061	82.38
374.287	88.38
374.513	82.38
374.739	94.38
374.965	76.38
375.191	80.38
375.416	99.38
375.642	82.38
375.868	91.38
376.094	88.38
376.319	91.38
376.545	82.38
376.771	89.38
376.997	96.38
377.222	83.38
377.448	98.38
377.674	87.38
377.899	86.38
378.125	95.38
378.35	95.38
378.576	94.38
378.802	92.38
379.027	97.38
379.253	99.38
379.478	84.38
379.704	96.38
379.929	102.38
380.155	91.38
380.38	94.38
380.606	98.38
380.831	90.38
381.057	103.38
381.282	109.38
381.507	95.38
381.733	99.38
381.958	97.38
382.184	107.38
382.409	100.38
382.634	97.38
382.86	99.38
383.085	95.38
383.31	101.38
383.535	96.38
383.761	78.38
383.986	90.38
384.211	96.38
384.436	90.38
384.662	92.38
384.887	102.38
385.112	101.38
385.337	102.38
385.562	103.38
385.787	109.38
386.013	100.38
386.238	99.38
386.463	106.38
386.688	110.38
386.913	101.38
387.138	108.38
387.363	98.38
387.588	117.38
387.813	110.38
388.038	93.38
388.263	111.38
388.488	96.38
388.713	100.38
388.938	110.38
389.163	96.38
389.387	98.38
389.612	97.38
389.837	107.38
390.062	84.38
390.287	96.38
390.512	100.38
390.736	99.38
390.961	91.38
391.186	108.38
391.411	83.38
391.636	95.38
391.86	89.38
392.085	90.38
392.31	96.38
392.534	76.38
392.759	88.38
392.984	90.38
393.208	86.38
393.433	80.38
393.658	90.38
393.882	93.38
394.107	85.38
394.331	64.38
394.556	78.38
394.78	80.38
395.005	85.38
395.229	99.38
395.454	87.38
395.678	82.38
395.903	84.38
396.127	90.38
396.352	86.38
396.576	102.38
396.801	78.38
397.025	95.38
397.249	95.38
397.474	89.38
397.698	92.38
397.922	98.38
398.147	71.38
398.371	87.38
398.595	85.38
398.82	88.38
399.044	84.38
399.268	94.38
399.492	88.38
399.717	95.38
399.941	82.38
400.165	94.38
400.389	88.38
400.613	94.38
400.837	94.38
401.062	87.38
401.286	91.38
401.51	86.38
401.734	98.38
401.958	88.38
402.182	110.38
402.406	122.38
402.63	103.38
402.854	98.38
403.078	94.38
403.302	89.38
403.526	79.38
403.75	88.38
403.974	96.38
404.198	102.38
404.422	90.38
404.645	77.38
404.869	88.38
405.093	93.38
405.317	87.38
405.541	89.38
405.765	90.38
405.988	111.38
406.212	147.38
406.436	168.38
406.66	124.38
406.883	106.38
407.107	88.38
407.331	94.38
407.555	94.38
407.778	93.38
408.002	91.38
408.226	93.38
408.449	90.38
408.673	77.38
408.896	75.38
409.12	93.38
409.344	100.38
409.567	87.38
409.791	90.38
410.014	90.38
410.238	95.38
410.461	101.38
410.685	96.38
410.908	88.38
411.132	91.38
411.355	98.38
411.578	78.38
411.802	91.38
412.025	93.38
412.249	101.38
412.472	95.38
412.695	100.38
412.919	73.38
413.142	86.38
413.365	91.38
413.589	97.38
413.812	76.38
414.035	97.38
414.258	102.38
414.482	82.38
414.705	88.38
414.928	86.38
415.151	90.38
415.374	83.38
415.597	85.38
415.821	89.38
416.044	86.38
416.267	85.38
416.49	103.38
416.713	91.38
416.936	99.38
417.159	75.38
417.382	88.38
417.605	98.38
417.828	94.38
418.051	83.38
418.274	92.38
418.497	89.38
418.72	82.38
418.943	84.38
419.166	93.38
419.389	86.38
419.611	89.38
419.834	82.38
420.057	88.38
420.28	89.38
420.503	84.38
420.726	93.38
420.948	101.38
421.171	79.38
421.394	83.38
421.617	106.38
421.839	90.38
422.062	88.38
422.285	94.38
422.507	96.38
422.73	94.38
422.953	94.38
423.175	92.38
423.398	84.38
423.621	82.38
423.843	82.38
424.066	78.38
424.288	95.38
424.511	94.38
424.733	103.38
424.956	106.38
425.178	103.38
425.401	98.38
425.623	87.38
425.846	103.38
426.068	92.38
426.291	82.38
426.513	97.38
426.735	108.38
426.958	92.38
427.18	100.38
427.402	95.38
427.625	136.38
427.847	120.38
428.069	101.38
428.292	107.38
428.514	92.38
428.736	79.38
428.958	77.38
429.181	76.38
429.403	78.38
429.625	74.38
429.847	90.38
430.069	98.38
430.292	94.38
430.514	86.38
430.736	80.38
430.958	95.38
431.18	83.38
431.402	89.38
431.624	84.38
431.846	86.38
432.068	89.38
432.29	88.38
432.512	87.38
432.734	84.38
432.956	103.38
433.178	90.38
433.4	90.38
433.622	89.38
433.844	99.38
434.066	116.38
434.287	106.38
434.509	96.38
434.731	90.38
434.953	90.38
435.175	96.38
435.397	100.38
435.618	92.38
435.84	98.38
436.062	106.38
436.284	94.38
436.505	91.38
436.727	88.38
436.949	86.38
437.17	80.38
437.392	81.38
437.614	82.38
437.835	106.38
438.057	110.38
438.278	112.38
438.5	92.38
438.721	120.38
438.943	98.38
439.165	90.38
439.386	89.38
439.608	93.38
439.829	103.38
440.05	91.38
440.272	127.38
440.493	94.38
440.715	86.38
440.936	92.38
441.158	83.38
441.379	77.38
441.6	88.38
441.822	94.38
442.043	85.38
442.264	101.38
442.486	94.38
442.707	86.38
442.928	101.38
443.149	113.38
443.371	102.38
443.592	106.38
443.813	92.38
444.034	75.38
444.255	91.38
444.476	91.38
444.698	77.38
444.919	77.38
445.14	127.38
445.361	110.38
445.582	99.38
445.803	112.38
446.024	110.38
446.245	109.38
446.466	98.38
446.687	92.38
446.908	87.38
447.129	77.38
447.35	94.38
447.571	96.38
447.792	100.38
448.013	90.38
448.234	110.38
448.455	94.38
448.675	107.38
448.896	101.38
449.117	83.38
449.338	102.38
449.559	104.38
449.779	117.38
450	78.38
450.221	94.38
450.442	84.38
450.662	79.38
450.883	86.38
451.104	109.38
451.324	98.38
451.545	109.38
451.766	93.38
451.986	77.38
452.207	96.38
452.428	88.38
452.648	78.38
452.869	100.38
453.089	112.38
453.31	115.38
453.53	86.38
453.751	85.38
453.971	108.38
454.192	87.38
454.412	88.38
454.633	90.38
454.853	89.38
455.073	83.38
455.294	110.38
455.514	96.38
455.734	86.38
455.955	85.38
456.175	89.38
456.395	77.38
456.616	73.38
456.836	86.38
457.056	80.38
457.276	79.38
457.497	82.38
457.717	72.38
457.937	85.38
458.157	78.38
458.377	95.38
458.598	99.38
458.818	107.38
459.038	138.38
459.258	106.38
459.478	84.38
459.698	76.38
459.918	78.38
460.138	87.38
460.358	84.38
460.578	79.38
460.798	82.38
461.018	86.38
461.238	84.38
461.458	89.38
461.678	77.38
461.898	80.38
462.118	80.38
462.338	84.38
462.558	97.38
462.777	86.38
462.997	87.38
463.217	75.38
463.437	93.38
463.657	82.38
463.876	80.38
464.096	90.38
464.316	91.38
464.536	91.38
464.755	89.38
464.975	102.38
465.195	147.38
465.414	118.38
465.634	98.38
465.854	79.38
466.073	85.38
466.293	80.38
466.512	96.38
466.732	92.38
466.951	80.38
467.171	91.38
467.391	87.38
467.61	90.38
467.829	86.38
468.049	91.38
468.268	97.38
468.488	97.38
468.707	86.38
468.927	90.38
469.146	75.38
469.365	78.38
469.585	105.38
469.804	94.38
470.023	91.38
470.243	105.38
470.462	96.38
470.681	100.38
470.901	93.38
471.12	86.38
471.339	81.38
471.558	82.38
471.777	94.38
471.997	89.38
472.216	117.38
472.435	130.38
472.654	96.38
472.873	92.38
473.092	92.38
473.311	83.38
473.53	68.38
473.749	68.38
473.968	76.38
474.187	93.38
474.406	82.38
474.625	85.38
474.844	95.38
475.063	88.38
475.282	95.38
475.501	83.38
475.72	108.38
475.939	90.38
476.158	73.38
476.377	79.38
476.596	76.38
476.814	89.38
477.033	91.38
477.252	98.38
477.471	86.38
477.69	89.38
477.908	83.38
478.127	94.38
478.346	102.38
478.564	84.38
478.783	94.38
479.002	86.38
479.22	93.38
479.439	107.38
479.658	111.38
479.876	98.38
480.095	88.38
480.313	78.38
480.532	102.38
480.751	95.38
480.969	96.38
481.188	192.38
481.406	132.38
481.624	90.38
481.843	88.38
482.061	95.38
482.28	76.38
482.498	87.38
482.717	85.38
482.935	90.38
483.153	95.38
483.372	85.38
483.59	90.38
483.808	95.38
484.027	75.38
484.245	91.38
484.463	94.38
484.681	100.38
484.9	95.38
485.118	105.38
485.336	100.38
485.554	86.38
485.772	112.38
485.99	116.38
486.209	119.38
486.427	106.38
486.645	112.38
486.863	100.38
487.081	102.38
487.299	108.38
487.517	95.38
487.735	95.38
487.953	97.38
488.171	105.38
488.389	106.38
488.607	102.38
488.825	84.38
489.043	96.38
489.261	68.38
489.479	69.38
489.696	92.38
489.914	94.38
490.132	84.38
490.35	98.38
490.568	82.38
490.786	89.38
491.003	80.38
491.221	86.38
491.439	90.38
491.657	87.38
491.874	99.38
492.092	87.38
492.31	90.38
492.527	76.38
492.745	83.38
492.963	90.38
493.18	85.38
493.398	79.38
493.615	89.38
493.833	88.38
494.05	92.38
494.268	98.38
494.485	89.38
494.703	88.38
494.92	95.38
495.138	91.38
495.355	97.38
495.573	92.38
495.79	93.38
496.008	85.38
496.225	98.38
496.442	78.38
496.66	86.38
496.877	94.38
497.094	89.38
497.312	81.38
497.529	91.38
497.746	84.38
497.963	87.38
498.181	78.38
498.398	94.38
498.615	100.38
498.832	97.38
499.049	87.38
499.267	93.38
499.484	83.38
499.701	95.38
499.918	80.38
500.135	74.38
500.352	86.38
500.569	82.38
500.786	100.38
501.003	97.38
501.22	88.38
501.437	86.38
501.654	86.38
501.871	94.38
502.088	79.38
502.305	96.38
502.522	85.38
502.739	86.38
502.956	87.38
503.172	100.38
503.389	98.38
503.606	86.38
503.823	75.38
504.04	69.38
504.256	99.38
504.473	92.38
504.69	84.38
504.907	93.38
505.123	90.38
505.34	99.38
505.557	86.38
505.773	78.38
505.99	100.38
506.207	85.38
506.423	93.38
506.64	84.38
506.856	78.38
507.073	83.38
507.289	98.38
507.506	95.38
507.722	108.38
507.939	84.38
508.155	97.38
508.372	93.38
508.588	86.38
508.805	76.38
509.021	95.38
509.238	100.38
509.454	101.38
509.67	101.38
509.887	103.38
510.103	127.38
510.319	167.38
510.536	586.38
510.752	1739.38
510.968	500.38
511.184	138.38
511.401	98.38
511.617	103.38
511.833	102.38
512.049	85.38
512.265	86.38
512.481	92.38
512.698	94.38
512.914	84.38
513.13	86.38
513.346	90.38
513.562	93.38
513.778	103.38
513.994	93.38
514.21	84.38
514.426	107.38
514.642	109.38
514.858	121.38
515.074	138.38
515.29	342.38
515.506	1035.38
515.721	392.38
515.937	136.38
