Data from Circ_1980_H10_HRD10591_00051.txt Node
Date: Wed Jan 03 12:38:08 EST 2024
User: Yrep
Spectrometer: HR+D1059
Trigger mode: 1
Integration Time (sec): 1.000000E-1
Scans to average: 1
Electric dark correction enabled: true
Nonlinearity correction enabled: false
Boxcar width: 0
XAxis mode: Wavelengths
Number of Pixels in Spectrum: 2048
>>>>>Begin Spectral Data<<<<<
223.165	-11.44
223.4	-11.44
223.635	-11.44
223.869	-17.44
224.104	-13.44
224.338	-30.44
224.573	-29.44
224.808	-21.44
225.042	-6.44
225.277	-2.44
225.511	16.56
225.746	1.56
225.98	9.56
226.215	19.56
226.449	15.56
226.683	9.56
226.918	26.56
227.152	33.56
227.387	48.56
227.621	41.56
227.856	48.56
228.09	54.56
228.324	54.56
228.559	75.56
228.793	63.56
229.027	61.56
229.262	71.56
229.496	91.56
229.73	74.56
229.964	89.56
230.199	77.56
230.433	89.56
230.667	79.56
230.901	85.56
231.136	88.56
231.37	104.56
231.604	86.56
231.838	78.56
232.072	80.56
232.306	89.56
232.541	74.56
232.775	74.56
233.009	68.56
233.243	89.56
233.477	70.56
233.711	85.56
233.945	89.56
234.179	86.56
234.413	85.56
234.647	85.56
234.881	88.56
235.115	71.56
235.349	89.56
235.583	90.56
235.817	81.56
236.051	82.56
236.285	86.56
236.519	80.56
236.753	89.56
236.987	72.56
237.221	85.56
237.455	87.56
237.689	91.56
237.922	89.56
238.156	80.56
238.39	80.56
238.624	87.56
238.858	93.56
239.091	89.56
239.325	88.56
239.559	89.56
239.793	73.56
240.027	87.56
240.26	90.56
240.494	87.56
240.728	75.56
240.961	74.56
241.195	95.56
241.429	90.56
241.662	94.56
241.896	81.56
242.13	77.56
242.363	57.56
242.597	74.56
242.83	73.56
243.064	79.56
243.298	89.56
243.531	83.56
243.765	89.56
243.998	77.56
244.232	80.56
244.465	85.56
244.699	82.56
244.932	80.56
245.166	77.56
245.399	78.56
245.633	90.56
245.866	90.56
246.099	75.56
246.333	75.56
246.566	78.56
246.8	87.56
247.033	70.56
247.266	80.56
247.5	78.56
247.733	80.56
247.966	89.56
248.2	79.56
248.433	82.56
248.666	78.56
248.899	95.56
249.133	96.56
249.366	79.56
249.599	95.56
249.832	104.56
250.066	72.56
250.299	85.56
250.532	71.56
250.765	81.56
250.998	83.56
251.231	74.56
251.465	99.56
251.698	85.56
251.931	76.56
252.164	86.56
252.397	81.56
252.63	73.56
252.863	86.56
253.096	79.56
253.329	93.56
253.562	76.56
253.795	93.56
254.028	76.56
254.261	77.56
254.494	91.56
254.727	78.56
254.96	81.56
255.193	98.56
255.426	87.56
255.659	89.56
255.892	92.56
256.124	83.56
256.357	86.56
256.59	81.56
256.823	97.56
257.056	85.56
257.289	93.56
257.521	82.56
257.754	78.56
257.987	72.56
258.22	95.56
258.452	86.56
258.685	85.56
258.918	70.56
259.151	99.56
259.383	82.56
259.616	71.56
259.849	82.56
260.081	85.56
260.314	82.56
260.547	87.56
260.779	94.56
261.012	92.56
261.244	79.56
261.477	82.56
261.71	83.56
261.942	100.56
262.175	111.56
262.407	78.56
262.64	82.56
262.872	83.56
263.105	98.56
263.337	80.56
263.57	77.56
263.802	87.56
264.035	65.56
264.267	82.56
264.499	96.56
264.732	89.56
264.964	85.56
265.197	85.56
265.429	73.56
265.661	80.56
265.894	92.56
266.126	103.56
266.358	102.56
266.591	95.56
266.823	76.56
267.055	95.56
267.287	93.56
267.52	77.56
267.752	85.56
267.984	73.56
268.216	87.56
268.448	90.56
268.681	96.56
268.913	93.56
269.145	79.56
269.377	94.56
269.609	73.56
269.841	86.56
270.073	87.56
270.306	97.56
270.538	91.56
270.77	86.56
271.002	87.56
271.234	90.56
271.466	109.56
271.698	81.56
271.93	93.56
272.162	77.56
272.394	92.56
272.626	79.56
272.858	85.56
273.09	94.56
273.322	95.56
273.553	95.56
273.785	94.56
274.017	88.56
274.249	77.56
274.481	88.56
274.713	95.56
274.945	103.56
275.176	94.56
275.408	95.56
275.64	105.56
275.872	79.56
276.104	93.56
276.335	109.56
276.567	87.56
276.799	83.56
277.031	99.56
277.262	87.56
277.494	97.56
277.726	93.56
277.957	93.56
278.189	80.56
278.421	92.56
278.652	74.56
278.884	83.56
279.115	111.56
279.347	76.56
279.579	82.56
279.81	95.56
280.042	95.56
280.273	79.56
280.505	87.56
280.736	82.56
280.968	89.56
281.199	94.56
281.431	82.56
281.662	95.56
281.894	90.56
282.125	104.56
282.356	122.56
282.588	126.56
282.819	109.56
283.051	97.56
283.282	98.56
283.513	96.56
283.745	97.56
283.976	96.56
284.207	94.56
284.439	79.56
284.67	101.56
284.901	92.56
285.132	84.56
285.364	83.56
285.595	101.56
285.826	102.56
286.057	89.56
286.288	82.56
286.52	84.56
286.751	87.56
286.982	89.56
287.213	94.56
287.444	89.56
287.675	83.56
287.906	92.56
288.138	69.56
288.369	94.56
288.6	80.56
288.831	92.56
289.062	79.56
289.293	91.56
289.524	81.56
289.755	85.56
289.986	89.56
290.217	98.56
290.448	86.56
290.679	98.56
290.91	97.56
291.141	87.56
291.371	105.56
291.602	108.56
291.833	86.56
292.064	98.56
292.295	78.56
292.526	88.56
292.757	89.56
292.987	106.56
293.218	90.56
293.449	96.56
293.68	101.56
293.91	98.56
294.141	97.56
294.372	95.56
294.603	89.56
294.833	98.56
295.064	91.56
295.295	95.56
295.525	83.56
295.756	91.56
295.987	105.56
296.217	109.56
296.448	123.56
296.679	87.56
296.909	96.56
297.14	83.56
297.37	94.56
297.601	82.56
297.831	98.56
298.062	96.56
298.292	73.56
298.523	109.56
298.753	90.56
298.984	93.56
299.214	77.56
299.445	108.56
299.675	93.56
299.905	94.56
300.136	92.56
300.366	106.56
300.597	97.56
300.827	93.56
301.057	110.56
301.288	102.56
301.518	96.56
301.748	82.56
301.979	90.56
302.209	90.56
302.439	101.56
302.669	78.56
302.9	80.56
303.13	96.56
303.36	92.56
303.59	101.56
303.82	98.56
304.051	87.56
304.281	93.56
304.511	88.56
304.741	95.56
304.971	85.56
305.201	88.56
305.431	95.56
305.661	110.56
305.891	94.56
306.121	76.56
306.352	106.56
306.582	85.56
306.812	96.56
307.042	104.56
307.272	83.56
307.502	79.56
307.731	95.56
307.961	91.56
308.191	83.56
308.421	91.56
308.651	93.56
308.881	97.56
309.111	92.56
309.341	100.56
309.571	97.56
309.8	106.56
310.03	98.56
310.26	104.56
310.49	98.56
310.72	72.56
310.949	107.56
311.179	104.56
311.409	91.56
311.639	91.56
311.868	96.56
312.098	91.56
312.328	101.56
312.557	89.56
312.787	94.56
313.017	93.56
313.246	113.56
313.476	100.56
313.706	104.56
313.935	94.56
314.165	97.56
314.394	101.56
314.624	102.56
314.853	75.56
315.083	97.56
315.312	102.56
315.542	93.56
315.771	86.56
316.001	107.56
316.23	91.56
316.46	78.56
316.689	93.56
316.919	87.56
317.148	108.56
317.377	90.56
317.607	91.56
317.836	95.56
318.065	98.56
318.295	91.56
318.524	101.56
318.753	87.56
318.983	90.56
319.212	104.56
319.441	105.56
319.67	97.56
319.9	98.56
320.129	103.56
320.358	90.56
320.587	91.56
320.816	89.56
321.046	90.56
321.275	102.56
321.504	95.56
321.733	103.56
321.962	95.56
322.191	90.56
322.42	110.56
322.649	90.56
322.878	99.56
323.108	113.56
323.337	119.56
323.566	122.56
323.795	128.56
324.024	162.56
324.253	286.56
324.482	590.56
324.71	1167.56
324.939	1508.56
325.168	571.56
325.397	207.56
325.626	125.56
325.855	113.56
326.084	118.56
326.313	123.56
326.542	144.56
326.77	191.56
326.999	343.56
327.228	683.56
327.457	1230.56
327.686	961.56
327.914	290.56
328.143	136.56
328.372	141.56
328.6	131.56
328.829	109.56
329.058	117.56
329.287	109.56
329.515	111.56
329.744	114.56
329.972	107.56
330.201	121.56
330.43	123.56
330.658	114.56
330.887	110.56
331.115	124.56
331.344	94.56
331.572	98.56
331.801	94.56
332.03	103.56
332.258	111.56
332.486	100.56
332.715	99.56
332.943	91.56
333.172	94.56
333.4	95.56
333.629	103.56
333.857	99.56
334.085	98.56
334.314	97.56
334.542	121.56
334.771	115.56
334.999	89.56
335.227	92.56
335.455	111.56
335.684	111.56
335.912	97.56
336.14	96.56
336.369	104.56
336.597	89.56
336.825	102.56
337.053	110.56
337.281	105.56
337.51	96.56
337.738	103.56
337.966	98.56
338.194	107.56
338.422	98.56
338.65	89.56
338.878	99.56
339.106	106.56
339.334	102.56
339.562	89.56
339.79	88.56
340.018	99.56
340.246	78.56
340.474	89.56
340.702	89.56
340.93	98.56
341.158	98.56
341.386	94.56
341.614	99.56
341.842	97.56
342.07	92.56
342.298	97.56
342.526	101.56
342.754	87.56
342.981	88.56
343.209	100.56
343.437	87.56
343.665	89.56
343.893	101.56
344.12	93.56
344.348	94.56
344.576	105.56
344.804	96.56
345.031	97.56
345.259	92.56
345.487	94.56
345.714	93.56
345.942	101.56
346.17	96.56
346.397	100.56
346.625	81.56
346.853	94.56
347.08	90.56
347.308	83.56
347.535	97.56
347.763	83.56
347.99	96.56
348.218	103.56
348.445	91.56
348.673	106.56
348.9	95.56
349.128	111.56
349.355	102.56
349.583	86.56
349.81	82.56
350.037	103.56
350.265	97.56
350.492	96.56
350.72	99.56
350.947	96.56
351.174	105.56
351.402	104.56
351.629	95.56
351.856	90.56
352.083	102.56
352.311	99.56
352.538	98.56
352.765	109.56
352.992	106.56
353.22	95.56
353.447	95.56
353.674	110.56
353.901	103.56
354.128	110.56
354.355	99.56
354.583	89.56
354.81	89.56
355.037	118.56
355.264	102.56
355.491	98.56
355.718	95.56
355.945	100.56
356.172	95.56
356.399	108.56
356.626	91.56
356.853	86.56
357.08	96.56
357.307	98.56
357.534	85.56
357.761	73.56
357.988	93.56
358.215	103.56
358.441	90.56
358.668	95.56
358.895	98.56
359.122	79.56
359.349	90.56
359.576	105.56
359.802	95.56
360.029	98.56
360.256	104.56
360.483	95.56
360.709	101.56
360.936	82.56
361.163	91.56
361.39	97.56
361.616	89.56
361.843	90.56
362.07	99.56
362.296	98.56
362.523	88.56
362.749	80.56
362.976	94.56
363.203	109.56
363.429	92.56
363.656	100.56
363.882	101.56
364.109	90.56
364.335	99.56
364.562	99.56
364.788	89.56
365.015	89.56
365.241	98.56
365.468	98.56
365.694	85.56
365.92	98.56
366.147	104.56
366.373	86.56
366.599	89.56
366.826	76.56
367.052	76.56
367.278	97.56
367.505	89.56
367.731	92.56
367.957	94.56
368.184	88.56
368.41	97.56
368.636	106.56
368.862	97.56
369.089	103.56
369.315	103.56
369.541	102.56
369.767	87.56
369.993	95.56
370.219	99.56
370.445	89.56
370.672	95.56
370.898	83.56
371.124	90.56
371.35	83.56
371.576	81.56
371.802	90.56
372.028	99.56
372.254	83.56
372.48	98.56
372.706	99.56
372.932	99.56
373.158	102.56
373.384	97.56
373.61	81.56
373.835	102.56
374.061	90.56
374.287	91.56
374.513	99.56
374.739	85.56
374.965	89.56
375.191	93.56
375.416	96.56
375.642	96.56
375.868	96.56
376.094	102.56
376.319	92.56
376.545	96.56
376.771	84.56
376.997	98.56
377.222	96.56
377.448	101.56
377.674	87.56
377.899	86.56
378.125	93.56
378.35	102.56
378.576	94.56
378.802	97.56
379.027	95.56
379.253	85.56
379.478	91.56
379.704	88.56
379.929	83.56
380.155	110.56
380.38	97.56
380.606	89.56
380.831	107.56
381.057	91.56
381.282	92.56
381.507	107.56
381.733	107.56
381.958	117.56
382.184	100.56
382.409	91.56
382.634	103.56
382.86	95.56
383.085	96.56
383.31	103.56
383.535	111.56
383.761	105.56
383.986	104.56
384.211	100.56
384.436	94.56
384.662	101.56
384.887	107.56
385.112	96.56
385.337	107.56
385.562	111.56
385.787	113.56
386.013	105.56
386.238	110.56
386.463	99.56
386.688	107.56
386.913	103.56
387.138	114.56
387.363	105.56
387.588	109.56
387.813	101.56
388.038	107.56
388.263	114.56
388.488	107.56
388.713	100.56
388.938	89.56
389.163	93.56
389.387	105.56
389.612	105.56
389.837	98.56
390.062	113.56
390.287	90.56
390.512	87.56
390.736	89.56
390.961	90.56
391.186	88.56
391.411	94.56
391.636	91.56
391.86	89.56
392.085	93.56
392.31	88.56
392.534	105.56
392.759	81.56
392.984	93.56
393.208	85.56
393.433	97.56
393.658	102.56
393.882	90.56
394.107	82.56
394.331	89.56
394.556	75.56
394.78	91.56
395.005	92.56
395.229	95.56
395.454	85.56
395.678	90.56
395.903	77.56
396.127	101.56
396.352	95.56
396.576	77.56
396.801	102.56
397.025	101.56
397.249	90.56
397.474	92.56
397.698	75.56
397.922	85.56
398.147	89.56
398.371	76.56
398.595	89.56
398.82	90.56
399.044	95.56
399.268	87.56
399.492	90.56
399.717	85.56
399.941	88.56
400.165	80.56
400.389	99.56
400.613	98.56
400.837	81.56
401.062	87.56
401.286	86.56
401.51	108.56
401.734	79.56
401.958	106.56
402.182	107.56
402.406	125.56
402.63	91.56
402.854	69.56
403.078	87.56
403.302	87.56
403.526	94.56
403.75	80.56
403.974	106.56
404.198	99.56
404.422	87.56
404.645	93.56
404.869	93.56
405.093	86.56
405.317	89.56
405.541	104.56
405.765	101.56
405.988	103.56
406.212	134.56
406.436	155.56
406.66	114.56
406.883	101.56
407.107	87.56
407.331	96.56
407.555	89.56
407.778	89.56
408.002	106.56
408.226	97.56
408.449	83.56
408.673	93.56
408.896	105.56
409.12	99.56
409.344	89.56
409.567	92.56
409.791	96.56
410.014	95.56
410.238	94.56
410.461	84.56
410.685	98.56
410.908	101.56
411.132	101.56
411.355	94.56
411.578	99.56
411.802	102.56
412.025	90.56
412.249	93.56
412.472	112.56
412.695	91.56
412.919	97.56
413.142	107.56
413.365	85.56
413.589	103.56
413.812	103.56
414.035	96.56
414.258	109.56
414.482	80.56
414.705	78.56
414.928	103.56
415.151	106.56
415.374	95.56
415.597	94.56
415.821	105.56
416.044	97.56
416.267	101.56
416.49	76.56
416.713	86.56
416.936	93.56
417.159	89.56
417.382	100.56
417.605	91.56
417.828	103.56
418.051	94.56
418.274	99.56
418.497	81.56
418.72	99.56
418.943	83.56
419.166	96.56
419.389	87.56
419.611	91.56
419.834	80.56
420.057	89.56
420.28	93.56
420.503	85.56
420.726	86.56
420.948	88.56
421.171	93.56
421.394	90.56
421.617	89.56
421.839	77.56
422.062	92.56
422.285	97.56
422.507	80.56
422.73	96.56
422.953	96.56
423.175	97.56
423.398	101.56
423.621	96.56
423.843	87.56
424.066	81.56
424.288	93.56
424.511	98.56
424.733	85.56
424.956	87.56
425.178	94.56
425.401	94.56
425.623	111.56
425.846	80.56
426.068	83.56
426.291	90.56
426.513	85.56
426.735	90.56
426.958	86.56
427.18	106.56
427.402	122.56
427.625	134.56
427.847	111.56
428.069	111.56
428.292	96.56
428.514	98.56
428.736	93.56
428.958	99.56
429.181	86.56
429.403	81.56
429.625	89.56
429.847	87.56
430.069	99.56
430.292	95.56
430.514	82.56
430.736	89.56
430.958	66.56
431.18	87.56
431.402	90.56
431.624	95.56
431.846	91.56
432.068	81.56
432.29	94.56
432.512	92.56
432.734	87.56
432.956	105.56
433.178	90.56
433.4	96.56
433.622	108.56
433.844	92.56
434.066	103.56
434.287	97.56
434.509	101.56
434.731	84.56
434.953	90.56
435.175	98.56
435.397	98.56
435.618	93.56
435.84	86.56
436.062	112.56
436.284	107.56
436.505	89.56
436.727	101.56
436.949	99.56
437.17	92.56
437.392	93.56
437.614	95.56
437.835	89.56
438.057	100.56
438.278	96.56
438.5	100.56
438.721	96.56
438.943	95.56
439.165	98.56
439.386	93.56
439.608	77.56
439.829	88.56
440.05	109.56
440.272	110.56
440.493	95.56
440.715	98.56
440.936	85.56
441.158	85.56
441.379	86.56
441.6	98.56
441.822	78.56
442.043	80.56
442.264	96.56
442.486	97.56
442.707	105.56
442.928	94.56
443.149	118.56
443.371	114.56
443.592	107.56
443.813	102.56
444.034	92.56
444.255	90.56
444.476	93.56
444.698	103.56
444.919	92.56
445.14	135.56
445.361	109.56
445.582	107.56
445.803	117.56
446.024	115.56
446.245	103.56
446.466	112.56
446.687	95.56
446.908	101.56
447.129	93.56
447.35	89.56
447.571	87.56
447.792	90.56
448.013	82.56
448.234	97.56
448.455	93.56
448.675	86.56
448.896	102.56
449.117	98.56
449.338	92.56
449.559	109.56
449.779	106.56
450	97.56
450.221	92.56
450.442	99.56
450.662	99.56
450.883	106.56
451.104	111.56
451.324	100.56
451.545	104.56
451.766	98.56
451.986	93.56
452.207	77.56
452.428	95.56
452.648	93.56
452.869	89.56
453.089	103.56
453.31	84.56
453.53	85.56
453.751	91.56
453.971	77.56
454.192	100.56
454.412	88.56
454.633	89.56
454.853	80.56
455.073	92.56
455.294	94.56
455.514	90.56
455.734	94.56
455.955	92.56
456.175	84.56
456.395	94.56
456.616	106.56
456.836	91.56
457.056	87.56
457.276	88.56
457.497	82.56
457.717	83.56
457.937	85.56
458.157	81.56
458.377	87.56
458.598	116.56
458.818	113.56
459.038	124.56
459.258	110.56
459.478	95.56
459.698	87.56
459.918	110.56
460.138	93.56
460.358	87.56
460.578	82.56
460.798	86.56
461.018	80.56
461.238	91.56
461.458	81.56
461.678	93.56
461.898	93.56
462.118	104.56
462.338	102.56
462.558	91.56
462.777	85.56
462.997	102.56
463.217	78.56
463.437	89.56
463.657	79.56
463.876	82.56
464.096	90.56
464.316	93.56
464.536	92.56
464.755	86.56
464.975	93.56
465.195	130.56
465.414	134.56
465.634	98.56
465.854	91.56
466.073	90.56
466.293	80.56
466.512	88.56
466.732	69.56
466.951	93.56
467.171	89.56
467.391	94.56
467.61	98.56
467.829	102.56
468.049	104.56
468.268	97.56
468.488	72.56
468.707	90.56
468.927	92.56
469.146	88.56
469.365	92.56
469.585	90.56
469.804	87.56
470.023	106.56
470.243	94.56
470.462	101.56
470.681	92.56
470.901	87.56
471.12	93.56
471.339	84.56
471.558	86.56
471.777	99.56
471.997	97.56
472.216	127.56
472.435	139.56
472.654	107.56
472.873	90.56
473.092	88.56
473.311	93.56
473.53	101.56
473.749	96.56
473.968	94.56
474.187	106.56
474.406	102.56
474.625	96.56
474.844	87.56
475.063	105.56
475.282	89.56
475.501	93.56
475.72	99.56
475.939	77.56
476.158	86.56
476.377	83.56
476.596	86.56
476.814	83.56
477.033	79.56
477.252	96.56
477.471	79.56
477.69	89.56
477.908	96.56
478.127	96.56
478.346	91.56
478.564	81.56
478.783	88.56
479.002	87.56
479.22	79.56
479.439	95.56
479.658	113.56
479.876	108.56
480.095	97.56
480.313	102.56
480.532	103.56
480.751	94.56
480.969	110.56
481.188	176.56
481.406	136.56
481.624	108.56
481.843	95.56
482.061	90.56
482.28	113.56
482.498	85.56
482.717	83.56
482.935	89.56
483.153	87.56
483.372	99.56
483.59	93.56
483.808	103.56
484.027	94.56
484.245	96.56
484.463	118.56
484.681	98.56
484.9	103.56
485.118	99.56
485.336	97.56
485.554	102.56
485.772	109.56
485.99	108.56
486.209	111.56
486.427	89.56
486.645	101.56
486.863	100.56
487.081	97.56
487.299	109.56
487.517	102.56
487.735	91.56
487.953	95.56
488.171	94.56
488.389	96.56
488.607	106.56
488.825	86.56
489.043	89.56
489.261	111.56
489.479	97.56
489.696	86.56
489.914	88.56
490.132	66.56
490.35	90.56
490.568	77.56
490.786	85.56
491.003	93.56
491.221	96.56
491.439	96.56
491.657	104.56
491.874	112.56
492.092	106.56
492.31	96.56
492.527	105.56
492.745	98.56
492.963	89.56
493.18	102.56
493.398	86.56
493.615	92.56
493.833	95.56
494.05	86.56
494.268	91.56
494.485	102.56
494.703	81.56
494.92	98.56
495.138	94.56
495.355	110.56
495.573	97.56
495.79	108.56
496.008	88.56
496.225	102.56
496.442	110.56
496.66	97.56
496.877	101.56
497.094	97.56
497.312	78.56
497.529	101.56
497.746	83.56
497.963	88.56
498.181	80.56
498.398	93.56
498.615	102.56
498.832	95.56
499.049	95.56
499.267	99.56
499.484	99.56
499.701	103.56
499.918	88.56
500.135	87.56
500.352	97.56
500.569	99.56
500.786	103.56
501.003	93.56
501.22	101.56
501.437	107.56
501.654	87.56
501.871	109.56
502.088	91.56
502.305	85.56
502.522	95.56
502.739	94.56
502.956	79.56
503.172	93.56
503.389	91.56
503.606	96.56
503.823	98.56
504.04	89.56
504.256	97.56
504.473	91.56
504.69	90.56
504.907	105.56
505.123	79.56
505.34	85.56
505.557	89.56
505.773	89.56
505.99	103.56
506.207	106.56
506.423	85.56
506.64	109.56
506.856	93.56
507.073	94.56
507.289	101.56
507.506	104.56
507.722	102.56
507.939	94.56
508.155	98.56
508.372	94.56
508.588	90.56
508.805	94.56
509.021	87.56
509.238	104.56
509.454	112.56
509.67	103.56
509.887	114.56
510.103	116.56
510.319	169.56
510.536	544.56
510.752	1501.56
510.968	425.56
511.184	116.56
511.401	99.56
511.617	85.56
511.833	97.56
512.049	98.56
512.265	85.56
512.481	101.56
512.698	85.56
512.914	87.56
513.13	95.56
513.346	85.56
513.562	93.56
513.778	89.56
513.994	107.56
514.21	92.56
514.426	101.56
514.642	112.56
514.858	114.56
515.074	134.56
515.29	296.56
