Data from Circ_1980_H10_HRD10591_00010.txt Node
Date: Wed Jan 03 12:38:00 EST 2024
User: Yrep
Spectrometer: HR+D1059
Trigger mode: 1
Integration Time (sec): 1.000000E-1
Scans to average: 1
Electric dark correction enabled: true
Nonlinearity correction enabled: false
Boxcar width: 0
XAxis mode: Wavelengths
Number of Pixels in Spectrum: 2048
>>>>>Begin Spectral Data<<<<<
223.165	-25.81
223.4	-25.81
223.635	-25.81
223.869	-16.81
224.104	-22.81
224.338	0.19
224.573	-13.81
224.808	-23.81
225.042	-5.81
225.277	1.19
225.511	-7.81
225.746	-1.81
225.98	15.19
226.215	10.19
226.449	15.19
226.683	19.19
226.918	25.19
227.152	32.19
227.387	29.19
227.621	44.19
227.856	32.19
228.09	41.19
228.324	38.19
228.559	58.19
228.793	43.19
229.027	66.19
229.262	68.19
229.496	60.19
229.73	67.19
229.964	75.19
230.199	58.19
230.433	76.19
230.667	78.19
230.901	77.19
231.136	77.19
231.37	72.19
231.604	74.19
231.838	84.19
232.072	93.19
232.306	74.19
232.541	89.19
232.775	76.19
233.009	74.19
233.243	86.19
233.477	70.19
233.711	81.19
233.945	71.19
234.179	84.19
234.413	70.19
234.647	61.19
234.881	71.19
235.115	66.19
235.349	88.19
235.583	70.19
235.817	82.19
236.051	64.19
236.285	80.19
236.519	77.19
236.753	75.19
236.987	76.19
237.221	77.19
237.455	78.19
237.689	61.19
237.922	64.19
238.156	83.19
238.39	73.19
238.624	86.19
238.858	80.19
239.091	70.19
239.325	68.19
239.559	83.19
239.793	77.19
240.027	61.19
240.26	75.19
240.494	77.19
240.728	80.19
240.961	75.19
241.195	68.19
241.429	78.19
241.662	74.19
241.896	86.19
242.13	73.19
242.363	74.19
242.597	85.19
242.83	69.19
243.064	84.19
243.298	81.19
243.531	80.19
243.765	71.19
243.998	76.19
244.232	69.19
244.465	75.19
244.699	77.19
244.932	77.19
245.166	74.19
245.399	69.19
245.633	75.19
245.866	78.19
246.099	73.19
246.333	83.19
246.566	74.19
246.8	60.19
247.033	80.19
247.266	73.19
247.5	75.19
247.733	82.19
247.966	82.19
248.2	84.19
248.433	74.19
248.666	66.19
248.899	72.19
249.133	84.19
249.366	99.19
249.599	87.19
249.832	66.19
250.066	64.19
250.299	79.19
250.532	65.19
250.765	66.19
250.998	84.19
251.231	76.19
251.465	72.19
251.698	79.19
251.931	88.19
252.164	81.19
252.397	76.19
252.63	86.19
252.863	68.19
253.096	72.19
253.329	59.19
253.562	77.19
253.795	82.19
254.028	84.19
254.261	67.19
254.494	76.19
254.727	82.19
254.96	83.19
255.193	74.19
255.426	88.19
255.659	81.19
255.892	77.19
256.124	82.19
256.357	81.19
256.59	78.19
256.823	73.19
257.056	80.19
257.289	71.19
257.521	80.19
257.754	89.19
257.987	84.19
258.22	83.19
258.452	80.19
258.685	91.19
258.918	83.19
259.151	89.19
259.383	80.19
259.616	92.19
259.849	76.19
260.081	75.19
260.314	81.19
260.547	98.19
260.779	91.19
261.012	82.19
261.244	84.19
261.477	96.19
261.71	86.19
261.942	98.19
262.175	99.19
262.407	80.19
262.64	79.19
262.872	84.19
263.105	84.19
263.337	72.19
263.57	81.19
263.802	86.19
264.035	79.19
264.267	80.19
264.499	84.19
264.732	86.19
264.964	86.19
265.197	84.19
265.429	77.19
265.661	84.19
265.894	73.19
266.126	80.19
266.358	87.19
266.591	82.19
266.823	77.19
267.055	88.19
267.287	74.19
267.52	80.19
267.752	67.19
267.984	80.19
268.216	91.19
268.448	83.19
268.681	87.19
268.913	86.19
269.145	80.19
269.377	77.19
269.609	70.19
269.841	77.19
270.073	94.19
270.306	76.19
270.538	71.19
270.77	94.19
271.002	92.19
271.234	90.19
271.466	77.19
271.698	93.19
271.93	85.19
272.162	92.19
272.394	83.19
272.626	81.19
272.858	75.19
273.09	74.19
273.322	74.19
273.553	88.19
273.785	90.19
274.017	99.19
274.249	87.19
274.481	74.19
274.713	103.19
274.945	85.19
275.176	81.19
275.408	77.19
275.64	82.19
275.872	86.19
276.104	88.19
276.335	104.19
276.567	90.19
276.799	84.19
277.031	97.19
277.262	82.19
277.494	84.19
277.726	86.19
277.957	72.19
278.189	90.19
278.421	88.19
278.652	85.19
278.884	84.19
279.115	75.19
279.347	90.19
279.579	88.19
279.81	83.19
280.042	78.19
280.273	100.19
280.505	84.19
280.736	73.19
280.968	92.19
281.199	84.19
281.431	63.19
281.662	92.19
281.894	86.19
282.125	94.19
282.356	114.19
282.588	116.19
282.819	102.19
283.051	88.19
283.282	87.19
283.513	74.19
283.745	91.19
283.976	101.19
284.207	83.19
284.439	81.19
284.67	93.19
284.901	92.19
285.132	82.19
285.364	94.19
285.595	90.19
285.826	81.19
286.057	91.19
286.288	81.19
286.52	86.19
286.751	83.19
286.982	85.19
287.213	93.19
287.444	100.19
287.675	84.19
287.906	88.19
288.138	72.19
288.369	88.19
288.6	84.19
288.831	94.19
289.062	104.19
289.293	77.19
289.524	91.19
289.755	80.19
289.986	78.19
290.217	88.19
290.448	88.19
290.679	86.19
290.91	90.19
291.141	85.19
291.371	92.19
291.602	98.19
291.833	78.19
292.064	93.19
292.295	99.19
292.526	90.19
292.757	89.19
292.987	104.19
293.218	94.19
293.449	77.19
293.68	92.19
293.91	85.19
294.141	96.19
294.372	75.19
294.603	94.19
294.833	93.19
295.064	94.19
295.295	86.19
295.525	86.19
295.756	98.19
295.987	99.19
296.217	110.19
296.448	120.19
296.679	90.19
296.909	94.19
297.14	82.19
297.37	88.19
297.601	69.19
297.831	94.19
298.062	71.19
298.292	87.19
298.523	96.19
298.753	76.19
298.984	101.19
299.214	90.19
299.445	96.19
299.675	96.19
299.905	88.19
300.136	90.19
300.366	75.19
300.597	100.19
300.827	85.19
301.057	98.19
301.288	97.19
301.518	77.19
301.748	85.19
301.979	104.19
302.209	96.19
302.439	87.19
302.669	72.19
302.9	89.19
303.13	96.19
303.36	98.19
303.59	93.19
303.82	81.19
304.051	88.19
304.281	89.19
304.511	91.19
304.741	95.19
304.971	87.19
305.201	86.19
305.431	84.19
305.661	89.19
305.891	76.19
306.121	93.19
306.352	104.19
306.582	102.19
306.812	91.19
307.042	91.19
307.272	93.19
307.502	77.19
307.731	98.19
307.961	96.19
308.191	97.19
308.421	99.19
308.651	97.19
308.881	102.19
309.111	99.19
309.341	78.19
309.571	100.19
309.8	90.19
310.03	97.19
310.26	95.19
310.49	93.19
310.72	86.19
310.949	101.19
311.179	96.19
311.409	70.19
311.639	81.19
311.868	90.19
312.098	105.19
312.328	108.19
312.557	98.19
312.787	102.19
313.017	95.19
313.246	98.19
313.476	101.19
313.706	84.19
313.935	91.19
314.165	91.19
314.394	91.19
314.624	91.19
314.853	88.19
315.083	92.19
315.312	97.19
315.542	82.19
315.771	102.19
316.001	102.19
316.23	99.19
316.46	83.19
316.689	87.19
316.919	89.19
317.148	81.19
317.377	95.19
317.607	81.19
317.836	93.19
318.065	78.19
318.295	96.19
318.524	82.19
318.753	77.19
318.983	90.19
319.212	98.19
319.441	105.19
319.67	99.19
319.9	88.19
320.129	101.19
320.358	102.19
320.587	95.19
320.816	107.19
321.046	114.19
321.275	90.19
321.504	84.19
321.733	89.19
321.962	88.19
322.191	95.19
322.42	102.19
322.649	93.19
322.878	105.19
323.108	88.19
323.337	100.19
323.566	115.19
323.795	130.19
324.024	182.19
324.253	313.19
324.482	616.19
324.71	1146.19
324.939	1508.19
325.168	606.19
325.397	210.19
325.626	139.19
325.855	116.19
326.084	93.19
326.313	121.19
326.542	139.19
326.77	198.19
326.999	353.19
327.228	676.19
327.457	1240.19
327.686	994.19
327.914	300.19
328.143	171.19
328.372	134.19
328.6	119.19
328.829	109.19
329.058	120.19
329.287	114.19
329.515	83.19
329.744	96.19
329.972	89.19
330.201	85.19
330.43	107.19
330.658	121.19
330.887	123.19
331.115	104.19
331.344	93.19
331.572	85.19
331.801	95.19
332.03	105.19
332.258	95.19
332.486	88.19
332.715	89.19
332.943	83.19
333.172	88.19
333.4	102.19
333.629	110.19
333.857	100.19
334.085	108.19
334.314	102.19
334.542	122.19
334.771	109.19
334.999	115.19
335.227	80.19
335.455	89.19
335.684	89.19
335.912	104.19
336.14	93.19
336.369	96.19
336.597	86.19
336.825	97.19
337.053	95.19
337.281	85.19
337.51	77.19
337.738	86.19
337.966	86.19
338.194	77.19
338.422	84.19
338.65	99.19
338.878	79.19
339.106	93.19
339.334	98.19
339.562	90.19
339.79	91.19
340.018	77.19
340.246	95.19
340.474	98.19
340.702	91.19
340.93	92.19
341.158	93.19
341.386	98.19
341.614	84.19
341.842	77.19
342.07	101.19
342.298	100.19
342.526	96.19
342.754	76.19
342.981	92.19
343.209	85.19
343.437	86.19
343.665	81.19
343.893	90.19
344.12	101.19
344.348	92.19
344.576	85.19
344.804	92.19
345.031	97.19
345.259	104.19
345.487	82.19
345.714	95.19
345.942	88.19
346.17	85.19
346.397	80.19
346.625	90.19
346.853	104.19
347.08	94.19
347.308	98.19
347.535	97.19
347.763	100.19
347.99	92.19
348.218	102.19
348.445	83.19
348.673	90.19
348.9	101.19
349.128	117.19
349.355	92.19
349.583	91.19
349.81	93.19
350.037	98.19
350.265	105.19
350.492	72.19
350.72	89.19
350.947	97.19
351.174	106.19
351.402	107.19
351.629	94.19
351.856	108.19
352.083	112.19
352.311	89.19
352.538	104.19
352.765	117.19
352.992	112.19
353.22	105.19
353.447	93.19
353.674	97.19
353.901	83.19
354.128	105.19
354.355	103.19
354.583	99.19
354.81	88.19
355.037	77.19
355.264	98.19
355.491	104.19
355.718	106.19
355.945	97.19
356.172	101.19
356.399	92.19
356.626	84.19
356.853	86.19
357.08	91.19
357.307	95.19
357.534	78.19
357.761	102.19
357.988	101.19
358.215	107.19
358.441	95.19
358.668	88.19
358.895	105.19
359.122	97.19
359.349	89.19
359.576	104.19
359.802	93.19
360.029	105.19
360.256	94.19
360.483	92.19
360.709	96.19
360.936	94.19
361.163	101.19
361.39	100.19
361.616	105.19
361.843	96.19
362.07	96.19
362.296	86.19
362.523	78.19
362.749	85.19
362.976	79.19
363.203	87.19
363.429	83.19
363.656	107.19
363.882	83.19
364.109	73.19
364.335	88.19
364.562	77.19
364.788	89.19
365.015	106.19
365.241	84.19
365.468	109.19
365.694	91.19
365.92	88.19
366.147	75.19
366.373	96.19
366.599	91.19
366.826	93.19
367.052	71.19
367.278	84.19
367.505	96.19
367.731	78.19
367.957	90.19
368.184	89.19
368.41	91.19
368.636	89.19
368.862	105.19
369.089	100.19
369.315	100.19
369.541	94.19
369.767	98.19
369.993	81.19
370.219	83.19
370.445	85.19
370.672	90.19
370.898	108.19
371.124	92.19
371.35	91.19
371.576	77.19
371.802	88.19
372.028	97.19
372.254	87.19
372.48	74.19
372.706	86.19
372.932	90.19
373.158	102.19
373.384	102.19
373.61	96.19
373.835	85.19
374.061	86.19
374.287	86.19
374.513	100.19
374.739	83.19
374.965	89.19
375.191	98.19
375.416	93.19
375.642	83.19
375.868	87.19
376.094	77.19
376.319	86.19
376.545	93.19
376.771	77.19
376.997	93.19
377.222	88.19
377.448	90.19
377.674	83.19
377.899	98.19
378.125	91.19
378.35	88.19
378.576	90.19
378.802	87.19
379.027	84.19
379.253	87.19
379.478	87.19
379.704	91.19
379.929	104.19
380.155	98.19
380.38	109.19
380.606	93.19
380.831	88.19
381.057	100.19
381.282	96.19
381.507	102.19
381.733	103.19
381.958	94.19
382.184	108.19
382.409	100.19
382.634	116.19
382.86	104.19
383.085	102.19
383.31	103.19
383.535	125.19
383.761	98.19
383.986	95.19
384.211	117.19
384.436	120.19
384.662	96.19
384.887	113.19
385.112	99.19
385.337	122.19
385.562	116.19
385.787	108.19
386.013	104.19
386.238	127.19
386.463	117.19
386.688	113.19
386.913	105.19
387.138	124.19
387.363	110.19
387.588	108.19
387.813	121.19
388.038	105.19
388.263	121.19
388.488	123.19
388.713	109.19
388.938	101.19
389.163	89.19
389.387	100.19
389.612	86.19
389.837	92.19
390.062	88.19
390.287	92.19
390.512	96.19
390.736	93.19
390.961	90.19
391.186	87.19
391.411	106.19
391.636	100.19
391.86	82.19
392.085	85.19
392.31	87.19
392.534	85.19
392.759	80.19
392.984	86.19
393.208	91.19
393.433	91.19
393.658	85.19
393.882	88.19
394.107	78.19
394.331	84.19
394.556	88.19
394.78	95.19
395.005	90.19
395.229	72.19
395.454	92.19
395.678	80.19
395.903	85.19
396.127	83.19
396.352	90.19
396.576	89.19
396.801	86.19
397.025	93.19
397.249	75.19
397.474	83.19
397.698	91.19
397.922	97.19
398.147	80.19
398.371	77.19
398.595	77.19
398.82	81.19
399.044	87.19
399.268	83.19
399.492	88.19
399.717	82.19
399.941	90.19
400.165	89.19
400.389	82.19
400.613	85.19
400.837	87.19
401.062	85.19
401.286	101.19
401.51	86.19
401.734	73.19
401.958	98.19
402.182	104.19
402.406	141.19
402.63	112.19
402.854	80.19
403.078	94.19
403.302	82.19
403.526	90.19
403.75	92.19
403.974	80.19
404.198	85.19
404.422	86.19
404.645	86.19
404.869	77.19
405.093	96.19
405.317	84.19
405.541	90.19
405.765	103.19
405.988	101.19
406.212	136.19
406.436	188.19
406.66	119.19
406.883	90.19
407.107	80.19
407.331	81.19
407.555	96.19
407.778	84.19
408.002	92.19
408.226	89.19
408.449	83.19
408.673	85.19
408.896	97.19
409.12	100.19
409.344	94.19
409.567	82.19
409.791	81.19
410.014	98.19
410.238	76.19
410.461	81.19
410.685	106.19
410.908	93.19
411.132	97.19
411.355	90.19
411.578	95.19
411.802	73.19
412.025	88.19
412.249	92.19
412.472	84.19
412.695	98.19
412.919	89.19
413.142	98.19
413.365	88.19
413.589	91.19
413.812	82.19
414.035	88.19
414.258	97.19
414.482	104.19
414.705	92.19
414.928	84.19
415.151	86.19
415.374	83.19
415.597	87.19
415.821	84.19
416.044	84.19
416.267	77.19
416.49	91.19
416.713	90.19
416.936	82.19
417.159	85.19
417.382	97.19
417.605	97.19
417.828	94.19
418.051	79.19
418.274	98.19
418.497	91.19
418.72	92.19
418.943	91.19
419.166	87.19
419.389	88.19
419.611	98.19
419.834	86.19
420.057	89.19
420.28	84.19
420.503	86.19
420.726	94.19
420.948	86.19
421.171	98.19
421.394	81.19
421.617	86.19
421.839	84.19
422.062	80.19
422.285	100.19
422.507	112.19
422.73	92.19
422.953	91.19
423.175	100.19
423.398	89.19
423.621	97.19
423.843	77.19
424.066	87.19
424.288	84.19
424.511	91.19
424.733	91.19
424.956	100.19
425.178	82.19
425.401	97.19
425.623	85.19
425.846	78.19
426.068	90.19
426.291	92.19
426.513	80.19
426.735	90.19
426.958	88.19
427.18	95.19
427.402	106.19
427.625	140.19
427.847	123.19
428.069	85.19
428.292	87.19
428.514	82.19
428.736	87.19
428.958	93.19
429.181	80.19
429.403	88.19
429.625	91.19
429.847	81.19
430.069	104.19
430.292	92.19
430.514	77.19
430.736	73.19
430.958	89.19
431.18	72.19
431.402	72.19
431.624	96.19
431.846	86.19
432.068	72.19
432.29	94.19
432.512	85.19
432.734	89.19
432.956	87.19
433.178	89.19
433.4	90.19
433.622	82.19
433.844	92.19
434.066	85.19
434.287	72.19
434.509	76.19
434.731	98.19
434.953	84.19
435.175	80.19
435.397	89.19
435.618	72.19
435.84	84.19
436.062	109.19
436.284	99.19
436.505	91.19
436.727	104.19
436.949	92.19
437.17	94.19
437.392	84.19
437.614	96.19
437.835	78.19
438.057	110.19
438.278	100.19
438.5	110.19
438.721	101.19
438.943	100.19
439.165	87.19
439.386	84.19
439.608	89.19
439.829	93.19
440.05	104.19
440.272	126.19
440.493	96.19
440.715	86.19
440.936	77.19
441.158	78.19
441.379	79.19
441.6	97.19
441.822	94.19
442.043	76.19
442.264	100.19
442.486	87.19
442.707	89.19
442.928	100.19
443.149	115.19
443.371	99.19
443.592	105.19
443.813	85.19
444.034	102.19
444.255	90.19
444.476	85.19
444.698	88.19
444.919	80.19
445.14	125.19
445.361	112.19
445.582	104.19
445.803	106.19
446.024	94.19
446.245	99.19
446.466	97.19
446.687	89.19
446.908	82.19
447.129	86.19
447.35	81.19
447.571	87.19
447.792	95.19
448.013	83.19
448.234	88.19
448.455	87.19
448.675	98.19
448.896	102.19
449.117	89.19
449.338	93.19
449.559	117.19
449.779	112.19
450	85.19
450.221	74.19
450.442	98.19
450.662	98.19
450.883	98.19
451.104	106.19
451.324	80.19
451.545	100.19
451.766	77.19
451.986	88.19
452.207	81.19
452.428	91.19
452.648	91.19
452.869	109.19
453.089	102.19
453.31	104.19
453.53	99.19
453.751	90.19
453.971	84.19
454.192	89.19
454.412	86.19
454.633	76.19
454.853	91.19
455.073	82.19
455.294	80.19
455.514	90.19
455.734	96.19
455.955	91.19
456.175	82.19
456.395	95.19
456.616	94.19
456.836	71.19
457.056	89.19
457.276	92.19
457.497	86.19
457.717	91.19
457.937	82.19
458.157	82.19
458.377	83.19
458.598	95.19
458.818	112.19
459.038	132.19
459.258	105.19
459.478	102.19
459.698	78.19
459.918	86.19
460.138	77.19
460.358	91.19
460.578	82.19
460.798	73.19
461.018	82.19
461.238	93.19
461.458	92.19
461.678	94.19
461.898	81.19
462.118	80.19
462.338	84.19
462.558	73.19
462.777	81.19
462.997	90.19
463.217	83.19
463.437	91.19
463.657	97.19
463.876	88.19
464.096	93.19
464.316	82.19
464.536	80.19
464.755	101.19
464.975	94.19
465.195	133.19
465.414	116.19
465.634	101.19
465.854	91.19
466.073	95.19
466.293	92.19
466.512	91.19
466.732	80.19
466.951	81.19
467.171	93.19
467.391	86.19
467.61	78.19
467.829	80.19
468.049	92.19
468.268	99.19
468.488	89.19
468.707	81.19
468.927	93.19
469.146	89.19
469.365	73.19
469.585	98.19
469.804	84.19
470.023	78.19
470.243	90.19
470.462	97.19
470.681	122.19
470.901	100.19
471.12	70.19
471.339	73.19
471.558	60.19
471.777	80.19
471.997	96.19
472.216	100.19
472.435	129.19
472.654	93.19
472.873	96.19
473.092	97.19
473.311	92.19
473.53	77.19
473.749	85.19
473.968	88.19
474.187	104.19
474.406	95.19
474.625	78.19
474.844	72.19
475.063	89.19
475.282	80.19
475.501	92.19
475.72	94.19
475.939	91.19
476.158	87.19
476.377	77.19
476.596	72.19
476.814	77.19
477.033	94.19
477.252	82.19
477.471	94.19
477.69	81.19
477.908	92.19
478.127	83.19
478.346	93.19
478.564	84.19
478.783	82.19
479.002	96.19
479.22	99.19
479.439	108.19
479.658	89.19
479.876	82.19
480.095	93.19
480.313	83.19
480.532	85.19
480.751	79.19
480.969	111.19
481.188	186.19
481.406	154.19
481.624	96.19
481.843	81.19
482.061	82.19
482.28	87.19
482.498	87.19
482.717	91.19
482.935	92.19
483.153	89.19
483.372	84.19
483.59	80.19
483.808	81.19
484.027	92.19
484.245	98.19
484.463	106.19
484.681	76.19
484.9	93.19
485.118	92.19
485.336	87.19
485.554	95.19
485.772	101.19
485.99	113.19
486.209	92.19
486.427	113.19
486.645	124.19
486.863	107.19
487.081	107.19
487.299	76.19
487.517	92.19
487.735	108.19
487.953	77.19
488.171	88.19
488.389	100.19
488.607	90.19
488.825	87.19
489.043	81.19
489.261	98.19
489.479	97.19
489.696	81.19
489.914	76.19
490.132	88.19
490.35	87.19
490.568	74.19
490.786	94.19
491.003	72.19
491.221	90.19
491.439	92.19
491.657	82.19
491.874	88.19
492.092	82.19
492.31	104.19
492.527	102.19
492.745	86.19
492.963	106.19
493.18	93.19
493.398	76.19
493.615	90.19
493.833	87.19
494.05	96.19
494.268	87.19
494.485	83.19
494.703	92.19
494.92	84.19
495.138	94.19
495.355	92.19
495.573	89.19
495.79	68.19
496.008	101.19
496.225	98.19
496.442	88.19
496.66	89.19
496.877	74.19
497.094	90.19
497.312	86.19
497.529	92.19
497.746	91.19
497.963	71.19
498.181	97.19
498.398	91.19
498.615	104.19
498.832	109.19
499.049	87.19
499.267	85.19
499.484	98.19
499.701	90.19
499.918	85.19
500.135	90.19
500.352	87.19
500.569	86.19
500.786	73.19
501.003	96.19
501.22	82.19
501.437	94.19
501.654	93.19
501.871	94.19
502.088	81.19
502.305	93.19
502.522	87.19
502.739	73.19
502.956	81.19
503.172	78.19
503.389	77.19
503.606	98.19
503.823	83.19
504.04	92.19
504.256	90.19
504.473	105.19
504.69	96.19
504.907	83.19
505.123	93.19
505.34	84.19
505.557	80.19
505.773	78.19
505.99	96.19
506.207	77.19
506.423	95.19
506.64	87.19
506.856	80.19
507.073	72.19
507.289	87.19
507.506	93.19
507.722	103.19
507.939	96.19
508.155	101.19
508.372	85.19
508.588	78.19
508.805	87.19
509.021	90.19
509.238	89.19
509.454	97.19
509.67	101.19
509.887	86.19
510.103	113.19
510.319	178.19
510.536	549.19
510.752	1674.19
510.968	488.19
511.184	137.19
511.401	105.19
511.617	84.19
511.833	83.19
512.049	90.19
512.265	90.19
512.481	85.19
512.698	92.19
512.914	85.19
513.13	91.19
513.346	84.19
513.562	89.19
513.778	93.19
513.994	86.19
514.21	103.19
514.426	102.19
514.642	110.19
514.858	109.19
515.074	129.19
515.29	298.19
515.506	963.19
515.721	358.19
515.937	116.19
516.153	110.19
516.369	93.19
516.585	102.19
