Data from Circ_1980_H10_HRD10591_00022.txt Node
Date: Wed Jan 03 12:38:02 EST 2024
User: Yrep
Spectrometer: HR+D1059
Trigger mode: 1
Integration Time (sec): 1.000000E-1
Scans to average: 1
Electric dark correction enabled: true
Nonlinearity correction enabled: false
Boxcar width: 0
XAxis mode: Wavelengths
Number of Pixels in Spectrum: 2048
>>>>>Begin Spectral Data<<<<<
223.165	-6.88
223.4	-6.88
223.635	-6.88
223.869	-14.88
224.104	-17.88
224.338	-14.88
224.573	-25.88
224.808	-13.88
225.042	-7.88
225.277	-0.88
225.511	-8.88
225.746	3.12
225.98	16.12
226.215	11.12
226.449	6.12
226.683	23.12
226.918	14.12
227.152	38.12
227.387	37.12
227.621	53.12
227.856	56.12
228.09	36.12
228.324	57.12
228.559	46.12
228.793	61.12
229.027	65.12
229.262	75.12
229.496	76.12
229.73	90.12
229.964	85.12
230.199	78.12
230.433	86.12
230.667	76.12
230.901	59.12
231.136	83.12
231.37	74.12
231.604	81.12
231.838	70.12
232.072	81.12
232.306	98.12
232.541	85.12
232.775	72.12
233.009	79.12
233.243	77.12
233.477	73.12
233.711	71.12
233.945	79.12
234.179	95.12
234.413	78.12
234.647	78.12
234.881	84.12
235.115	83.12
235.349	83.12
235.583	69.12
235.817	63.12
236.051	90.12
236.285	91.12
236.519	75.12
236.753	99.12
236.987	73.12
237.221	74.12
237.455	80.12
237.689	72.12
237.922	77.12
238.156	63.12
238.39	80.12
238.624	78.12
238.858	76.12
239.091	78.12
239.325	73.12
239.559	77.12
239.793	80.12
240.027	87.12
240.26	83.12
240.494	75.12
240.728	66.12
240.961	68.12
241.195	73.12
241.429	81.12
241.662	66.12
241.896	70.12
242.13	80.12
242.363	71.12
242.597	80.12
242.83	76.12
243.064	86.12
243.298	80.12
243.531	78.12
243.765	80.12
243.998	89.12
244.232	88.12
244.465	86.12
244.699	83.12
244.932	67.12
245.166	67.12
245.399	84.12
245.633	91.12
245.866	95.12
246.099	73.12
246.333	72.12
246.566	75.12
246.8	79.12
247.033	83.12
247.266	73.12
247.5	91.12
247.733	75.12
247.966	83.12
248.2	99.12
248.433	83.12
248.666	98.12
248.899	86.12
249.133	78.12
249.366	82.12
249.599	96.12
249.832	88.12
250.066	86.12
250.299	88.12
250.532	100.12
250.765	87.12
250.998	84.12
251.231	88.12
251.465	73.12
251.698	85.12
251.931	95.12
252.164	70.12
252.397	83.12
252.63	71.12
252.863	83.12
253.096	81.12
253.329	81.12
253.562	85.12
253.795	69.12
254.028	89.12
254.261	77.12
254.494	81.12
254.727	86.12
254.96	92.12
255.193	83.12
255.426	79.12
255.659	76.12
255.892	79.12
256.124	88.12
256.357	79.12
256.59	88.12
256.823	80.12
257.056	94.12
257.289	76.12
257.521	96.12
257.754	93.12
257.987	86.12
258.22	86.12
258.452	75.12
258.685	80.12
258.918	86.12
259.151	78.12
259.383	81.12
259.616	79.12
259.849	90.12
260.081	71.12
260.314	84.12
260.547	83.12
260.779	80.12
261.012	81.12
261.244	78.12
261.477	84.12
261.71	89.12
261.942	102.12
262.175	113.12
262.407	85.12
262.64	88.12
262.872	81.12
263.105	88.12
263.337	89.12
263.57	87.12
263.802	75.12
264.035	78.12
264.267	87.12
264.499	85.12
264.732	77.12
264.964	71.12
265.197	82.12
265.429	90.12
265.661	79.12
265.894	93.12
266.126	90.12
266.358	84.12
266.591	85.12
266.823	97.12
267.055	85.12
267.287	95.12
267.52	80.12
267.752	90.12
267.984	87.12
268.216	92.12
268.448	88.12
268.681	87.12
268.913	70.12
269.145	81.12
269.377	78.12
269.609	80.12
269.841	95.12
270.073	80.12
270.306	93.12
270.538	82.12
270.77	90.12
271.002	90.12
271.234	85.12
271.466	103.12
271.698	97.12
271.93	77.12
272.162	93.12
272.394	94.12
272.626	84.12
272.858	87.12
273.09	83.12
273.322	81.12
273.553	80.12
273.785	91.12
274.017	80.12
274.249	89.12
274.481	83.12
274.713	83.12
274.945	87.12
275.176	94.12
275.408	90.12
275.64	89.12
275.872	97.12
276.104	77.12
276.335	89.12
276.567	93.12
276.799	103.12
277.031	87.12
277.262	88.12
277.494	87.12
277.726	88.12
277.957	96.12
278.189	83.12
278.421	87.12
278.652	84.12
278.884	86.12
279.115	80.12
279.347	85.12
279.579	96.12
279.81	77.12
280.042	91.12
280.273	92.12
280.505	91.12
280.736	79.12
280.968	85.12
281.199	88.12
281.431	106.12
281.662	69.12
281.894	104.12
282.125	93.12
282.356	113.12
282.588	127.12
282.819	99.12
283.051	69.12
283.282	87.12
283.513	94.12
283.745	83.12
283.976	78.12
284.207	75.12
284.439	87.12
284.67	85.12
284.901	80.12
285.132	94.12
285.364	98.12
285.595	101.12
285.826	78.12
286.057	102.12
286.288	78.12
286.52	79.12
286.751	71.12
286.982	95.12
287.213	83.12
287.444	80.12
287.675	86.12
287.906	91.12
288.138	85.12
288.369	107.12
288.6	95.12
288.831	89.12
289.062	90.12
289.293	95.12
289.524	88.12
289.755	93.12
289.986	89.12
290.217	78.12
290.448	79.12
290.679	89.12
290.91	85.12
291.141	83.12
291.371	87.12
291.602	92.12
291.833	89.12
292.064	98.12
292.295	80.12
292.526	107.12
292.757	78.12
292.987	78.12
293.218	96.12
293.449	91.12
293.68	88.12
293.91	103.12
294.141	97.12
294.372	89.12
294.603	106.12
294.833	88.12
295.064	85.12
295.295	93.12
295.525	96.12
295.756	94.12
295.987	114.12
296.217	105.12
296.448	115.12
296.679	101.12
296.909	102.12
297.14	103.12
297.37	86.12
297.601	93.12
297.831	86.12
298.062	92.12
298.292	97.12
298.523	71.12
298.753	80.12
298.984	79.12
299.214	82.12
299.445	99.12
299.675	86.12
299.905	101.12
300.136	72.12
300.366	95.12
300.597	88.12
300.827	99.12
301.057	96.12
301.288	96.12
301.518	100.12
301.748	99.12
301.979	95.12
302.209	95.12
302.439	88.12
302.669	86.12
302.9	92.12
303.13	92.12
303.36	86.12
303.59	96.12
303.82	100.12
304.051	88.12
304.281	104.12
304.511	78.12
304.741	87.12
304.971	107.12
305.201	92.12
305.431	84.12
305.661	86.12
305.891	88.12
306.121	90.12
306.352	98.12
306.582	95.12
306.812	92.12
307.042	99.12
307.272	97.12
307.502	94.12
307.731	109.12
307.961	89.12
308.191	103.12
308.421	87.12
308.651	97.12
308.881	94.12
309.111	86.12
309.341	98.12
309.571	97.12
309.8	81.12
310.03	98.12
310.26	101.12
310.49	84.12
310.72	100.12
310.949	96.12
311.179	103.12
311.409	101.12
311.639	98.12
311.868	108.12
312.098	120.12
312.328	93.12
312.557	95.12
312.787	99.12
313.017	114.12
313.246	99.12
313.476	91.12
313.706	100.12
313.935	94.12
314.165	99.12
314.394	102.12
314.624	86.12
314.853	81.12
315.083	78.12
315.312	98.12
315.542	99.12
315.771	93.12
316.001	95.12
316.23	106.12
316.46	93.12
316.689	97.12
316.919	86.12
317.148	95.12
317.377	91.12
317.607	99.12
317.836	85.12
318.065	100.12
318.295	98.12
318.524	86.12
318.753	96.12
318.983	89.12
319.212	105.12
319.441	97.12
319.67	107.12
319.9	76.12
320.129	92.12
320.358	97.12
320.587	111.12
320.816	85.12
321.046	105.12
321.275	101.12
321.504	101.12
321.733	93.12
321.962	102.12
322.191	105.12
322.42	109.12
322.649	108.12
322.878	111.12
323.108	115.12
323.337	110.12
323.566	107.12
323.795	123.12
324.024	174.12
324.253	324.12
324.482	640.12
324.71	1317.12
324.939	1693.12
325.168	662.12
325.397	216.12
325.626	134.12
325.855	130.12
326.084	113.12
326.313	135.12
326.542	135.12
326.77	203.12
326.999	353.12
327.228	707.12
327.457	1333.12
327.686	1081.12
327.914	320.12
328.143	164.12
328.372	122.12
328.6	126.12
328.829	114.12
329.058	109.12
329.287	111.12
329.515	109.12
329.744	107.12
329.972	104.12
330.201	112.12
330.43	113.12
330.658	111.12
330.887	126.12
331.115	112.12
331.344	97.12
331.572	93.12
331.801	87.12
332.03	90.12
332.258	87.12
332.486	98.12
332.715	83.12
332.943	97.12
333.172	81.12
333.4	72.12
333.629	104.12
333.857	106.12
334.085	96.12
334.314	109.12
334.542	120.12
334.771	135.12
334.999	102.12
335.227	101.12
335.455	96.12
335.684	101.12
335.912	107.12
336.14	103.12
336.369	86.12
336.597	95.12
336.825	103.12
337.053	101.12
337.281	100.12
337.51	99.12
337.738	95.12
337.966	110.12
338.194	93.12
338.422	99.12
338.65	90.12
338.878	76.12
339.106	87.12
339.334	80.12
339.562	91.12
339.79	97.12
340.018	96.12
340.246	97.12
340.474	106.12
340.702	90.12
340.93	100.12
341.158	106.12
341.386	90.12
341.614	110.12
341.842	79.12
342.07	113.12
342.298	91.12
342.526	105.12
342.754	101.12
342.981	86.12
343.209	106.12
343.437	120.12
343.665	92.12
343.893	81.12
344.12	102.12
344.348	97.12
344.576	100.12
344.804	80.12
345.031	82.12
345.259	103.12
345.487	96.12
345.714	99.12
345.942	99.12
346.17	84.12
346.397	81.12
346.625	107.12
346.853	75.12
347.08	89.12
347.308	95.12
347.535	100.12
347.763	104.12
347.99	103.12
348.218	104.12
348.445	86.12
348.673	80.12
348.9	96.12
349.128	86.12
349.355	102.12
349.583	102.12
349.81	88.12
350.037	89.12
350.265	105.12
350.492	108.12
350.72	105.12
350.947	103.12
351.174	77.12
351.402	100.12
351.629	99.12
351.856	94.12
352.083	93.12
352.311	101.12
352.538	104.12
352.765	109.12
352.992	110.12
353.22	110.12
353.447	99.12
353.674	111.12
353.901	92.12
354.128	92.12
354.355	107.12
354.583	116.12
354.81	112.12
355.037	89.12
355.264	94.12
355.491	85.12
355.718	83.12
355.945	104.12
356.172	119.12
356.399	101.12
356.626	102.12
356.853	98.12
357.08	87.12
357.307	111.12
357.534	92.12
357.761	75.12
357.988	99.12
358.215	96.12
358.441	103.12
358.668	103.12
358.895	95.12
359.122	100.12
359.349	97.12
359.576	84.12
359.802	102.12
360.029	109.12
360.256	108.12
360.483	87.12
360.709	79.12
360.936	99.12
361.163	101.12
361.39	106.12
361.616	81.12
361.843	96.12
362.07	84.12
362.296	93.12
362.523	91.12
362.749	113.12
362.976	95.12
363.203	88.12
363.429	88.12
363.656	111.12
363.882	92.12
364.109	91.12
364.335	95.12
364.562	87.12
364.788	77.12
365.015	97.12
365.241	95.12
365.468	110.12
365.694	95.12
365.92	90.12
366.147	88.12
366.373	80.12
366.599	107.12
366.826	89.12
367.052	92.12
367.278	84.12
367.505	94.12
367.731	87.12
367.957	92.12
368.184	95.12
368.41	88.12
368.636	109.12
368.862	117.12
369.089	106.12
369.315	88.12
369.541	99.12
369.767	88.12
369.993	95.12
370.219	94.12
370.445	93.12
370.672	101.12
370.898	90.12
371.124	85.12
371.35	87.12
371.576	96.12
371.802	95.12
372.028	105.12
372.254	100.12
372.48	82.12
372.706	92.12
372.932	95.12
373.158	87.12
373.384	87.12
373.61	92.12
373.835	92.12
374.061	87.12
374.287	101.12
374.513	103.12
374.739	83.12
374.965	86.12
375.191	83.12
375.416	94.12
375.642	91.12
375.868	99.12
376.094	90.12
376.319	99.12
376.545	92.12
376.771	90.12
376.997	94.12
377.222	78.12
377.448	94.12
377.674	100.12
377.899	93.12
378.125	105.12
378.35	112.12
378.576	105.12
378.802	115.12
379.027	109.12
379.253	99.12
379.478	96.12
379.704	103.12
379.929	101.12
380.155	106.12
380.38	99.12
380.606	102.12
380.831	95.12
381.057	110.12
381.282	92.12
381.507	107.12
381.733	102.12
381.958	126.12
382.184	120.12
382.409	122.12
382.634	106.12
382.86	106.12
383.085	110.12
383.31	111.12
383.535	108.12
383.761	101.12
383.986	100.12
384.211	112.12
384.436	109.12
384.662	124.12
384.887	99.12
385.112	118.12
385.337	113.12
385.562	121.12
385.787	108.12
386.013	110.12
386.238	111.12
386.463	113.12
386.688	104.12
386.913	109.12
387.138	115.12
387.363	110.12
387.588	111.12
387.813	116.12
388.038	116.12
388.263	118.12
388.488	111.12
388.713	84.12
388.938	109.12
389.163	106.12
389.387	79.12
389.612	78.12
389.837	90.12
390.062	99.12
390.287	92.12
390.512	95.12
390.736	92.12
390.961	95.12
391.186	96.12
391.411	87.12
391.636	94.12
391.86	95.12
392.085	80.12
392.31	94.12
392.534	101.12
392.759	91.12
392.984	106.12
393.208	87.12
393.433	96.12
393.658	96.12
393.882	97.12
394.107	100.12
394.331	107.12
394.556	92.12
394.78	100.12
395.005	86.12
395.229	83.12
395.454	85.12
395.678	84.12
395.903	113.12
396.127	86.12
396.352	80.12
396.576	93.12
396.801	87.12
397.025	91.12
397.249	105.12
397.474	93.12
397.698	81.12
397.922	92.12
398.147	76.12
398.371	81.12
398.595	85.12
398.82	95.12
399.044	79.12
399.268	67.12
399.492	91.12
399.717	85.12
399.941	102.12
400.165	85.12
400.389	72.12
400.613	85.12
400.837	100.12
401.062	85.12
401.286	96.12
401.51	103.12
401.734	92.12
401.958	78.12
402.182	119.12
402.406	132.12
402.63	108.12
402.854	96.12
403.078	76.12
403.302	80.12
403.526	97.12
403.75	96.12
403.974	94.12
404.198	95.12
404.422	83.12
404.645	84.12
404.869	89.12
405.093	92.12
405.317	104.12
405.541	99.12
405.765	99.12
405.988	111.12
406.212	156.12
406.436	182.12
406.66	124.12
406.883	108.12
407.107	95.12
407.331	98.12
407.555	103.12
407.778	103.12
408.002	87.12
408.226	104.12
408.449	96.12
408.673	80.12
408.896	88.12
409.12	93.12
409.344	100.12
409.567	81.12
409.791	88.12
410.014	100.12
410.238	107.12
410.461	89.12
410.685	92.12
410.908	107.12
411.132	90.12
411.355	84.12
411.578	95.12
411.802	86.12
412.025	86.12
412.249	79.12
412.472	92.12
412.695	91.12
412.919	99.12
413.142	87.12
413.365	103.12
413.589	83.12
413.812	80.12
414.035	81.12
414.258	92.12
414.482	91.12
414.705	95.12
414.928	104.12
415.151	98.12
415.374	99.12
415.597	85.12
415.821	97.12
416.044	84.12
416.267	83.12
416.49	86.12
416.713	81.12
416.936	89.12
417.159	84.12
417.382	94.12
417.605	102.12
417.828	94.12
418.051	89.12
418.274	96.12
418.497	85.12
418.72	102.12
418.943	85.12
419.166	101.12
419.389	97.12
419.611	95.12
419.834	84.12
420.057	95.12
420.28	93.12
420.503	77.12
420.726	79.12
420.948	80.12
421.171	90.12
421.394	96.12
421.617	100.12
421.839	91.12
422.062	84.12
422.285	103.12
422.507	100.12
422.73	83.12
422.953	92.12
423.175	97.12
423.398	81.12
423.621	99.12
423.843	87.12
424.066	80.12
424.288	87.12
424.511	101.12
424.733	91.12
424.956	100.12
425.178	89.12
425.401	101.12
425.623	99.12
425.846	89.12
426.068	81.12
426.291	87.12
426.513	104.12
426.735	94.12
426.958	88.12
427.18	104.12
427.402	132.12
427.625	149.12
427.847	121.12
428.069	93.12
428.292	87.12
428.514	83.12
428.736	81.12
428.958	85.12
429.181	79.12
429.403	86.12
429.625	91.12
429.847	105.12
430.069	98.12
430.292	84.12
430.514	93.12
430.736	84.12
430.958	95.12
431.18	73.12
431.402	89.12
431.624	86.12
431.846	89.12
432.068	97.12
432.29	95.12
432.512	95.12
432.734	81.12
432.956	91.12
433.178	87.12
433.4	93.12
433.622	83.12
433.844	94.12
434.066	95.12
434.287	92.12
434.509	84.12
434.731	86.12
434.953	77.12
435.175	101.12
435.397	90.12
435.618	101.12
435.84	96.12
436.062	107.12
436.284	110.12
436.505	99.12
436.727	98.12
436.949	92.12
437.17	85.12
437.392	80.12
437.614	76.12
437.835	97.12
438.057	100.12
438.278	104.12
438.5	103.12
438.721	105.12
438.943	95.12
439.165	91.12
439.386	99.12
439.608	91.12
439.829	86.12
440.05	105.12
440.272	113.12
440.493	94.12
440.715	82.12
440.936	85.12
441.158	89.12
441.379	95.12
441.6	92.12
441.822	72.12
442.043	93.12
442.264	101.12
442.486	91.12
442.707	91.12
442.928	108.12
443.149	126.12
443.371	115.12
443.592	90.12
443.813	102.12
444.034	91.12
444.255	101.12
444.476	85.12
444.698	82.12
444.919	97.12
445.14	141.12
445.361	104.12
445.582	112.12
445.803	124.12
446.024	127.12
446.245	102.12
446.466	91.12
446.687	105.12
446.908	98.12
447.129	90.12
447.35	92.12
447.571	83.12
447.792	87.12
448.013	84.12
448.234	107.12
448.455	96.12
448.675	96.12
448.896	98.12
449.117	104.12
449.338	95.12
449.559	107.12
449.779	117.12
450	85.12
450.221	75.12
450.442	71.12
450.662	89.12
450.883	98.12
451.104	103.12
451.324	77.12
451.545	91.12
451.766	93.12
451.986	76.12
452.207	90.12
452.428	78.12
452.648	82.12
452.869	95.12
453.089	100.12
453.31	135.12
453.53	86.12
453.751	81.12
453.971	95.12
454.192	82.12
454.412	86.12
454.633	91.12
454.853	96.12
455.073	92.12
455.294	103.12
455.514	90.12
455.734	91.12
455.955	85.12
456.175	84.12
456.395	88.12
456.616	78.12
456.836	83.12
457.056	71.12
457.276	95.12
457.497	89.12
457.717	78.12
457.937	80.12
458.157	74.12
458.377	64.12
458.598	99.12
458.818	112.12
459.038	139.12
459.258	90.12
459.478	83.12
459.698	82.12
459.918	91.12
460.138	64.12
460.358	78.12
460.578	86.12
460.798	100.12
461.018	88.12
461.238	88.12
461.458	78.12
461.678	85.12
461.898	65.12
462.118	75.12
462.338	89.12
462.558	84.12
462.777	99.12
462.997	92.12
463.217	96.12
463.437	75.12
463.657	80.12
463.876	79.12
464.096	96.12
464.316	86.12
464.536	96.12
464.755	85.12
464.975	100.12
465.195	128.12
465.414	137.12
465.634	97.12
465.854	103.12
466.073	97.12
466.293	94.12
466.512	94.12
466.732	86.12
466.951	79.12
467.171	92.12
467.391	87.12
467.61	92.12
467.829	86.12
468.049	103.12
468.268	100.12
468.488	102.12
468.707	85.12
468.927	80.12
469.146	76.12
469.365	91.12
469.585	76.12
469.804	105.12
470.023	83.12
470.243	85.12
470.462	97.12
470.681	94.12
470.901	83.12
471.12	97.12
471.339	85.12
471.558	77.12
471.777	97.12
471.997	93.12
472.216	102.12
472.435	118.12
472.654	103.12
472.873	99.12
473.092	88.12
473.311	81.12
473.53	90.12
473.749	71.12
473.968	93.12
474.187	112.12
474.406	91.12
474.625	71.12
474.844	89.12
475.063	90.12
475.282	78.12
475.501	75.12
475.72	92.12
475.939	80.12
476.158	80.12
476.377	86.12
476.596	90.12
476.814	83.12
477.033	99.12
477.252	96.12
477.471	85.12
477.69	78.12
477.908	90.12
478.127	87.12
478.346	88.12
478.564	87.12
478.783	93.12
479.002	86.12
479.22	93.12
479.439	104.12
479.658	90.12
479.876	101.12
480.095	80.12
480.313	83.12
480.532	84.12
480.751	88.12
480.969	107.12
481.188	182.12
481.406	118.12
481.624	80.12
481.843	80.12
482.061	90.12
482.28	109.12
482.498	103.12
482.717	91.12
482.935	91.12
483.153	79.12
483.372	88.12
483.59	106.12
483.808	81.12
484.027	101.12
484.245	86.12
484.463	86.12
484.681	93.12
484.9	74.12
485.118	97.12
485.336	107.12
485.554	100.12
485.772	108.12
485.99	111.12
486.209	100.12
486.427	112.12
486.645	111.12
486.863	104.12
487.081	108.12
487.299	99.12
487.517	85.12
487.735	92.12
487.953	85.12
488.171	95.12
488.389	81.12
488.607	101.12
488.825	100.12
489.043	100.12
489.261	99.12
489.479	87.12
489.696	92.12
489.914	81.12
490.132	91.12
490.35	105.12
490.568	99.12
490.786	104.12
491.003	83.12
491.221	68.12
491.439	86.12
491.657	97.12
491.874	90.12
492.092	88.12
492.31	99.12
492.527	87.12
492.745	71.12
492.963	96.12
493.18	91.12
493.398	83.12
493.615	96.12
493.833	93.12
494.05	88.12
494.268	85.12
494.485	89.12
494.703	83.12
494.92	91.12
495.138	100.12
495.355	93.12
495.573	99.12
495.79	76.12
496.008	87.12
496.225	80.12
496.442	93.12
496.66	71.12
496.877	81.12
497.094	94.12
497.312	87.12
497.529	96.12
497.746	92.12
497.963	88.12
498.181	99.12
498.398	98.12
498.615	107.12
498.832	100.12
499.049	100.12
499.267	97.12
499.484	94.12
499.701	99.12
499.918	83.12
500.135	78.12
500.352	90.12
500.569	89.12
500.786	94.12
501.003	89.12
501.22	86.12
501.437	94.12
501.654	82.12
501.871	99.12
502.088	96.12
502.305	94.12
502.522	95.12
502.739	97.12
502.956	103.12
503.172	99.12
503.389	102.12
503.606	101.12
503.823	107.12
504.04	95.12
504.256	95.12
504.473	85.12
504.69	84.12
504.907	99.12
505.123	101.12
505.34	101.12
505.557	95.12
505.773	87.12
505.99	89.12
506.207	77.12
506.423	89.12
506.64	101.12
506.856	101.12
507.073	108.12
507.289	99.12
507.506	101.12
507.722	97.12
507.939	100.12
508.155	88.12
508.372	92.12
508.588	93.12
508.805	85.12
509.021	90.12
509.238	94.12
509.454	102.12
509.67	84.12
509.887	102.12
510.103	124.12
510.319	187.12
510.536	572.12
510.752	1700.12
510.968	493.12
511.184	132.12
511.401	101.12
511.617	93.12
511.833	97.12
512.049	92.12
512.265	87.12
512.481	88.12
512.698	100.12
512.914	95.12
513.13	104.12
513.346	83.12
513.562	104.12
513.778	108.12
513.994	104.12
514.21	89.12
514.426	108.12
514.642	129.12
514.858	103.12
515.074	141.12
