Data from Circ_1980_H10_HRD10591_00079.txt Node
Date: Wed Jan 03 12:38:14 EST 2024
User: Yrep
Spectrometer: HR+D1059
Trigger mode: 1
Integration Time (sec): 1.000000E-1
Scans to average: 1
Electric dark correction enabled: true
Nonlinearity correction enabled: false
Boxcar width: 0
XAxis mode: Wavelengths
Number of Pixels in Spectrum: 2048
>>>>>Begin Spectral Data<<<<<
223.165	-27.88
223.4	-27.88
223.635	-27.88
223.869	-30.88
224.104	-7.88
224.338	-18.88
224.573	-27.88
224.808	-3.88
225.042	-10.88
225.277	-14.88
225.511	-6.88
225.746	5.12
225.98	17.12
226.215	15.12
226.449	20.12
226.683	25.12
226.918	37.12
227.152	30.12
227.387	31.12
227.621	45.12
227.856	50.12
228.09	44.12
228.324	55.12
228.559	57.12
228.793	55.12
229.027	57.12
229.262	57.12
229.496	62.12
229.73	61.12
229.964	76.12
230.199	67.12
230.433	76.12
230.667	78.12
230.901	84.12
231.136	76.12
231.37	76.12
231.604	73.12
231.838	64.12
232.072	70.12
232.306	72.12
232.541	80.12
232.775	80.12
233.009	68.12
233.243	80.12
233.477	68.12
233.711	81.12
233.945	74.12
234.179	84.12
234.413	81.12
234.647	79.12
234.881	67.12
235.115	82.12
235.349	82.12
235.583	71.12
235.817	72.12
236.051	69.12
236.285	74.12
236.519	67.12
236.753	64.12
236.987	78.12
237.221	86.12
237.455	69.12
237.689	74.12
237.922	83.12
238.156	79.12
238.39	72.12
238.624	74.12
238.858	78.12
239.091	69.12
239.325	85.12
239.559	71.12
239.793	81.12
240.027	82.12
240.26	67.12
240.494	78.12
240.728	72.12
240.961	79.12
241.195	76.12
241.429	97.12
241.662	70.12
241.896	64.12
242.13	69.12
242.363	81.12
242.597	81.12
242.83	67.12
243.064	56.12
243.298	87.12
243.531	65.12
243.765	70.12
243.998	72.12
244.232	83.12
244.465	81.12
244.699	87.12
244.932	78.12
245.166	61.12
245.399	83.12
245.633	67.12
245.866	83.12
246.099	67.12
246.333	67.12
246.566	76.12
246.8	77.12
247.033	67.12
247.266	82.12
247.5	69.12
247.733	71.12
247.966	81.12
248.2	77.12
248.433	79.12
248.666	67.12
248.899	84.12
249.133	91.12
249.366	87.12
249.599	95.12
249.832	86.12
250.066	76.12
250.299	77.12
250.532	66.12
250.765	75.12
250.998	82.12
251.231	76.12
251.465	70.12
251.698	71.12
251.931	63.12
252.164	68.12
252.397	73.12
252.63	82.12
252.863	74.12
253.096	89.12
253.329	79.12
253.562	73.12
253.795	87.12
254.028	85.12
254.261	73.12
254.494	84.12
254.727	109.12
254.96	89.12
255.193	79.12
255.426	77.12
255.659	59.12
255.892	80.12
256.124	82.12
256.357	77.12
256.59	87.12
256.823	88.12
257.056	80.12
257.289	81.12
257.521	71.12
257.754	73.12
257.987	97.12
258.22	87.12
258.452	86.12
258.685	72.12
258.918	77.12
259.151	80.12
259.383	78.12
259.616	75.12
259.849	63.12
260.081	78.12
260.314	73.12
260.547	75.12
260.779	68.12
261.012	75.12
261.244	87.12
261.477	72.12
261.71	83.12
261.942	101.12
262.175	101.12
262.407	67.12
262.64	76.12
262.872	89.12
263.105	79.12
263.337	83.12
263.57	79.12
263.802	91.12
264.035	84.12
264.267	85.12
264.499	85.12
264.732	72.12
264.964	87.12
265.197	81.12
265.429	87.12
265.661	67.12
265.894	68.12
266.126	88.12
266.358	77.12
266.591	78.12
266.823	81.12
267.055	83.12
267.287	85.12
267.52	86.12
267.752	74.12
267.984	73.12
268.216	80.12
268.448	88.12
268.681	77.12
268.913	85.12
269.145	74.12
269.377	82.12
269.609	84.12
269.841	79.12
270.073	81.12
270.306	76.12
270.538	89.12
270.77	86.12
271.002	80.12
271.234	90.12
271.466	81.12
271.698	79.12
271.93	75.12
272.162	79.12
272.394	86.12
272.626	91.12
272.858	86.12
273.09	82.12
273.322	81.12
273.553	75.12
273.785	86.12
274.017	87.12
274.249	92.12
274.481	88.12
274.713	85.12
274.945	87.12
275.176	86.12
275.408	80.12
275.64	81.12
275.872	71.12
276.104	93.12
276.335	71.12
276.567	84.12
276.799	90.12
277.031	94.12
277.262	103.12
277.494	94.12
277.726	82.12
277.957	66.12
278.189	60.12
278.421	71.12
278.652	77.12
278.884	92.12
279.115	76.12
279.347	71.12
279.579	88.12
279.81	82.12
280.042	84.12
280.273	74.12
280.505	93.12
280.736	77.12
280.968	82.12
281.199	84.12
281.431	92.12
281.662	102.12
281.894	98.12
282.125	101.12
282.356	92.12
282.588	115.12
282.819	98.12
283.051	83.12
283.282	92.12
283.513	92.12
283.745	96.12
283.976	84.12
284.207	88.12
284.439	83.12
284.67	84.12
284.901	68.12
285.132	87.12
285.364	93.12
285.595	104.12
285.826	90.12
286.057	73.12
286.288	81.12
286.52	81.12
286.751	84.12
286.982	89.12
287.213	75.12
287.444	81.12
287.675	96.12
287.906	88.12
288.138	74.12
288.369	95.12
288.6	87.12
288.831	85.12
289.062	91.12
289.293	93.12
289.524	97.12
289.755	83.12
289.986	93.12
290.217	83.12
290.448	95.12
290.679	85.12
290.91	76.12
291.141	91.12
291.371	82.12
291.602	82.12
291.833	100.12
292.064	85.12
292.295	71.12
292.526	97.12
292.757	96.12
292.987	76.12
293.218	80.12
293.449	91.12
293.68	80.12
293.91	77.12
294.141	83.12
294.372	100.12
294.603	88.12
294.833	82.12
295.064	86.12
295.295	85.12
295.525	96.12
295.756	91.12
295.987	112.12
296.217	117.12
296.448	101.12
296.679	99.12
296.909	83.12
297.14	81.12
297.37	95.12
297.601	83.12
297.831	79.12
298.062	96.12
298.292	77.12
298.523	93.12
298.753	84.12
298.984	81.12
299.214	92.12
299.445	95.12
299.675	93.12
299.905	93.12
300.136	90.12
300.366	89.12
300.597	76.12
300.827	89.12
301.057	83.12
301.288	86.12
301.518	93.12
301.748	83.12
301.979	88.12
302.209	100.12
302.439	99.12
302.669	78.12
302.9	81.12
303.13	97.12
303.36	89.12
303.59	97.12
303.82	111.12
304.051	92.12
304.281	92.12
304.511	86.12
304.741	73.12
304.971	79.12
305.201	84.12
305.431	97.12
305.661	92.12
305.891	95.12
306.121	99.12
306.352	99.12
306.582	102.12
306.812	74.12
307.042	93.12
307.272	104.12
307.502	103.12
307.731	87.12
307.961	105.12
308.191	83.12
308.421	93.12
308.651	96.12
308.881	93.12
309.111	87.12
309.341	100.12
309.571	96.12
309.8	100.12
310.03	106.12
310.26	98.12
310.49	102.12
310.72	92.12
310.949	96.12
311.179	97.12
311.409	98.12
311.639	85.12
311.868	97.12
312.098	95.12
312.328	100.12
312.557	88.12
312.787	104.12
313.017	91.12
313.246	89.12
313.476	104.12
313.706	89.12
313.935	103.12
314.165	82.12
314.394	89.12
314.624	88.12
314.853	94.12
315.083	95.12
315.312	92.12
315.542	83.12
315.771	86.12
316.001	85.12
316.23	92.12
316.46	88.12
316.689	93.12
316.919	77.12
317.148	73.12
317.377	86.12
317.607	98.12
317.836	95.12
318.065	91.12
318.295	104.12
318.524	73.12
318.753	81.12
318.983	82.12
319.212	92.12
319.441	93.12
319.67	93.12
319.9	85.12
320.129	85.12
320.358	104.12
320.587	84.12
320.816	95.12
321.046	90.12
321.275	88.12
321.504	83.12
321.733	96.12
321.962	87.12
322.191	84.12
322.42	92.12
322.649	93.12
322.878	97.12
323.108	87.12
323.337	109.12
323.566	118.12
323.795	132.12
324.024	166.12
324.253	291.12
324.482	613.12
324.71	1211.12
324.939	1606.12
325.168	609.12
325.397	201.12
325.626	135.12
325.855	119.12
326.084	103.12
326.313	113.12
326.542	128.12
326.77	181.12
326.999	338.12
327.228	693.12
327.457	1277.12
327.686	981.12
327.914	272.12
328.143	160.12
328.372	127.12
328.6	102.12
328.829	98.12
329.058	110.12
329.287	115.12
329.515	101.12
329.744	102.12
329.972	92.12
330.201	116.12
330.43	107.12
330.658	107.12
330.887	115.12
331.115	113.12
331.344	93.12
331.572	92.12
331.801	102.12
332.03	98.12
332.258	80.12
332.486	111.12
332.715	76.12
332.943	91.12
333.172	90.12
333.4	100.12
333.629	79.12
333.857	99.12
334.085	89.12
334.314	111.12
334.542	117.12
334.771	118.12
334.999	89.12
335.227	73.12
335.455	86.12
335.684	95.12
335.912	94.12
336.14	107.12
336.369	111.12
336.597	85.12
336.825	104.12
337.053	93.12
337.281	96.12
337.51	95.12
337.738	92.12
337.966	90.12
338.194	93.12
338.422	97.12
338.65	94.12
338.878	96.12
339.106	87.12
339.334	90.12
339.562	85.12
339.79	89.12
340.018	83.12
340.246	87.12
340.474	88.12
340.702	86.12
340.93	108.12
341.158	81.12
341.386	79.12
341.614	90.12
341.842	95.12
342.07	86.12
342.298	77.12
342.526	76.12
342.754	92.12
342.981	88.12
343.209	101.12
343.437	103.12
343.665	93.12
343.893	89.12
344.12	93.12
344.348	90.12
344.576	84.12
344.804	84.12
345.031	96.12
345.259	92.12
345.487	93.12
345.714	87.12
345.942	84.12
346.17	84.12
346.397	89.12
346.625	82.12
346.853	94.12
347.08	88.12
347.308	94.12
347.535	83.12
347.763	82.12
347.99	94.12
348.218	98.12
348.445	86.12
348.673	91.12
348.9	76.12
349.128	88.12
349.355	82.12
349.583	81.12
349.81	81.12
350.037	90.12
350.265	99.12
350.492	86.12
350.72	74.12
350.947	87.12
351.174	90.12
351.402	103.12
351.629	104.12
351.856	101.12
352.083	96.12
352.311	96.12
352.538	100.12
352.765	113.12
352.992	102.12
353.22	111.12
353.447	111.12
353.674	96.12
353.901	83.12
354.128	87.12
354.355	92.12
354.583	93.12
354.81	102.12
355.037	93.12
355.264	92.12
355.491	82.12
355.718	90.12
355.945	90.12
356.172	98.12
356.399	95.12
356.626	99.12
356.853	87.12
357.08	80.12
357.307	76.12
357.534	98.12
357.761	100.12
357.988	87.12
358.215	93.12
358.441	89.12
358.668	96.12
358.895	84.12
359.122	100.12
359.349	85.12
359.576	81.12
359.802	98.12
360.029	105.12
360.256	103.12
360.483	88.12
360.709	87.12
360.936	95.12
361.163	94.12
361.39	75.12
361.616	95.12
361.843	83.12
362.07	97.12
362.296	101.12
362.523	85.12
362.749	93.12
362.976	81.12
363.203	83.12
363.429	85.12
363.656	90.12
363.882	91.12
364.109	88.12
364.335	93.12
364.562	83.12
364.788	61.12
365.015	81.12
365.241	87.12
365.468	90.12
365.694	95.12
365.92	75.12
366.147	81.12
366.373	84.12
366.599	72.12
366.826	90.12
367.052	72.12
367.278	91.12
367.505	80.12
367.731	74.12
367.957	90.12
368.184	72.12
368.41	73.12
368.636	87.12
368.862	99.12
369.089	96.12
369.315	92.12
369.541	101.12
369.767	88.12
369.993	76.12
370.219	83.12
370.445	100.12
370.672	90.12
370.898	98.12
371.124	87.12
371.35	89.12
371.576	92.12
371.802	81.12
372.028	86.12
372.254	74.12
372.48	97.12
372.706	83.12
372.932	76.12
373.158	87.12
373.384	91.12
373.61	74.12
373.835	88.12
374.061	83.12
374.287	85.12
374.513	79.12
374.739	77.12
374.965	91.12
375.191	80.12
375.416	101.12
375.642	96.12
375.868	92.12
376.094	87.12
376.319	88.12
376.545	105.12
376.771	92.12
376.997	89.12
377.222	79.12
377.448	94.12
377.674	96.12
377.899	82.12
378.125	92.12
378.35	93.12
378.576	107.12
378.802	97.12
379.027	90.12
379.253	89.12
379.478	82.12
379.704	102.12
379.929	85.12
380.155	89.12
380.38	85.12
380.606	96.12
380.831	97.12
381.057	94.12
381.282	94.12
381.507	79.12
381.733	90.12
381.958	95.12
382.184	84.12
382.409	91.12
382.634	92.12
382.86	99.12
383.085	96.12
383.31	84.12
383.535	108.12
383.761	96.12
383.986	95.12
384.211	95.12
384.436	105.12
384.662	87.12
384.887	97.12
385.112	100.12
385.337	98.12
385.562	89.12
385.787	89.12
386.013	101.12
386.238	97.12
386.463	113.12
386.688	100.12
386.913	113.12
387.138	86.12
387.363	86.12
387.588	96.12
387.813	100.12
388.038	100.12
388.263	120.12
388.488	107.12
388.713	84.12
388.938	94.12
389.163	98.12
389.387	87.12
389.612	92.12
389.837	89.12
390.062	91.12
390.287	76.12
390.512	83.12
390.736	85.12
390.961	105.12
391.186	87.12
391.411	87.12
391.636	83.12
391.86	73.12
392.085	74.12
392.31	89.12
392.534	79.12
392.759	84.12
392.984	80.12
393.208	88.12
393.433	76.12
393.658	73.12
393.882	74.12
394.107	76.12
394.331	76.12
394.556	89.12
394.78	73.12
395.005	82.12
395.229	64.12
395.454	98.12
395.678	82.12
395.903	87.12
396.127	84.12
396.352	99.12
396.576	85.12
396.801	83.12
397.025	83.12
397.249	87.12
397.474	85.12
397.698	67.12
397.922	96.12
398.147	84.12
398.371	72.12
398.595	95.12
398.82	81.12
399.044	71.12
399.268	79.12
399.492	81.12
399.717	86.12
399.941	91.12
400.165	90.12
400.389	82.12
400.613	87.12
400.837	80.12
401.062	89.12
401.286	74.12
401.51	91.12
401.734	76.12
401.958	84.12
402.182	117.12
402.406	133.12
402.63	100.12
402.854	91.12
403.078	90.12
403.302	76.12
403.526	76.12
403.75	91.12
403.974	82.12
404.198	76.12
404.422	98.12
404.645	86.12
404.869	96.12
405.093	92.12
405.317	101.12
405.541	94.12
405.765	89.12
405.988	112.12
406.212	140.12
406.436	181.12
406.66	114.12
406.883	91.12
407.107	101.12
407.331	86.12
407.555	96.12
407.778	93.12
408.002	84.12
408.226	91.12
408.449	86.12
408.673	86.12
408.896	86.12
409.12	82.12
409.344	74.12
409.567	95.12
409.791	104.12
410.014	96.12
410.238	91.12
410.461	83.12
410.685	113.12
410.908	86.12
411.132	110.12
411.355	89.12
411.578	108.12
411.802	92.12
412.025	94.12
412.249	65.12
412.472	87.12
412.695	89.12
412.919	88.12
413.142	89.12
413.365	87.12
413.589	84.12
413.812	83.12
414.035	94.12
414.258	100.12
414.482	96.12
414.705	93.12
414.928	102.12
415.151	89.12
415.374	83.12
415.597	101.12
415.821	72.12
416.044	82.12
416.267	82.12
416.49	82.12
416.713	84.12
416.936	73.12
417.159	79.12
417.382	80.12
417.605	95.12
417.828	84.12
418.051	83.12
418.274	87.12
418.497	82.12
418.72	85.12
418.943	95.12
419.166	72.12
419.389	94.12
419.611	87.12
419.834	87.12
420.057	69.12
420.28	79.12
420.503	91.12
420.726	82.12
420.948	86.12
421.171	99.12
421.394	102.12
421.617	77.12
421.839	83.12
422.062	79.12
422.285	93.12
422.507	96.12
422.73	84.12
422.953	99.12
423.175	69.12
423.398	86.12
423.621	89.12
423.843	81.12
424.066	80.12
424.288	105.12
424.511	83.12
424.733	85.12
424.956	100.12
425.178	92.12
425.401	89.12
425.623	97.12
425.846	74.12
426.068	92.12
426.291	89.12
426.513	76.12
426.735	85.12
426.958	82.12
427.18	94.12
427.402	134.12
427.625	135.12
427.847	119.12
428.069	98.12
428.292	87.12
428.514	81.12
428.736	77.12
428.958	78.12
429.181	79.12
429.403	95.12
429.625	77.12
429.847	79.12
430.069	91.12
430.292	97.12
430.514	93.12
430.736	73.12
430.958	78.12
431.18	77.12
431.402	81.12
431.624	81.12
431.846	98.12
432.068	80.12
432.29	73.12
432.512	67.12
432.734	79.12
432.956	77.12
433.178	80.12
433.4	97.12
433.622	102.12
433.844	80.12
434.066	87.12
434.287	83.12
434.509	89.12
434.731	86.12
434.953	95.12
435.175	87.12
435.397	87.12
435.618	93.12
435.84	91.12
436.062	100.12
436.284	91.12
436.505	88.12
436.727	97.12
436.949	79.12
437.17	103.12
437.392	83.12
437.614	85.12
437.835	103.12
438.057	97.12
438.278	91.12
438.5	100.12
438.721	98.12
438.943	98.12
439.165	83.12
439.386	93.12
439.608	92.12
439.829	88.12
440.05	100.12
440.272	123.12
440.493	77.12
440.715	87.12
440.936	85.12
441.158	77.12
441.379	68.12
441.6	98.12
441.822	92.12
442.043	87.12
442.264	105.12
442.486	85.12
442.707	96.12
442.928	83.12
443.149	100.12
443.371	112.12
443.592	93.12
443.813	97.12
444.034	95.12
444.255	85.12
444.476	79.12
444.698	72.12
444.919	84.12
445.14	123.12
445.361	116.12
445.582	103.12
445.803	118.12
446.024	120.12
446.245	122.12
446.466	86.12
446.687	91.12
446.908	84.12
447.129	88.12
447.35	82.12
447.571	82.12
447.792	90.12
448.013	91.12
448.234	91.12
448.455	92.12
448.675	83.12
448.896	94.12
449.117	83.12
449.338	90.12
449.559	117.12
449.779	112.12
450	96.12
450.221	90.12
450.442	74.12
450.662	82.12
450.883	104.12
451.104	95.12
451.324	86.12
451.545	89.12
451.766	72.12
451.986	91.12
452.207	76.12
452.428	94.12
452.648	96.12
452.869	84.12
453.089	101.12
453.31	94.12
453.53	87.12
453.751	95.12
453.971	86.12
454.192	83.12
454.412	88.12
454.633	103.12
454.853	72.12
455.073	83.12
455.294	95.12
455.514	92.12
455.734	75.12
455.955	87.12
456.175	67.12
456.395	82.12
456.616	77.12
456.836	89.12
457.056	82.12
457.276	81.12
457.497	93.12
457.717	85.12
457.937	67.12
458.157	69.12
458.377	81.12
458.598	99.12
458.818	122.12
459.038	116.12
459.258	91.12
459.478	93.12
459.698	83.12
459.918	95.12
460.138	76.12
460.358	77.12
460.578	90.12
460.798	93.12
461.018	91.12
461.238	93.12
461.458	91.12
461.678	84.12
461.898	95.12
462.118	83.12
462.338	89.12
462.558	83.12
462.777	73.12
462.997	76.12
463.217	91.12
463.437	88.12
463.657	76.12
463.876	89.12
464.096	83.12
464.316	79.12
464.536	92.12
464.755	86.12
464.975	96.12
465.195	130.12
465.414	129.12
465.634	99.12
465.854	75.12
466.073	74.12
466.293	86.12
466.512	81.12
466.732	72.12
466.951	85.12
467.171	76.12
467.391	74.12
467.61	88.12
467.829	95.12
468.049	91.12
468.268	97.12
468.488	74.12
468.707	82.12
468.927	84.12
469.146	92.12
469.365	83.12
469.585	79.12
469.804	86.12
470.023	91.12
470.243	93.12
470.462	95.12
470.681	92.12
470.901	89.12
471.12	83.12
471.339	92.12
471.558	76.12
471.777	84.12
471.997	77.12
472.216	96.12
472.435	135.12
472.654	90.12
472.873	91.12
473.092	95.12
473.311	86.12
473.53	70.12
473.749	80.12
473.968	75.12
474.187	92.12
474.406	83.12
474.625	79.12
474.844	79.12
475.063	98.12
475.282	84.12
475.501	82.12
475.72	86.12
475.939	84.12
476.158	90.12
476.377	99.12
476.596	74.12
476.814	96.12
477.033	71.12
477.252	88.12
477.471	77.12
477.69	76.12
477.908	80.12
478.127	79.12
478.346	96.12
478.564	81.12
478.783	74.12
479.002	91.12
479.22	93.12
479.439	98.12
479.658	104.12
479.876	95.12
480.095	74.12
480.313	95.12
480.532	93.12
480.751	85.12
480.969	100.12
481.188	196.12
481.406	128.12
481.624	96.12
481.843	83.12
482.061	83.12
482.28	79.12
482.498	93.12
482.717	77.12
482.935	100.12
483.153	88.12
483.372	101.12
483.59	74.12
483.808	83.12
484.027	89.12
484.245	82.12
484.463	92.12
484.681	103.12
484.9	89.12
485.118	88.12
485.336	83.12
485.554	102.12
485.772	103.12
485.99	101.12
486.209	92.12
486.427	108.12
486.645	97.12
486.863	100.12
487.081	99.12
487.299	82.12
487.517	90.12
487.735	80.12
487.953	94.12
488.171	93.12
488.389	97.12
488.607	94.12
488.825	96.12
489.043	96.12
489.261	97.12
489.479	85.12
489.696	100.12
489.914	85.12
490.132	75.12
490.35	85.12
490.568	92.12
490.786	69.12
491.003	92.12
491.221	86.12
491.439	91.12
491.657	96.12
491.874	91.12
492.092	88.12
492.31	85.12
492.527	67.12
492.745	89.12
492.963	90.12
493.18	72.12
493.398	92.12
493.615	104.12
493.833	89.12
494.05	82.12
494.268	93.12
494.485	91.12
494.703	91.12
494.92	87.12
495.138	97.12
495.355	98.12
495.573	89.12
495.79	77.12
496.008	82.12
496.225	89.12
496.442	87.12
496.66	84.12
496.877	82.12
497.094	95.12
497.312	94.12
497.529	80.12
497.746	102.12
497.963	85.12
498.181	88.12
498.398	95.12
498.615	101.12
498.832	105.12
499.049	91.12
499.267	96.12
499.484	75.12
499.701	100.12
499.918	89.12
500.135	96.12
500.352	81.12
500.569	80.12
500.786	77.12
501.003	92.12
501.22	85.12
501.437	89.12
501.654	77.12
501.871	109.12
502.088	107.12
502.305	91.12
502.522	83.12
502.739	94.12
502.956	83.12
503.172	83.12
503.389	102.12
503.606	97.12
503.823	100.12
504.04	95.12
504.256	91.12
504.473	83.12
504.69	85.12
504.907	91.12
505.123	85.12
505.34	78.12
505.557	84.12
505.773	90.12
505.99	95.12
506.207	88.12
506.423	95.12
506.64	95.12
506.856	83.12
507.073	91.12
507.289	107.12
507.506	100.12
507.722	91.12
507.939	85.12
508.155	95.12
508.372	95.12
508.588	90.12
508.805	81.12
509.021	94.12
509.238	103.12
509.454	70.12
509.67	92.12
509.887	94.12
510.103	109.12
510.319	178.12
510.536	552.12
510.752	1669.12
510.968	480.12
511.184	125.12
511.401	107.12
511.617	97.12
511.833	87.12
512.049	88.12
512.265	80.12
512.481	73.12
512.698	99.12
512.914	81.12
513.13	85.12
513.346	88.12
513.562	87.12
513.778	82.12
513.994	91.12
514.21	108.12
514.426	106.12
514.642	112.12
514.858	121.12
515.074	138.12
515.29	335.12
515.506	1018.12
515.721	379.12
515.937	132.12
516.153	89.12
516.369	93.12
516.585	102.12
516.801	79.12
517.016	73.12
517.232	82.12
