Data from Circ_1980_H10_HRD10591_00020.txt Node
Date: Wed Jan 03 12:38:02 EST 2024
User: Yrep
Spectrometer: HR+D1059
Trigger mode: 1
Integration Time (sec): 1.000000E-1
Scans to average: 1
Electric dark correction enabled: true
Nonlinearity correction enabled: false
Boxcar width: 0
XAxis mode: Wavelengths
Number of Pixels in Spectrum: 2048
>>>>>Begin Spectral Data<<<<<
223.165	-20.44
223.4	-20.44
223.635	-20.44
223.869	-32.44
224.104	-9.44
224.338	-12.44
224.573	-25.44
224.808	-11.44
225.042	-13.44
225.277	-2.44
225.511	12.56
225.746	14.56
225.98	5.56
226.215	24.56
226.449	14.56
226.683	18.56
226.918	7.56
227.152	29.56
227.387	31.56
227.621	41.56
227.856	47.56
228.09	49.56
228.324	34.56
228.559	49.56
228.793	56.56
229.027	58.56
229.262	66.56
229.496	70.56
229.73	75.56
229.964	80.56
230.199	68.56
230.433	69.56
230.667	82.56
230.901	78.56
231.136	76.56
231.37	76.56
231.604	94.56
231.838	94.56
232.072	90.56
232.306	82.56
232.541	69.56
232.775	84.56
233.009	82.56
233.243	82.56
233.477	83.56
233.711	78.56
233.945	75.56
234.179	83.56
234.413	82.56
234.647	67.56
234.881	76.56
235.115	83.56
235.349	81.56
235.583	88.56
235.817	81.56
236.051	60.56
236.285	88.56
236.519	79.56
236.753	75.56
236.987	74.56
237.221	68.56
237.455	76.56
237.689	74.56
237.922	84.56
238.156	75.56
238.39	88.56
238.624	62.56
238.858	77.56
239.091	71.56
239.325	66.56
239.559	82.56
239.793	82.56
240.027	68.56
240.26	82.56
240.494	69.56
240.728	84.56
240.961	70.56
241.195	86.56
241.429	73.56
241.662	70.56
241.896	85.56
242.13	73.56
242.363	68.56
242.597	79.56
242.83	84.56
243.064	68.56
243.298	76.56
243.531	87.56
243.765	76.56
243.998	84.56
244.232	98.56
244.465	75.56
244.699	74.56
244.932	79.56
245.166	79.56
245.399	76.56
245.633	82.56
245.866	68.56
246.099	86.56
246.333	70.56
246.566	70.56
246.8	79.56
247.033	73.56
247.266	76.56
247.5	87.56
247.733	86.56
247.966	68.56
248.2	65.56
248.433	86.56
248.666	60.56
248.899	69.56
249.133	87.56
249.366	89.56
249.599	87.56
249.832	72.56
250.066	82.56
250.299	84.56
250.532	98.56
250.765	80.56
250.998	78.56
251.231	83.56
251.465	71.56
251.698	70.56
251.931	70.56
252.164	78.56
252.397	70.56
252.63	69.56
252.863	78.56
253.096	86.56
253.329	79.56
253.562	84.56
253.795	88.56
254.028	78.56
254.261	92.56
254.494	88.56
254.727	78.56
254.96	88.56
255.193	85.56
255.426	70.56
255.659	75.56
255.892	72.56
256.124	83.56
256.357	92.56
256.59	83.56
256.823	76.56
257.056	88.56
257.289	82.56
257.521	77.56
257.754	54.56
257.987	81.56
258.22	91.56
258.452	76.56
258.685	79.56
258.918	90.56
259.151	75.56
259.383	93.56
259.616	75.56
259.849	84.56
260.081	84.56
260.314	96.56
260.547	86.56
260.779	81.56
261.012	83.56
261.244	80.56
261.477	96.56
261.71	90.56
261.942	96.56
262.175	102.56
262.407	97.56
262.64	89.56
262.872	82.56
263.105	91.56
263.337	80.56
263.57	73.56
263.802	92.56
264.035	70.56
264.267	72.56
264.499	78.56
264.732	80.56
264.964	79.56
265.197	67.56
265.429	83.56
265.661	83.56
265.894	89.56
266.126	89.56
266.358	98.56
266.591	78.56
266.823	80.56
267.055	88.56
267.287	84.56
267.52	78.56
267.752	76.56
267.984	69.56
268.216	89.56
268.448	79.56
268.681	90.56
268.913	69.56
269.145	80.56
269.377	79.56
269.609	80.56
269.841	72.56
270.073	86.56
270.306	77.56
270.538	86.56
270.77	90.56
271.002	95.56
271.234	83.56
271.466	86.56
271.698	82.56
271.93	87.56
272.162	70.56
272.394	93.56
272.626	77.56
272.858	93.56
273.09	88.56
273.322	91.56
273.553	68.56
273.785	77.56
274.017	87.56
274.249	77.56
274.481	66.56
274.713	90.56
274.945	90.56
275.176	88.56
275.408	79.56
275.64	84.56
275.872	98.56
276.104	91.56
276.335	95.56
276.567	87.56
276.799	101.56
277.031	83.56
277.262	82.56
277.494	85.56
277.726	78.56
277.957	84.56
278.189	86.56
278.421	99.56
278.652	83.56
278.884	97.56
279.115	80.56
279.347	86.56
279.579	79.56
279.81	84.56
280.042	95.56
280.273	98.56
280.505	74.56
280.736	94.56
280.968	74.56
281.199	86.56
281.431	103.56
281.662	86.56
281.894	98.56
282.125	95.56
282.356	113.56
282.588	125.56
282.819	95.56
283.051	91.56
283.282	103.56
283.513	101.56
283.745	78.56
283.976	86.56
284.207	82.56
284.439	90.56
284.67	79.56
284.901	87.56
285.132	80.56
285.364	95.56
285.595	100.56
285.826	87.56
286.057	87.56
286.288	85.56
286.52	83.56
286.751	86.56
286.982	101.56
287.213	90.56
287.444	84.56
287.675	94.56
287.906	84.56
288.138	82.56
288.369	98.56
288.6	107.56
288.831	86.56
289.062	90.56
289.293	78.56
289.524	86.56
289.755	88.56
289.986	79.56
290.217	86.56
290.448	76.56
290.679	83.56
290.91	80.56
291.141	90.56
291.371	79.56
291.602	88.56
291.833	102.56
292.064	80.56
292.295	94.56
292.526	83.56
292.757	81.56
292.987	99.56
293.218	89.56
293.449	79.56
293.68	92.56
293.91	77.56
294.141	92.56
294.372	92.56
294.603	77.56
294.833	91.56
295.064	83.56
295.295	75.56
295.525	86.56
295.756	95.56
295.987	104.56
296.217	103.56
296.448	104.56
296.679	99.56
296.909	82.56
297.14	79.56
297.37	80.56
297.601	89.56
297.831	80.56
298.062	91.56
298.292	86.56
298.523	88.56
298.753	83.56
298.984	86.56
299.214	97.56
299.445	97.56
299.675	101.56
299.905	89.56
300.136	83.56
300.366	90.56
300.597	87.56
300.827	94.56
301.057	96.56
301.288	106.56
301.518	96.56
301.748	83.56
301.979	105.56
302.209	97.56
302.439	95.56
302.669	85.56
302.9	81.56
303.13	85.56
303.36	93.56
303.59	89.56
303.82	95.56
304.051	93.56
304.281	83.56
304.511	93.56
304.741	90.56
304.971	86.56
305.201	82.56
305.431	96.56
305.661	104.56
305.891	74.56
306.121	86.56
306.352	101.56
306.582	93.56
306.812	75.56
307.042	96.56
307.272	81.56
307.502	75.56
307.731	98.56
307.961	97.56
308.191	85.56
308.421	87.56
308.651	100.56
308.881	90.56
309.111	98.56
309.341	99.56
309.571	88.56
309.8	89.56
310.03	110.56
310.26	102.56
310.49	92.56
310.72	93.56
310.949	94.56
311.179	93.56
311.409	102.56
311.639	82.56
311.868	93.56
312.098	90.56
312.328	97.56
312.557	97.56
312.787	106.56
313.017	74.56
313.246	78.56
313.476	85.56
313.706	94.56
313.935	83.56
314.165	103.56
314.394	102.56
314.624	98.56
314.853	89.56
315.083	104.56
315.312	92.56
315.542	88.56
315.771	96.56
316.001	91.56
316.23	88.56
316.46	80.56
316.689	94.56
316.919	103.56
317.148	100.56
317.377	100.56
317.607	95.56
317.836	78.56
318.065	90.56
318.295	93.56
318.524	92.56
318.753	72.56
318.983	105.56
319.212	106.56
319.441	107.56
319.67	104.56
319.9	97.56
320.129	94.56
320.358	76.56
320.587	93.56
320.816	92.56
321.046	105.56
321.275	85.56
321.504	94.56
321.733	95.56
321.962	105.56
322.191	101.56
322.42	92.56
322.649	99.56
322.878	82.56
323.108	92.56
323.337	101.56
323.566	111.56
323.795	132.56
324.024	167.56
324.253	307.56
324.482	600.56
324.71	1155.56
324.939	1549.56
325.168	602.56
325.397	194.56
325.626	125.56
325.855	102.56
326.084	111.56
326.313	122.56
326.542	134.56
326.77	187.56
326.999	337.56
327.228	685.56
327.457	1221.56
327.686	992.56
327.914	296.56
328.143	154.56
328.372	134.56
328.6	130.56
328.829	101.56
329.058	107.56
329.287	116.56
329.515	94.56
329.744	98.56
329.972	99.56
330.201	120.56
330.43	125.56
330.658	120.56
330.887	119.56
331.115	110.56
331.344	99.56
331.572	89.56
331.801	103.56
332.03	111.56
332.258	96.56
332.486	93.56
332.715	87.56
332.943	85.56
333.172	87.56
333.4	95.56
333.629	109.56
333.857	116.56
334.085	116.56
334.314	95.56
334.542	128.56
334.771	118.56
334.999	101.56
335.227	79.56
335.455	94.56
335.684	94.56
335.912	98.56
336.14	108.56
336.369	110.56
336.597	89.56
336.825	110.56
337.053	92.56
337.281	102.56
337.51	90.56
337.738	91.56
337.966	91.56
338.194	86.56
338.422	90.56
338.65	96.56
338.878	91.56
339.106	98.56
339.334	86.56
339.562	95.56
339.79	97.56
340.018	91.56
340.246	96.56
340.474	105.56
340.702	99.56
340.93	87.56
341.158	91.56
341.386	88.56
341.614	89.56
341.842	99.56
342.07	90.56
342.298	94.56
342.526	108.56
342.754	93.56
342.981	100.56
343.209	78.56
343.437	95.56
343.665	90.56
343.893	99.56
344.12	101.56
344.348	79.56
344.576	98.56
344.804	99.56
345.031	92.56
345.259	88.56
345.487	96.56
345.714	105.56
345.942	87.56
346.17	97.56
346.397	83.56
346.625	82.56
346.853	105.56
347.08	88.56
347.308	84.56
347.535	112.56
347.763	88.56
347.99	90.56
348.218	92.56
348.445	92.56
348.673	90.56
348.9	84.56
349.128	89.56
349.355	107.56
349.583	78.56
349.81	100.56
350.037	98.56
350.265	82.56
350.492	90.56
350.72	101.56
350.947	93.56
351.174	115.56
351.402	99.56
351.629	104.56
351.856	101.56
352.083	103.56
352.311	104.56
352.538	92.56
352.765	89.56
352.992	104.56
353.22	100.56
353.447	93.56
353.674	94.56
353.901	103.56
354.128	105.56
354.355	98.56
354.583	91.56
354.81	104.56
355.037	104.56
355.264	97.56
355.491	91.56
355.718	102.56
355.945	107.56
356.172	92.56
356.399	118.56
356.626	91.56
356.853	98.56
357.08	103.56
357.307	93.56
357.534	80.56
357.761	73.56
357.988	94.56
358.215	94.56
358.441	103.56
358.668	99.56
358.895	111.56
359.122	76.56
359.349	82.56
359.576	82.56
359.802	110.56
360.029	94.56
360.256	106.56
360.483	99.56
360.709	75.56
360.936	94.56
361.163	91.56
361.39	97.56
361.616	93.56
361.843	98.56
362.07	92.56
362.296	110.56
362.523	86.56
362.749	106.56
362.976	88.56
363.203	82.56
363.429	86.56
363.656	89.56
363.882	88.56
364.109	99.56
364.335	84.56
364.562	100.56
364.788	99.56
365.015	85.56
365.241	75.56
365.468	88.56
365.694	94.56
365.92	103.56
366.147	79.56
366.373	101.56
366.599	97.56
366.826	92.56
367.052	75.56
367.278	74.56
367.505	89.56
367.731	87.56
367.957	98.56
368.184	86.56
368.41	98.56
368.636	107.56
368.862	108.56
369.089	93.56
369.315	88.56
369.541	86.56
369.767	83.56
369.993	84.56
370.219	90.56
370.445	97.56
370.672	89.56
370.898	98.56
371.124	74.56
371.35	77.56
371.576	85.56
371.802	97.56
372.028	94.56
372.254	92.56
372.48	94.56
372.706	92.56
372.932	92.56
373.158	89.56
373.384	102.56
373.61	94.56
373.835	78.56
374.061	89.56
374.287	90.56
374.513	98.56
374.739	83.56
374.965	95.56
375.191	98.56
375.416	86.56
375.642	92.56
375.868	96.56
376.094	86.56
376.319	86.56
376.545	95.56
376.771	94.56
376.997	99.56
377.222	83.56
377.448	92.56
377.674	88.56
377.899	106.56
378.125	98.56
378.35	104.56
378.576	89.56
378.802	92.56
379.027	80.56
379.253	91.56
379.478	91.56
379.704	106.56
379.929	94.56
380.155	105.56
380.38	83.56
380.606	93.56
380.831	99.56
381.057	104.56
381.282	86.56
381.507	110.56
381.733	76.56
381.958	109.56
382.184	109.56
382.409	107.56
382.634	100.56
382.86	98.56
383.085	109.56
383.31	104.56
383.535	103.56
383.761	102.56
383.986	112.56
384.211	93.56
384.436	95.56
384.662	98.56
384.887	121.56
385.112	104.56
385.337	112.56
385.562	112.56
385.787	114.56
386.013	116.56
386.238	121.56
386.463	105.56
386.688	112.56
386.913	109.56
387.138	103.56
387.363	110.56
387.588	107.56
387.813	112.56
388.038	124.56
388.263	118.56
388.488	113.56
388.713	92.56
388.938	97.56
389.163	107.56
389.387	85.56
389.612	100.56
389.837	93.56
390.062	87.56
390.287	95.56
390.512	98.56
390.736	96.56
390.961	80.56
391.186	93.56
391.411	91.56
391.636	84.56
391.86	102.56
392.085	86.56
392.31	94.56
392.534	88.56
392.759	77.56
392.984	91.56
393.208	75.56
393.433	95.56
393.658	96.56
393.882	88.56
394.107	101.56
394.331	82.56
394.556	84.56
394.78	103.56
395.005	85.56
395.229	106.56
395.454	91.56
395.678	72.56
395.903	70.56
396.127	90.56
396.352	83.56
396.576	82.56
396.801	84.56
397.025	78.56
397.249	91.56
397.474	77.56
397.698	84.56
397.922	98.56
398.147	73.56
398.371	88.56
398.595	76.56
398.82	94.56
399.044	82.56
399.268	83.56
399.492	87.56
399.717	92.56
399.941	86.56
400.165	75.56
400.389	96.56
400.613	80.56
400.837	90.56
401.062	87.56
401.286	82.56
401.51	85.56
401.734	83.56
401.958	98.56
402.182	95.56
402.406	131.56
402.63	109.56
402.854	84.56
403.078	72.56
403.302	82.56
403.526	88.56
403.75	96.56
403.974	76.56
404.198	78.56
404.422	85.56
404.645	78.56
404.869	98.56
405.093	91.56
405.317	86.56
405.541	103.56
405.765	104.56
405.988	113.56
406.212	154.56
406.436	166.56
406.66	108.56
406.883	92.56
407.107	87.56
407.331	88.56
407.555	76.56
407.778	94.56
408.002	90.56
408.226	85.56
408.449	101.56
408.673	79.56
408.896	91.56
409.12	87.56
409.344	86.56
409.567	77.56
409.791	89.56
410.014	98.56
410.238	94.56
410.461	103.56
410.685	102.56
410.908	101.56
411.132	96.56
411.355	95.56
411.578	93.56
411.802	90.56
412.025	102.56
412.249	86.56
412.472	80.56
412.695	94.56
412.919	100.56
413.142	82.56
413.365	88.56
413.589	91.56
413.812	86.56
414.035	103.56
414.258	93.56
414.482	96.56
414.705	77.56
414.928	99.56
415.151	103.56
415.374	92.56
415.597	93.56
415.821	95.56
416.044	88.56
416.267	91.56
416.49	86.56
416.713	87.56
416.936	82.56
417.159	84.56
417.382	79.56
417.605	76.56
417.828	81.56
418.051	91.56
418.274	92.56
418.497	94.56
418.72	87.56
418.943	85.56
419.166	73.56
419.389	90.56
419.611	96.56
419.834	94.56
420.057	90.56
420.28	77.56
420.503	91.56
420.726	80.56
420.948	90.56
421.171	91.56
421.394	97.56
421.617	84.56
421.839	92.56
422.062	94.56
422.285	81.56
422.507	92.56
422.73	91.56
422.953	84.56
423.175	77.56
423.398	79.56
423.621	83.56
423.843	99.56
424.066	79.56
424.288	86.56
424.511	93.56
424.733	94.56
424.956	90.56
425.178	106.56
425.401	95.56
425.623	105.56
425.846	89.56
426.068	79.56
426.291	95.56
426.513	84.56
426.735	102.56
426.958	87.56
427.18	103.56
427.402	120.56
427.625	143.56
427.847	115.56
428.069	110.56
428.292	92.56
428.514	92.56
428.736	96.56
428.958	82.56
429.181	100.56
429.403	78.56
429.625	91.56
429.847	98.56
430.069	96.56
430.292	98.56
430.514	79.56
430.736	69.56
430.958	88.56
431.18	72.56
431.402	74.56
431.624	84.56
431.846	88.56
432.068	83.56
432.29	83.56
432.512	77.56
432.734	95.56
432.956	95.56
433.178	95.56
433.4	92.56
433.622	85.56
433.844	92.56
434.066	92.56
434.287	84.56
434.509	84.56
434.731	89.56
434.953	83.56
435.175	85.56
435.397	95.56
435.618	91.56
435.84	92.56
436.062	101.56
436.284	93.56
436.505	80.56
436.727	87.56
436.949	83.56
437.17	90.56
437.392	89.56
437.614	93.56
437.835	111.56
438.057	100.56
438.278	96.56
438.5	96.56
438.721	100.56
438.943	96.56
439.165	96.56
439.386	81.56
439.608	91.56
439.829	88.56
440.05	101.56
440.272	117.56
440.493	75.56
440.715	86.56
440.936	78.56
441.158	100.56
441.379	92.56
441.6	88.56
441.822	86.56
442.043	87.56
442.264	109.56
442.486	87.56
442.707	97.56
442.928	96.56
443.149	120.56
443.371	118.56
443.592	95.56
443.813	106.56
444.034	88.56
444.255	76.56
444.476	82.56
444.698	87.56
444.919	92.56
445.14	126.56
445.361	109.56
445.582	100.56
445.803	103.56
446.024	106.56
446.245	129.56
446.466	98.56
446.687	91.56
446.908	99.56
447.129	93.56
447.35	95.56
447.571	99.56
447.792	83.56
448.013	82.56
448.234	104.56
448.455	107.56
448.675	88.56
448.896	114.56
449.117	90.56
449.338	91.56
449.559	97.56
449.779	115.56
450	86.56
450.221	88.56
450.442	110.56
450.662	97.56
450.883	89.56
451.104	100.56
451.324	98.56
451.545	96.56
451.766	81.56
451.986	76.56
452.207	98.56
452.428	87.56
452.648	93.56
452.869	87.56
453.089	101.56
453.31	118.56
453.53	87.56
453.751	84.56
453.971	93.56
454.192	98.56
454.412	90.56
454.633	84.56
454.853	99.56
455.073	94.56
455.294	93.56
455.514	85.56
455.734	98.56
455.955	96.56
456.175	86.56
456.395	87.56
456.616	84.56
456.836	76.56
457.056	69.56
457.276	93.56
457.497	91.56
457.717	90.56
457.937	80.56
458.157	81.56
458.377	86.56
458.598	88.56
458.818	109.56
459.038	141.56
459.258	88.56
459.478	86.56
459.698	91.56
459.918	85.56
460.138	94.56
460.358	91.56
460.578	100.56
460.798	94.56
461.018	103.56
461.238	79.56
461.458	74.56
461.678	80.56
461.898	83.56
462.118	76.56
462.338	84.56
462.558	97.56
462.777	80.56
462.997	69.56
463.217	82.56
463.437	76.56
463.657	68.56
463.876	85.56
464.096	94.56
464.316	83.56
464.536	96.56
464.755	88.56
464.975	93.56
465.195	127.56
465.414	133.56
465.634	102.56
465.854	93.56
466.073	85.56
466.293	101.56
466.512	73.56
466.732	87.56
466.951	92.56
467.171	92.56
467.391	93.56
467.61	86.56
467.829	92.56
468.049	102.56
468.268	106.56
468.488	92.56
468.707	93.56
468.927	100.56
469.146	82.56
469.365	89.56
469.585	75.56
469.804	88.56
470.023	82.56
470.243	86.56
470.462	91.56
470.681	96.56
470.901	93.56
471.12	69.56
471.339	84.56
471.558	86.56
471.777	89.56
471.997	100.56
472.216	102.56
472.435	122.56
472.654	98.56
472.873	89.56
473.092	81.56
473.311	71.56
473.53	68.56
473.749	84.56
473.968	74.56
474.187	84.56
474.406	93.56
474.625	89.56
474.844	84.56
475.063	76.56
475.282	88.56
475.501	89.56
475.72	82.56
475.939	87.56
476.158	83.56
476.377	71.56
476.596	88.56
476.814	98.56
477.033	96.56
477.252	85.56
477.471	84.56
477.69	77.56
477.908	82.56
478.127	86.56
478.346	91.56
478.564	85.56
478.783	92.56
479.002	91.56
479.22	80.56
479.439	99.56
479.658	97.56
479.876	76.56
480.095	94.56
480.313	84.56
480.532	96.56
480.751	73.56
480.969	95.56
481.188	176.56
481.406	154.56
481.624	95.56
481.843	79.56
482.061	90.56
482.28	90.56
482.498	91.56
482.717	75.56
482.935	85.56
483.153	70.56
483.372	75.56
483.59	97.56
483.808	108.56
484.027	99.56
484.245	86.56
484.463	100.56
484.681	86.56
484.9	98.56
485.118	101.56
485.336	99.56
485.554	105.56
485.772	106.56
485.99	110.56
486.209	102.56
486.427	119.56
486.645	120.56
486.863	105.56
487.081	96.56
487.299	94.56
487.517	86.56
487.735	88.56
487.953	83.56
488.171	107.56
488.389	93.56
488.607	87.56
488.825	105.56
489.043	99.56
489.261	76.56
489.479	95.56
489.696	88.56
489.914	102.56
490.132	88.56
490.35	98.56
490.568	96.56
490.786	102.56
491.003	96.56
491.221	94.56
491.439	95.56
491.657	90.56
491.874	100.56
492.092	87.56
492.31	81.56
492.527	91.56
492.745	79.56
492.963	86.56
493.18	91.56
493.398	98.56
493.615	91.56
493.833	92.56
494.05	82.56
494.268	89.56
494.485	87.56
494.703	69.56
494.92	86.56
495.138	82.56
495.355	92.56
495.573	92.56
495.79	78.56
496.008	88.56
496.225	94.56
496.442	89.56
496.66	82.56
496.877	96.56
497.094	94.56
497.312	92.56
497.529	87.56
497.746	93.56
497.963	95.56
498.181	98.56
498.398	91.56
498.615	92.56
498.832	103.56
499.049	91.56
499.267	87.56
499.484	88.56
499.701	84.56
499.918	92.56
500.135	94.56
500.352	83.56
500.569	77.56
500.786	103.56
501.003	95.56
501.22	110.56
501.437	82.56
501.654	85.56
501.871	89.56
502.088	91.56
502.305	107.56
502.522	81.56
502.739	85.56
502.956	76.56
503.172	98.56
503.389	85.56
503.606	99.56
503.823	87.56
504.04	101.56
504.256	94.56
504.473	90.56
504.69	85.56
504.907	92.56
505.123	73.56
505.34	96.56
505.557	98.56
505.773	86.56
505.99	77.56
506.207	86.56
506.423	86.56
506.64	84.56
506.856	88.56
507.073	94.56
507.289	95.56
507.506	89.56
507.722	99.56
507.939	118.56
508.155	84.56
508.372	83.56
508.588	84.56
508.805	92.56
509.021	109.56
509.238	91.56
509.454	91.56
509.67	84.56
509.887	85.56
510.103	125.56
510.319	182.56
510.536	549.56
510.752	1620.56
510.968	459.56
511.184	114.56
511.401	101.56
511.617	106.56
511.833	87.56
512.049	102.56
512.265	83.56
512.481	110.56
512.698	101.56
512.914	90.56
513.13	85.56
513.346	87.56
513.562	91.56
513.778	99.56
513.994	89.56
514.21	95.56
514.426	112.56
514.642	110.56
514.858	109.56
515.074	118.56
515.29	299.56
515.506	974.56
515.721	362.56
515.937	129.56
516.153	112.56
516.369	92.56
