Data from Circ_1980_H10_HRD10591_00006.txt Node
Date: Wed Jan 03 12:37:59 EST 2024
User: Yrep
Spectrometer: HR+D1059
Trigger mode: 1
Integration Time (sec): 1.000000E-1
Scans to average: 1
Electric dark correction enabled: true
Nonlinearity correction enabled: false
Boxcar width: 0
XAxis mode: Wavelengths
Number of Pixels in Spectrum: 2048
>>>>>Begin Spectral Data<<<<<
223.165	-24.19
223.4	-24.19
223.635	-24.19
223.869	-19.19
224.104	-16.19
224.338	-15.19
224.573	-12.19
224.808	-16.19
225.042	-1.19
225.277	2.81
225.511	-3.19
225.746	-2.19
225.98	-4.19
226.215	3.81
226.449	20.81
226.683	33.81
226.918	26.81
227.152	25.81
227.387	31.81
227.621	40.81
227.856	42.81
228.09	54.81
228.324	33.81
228.559	53.81
228.793	65.81
229.027	71.81
229.262	69.81
229.496	65.81
229.73	71.81
229.964	77.81
230.199	77.81
230.433	74.81
230.667	78.81
230.901	65.81
231.136	63.81
231.37	60.81
231.604	81.81
231.838	81.81
232.072	83.81
232.306	72.81
232.541	76.81
232.775	89.81
233.009	90.81
233.243	76.81
233.477	75.81
233.711	76.81
233.945	91.81
234.179	92.81
234.413	83.81
234.647	91.81
234.881	83.81
235.115	79.81
235.349	65.81
235.583	80.81
235.817	87.81
236.051	74.81
236.285	85.81
236.519	74.81
236.753	77.81
236.987	89.81
237.221	85.81
237.455	69.81
237.689	75.81
237.922	70.81
238.156	81.81
238.39	78.81
238.624	89.81
238.858	78.81
239.091	78.81
239.325	63.81
239.559	69.81
239.793	64.81
240.027	71.81
240.26	62.81
240.494	82.81
240.728	93.81
240.961	95.81
241.195	78.81
241.429	79.81
241.662	74.81
241.896	73.81
242.13	73.81
242.363	77.81
242.597	79.81
242.83	78.81
243.064	71.81
243.298	81.81
243.531	83.81
243.765	85.81
243.998	67.81
244.232	77.81
244.465	85.81
244.699	72.81
244.932	83.81
245.166	88.81
245.399	81.81
245.633	75.81
245.866	72.81
246.099	78.81
246.333	72.81
246.566	75.81
246.8	88.81
247.033	74.81
247.266	83.81
247.5	73.81
247.733	77.81
247.966	72.81
248.2	67.81
248.433	76.81
248.666	77.81
248.899	87.81
249.133	89.81
249.366	83.81
249.599	86.81
249.832	78.81
250.066	94.81
250.299	74.81
250.532	65.81
250.765	91.81
250.998	75.81
251.231	85.81
251.465	72.81
251.698	78.81
251.931	75.81
252.164	84.81
252.397	83.81
252.63	83.81
252.863	77.81
253.096	83.81
253.329	89.81
253.562	81.81
253.795	77.81
254.028	79.81
254.261	72.81
254.494	77.81
254.727	77.81
254.96	78.81
255.193	78.81
255.426	79.81
255.659	70.81
255.892	83.81
256.124	76.81
256.357	72.81
256.59	73.81
256.823	75.81
257.056	91.81
257.289	74.81
257.521	77.81
257.754	77.81
257.987	86.81
258.22	71.81
258.452	91.81
258.685	64.81
258.918	74.81
259.151	90.81
259.383	93.81
259.616	88.81
259.849	70.81
260.081	84.81
260.314	77.81
260.547	81.81
260.779	71.81
261.012	83.81
261.244	87.81
261.477	73.81
261.71	79.81
261.942	99.81
262.175	87.81
262.407	81.81
262.64	82.81
262.872	86.81
263.105	78.81
263.337	73.81
263.57	85.81
263.802	91.81
264.035	76.81
264.267	64.81
264.499	73.81
264.732	78.81
264.964	83.81
265.197	80.81
265.429	89.81
265.661	84.81
265.894	84.81
266.126	84.81
266.358	90.81
266.591	84.81
266.823	83.81
267.055	83.81
267.287	82.81
267.52	85.81
267.752	74.81
267.984	79.81
268.216	92.81
268.448	88.81
268.681	88.81
268.913	90.81
269.145	79.81
269.377	87.81
269.609	81.81
269.841	84.81
270.073	78.81
270.306	73.81
270.538	82.81
270.77	89.81
271.002	89.81
271.234	86.81
271.466	75.81
271.698	88.81
271.93	88.81
272.162	92.81
272.394	94.81
272.626	82.81
272.858	83.81
273.09	106.81
273.322	77.81
273.553	93.81
273.785	83.81
274.017	63.81
274.249	91.81
274.481	87.81
274.713	74.81
274.945	97.81
275.176	91.81
275.408	79.81
275.64	76.81
275.872	76.81
276.104	99.81
276.335	96.81
276.567	86.81
276.799	109.81
277.031	86.81
277.262	91.81
277.494	94.81
277.726	82.81
277.957	77.81
278.189	78.81
278.421	94.81
278.652	72.81
278.884	93.81
279.115	75.81
279.347	78.81
279.579	81.81
279.81	88.81
280.042	86.81
280.273	98.81
280.505	92.81
280.736	68.81
280.968	83.81
281.199	78.81
281.431	73.81
281.662	76.81
281.894	87.81
282.125	102.81
282.356	93.81
282.588	114.81
282.819	110.81
283.051	89.81
283.282	87.81
283.513	79.81
283.745	69.81
283.976	81.81
284.207	93.81
284.439	71.81
284.67	102.81
284.901	81.81
285.132	90.81
285.364	78.81
285.595	94.81
285.826	91.81
286.057	83.81
286.288	72.81
286.52	88.81
286.751	90.81
286.982	84.81
287.213	77.81
287.444	89.81
287.675	84.81
287.906	86.81
288.138	92.81
288.369	84.81
288.6	91.81
288.831	89.81
289.062	93.81
289.293	90.81
289.524	85.81
289.755	92.81
289.986	78.81
290.217	84.81
290.448	89.81
290.679	93.81
290.91	85.81
291.141	82.81
291.371	92.81
291.602	95.81
291.833	91.81
292.064	84.81
292.295	83.81
292.526	97.81
292.757	74.81
292.987	97.81
293.218	78.81
293.449	92.81
293.68	75.81
293.91	78.81
294.141	83.81
294.372	74.81
294.603	91.81
294.833	89.81
295.064	83.81
295.295	91.81
295.525	88.81
295.756	87.81
295.987	110.81
296.217	125.81
296.448	114.81
296.679	96.81
296.909	92.81
297.14	78.81
297.37	89.81
297.601	81.81
297.831	91.81
298.062	86.81
298.292	96.81
298.523	97.81
298.753	76.81
298.984	79.81
299.214	85.81
299.445	94.81
299.675	85.81
299.905	93.81
300.136	91.81
300.366	79.81
300.597	70.81
300.827	87.81
301.057	105.81
301.288	81.81
301.518	81.81
301.748	103.81
301.979	96.81
302.209	93.81
302.439	81.81
302.669	82.81
302.9	65.81
303.13	85.81
303.36	91.81
303.59	89.81
303.82	102.81
304.051	91.81
304.281	78.81
304.511	91.81
304.741	107.81
304.971	78.81
305.201	89.81
305.431	84.81
305.661	81.81
305.891	87.81
306.121	93.81
306.352	87.81
306.582	109.81
306.812	91.81
307.042	91.81
307.272	97.81
307.502	91.81
307.731	98.81
307.961	89.81
308.191	78.81
308.421	97.81
308.651	91.81
308.881	83.81
309.111	88.81
309.341	85.81
309.571	89.81
309.8	93.81
310.03	89.81
310.26	98.81
310.49	87.81
310.72	94.81
310.949	104.81
311.179	104.81
311.409	85.81
311.639	84.81
311.868	97.81
312.098	99.81
312.328	90.81
312.557	86.81
312.787	103.81
313.017	88.81
313.246	78.81
313.476	107.81
313.706	90.81
313.935	96.81
314.165	90.81
314.394	106.81
314.624	91.81
314.853	105.81
315.083	82.81
315.312	86.81
315.542	86.81
315.771	102.81
316.001	87.81
316.23	99.81
316.46	92.81
316.689	97.81
316.919	94.81
317.148	76.81
317.377	86.81
317.607	97.81
317.836	93.81
318.065	86.81
318.295	81.81
318.524	83.81
318.753	77.81
318.983	87.81
319.212	92.81
319.441	92.81
319.67	104.81
319.9	86.81
320.129	102.81
320.358	90.81
320.587	97.81
320.816	109.81
321.046	107.81
321.275	102.81
321.504	88.81
321.733	101.81
321.962	92.81
322.191	102.81
322.42	97.81
322.649	107.81
322.878	102.81
323.108	106.81
323.337	109.81
323.566	99.81
323.795	125.81
324.024	173.81
324.253	304.81
324.482	572.81
324.71	1168.81
324.939	1498.81
325.168	576.81
325.397	210.81
325.626	105.81
325.855	126.81
326.084	103.81
326.313	100.81
326.542	134.81
326.77	197.81
326.999	343.81
327.228	679.81
327.457	1228.81
327.686	968.81
327.914	289.81
328.143	173.81
328.372	112.81
328.6	105.81
328.829	105.81
329.058	108.81
329.287	115.81
329.515	107.81
329.744	98.81
329.972	84.81
330.201	111.81
330.43	113.81
330.658	101.81
330.887	119.81
331.115	119.81
331.344	100.81
331.572	95.81
331.801	85.81
332.03	90.81
332.258	87.81
332.486	103.81
332.715	101.81
332.943	89.81
333.172	89.81
333.4	81.81
333.629	98.81
333.857	99.81
334.085	102.81
334.314	114.81
334.542	125.81
334.771	112.81
334.999	89.81
335.227	91.81
335.455	102.81
335.684	81.81
335.912	87.81
336.14	107.81
336.369	93.81
336.597	107.81
336.825	102.81
337.053	83.81
337.281	88.81
337.51	95.81
337.738	83.81
337.966	100.81
338.194	91.81
338.422	94.81
338.65	96.81
338.878	90.81
339.106	90.81
339.334	76.81
339.562	97.81
339.79	89.81
340.018	102.81
340.246	92.81
340.474	91.81
340.702	86.81
340.93	87.81
341.158	90.81
341.386	99.81
341.614	85.81
341.842	88.81
342.07	92.81
342.298	82.81
342.526	95.81
342.754	76.81
342.981	105.81
343.209	77.81
343.437	102.81
343.665	86.81
343.893	95.81
344.12	92.81
344.348	93.81
344.576	86.81
344.804	86.81
345.031	96.81
345.259	89.81
345.487	97.81
345.714	76.81
345.942	87.81
346.17	90.81
346.397	91.81
346.625	85.81
346.853	91.81
347.08	97.81
347.308	89.81
347.535	87.81
347.763	86.81
347.99	112.81
348.218	101.81
348.445	101.81
348.673	99.81
348.9	101.81
349.128	82.81
349.355	98.81
349.583	99.81
349.81	88.81
350.037	102.81
350.265	110.81
350.492	94.81
350.72	88.81
350.947	110.81
351.174	101.81
351.402	98.81
351.629	83.81
351.856	90.81
352.083	106.81
352.311	89.81
352.538	102.81
352.765	105.81
352.992	111.81
353.22	94.81
353.447	88.81
353.674	86.81
353.901	104.81
354.128	101.81
354.355	103.81
354.583	97.81
354.81	89.81
355.037	85.81
355.264	83.81
355.491	86.81
355.718	105.81
355.945	107.81
356.172	90.81
356.399	89.81
356.626	93.81
356.853	82.81
357.08	97.81
357.307	99.81
357.534	81.81
357.761	116.81
357.988	104.81
358.215	109.81
358.441	108.81
358.668	104.81
358.895	99.81
359.122	88.81
359.349	93.81
359.576	76.81
359.802	87.81
360.029	95.81
360.256	101.81
360.483	100.81
360.709	75.81
360.936	93.81
361.163	77.81
361.39	84.81
361.616	87.81
361.843	105.81
362.07	87.81
362.296	98.81
362.523	82.81
362.749	84.81
362.976	83.81
363.203	98.81
363.429	98.81
363.656	96.81
363.882	95.81
364.109	88.81
364.335	91.81
364.562	76.81
364.788	97.81
365.015	94.81
365.241	100.81
365.468	86.81
365.694	90.81
365.92	92.81
366.147	86.81
366.373	75.81
366.599	101.81
366.826	94.81
367.052	85.81
367.278	78.81
367.505	91.81
367.731	85.81
367.957	111.81
368.184	97.81
368.41	84.81
368.636	98.81
368.862	110.81
369.089	100.81
369.315	80.81
369.541	94.81
369.767	79.81
369.993	77.81
370.219	90.81
370.445	88.81
370.672	99.81
370.898	94.81
371.124	94.81
371.35	76.81
371.576	89.81
371.802	78.81
372.028	83.81
372.254	96.81
372.48	81.81
372.706	81.81
372.932	90.81
373.158	93.81
373.384	82.81
373.61	97.81
373.835	73.81
374.061	89.81
374.287	100.81
374.513	89.81
374.739	93.81
374.965	87.81
375.191	97.81
375.416	88.81
375.642	76.81
375.868	84.81
376.094	97.81
376.319	92.81
376.545	76.81
376.771	100.81
376.997	94.81
377.222	99.81
377.448	97.81
377.674	91.81
377.899	88.81
378.125	93.81
378.35	97.81
378.576	105.81
378.802	89.81
379.027	102.81
379.253	95.81
379.478	88.81
379.704	97.81
379.929	99.81
380.155	92.81
380.38	97.81
380.606	85.81
380.831	90.81
381.057	97.81
381.282	100.81
381.507	94.81
381.733	110.81
381.958	105.81
382.184	113.81
382.409	118.81
382.634	99.81
382.86	110.81
383.085	108.81
383.31	105.81
383.535	97.81
383.761	114.81
383.986	113.81
384.211	107.81
384.436	106.81
384.662	106.81
384.887	110.81
385.112	115.81
385.337	125.81
385.562	123.81
385.787	125.81
386.013	116.81
386.238	115.81
386.463	121.81
386.688	119.81
386.913	122.81
387.138	134.81
387.363	125.81
387.588	112.81
387.813	99.81
388.038	112.81
388.263	125.81
388.488	121.81
388.713	99.81
388.938	101.81
389.163	81.81
389.387	99.81
389.612	95.81
389.837	108.81
390.062	82.81
390.287	85.81
390.512	105.81
390.736	73.81
390.961	101.81
391.186	94.81
391.411	95.81
391.636	82.81
391.86	75.81
392.085	82.81
392.31	85.81
392.534	90.81
392.759	92.81
392.984	74.81
393.208	93.81
393.433	94.81
393.658	84.81
393.882	82.81
394.107	75.81
394.331	78.81
394.556	75.81
394.78	103.81
395.005	83.81
395.229	96.81
395.454	86.81
395.678	71.81
395.903	81.81
396.127	83.81
396.352	81.81
396.576	99.81
396.801	83.81
397.025	85.81
397.249	88.81
397.474	87.81
397.698	85.81
397.922	85.81
398.147	88.81
398.371	75.81
398.595	79.81
398.82	76.81
399.044	91.81
399.268	86.81
399.492	85.81
399.717	81.81
399.941	80.81
400.165	103.81
400.389	93.81
400.613	90.81
400.837	77.81
401.062	93.81
401.286	89.81
401.51	81.81
401.734	98.81
401.958	93.81
402.182	91.81
402.406	117.81
402.63	102.81
402.854	94.81
403.078	91.81
403.302	93.81
403.526	91.81
403.75	92.81
403.974	79.81
404.198	86.81
404.422	85.81
404.645	74.81
404.869	89.81
405.093	85.81
405.317	89.81
405.541	92.81
405.765	85.81
405.988	92.81
406.212	130.81
406.436	169.81
406.66	117.81
406.883	80.81
407.107	86.81
407.331	85.81
407.555	89.81
407.778	78.81
408.002	82.81
408.226	78.81
408.449	81.81
408.673	85.81
408.896	95.81
409.12	93.81
409.344	91.81
409.567	93.81
409.791	87.81
410.014	91.81
410.238	90.81
410.461	89.81
410.685	95.81
410.908	94.81
411.132	104.81
411.355	93.81
411.578	87.81
411.802	78.81
412.025	85.81
412.249	95.81
412.472	85.81
412.695	104.81
412.919	81.81
413.142	84.81
413.365	91.81
413.589	79.81
413.812	90.81
414.035	86.81
414.258	79.81
414.482	91.81
414.705	86.81
414.928	87.81
415.151	95.81
415.374	106.81
415.597	90.81
415.821	81.81
416.044	69.81
416.267	91.81
416.49	82.81
416.713	93.81
416.936	96.81
417.159	81.81
417.382	64.81
417.605	91.81
417.828	103.81
418.051	107.81
418.274	86.81
418.497	85.81
418.72	86.81
418.943	86.81
419.166	82.81
419.389	78.81
419.611	84.81
419.834	79.81
420.057	84.81
420.28	87.81
420.503	88.81
420.726	88.81
420.948	82.81
421.171	91.81
421.394	85.81
421.617	87.81
421.839	74.81
422.062	85.81
422.285	95.81
422.507	106.81
422.73	82.81
422.953	74.81
423.175	90.81
423.398	84.81
423.621	76.81
423.843	90.81
424.066	85.81
424.288	87.81
424.511	92.81
424.733	89.81
424.956	91.81
425.178	80.81
425.401	103.81
425.623	77.81
425.846	89.81
426.068	93.81
426.291	87.81
426.513	89.81
426.735	85.81
426.958	94.81
427.18	87.81
427.402	109.81
427.625	133.81
427.847	118.81
428.069	88.81
428.292	85.81
428.514	72.81
428.736	78.81
428.958	82.81
429.181	92.81
429.403	90.81
429.625	81.81
429.847	78.81
430.069	87.81
430.292	83.81
430.514	85.81
430.736	86.81
430.958	91.81
431.18	83.81
431.402	76.81
431.624	83.81
431.846	97.81
432.068	90.81
432.29	82.81
432.512	88.81
432.734	85.81
432.956	86.81
433.178	85.81
433.4	78.81
433.622	93.81
433.844	93.81
434.066	79.81
434.287	87.81
434.509	89.81
434.731	89.81
434.953	87.81
435.175	87.81
435.397	86.81
435.618	74.81
435.84	101.81
436.062	111.81
436.284	106.81
436.505	102.81
436.727	92.81
436.949	97.81
437.17	98.81
437.392	84.81
437.614	93.81
437.835	102.81
438.057	102.81
438.278	105.81
438.5	96.81
438.721	107.81
438.943	70.81
439.165	79.81
439.386	74.81
439.608	94.81
439.829	84.81
440.05	99.81
440.272	117.81
440.493	86.81
440.715	82.81
440.936	83.81
441.158	92.81
441.379	79.81
441.6	77.81
441.822	66.81
442.043	78.81
442.264	94.81
442.486	98.81
442.707	90.81
442.928	86.81
443.149	90.81
443.371	104.81
443.592	95.81
443.813	99.81
444.034	90.81
444.255	84.81
444.476	95.81
444.698	82.81
444.919	71.81
445.14	144.81
445.361	114.81
445.582	102.81
445.803	103.81
446.024	107.81
446.245	111.81
446.466	95.81
446.687	86.81
446.908	76.81
447.129	83.81
447.35	65.81
447.571	91.81
447.792	90.81
448.013	85.81
448.234	79.81
448.455	99.81
448.675	92.81
448.896	77.81
449.117	93.81
449.338	85.81
449.559	95.81
449.779	110.81
450	90.81
450.221	83.81
450.442	82.81
450.662	83.81
450.883	90.81
451.104	90.81
451.324	70.81
451.545	85.81
451.766	80.81
451.986	81.81
452.207	78.81
452.428	84.81
452.648	91.81
452.869	99.81
453.089	111.81
453.31	96.81
453.53	86.81
453.751	87.81
453.971	88.81
454.192	92.81
454.412	94.81
454.633	82.81
454.853	86.81
455.073	76.81
455.294	85.81
455.514	81.81
455.734	84.81
455.955	94.81
456.175	86.81
456.395	71.81
456.616	81.81
456.836	72.81
457.056	76.81
457.276	89.81
457.497	90.81
457.717	86.81
457.937	91.81
458.157	70.81
458.377	83.81
458.598	93.81
458.818	111.81
459.038	133.81
459.258	122.81
459.478	67.81
459.698	76.81
459.918	77.81
460.138	78.81
460.358	71.81
460.578	83.81
460.798	70.81
461.018	88.81
461.238	89.81
461.458	76.81
461.678	92.81
461.898	77.81
462.118	61.81
462.338	90.81
462.558	94.81
462.777	93.81
462.997	78.81
463.217	109.81
463.437	76.81
463.657	92.81
463.876	99.81
464.096	76.81
464.316	81.81
464.536	97.81
464.755	87.81
464.975	86.81
465.195	128.81
465.414	121.81
465.634	87.81
465.854	89.81
466.073	89.81
466.293	91.81
466.512	89.81
466.732	68.81
466.951	83.81
467.171	85.81
467.391	74.81
467.61	89.81
467.829	98.81
468.049	94.81
468.268	82.81
468.488	87.81
468.707	78.81
468.927	73.81
469.146	95.81
469.365	86.81
469.585	83.81
469.804	90.81
470.023	97.81
470.243	78.81
470.462	97.81
470.681	101.81
470.901	83.81
471.12	91.81
471.339	87.81
471.558	78.81
471.777	101.81
471.997	98.81
472.216	112.81
472.435	127.81
472.654	93.81
472.873	95.81
473.092	99.81
473.311	68.81
473.53	84.81
473.749	79.81
473.968	87.81
474.187	89.81
474.406	94.81
474.625	87.81
474.844	93.81
475.063	69.81
475.282	89.81
475.501	77.81
475.72	82.81
475.939	80.81
476.158	87.81
476.377	87.81
476.596	88.81
476.814	100.81
477.033	92.81
477.252	78.81
477.471	77.81
477.69	82.81
477.908	88.81
478.127	93.81
478.346	83.81
478.564	86.81
478.783	95.81
479.002	93.81
479.22	90.81
479.439	89.81
479.658	101.81
479.876	94.81
480.095	92.81
480.313	91.81
480.532	83.81
480.751	82.81
480.969	104.81
481.188	176.81
481.406	129.81
481.624	79.81
481.843	86.81
482.061	100.81
482.28	79.81
482.498	89.81
482.717	71.81
482.935	94.81
483.153	87.81
483.372	94.81
483.59	82.81
483.808	87.81
484.027	83.81
484.245	98.81
484.463	99.81
484.681	105.81
484.9	105.81
485.118	107.81
485.336	101.81
485.554	99.81
485.772	98.81
485.99	93.81
486.209	99.81
486.427	104.81
486.645	110.81
486.863	102.81
487.081	101.81
487.299	101.81
487.517	95.81
487.735	81.81
487.953	99.81
488.171	89.81
488.389	96.81
488.607	89.81
488.825	86.81
489.043	98.81
489.261	94.81
489.479	75.81
489.696	83.81
489.914	94.81
490.132	98.81
490.35	96.81
490.568	87.81
490.786	74.81
491.003	83.81
491.221	87.81
491.439	90.81
491.657	105.81
491.874	85.81
492.092	84.81
492.31	89.81
492.527	85.81
492.745	92.81
492.963	78.81
493.18	85.81
493.398	81.81
493.615	102.81
493.833	97.81
494.05	95.81
494.268	86.81
494.485	86.81
494.703	95.81
494.92	94.81
495.138	97.81
495.355	86.81
495.573	91.81
495.79	83.81
496.008	93.81
496.225	83.81
496.442	97.81
496.66	86.81
496.877	93.81
497.094	81.81
497.312	78.81
497.529	78.81
497.746	89.81
497.963	77.81
498.181	79.81
498.398	98.81
498.615	95.81
498.832	91.81
499.049	94.81
499.267	85.81
499.484	77.81
499.701	87.81
499.918	98.81
500.135	83.81
500.352	97.81
500.569	108.81
500.786	78.81
501.003	78.81
501.22	75.81
501.437	83.81
501.654	101.81
501.871	102.81
502.088	98.81
502.305	90.81
502.522	84.81
502.739	87.81
502.956	77.81
503.172	97.81
503.389	102.81
503.606	81.81
503.823	82.81
504.04	84.81
504.256	96.81
504.473	81.81
504.69	68.81
504.907	98.81
505.123	89.81
505.34	89.81
505.557	84.81
505.773	89.81
505.99	95.81
506.207	107.81
506.423	95.81
506.64	78.81
506.856	99.81
507.073	90.81
507.289	103.81
507.506	99.81
507.722	101.81
507.939	82.81
508.155	93.81
508.372	87.81
508.588	93.81
508.805	91.81
509.021	98.81
509.238	90.81
509.454	91.81
509.67	93.81
509.887	97.81
510.103	113.81
510.319	184.81
510.536	508.81
510.752	1511.81
510.968	441.81
511.184	137.81
511.401	103.81
511.617	98.81
511.833	98.81
512.049	85.81
512.265	93.81
512.481	87.81
512.698	82.81
512.914	85.81
513.13	91.81
513.346	92.81
513.562	90.81
513.778	101.81
513.994	95.81
514.21	93.81
514.426	92.81
514.642	114.81
514.858	99.81
515.074	141.81
515.29	305.81
515.506	883.81
515.721	350.81
515.937	135.81
516.153	99.81
516.369	87.81
516.585	85.81
516.801	84.81
