Data from Circ_1980_H10_HRD10591_00012.txt Node
Date: Wed Jan 03 12:38:00 EST 2024
User: Yrep
Spectrometer: HR+D1059
Trigger mode: 1
Integration Time (sec): 1.000000E-1
Scans to average: 1
Electric dark correction enabled: true
Nonlinearity correction enabled: false
Boxcar width: 0
XAxis mode: Wavelengths
Number of Pixels in Spectrum: 2048
>>>>>Begin Spectral Data<<<<<
223.165	-25.88
223.4	-25.88
223.635	-25.88
223.869	-29.88
224.104	-21.88
224.338	-9.88
224.573	-12.88
224.808	-11.88
225.042	-16.88
225.277	-5.88
225.511	-17.88
225.746	16.12
225.98	4.12
226.215	17.12
226.449	26.12
226.683	17.12
226.918	33.12
227.152	39.12
227.387	41.12
227.621	39.12
227.856	57.12
228.09	54.12
228.324	35.12
228.559	45.12
228.793	68.12
229.027	75.12
229.262	68.12
229.496	73.12
229.73	80.12
229.964	72.12
230.199	80.12
230.433	73.12
230.667	80.12
230.901	84.12
231.136	81.12
231.37	76.12
231.604	95.12
231.838	70.12
232.072	82.12
232.306	86.12
232.541	83.12
232.775	76.12
233.009	88.12
233.243	85.12
233.477	79.12
233.711	77.12
233.945	88.12
234.179	95.12
234.413	85.12
234.647	87.12
234.881	86.12
235.115	88.12
235.349	88.12
235.583	76.12
235.817	76.12
236.051	74.12
236.285	93.12
236.519	82.12
236.753	87.12
236.987	79.12
237.221	82.12
237.455	77.12
237.689	73.12
237.922	77.12
238.156	85.12
238.39	85.12
238.624	86.12
238.858	86.12
239.091	88.12
239.325	70.12
239.559	72.12
239.793	82.12
240.027	79.12
240.26	63.12
240.494	78.12
240.728	81.12
240.961	71.12
241.195	74.12
241.429	84.12
241.662	76.12
241.896	71.12
242.13	82.12
242.363	84.12
242.597	74.12
242.83	70.12
243.064	79.12
243.298	79.12
243.531	75.12
243.765	93.12
243.998	90.12
244.232	72.12
244.465	90.12
244.699	66.12
244.932	80.12
245.166	88.12
245.399	68.12
245.633	97.12
245.866	104.12
246.099	88.12
246.333	74.12
246.566	76.12
246.8	78.12
247.033	75.12
247.266	80.12
247.5	76.12
247.733	80.12
247.966	82.12
248.2	88.12
248.433	95.12
248.666	76.12
248.899	84.12
249.133	84.12
249.366	85.12
249.599	96.12
249.832	66.12
250.066	87.12
250.299	79.12
250.532	92.12
250.765	78.12
250.998	75.12
251.231	70.12
251.465	86.12
251.698	90.12
251.931	89.12
252.164	75.12
252.397	80.12
252.63	71.12
252.863	81.12
253.096	89.12
253.329	84.12
253.562	84.12
253.795	86.12
254.028	76.12
254.261	84.12
254.494	86.12
254.727	88.12
254.96	88.12
255.193	89.12
255.426	85.12
255.659	93.12
255.892	93.12
256.124	80.12
256.357	89.12
256.59	90.12
256.823	85.12
257.056	86.12
257.289	82.12
257.521	91.12
257.754	98.12
257.987	79.12
258.22	73.12
258.452	84.12
258.685	100.12
258.918	73.12
259.151	72.12
259.383	89.12
259.616	86.12
259.849	79.12
260.081	86.12
260.314	77.12
260.547	89.12
260.779	84.12
261.012	91.12
261.244	91.12
261.477	86.12
261.71	88.12
261.942	94.12
262.175	101.12
262.407	78.12
262.64	90.12
262.872	82.12
263.105	88.12
263.337	96.12
263.57	93.12
263.802	81.12
264.035	99.12
264.267	87.12
264.499	77.12
264.732	84.12
264.964	81.12
265.197	85.12
265.429	78.12
265.661	80.12
265.894	79.12
266.126	81.12
266.358	94.12
266.591	76.12
266.823	81.12
267.055	77.12
267.287	97.12
267.52	79.12
267.752	86.12
267.984	83.12
268.216	68.12
268.448	89.12
268.681	82.12
268.913	96.12
269.145	80.12
269.377	97.12
269.609	86.12
269.841	79.12
270.073	84.12
270.306	94.12
270.538	84.12
270.77	77.12
271.002	90.12
271.234	80.12
271.466	88.12
271.698	93.12
271.93	89.12
272.162	87.12
272.394	94.12
272.626	101.12
272.858	88.12
273.09	77.12
273.322	92.12
273.553	89.12
273.785	88.12
274.017	82.12
274.249	87.12
274.481	77.12
274.713	86.12
274.945	94.12
275.176	88.12
275.408	82.12
275.64	84.12
275.872	97.12
276.104	94.12
276.335	90.12
276.567	96.12
276.799	106.12
277.031	79.12
277.262	86.12
277.494	92.12
277.726	73.12
277.957	79.12
278.189	94.12
278.421	90.12
278.652	106.12
278.884	88.12
279.115	82.12
279.347	97.12
279.579	100.12
279.81	87.12
280.042	85.12
280.273	92.12
280.505	92.12
280.736	74.12
280.968	86.12
281.199	73.12
281.431	85.12
281.662	103.12
281.894	92.12
282.125	103.12
282.356	102.12
282.588	122.12
282.819	100.12
283.051	88.12
283.282	77.12
283.513	82.12
283.745	99.12
283.976	90.12
284.207	81.12
284.439	86.12
284.67	87.12
284.901	81.12
285.132	81.12
285.364	87.12
285.595	87.12
285.826	97.12
286.057	92.12
286.288	80.12
286.52	94.12
286.751	89.12
286.982	85.12
287.213	86.12
287.444	98.12
287.675	88.12
287.906	88.12
288.138	90.12
288.369	90.12
288.6	93.12
288.831	78.12
289.062	100.12
289.293	92.12
289.524	88.12
289.755	86.12
289.986	88.12
290.217	82.12
290.448	79.12
290.679	73.12
290.91	103.12
291.141	80.12
291.371	98.12
291.602	101.12
291.833	91.12
292.064	87.12
292.295	85.12
292.526	91.12
292.757	89.12
292.987	90.12
293.218	75.12
293.449	92.12
293.68	103.12
293.91	89.12
294.141	107.12
294.372	76.12
294.603	93.12
294.833	93.12
295.064	93.12
295.295	95.12
295.525	89.12
295.756	108.12
295.987	104.12
296.217	122.12
296.448	105.12
296.679	104.12
296.909	92.12
297.14	88.12
297.37	88.12
297.601	105.12
297.831	95.12
298.062	102.12
298.292	87.12
298.523	88.12
298.753	84.12
298.984	86.12
299.214	104.12
299.445	90.12
299.675	79.12
299.905	94.12
300.136	87.12
300.366	100.12
300.597	92.12
300.827	85.12
301.057	101.12
301.288	94.12
301.518	86.12
301.748	78.12
301.979	97.12
302.209	91.12
302.439	86.12
302.669	89.12
302.9	104.12
303.13	95.12
303.36	93.12
303.59	95.12
303.82	92.12
304.051	104.12
304.281	92.12
304.511	100.12
304.741	88.12
304.971	94.12
305.201	92.12
305.431	95.12
305.661	85.12
305.891	91.12
306.121	99.12
306.352	102.12
306.582	103.12
306.812	87.12
307.042	92.12
307.272	87.12
307.502	88.12
307.731	95.12
307.961	91.12
308.191	97.12
308.421	93.12
308.651	94.12
308.881	89.12
309.111	102.12
309.341	95.12
309.571	87.12
309.8	99.12
310.03	95.12
310.26	109.12
310.49	109.12
310.72	94.12
310.949	91.12
311.179	90.12
311.409	95.12
311.639	93.12
311.868	95.12
312.098	103.12
312.328	106.12
312.557	104.12
312.787	96.12
313.017	96.12
313.246	91.12
313.476	96.12
313.706	89.12
313.935	114.12
314.165	108.12
314.394	95.12
314.624	96.12
314.853	97.12
315.083	108.12
315.312	92.12
315.542	95.12
315.771	95.12
316.001	79.12
316.23	88.12
316.46	78.12
316.689	84.12
316.919	91.12
317.148	86.12
317.377	94.12
317.607	93.12
317.836	95.12
318.065	93.12
318.295	100.12
318.524	84.12
318.753	101.12
318.983	101.12
319.212	101.12
319.441	81.12
319.67	95.12
319.9	94.12
320.129	98.12
320.358	107.12
320.587	98.12
320.816	93.12
321.046	96.12
321.275	97.12
321.504	107.12
321.733	89.12
321.962	112.12
322.191	93.12
322.42	107.12
322.649	102.12
322.878	112.12
323.108	117.12
323.337	113.12
323.566	116.12
323.795	135.12
324.024	165.12
324.253	297.12
324.482	597.12
324.71	1181.12
324.939	1566.12
325.168	588.12
325.397	195.12
325.626	130.12
325.855	103.12
326.084	123.12
326.313	132.12
326.542	125.12
326.77	176.12
326.999	341.12
327.228	710.12
327.457	1218.12
327.686	968.12
327.914	292.12
328.143	156.12
328.372	138.12
328.6	116.12
328.829	90.12
329.058	111.12
329.287	114.12
329.515	111.12
329.744	106.12
329.972	109.12
330.201	109.12
330.43	120.12
330.658	118.12
330.887	117.12
331.115	101.12
331.344	93.12
331.572	98.12
331.801	99.12
332.03	95.12
332.258	100.12
332.486	105.12
332.715	100.12
332.943	100.12
333.172	88.12
333.4	113.12
333.629	92.12
333.857	118.12
334.085	96.12
334.314	119.12
334.542	125.12
334.771	116.12
334.999	95.12
335.227	104.12
335.455	99.12
335.684	109.12
335.912	98.12
336.14	111.12
336.369	96.12
336.597	98.12
336.825	99.12
337.053	94.12
337.281	98.12
337.51	88.12
337.738	86.12
337.966	97.12
338.194	106.12
338.422	89.12
338.65	100.12
338.878	103.12
339.106	80.12
339.334	93.12
339.562	103.12
339.79	88.12
340.018	81.12
340.246	88.12
340.474	76.12
340.702	84.12
340.93	112.12
341.158	89.12
341.386	90.12
341.614	82.12
341.842	92.12
342.07	91.12
342.298	114.12
342.526	99.12
342.754	94.12
342.981	95.12
343.209	92.12
343.437	92.12
343.665	89.12
343.893	99.12
344.12	92.12
344.348	89.12
344.576	87.12
344.804	84.12
345.031	93.12
345.259	92.12
345.487	92.12
345.714	99.12
345.942	93.12
346.17	107.12
346.397	100.12
346.625	101.12
346.853	93.12
347.08	89.12
347.308	103.12
347.535	109.12
347.763	92.12
347.99	88.12
348.218	98.12
348.445	116.12
348.673	104.12
348.9	88.12
349.128	102.12
349.355	94.12
349.583	89.12
349.81	103.12
350.037	92.12
350.265	84.12
350.492	93.12
350.72	101.12
350.947	100.12
351.174	114.12
351.402	107.12
351.629	99.12
351.856	98.12
352.083	84.12
352.311	90.12
352.538	97.12
352.765	106.12
352.992	107.12
353.22	112.12
353.447	105.12
353.674	112.12
353.901	102.12
354.128	104.12
354.355	97.12
354.583	102.12
354.81	95.12
355.037	99.12
355.264	97.12
355.491	104.12
355.718	106.12
355.945	93.12
356.172	86.12
356.399	93.12
356.626	91.12
356.853	95.12
357.08	101.12
357.307	89.12
357.534	86.12
357.761	85.12
357.988	88.12
358.215	98.12
358.441	112.12
358.668	94.12
358.895	100.12
359.122	99.12
359.349	93.12
359.576	96.12
359.802	95.12
360.029	96.12
360.256	113.12
360.483	95.12
360.709	79.12
360.936	92.12
361.163	106.12
361.39	105.12
361.616	92.12
361.843	102.12
362.07	95.12
362.296	89.12
362.523	105.12
362.749	81.12
362.976	77.12
363.203	101.12
363.429	87.12
363.656	86.12
363.882	80.12
364.109	103.12
364.335	95.12
364.562	87.12
364.788	88.12
365.015	95.12
365.241	102.12
365.468	104.12
365.694	90.12
365.92	78.12
366.147	94.12
366.373	84.12
366.599	88.12
366.826	87.12
367.052	85.12
367.278	92.12
367.505	80.12
367.731	87.12
367.957	96.12
368.184	100.12
368.41	94.12
368.636	118.12
368.862	110.12
369.089	102.12
369.315	82.12
369.541	108.12
369.767	91.12
369.993	88.12
370.219	90.12
370.445	96.12
370.672	97.12
370.898	84.12
371.124	93.12
371.35	75.12
371.576	89.12
371.802	77.12
372.028	86.12
372.254	90.12
372.48	105.12
372.706	85.12
372.932	98.12
373.158	81.12
373.384	77.12
373.61	82.12
373.835	97.12
374.061	86.12
374.287	86.12
374.513	91.12
374.739	109.12
374.965	86.12
375.191	94.12
375.416	98.12
375.642	87.12
375.868	93.12
376.094	88.12
376.319	96.12
376.545	88.12
376.771	96.12
376.997	106.12
377.222	105.12
377.448	95.12
377.674	98.12
377.899	97.12
378.125	80.12
378.35	90.12
378.576	92.12
378.802	94.12
379.027	93.12
379.253	101.12
379.478	94.12
379.704	90.12
379.929	91.12
380.155	93.12
380.38	110.12
380.606	111.12
380.831	101.12
381.057	96.12
381.282	91.12
381.507	103.12
381.733	107.12
381.958	105.12
382.184	103.12
382.409	102.12
382.634	110.12
382.86	112.12
383.085	120.12
383.31	117.12
383.535	122.12
383.761	111.12
383.986	111.12
384.211	118.12
384.436	108.12
384.662	107.12
384.887	121.12
385.112	125.12
385.337	116.12
385.562	121.12
385.787	109.12
386.013	135.12
386.238	125.12
386.463	124.12
386.688	129.12
386.913	112.12
387.138	121.12
387.363	115.12
387.588	120.12
387.813	116.12
388.038	112.12
388.263	125.12
388.488	120.12
388.713	114.12
388.938	93.12
389.163	94.12
389.387	92.12
389.612	94.12
389.837	95.12
390.062	95.12
390.287	95.12
390.512	96.12
390.736	85.12
390.961	104.12
391.186	91.12
391.411	101.12
391.636	94.12
391.86	73.12
392.085	86.12
392.31	73.12
392.534	90.12
392.759	90.12
392.984	103.12
393.208	95.12
393.433	95.12
393.658	98.12
393.882	82.12
394.107	78.12
394.331	93.12
394.556	86.12
394.78	84.12
395.005	84.12
395.229	100.12
395.454	95.12
395.678	84.12
395.903	86.12
396.127	85.12
396.352	90.12
396.576	91.12
396.801	93.12
397.025	96.12
397.249	96.12
397.474	88.12
397.698	98.12
397.922	70.12
398.147	81.12
398.371	68.12
398.595	72.12
398.82	75.12
399.044	91.12
399.268	95.12
399.492	94.12
399.717	98.12
399.941	89.12
400.165	100.12
400.389	101.12
400.613	77.12
400.837	95.12
401.062	104.12
401.286	83.12
401.51	80.12
401.734	97.12
401.958	94.12
402.182	100.12
402.406	134.12
402.63	100.12
402.854	99.12
403.078	107.12
403.302	86.12
403.526	96.12
403.75	101.12
403.974	86.12
404.198	85.12
404.422	78.12
404.645	93.12
404.869	72.12
405.093	88.12
405.317	102.12
405.541	109.12
405.765	102.12
405.988	120.12
406.212	138.12
406.436	175.12
406.66	118.12
406.883	94.12
407.107	102.12
407.331	101.12
407.555	102.12
407.778	93.12
408.002	68.12
408.226	93.12
408.449	81.12
408.673	99.12
408.896	83.12
409.12	88.12
409.344	96.12
409.567	90.12
409.791	95.12
410.014	95.12
410.238	99.12
410.461	95.12
410.685	104.12
410.908	98.12
411.132	106.12
411.355	90.12
411.578	73.12
411.802	77.12
412.025	76.12
412.249	94.12
412.472	102.12
412.695	111.12
412.919	96.12
413.142	101.12
413.365	96.12
413.589	88.12
413.812	89.12
414.035	102.12
414.258	80.12
414.482	88.12
414.705	99.12
414.928	106.12
415.151	96.12
415.374	100.12
415.597	88.12
415.821	84.12
416.044	93.12
416.267	94.12
416.49	93.12
416.713	102.12
416.936	85.12
417.159	87.12
417.382	98.12
417.605	86.12
417.828	101.12
418.051	99.12
418.274	85.12
418.497	77.12
418.72	78.12
418.943	96.12
419.166	100.12
419.389	96.12
419.611	91.12
419.834	93.12
420.057	97.12
420.28	91.12
420.503	92.12
420.726	107.12
420.948	99.12
421.171	100.12
421.394	78.12
421.617	92.12
421.839	90.12
422.062	95.12
422.285	74.12
422.507	89.12
422.73	98.12
422.953	105.12
423.175	98.12
423.398	94.12
423.621	87.12
423.843	77.12
424.066	83.12
424.288	92.12
424.511	95.12
424.733	91.12
424.956	96.12
425.178	96.12
425.401	89.12
425.623	87.12
425.846	89.12
426.068	95.12
426.291	92.12
426.513	84.12
426.735	92.12
426.958	94.12
427.18	99.12
427.402	119.12
427.625	133.12
427.847	113.12
428.069	108.12
428.292	107.12
428.514	96.12
428.736	84.12
428.958	78.12
429.181	84.12
429.403	94.12
429.625	87.12
429.847	85.12
430.069	90.12
430.292	88.12
430.514	94.12
430.736	90.12
430.958	86.12
431.18	91.12
431.402	75.12
431.624	82.12
431.846	95.12
432.068	92.12
432.29	98.12
432.512	87.12
432.734	90.12
432.956	100.12
433.178	96.12
433.4	89.12
433.622	94.12
433.844	104.12
434.066	97.12
434.287	92.12
434.509	96.12
434.731	75.12
434.953	84.12
435.175	88.12
435.397	89.12
435.618	99.12
435.84	103.12
436.062	116.12
436.284	100.12
436.505	106.12
436.727	93.12
436.949	90.12
437.17	81.12
437.392	82.12
437.614	93.12
437.835	90.12
438.057	104.12
438.278	113.12
438.5	89.12
438.721	122.12
438.943	108.12
439.165	94.12
439.386	96.12
439.608	97.12
439.829	85.12
440.05	110.12
440.272	117.12
440.493	96.12
440.715	77.12
440.936	90.12
441.158	79.12
441.379	94.12
441.6	90.12
441.822	95.12
442.043	89.12
442.264	109.12
442.486	84.12
442.707	111.12
442.928	96.12
443.149	109.12
443.371	118.12
443.592	109.12
443.813	108.12
444.034	108.12
444.255	90.12
444.476	92.12
444.698	86.12
444.919	93.12
445.14	126.12
445.361	110.12
445.582	95.12
445.803	104.12
446.024	117.12
446.245	116.12
446.466	96.12
446.687	92.12
446.908	79.12
447.129	85.12
447.35	91.12
447.571	85.12
447.792	92.12
448.013	95.12
448.234	104.12
448.455	79.12
448.675	105.12
448.896	114.12
449.117	102.12
449.338	103.12
449.559	118.12
449.779	126.12
450	94.12
450.221	72.12
450.442	91.12
450.662	79.12
450.883	84.12
451.104	97.12
451.324	81.12
451.545	90.12
451.766	100.12
451.986	89.12
452.207	85.12
452.428	96.12
452.648	99.12
452.869	109.12
453.089	109.12
453.31	104.12
453.53	102.12
453.751	95.12
453.971	94.12
454.192	89.12
454.412	93.12
454.633	84.12
454.853	100.12
455.073	92.12
455.294	92.12
455.514	93.12
455.734	92.12
455.955	93.12
456.175	69.12
456.395	81.12
456.616	81.12
456.836	100.12
457.056	96.12
457.276	91.12
457.497	85.12
457.717	75.12
457.937	84.12
458.157	75.12
458.377	87.12
458.598	87.12
458.818	127.12
459.038	130.12
459.258	107.12
459.478	95.12
459.698	93.12
459.918	88.12
460.138	86.12
460.358	87.12
460.578	94.12
460.798	86.12
461.018	82.12
461.238	86.12
461.458	86.12
461.678	86.12
461.898	99.12
462.118	68.12
462.338	80.12
462.558	64.12
462.777	97.12
462.997	90.12
463.217	85.12
463.437	108.12
463.657	91.12
463.876	92.12
464.096	84.12
464.316	85.12
464.536	96.12
464.755	96.12
464.975	96.12
465.195	125.12
465.414	127.12
465.634	90.12
465.854	90.12
466.073	100.12
466.293	86.12
466.512	86.12
466.732	81.12
466.951	83.12
467.171	98.12
467.391	100.12
467.61	96.12
467.829	85.12
468.049	110.12
468.268	107.12
468.488	82.12
468.707	84.12
468.927	97.12
469.146	86.12
469.365	76.12
469.585	91.12
469.804	108.12
470.023	89.12
470.243	94.12
470.462	96.12
470.681	102.12
470.901	91.12
471.12	87.12
471.339	88.12
471.558	97.12
471.777	93.12
471.997	79.12
472.216	111.12
472.435	132.12
472.654	97.12
472.873	90.12
473.092	88.12
473.311	89.12
473.53	93.12
473.749	81.12
473.968	102.12
474.187	100.12
474.406	109.12
474.625	109.12
474.844	105.12
475.063	92.12
475.282	102.12
475.501	99.12
475.72	98.12
475.939	94.12
476.158	86.12
476.377	93.12
476.596	87.12
476.814	92.12
477.033	86.12
477.252	96.12
477.471	96.12
477.69	87.12
477.908	86.12
478.127	86.12
478.346	99.12
478.564	94.12
478.783	95.12
479.002	102.12
479.22	89.12
479.439	108.12
479.658	104.12
479.876	87.12
480.095	85.12
480.313	83.12
480.532	97.12
480.751	96.12
480.969	118.12
481.188	185.12
481.406	139.12
481.624	99.12
481.843	89.12
482.061	81.12
482.28	93.12
482.498	90.12
482.717	104.12
482.935	91.12
483.153	80.12
483.372	98.12
483.59	97.12
483.808	82.12
484.027	108.12
484.245	93.12
484.463	77.12
484.681	97.12
484.9	97.12
485.118	103.12
485.336	98.12
485.554	94.12
485.772	102.12
485.99	100.12
486.209	103.12
486.427	114.12
486.645	104.12
486.863	122.12
487.081	96.12
487.299	91.12
487.517	100.12
487.735	90.12
487.953	90.12
488.171	90.12
488.389	92.12
488.607	89.12
488.825	99.12
489.043	90.12
489.261	85.12
489.479	73.12
489.696	92.12
489.914	88.12
490.132	96.12
490.35	95.12
490.568	94.12
490.786	97.12
491.003	100.12
491.221	87.12
491.439	92.12
491.657	90.12
491.874	101.12
492.092	87.12
492.31	95.12
492.527	90.12
492.745	94.12
492.963	92.12
493.18	105.12
493.398	81.12
493.615	92.12
493.833	104.12
494.05	93.12
494.268	93.12
494.485	100.12
494.703	76.12
494.92	82.12
495.138	90.12
495.355	86.12
495.573	95.12
495.79	101.12
496.008	105.12
496.225	88.12
496.442	85.12
496.66	101.12
496.877	91.12
497.094	92.12
497.312	101.12
497.529	95.12
497.746	77.12
497.963	99.12
498.181	85.12
498.398	97.12
498.615	95.12
498.832	95.12
499.049	93.12
499.267	108.12
499.484	99.12
499.701	96.12
499.918	79.12
500.135	108.12
500.352	91.12
500.569	90.12
500.786	104.12
501.003	87.12
501.22	96.12
501.437	90.12
501.654	101.12
501.871	107.12
502.088	100.12
502.305	106.12
502.522	93.12
502.739	82.12
502.956	96.12
503.172	98.12
503.389	103.12
503.606	109.12
503.823	94.12
504.04	87.12
504.256	104.12
504.473	94.12
504.69	94.12
504.907	89.12
505.123	87.12
505.34	80.12
505.557	90.12
505.773	90.12
505.99	104.12
506.207	91.12
506.423	92.12
506.64	85.12
506.856	89.12
507.073	95.12
507.289	98.12
507.506	97.12
507.722	117.12
507.939	104.12
508.155	92.12
508.372	102.12
508.588	82.12
508.805	109.12
509.021	94.12
509.238	104.12
509.454	88.12
509.67	101.12
509.887	109.12
510.103	123.12
510.319	176.12
510.536	521.12
510.752	1627.12
510.968	470.12
511.184	133.12
511.401	110.12
511.617	94.12
511.833	88.12
512.049	84.12
512.265	74.12
512.481	87.12
512.698	84.12
512.914	99.12
513.13	91.12
513.346	86.12
513.562	89.12
513.778	104.12
513.994	103.12
514.21	86.12
514.426	108.12
514.642	104.12
514.858	109.12
515.074	139.12
515.29	305.12
