Data from Circ_1980_H10_HRD10591_00025.txt Node
Date: Wed Jan 03 12:38:03 EST 2024
User: Yrep
Spectrometer: HR+D1059
Trigger mode: 1
Integration Time (sec): 1.000000E-1
Scans to average: 1
Electric dark correction enabled: true
Nonlinearity correction enabled: false
Boxcar width: 0
XAxis mode: Wavelengths
Number of Pixels in Spectrum: 2048
>>>>>Begin Spectral Data<<<<<
223.165	-13.38
223.4	-13.38
223.635	-13.38
223.869	-18.38
224.104	-24.38
224.338	-26.38
224.573	-24.38
224.808	-16.38
225.042	-1.38
225.277	-5.38
225.511	-0.38
225.746	11.62
225.98	21.62
226.215	3.62
226.449	18.62
226.683	11.62
226.918	31.62
227.152	31.62
227.387	38.62
227.621	48.62
227.856	49.62
228.09	48.62
228.324	42.62
228.559	60.62
228.793	54.62
229.027	66.62
229.262	67.62
229.496	64.62
229.73	75.62
229.964	91.62
230.199	78.62
230.433	65.62
230.667	78.62
230.901	81.62
231.136	89.62
231.37	72.62
231.604	81.62
231.838	77.62
232.072	76.62
232.306	75.62
232.541	80.62
232.775	84.62
233.009	91.62
233.243	90.62
233.477	79.62
233.711	68.62
233.945	85.62
234.179	90.62
234.413	78.62
234.647	78.62
234.881	80.62
235.115	76.62
235.349	95.62
235.583	82.62
235.817	71.62
236.051	82.62
236.285	72.62
236.519	80.62
236.753	81.62
236.987	78.62
237.221	75.62
237.455	86.62
237.689	65.62
237.922	84.62
238.156	84.62
238.39	91.62
238.624	69.62
238.858	78.62
239.091	81.62
239.325	68.62
239.559	81.62
239.793	68.62
240.027	69.62
240.26	65.62
240.494	81.62
240.728	68.62
240.961	82.62
241.195	84.62
241.429	80.62
241.662	85.62
241.896	81.62
242.13	76.62
242.363	88.62
242.597	65.62
242.83	88.62
243.064	73.62
243.298	84.62
243.531	92.62
243.765	87.62
243.998	66.62
244.232	61.62
244.465	79.62
244.699	91.62
244.932	78.62
245.166	70.62
245.399	78.62
245.633	97.62
245.866	74.62
246.099	87.62
246.333	80.62
246.566	78.62
246.8	67.62
247.033	94.62
247.266	84.62
247.5	90.62
247.733	95.62
247.966	73.62
248.2	88.62
248.433	64.62
248.666	81.62
248.899	85.62
249.133	90.62
249.366	96.62
249.599	97.62
249.832	70.62
250.066	77.62
250.299	70.62
250.532	84.62
250.765	84.62
250.998	76.62
251.231	79.62
251.465	75.62
251.698	80.62
251.931	79.62
252.164	70.62
252.397	79.62
252.63	103.62
252.863	93.62
253.096	74.62
253.329	90.62
253.562	92.62
253.795	80.62
254.028	77.62
254.261	72.62
254.494	87.62
254.727	86.62
254.96	72.62
255.193	81.62
255.426	80.62
255.659	81.62
255.892	91.62
256.124	87.62
256.357	68.62
256.59	73.62
256.823	89.62
257.056	85.62
257.289	88.62
257.521	92.62
257.754	86.62
257.987	87.62
258.22	90.62
258.452	81.62
258.685	92.62
258.918	69.62
259.151	79.62
259.383	80.62
259.616	77.62
259.849	90.62
260.081	85.62
260.314	80.62
260.547	89.62
260.779	94.62
261.012	65.62
261.244	76.62
261.477	80.62
261.71	92.62
261.942	93.62
262.175	110.62
262.407	96.62
262.64	74.62
262.872	93.62
263.105	84.62
263.337	92.62
263.57	69.62
263.802	80.62
264.035	86.62
264.267	80.62
264.499	91.62
264.732	77.62
264.964	82.62
265.197	90.62
265.429	84.62
265.661	85.62
265.894	78.62
266.126	90.62
266.358	75.62
266.591	89.62
266.823	86.62
267.055	79.62
267.287	72.62
267.52	95.62
267.752	106.62
267.984	79.62
268.216	86.62
268.448	74.62
268.681	77.62
268.913	85.62
269.145	78.62
269.377	90.62
269.609	80.62
269.841	91.62
270.073	98.62
270.306	81.62
270.538	92.62
270.77	84.62
271.002	71.62
271.234	85.62
271.466	85.62
271.698	93.62
271.93	92.62
272.162	90.62
272.394	84.62
272.626	86.62
272.858	91.62
273.09	83.62
273.322	87.62
273.553	84.62
273.785	84.62
274.017	90.62
274.249	74.62
274.481	77.62
274.713	79.62
274.945	108.62
275.176	88.62
275.408	97.62
275.64	86.62
275.872	86.62
276.104	82.62
276.335	83.62
276.567	86.62
276.799	87.62
277.031	89.62
277.262	79.62
277.494	100.62
277.726	76.62
277.957	77.62
278.189	72.62
278.421	94.62
278.652	92.62
278.884	80.62
279.115	99.62
279.347	85.62
279.579	84.62
279.81	88.62
280.042	89.62
280.273	95.62
280.505	91.62
280.736	96.62
280.968	98.62
281.199	93.62
281.431	86.62
281.662	89.62
281.894	94.62
282.125	114.62
282.356	94.62
282.588	135.62
282.819	100.62
283.051	81.62
283.282	97.62
283.513	92.62
283.745	70.62
283.976	84.62
284.207	94.62
284.439	78.62
284.67	86.62
284.901	69.62
285.132	79.62
285.364	76.62
285.595	72.62
285.826	87.62
286.057	75.62
286.288	88.62
286.52	84.62
286.751	92.62
286.982	84.62
287.213	81.62
287.444	94.62
287.675	88.62
287.906	79.62
288.138	88.62
288.369	91.62
288.6	78.62
288.831	94.62
289.062	89.62
289.293	77.62
289.524	80.62
289.755	72.62
289.986	88.62
290.217	82.62
290.448	81.62
290.679	79.62
290.91	85.62
291.141	88.62
291.371	94.62
291.602	92.62
291.833	104.62
292.064	101.62
292.295	82.62
292.526	100.62
292.757	81.62
292.987	92.62
293.218	98.62
293.449	106.62
293.68	91.62
293.91	94.62
294.141	102.62
294.372	84.62
294.603	93.62
294.833	91.62
295.064	92.62
295.295	82.62
295.525	92.62
295.756	106.62
295.987	102.62
296.217	128.62
296.448	104.62
296.679	87.62
296.909	94.62
297.14	99.62
297.37	78.62
297.601	103.62
297.831	97.62
298.062	98.62
298.292	88.62
298.523	86.62
298.753	88.62
298.984	90.62
299.214	78.62
299.445	112.62
299.675	92.62
299.905	100.62
300.136	95.62
300.366	96.62
300.597	95.62
300.827	97.62
301.057	115.62
301.288	97.62
301.518	92.62
301.748	74.62
301.979	95.62
302.209	95.62
302.439	85.62
302.669	87.62
302.9	92.62
303.13	94.62
303.36	89.62
303.59	96.62
303.82	107.62
304.051	95.62
304.281	82.62
304.511	94.62
304.741	85.62
304.971	94.62
305.201	100.62
305.431	97.62
305.661	85.62
305.891	101.62
306.121	98.62
306.352	94.62
306.582	104.62
306.812	88.62
307.042	88.62
307.272	98.62
307.502	110.62
307.731	71.62
307.961	111.62
308.191	93.62
308.421	106.62
308.651	84.62
308.881	95.62
309.111	96.62
309.341	98.62
309.571	89.62
309.8	81.62
310.03	87.62
310.26	88.62
310.49	85.62
310.72	95.62
310.949	97.62
311.179	93.62
311.409	82.62
311.639	100.62
311.868	98.62
312.098	92.62
312.328	106.62
312.557	108.62
312.787	108.62
313.017	103.62
313.246	97.62
313.476	85.62
313.706	93.62
313.935	89.62
314.165	92.62
314.394	108.62
314.624	96.62
314.853	95.62
315.083	98.62
315.312	101.62
315.542	93.62
315.771	95.62
316.001	88.62
316.23	94.62
316.46	98.62
316.689	80.62
316.919	78.62
317.148	100.62
317.377	100.62
317.607	90.62
317.836	89.62
318.065	88.62
318.295	97.62
318.524	82.62
318.753	80.62
318.983	92.62
319.212	100.62
319.441	113.62
319.67	108.62
319.9	104.62
320.129	96.62
320.358	92.62
320.587	89.62
320.816	84.62
321.046	100.62
321.275	96.62
321.504	95.62
321.733	88.62
321.962	95.62
322.191	97.62
322.42	95.62
322.649	99.62
322.878	104.62
323.108	116.62
323.337	128.62
323.566	116.62
323.795	150.62
324.024	174.62
324.253	294.62
324.482	598.62
324.71	1159.62
324.939	1533.62
325.168	568.62
325.397	196.62
325.626	120.62
325.855	113.62
326.084	108.62
326.313	118.62
326.542	138.62
326.77	193.62
326.999	359.62
327.228	676.62
327.457	1242.62
327.686	996.62
327.914	288.62
328.143	168.62
328.372	130.62
328.6	109.62
328.829	120.62
329.058	111.62
329.287	112.62
329.515	103.62
329.744	91.62
329.972	101.62
330.201	109.62
330.43	109.62
330.658	107.62
330.887	121.62
331.115	107.62
331.344	108.62
331.572	103.62
331.801	92.62
332.03	104.62
332.258	95.62
332.486	89.62
332.715	92.62
332.943	99.62
333.172	117.62
333.4	103.62
333.629	84.62
333.857	111.62
334.085	97.62
334.314	93.62
334.542	135.62
334.771	123.62
334.999	94.62
335.227	92.62
335.455	108.62
335.684	97.62
335.912	80.62
336.14	102.62
336.369	94.62
336.597	93.62
336.825	111.62
337.053	105.62
337.281	103.62
337.51	97.62
337.738	96.62
337.966	76.62
338.194	93.62
338.422	94.62
338.65	91.62
338.878	91.62
339.106	86.62
339.334	101.62
339.562	97.62
339.79	97.62
340.018	89.62
340.246	103.62
340.474	95.62
340.702	87.62
340.93	85.62
341.158	89.62
341.386	109.62
341.614	78.62
341.842	91.62
342.07	95.62
342.298	96.62
342.526	95.62
342.754	104.62
342.981	96.62
343.209	112.62
343.437	100.62
343.665	83.62
343.893	106.62
344.12	99.62
344.348	81.62
344.576	89.62
344.804	98.62
345.031	97.62
345.259	105.62
345.487	97.62
345.714	90.62
345.942	102.62
346.17	87.62
346.397	103.62
346.625	103.62
346.853	93.62
347.08	101.62
347.308	96.62
347.535	97.62
347.763	99.62
347.99	104.62
348.218	86.62
348.445	105.62
348.673	95.62
348.9	100.62
349.128	94.62
349.355	91.62
349.583	92.62
349.81	87.62
350.037	85.62
350.265	106.62
350.492	88.62
350.72	105.62
350.947	113.62
351.174	102.62
351.402	97.62
351.629	97.62
351.856	102.62
352.083	92.62
352.311	101.62
352.538	92.62
352.765	99.62
352.992	116.62
353.22	103.62
353.447	98.62
353.674	97.62
353.901	118.62
354.128	98.62
354.355	109.62
354.583	92.62
354.81	101.62
355.037	106.62
355.264	105.62
355.491	118.62
355.718	100.62
355.945	103.62
356.172	86.62
356.399	81.62
356.626	82.62
356.853	93.62
357.08	96.62
357.307	92.62
357.534	88.62
357.761	102.62
357.988	112.62
358.215	97.62
358.441	97.62
358.668	101.62
358.895	95.62
359.122	104.62
359.349	88.62
359.576	85.62
359.802	102.62
360.029	99.62
360.256	98.62
360.483	93.62
360.709	84.62
360.936	96.62
361.163	88.62
361.39	89.62
361.616	94.62
361.843	82.62
362.07	89.62
362.296	89.62
362.523	84.62
362.749	105.62
362.976	105.62
363.203	93.62
363.429	82.62
363.656	87.62
363.882	104.62
364.109	89.62
364.335	80.62
364.562	75.62
364.788	95.62
365.015	102.62
365.241	84.62
365.468	99.62
365.694	107.62
365.92	95.62
366.147	87.62
366.373	104.62
366.599	107.62
366.826	102.62
367.052	89.62
367.278	87.62
367.505	95.62
367.731	93.62
367.957	88.62
368.184	100.62
368.41	103.62
368.636	103.62
368.862	110.62
369.089	99.62
369.315	86.62
369.541	91.62
369.767	100.62
369.993	96.62
370.219	96.62
370.445	105.62
370.672	89.62
370.898	90.62
371.124	95.62
371.35	107.62
371.576	84.62
371.802	91.62
372.028	94.62
372.254	89.62
372.48	89.62
372.706	86.62
372.932	96.62
373.158	77.62
373.384	102.62
373.61	89.62
373.835	78.62
374.061	107.62
374.287	94.62
374.513	102.62
374.739	105.62
374.965	97.62
375.191	92.62
375.416	94.62
375.642	94.62
375.868	84.62
376.094	89.62
376.319	96.62
376.545	90.62
376.771	96.62
376.997	85.62
377.222	79.62
377.448	99.62
377.674	103.62
377.899	83.62
378.125	105.62
378.35	78.62
378.576	92.62
378.802	90.62
379.027	91.62
379.253	80.62
379.478	96.62
379.704	98.62
379.929	92.62
380.155	97.62
380.38	97.62
380.606	102.62
380.831	86.62
381.057	98.62
381.282	98.62
381.507	100.62
381.733	95.62
381.958	86.62
382.184	99.62
382.409	108.62
382.634	106.62
382.86	101.62
383.085	106.62
383.31	101.62
383.535	119.62
383.761	93.62
383.986	96.62
384.211	98.62
384.436	110.62
384.662	113.62
384.887	117.62
385.112	119.62
385.337	108.62
385.562	112.62
385.787	99.62
386.013	102.62
386.238	114.62
386.463	110.62
386.688	111.62
386.913	115.62
387.138	122.62
387.363	113.62
387.588	105.62
387.813	113.62
388.038	122.62
388.263	114.62
388.488	125.62
388.713	107.62
388.938	96.62
389.163	94.62
389.387	94.62
389.612	96.62
389.837	92.62
390.062	100.62
390.287	103.62
390.512	81.62
390.736	94.62
390.961	96.62
391.186	91.62
391.411	106.62
391.636	100.62
391.86	94.62
392.085	72.62
392.31	77.62
392.534	94.62
392.759	86.62
392.984	97.62
393.208	100.62
393.433	90.62
393.658	96.62
393.882	77.62
394.107	94.62
394.331	95.62
394.556	93.62
394.78	86.62
395.005	105.62
395.229	89.62
395.454	97.62
395.678	100.62
395.903	100.62
396.127	89.62
396.352	95.62
396.576	95.62
396.801	91.62
397.025	85.62
397.249	96.62
397.474	101.62
397.698	98.62
397.922	105.62
398.147	100.62
398.371	85.62
398.595	84.62
398.82	89.62
399.044	96.62
399.268	87.62
399.492	93.62
399.717	92.62
399.941	84.62
400.165	84.62
400.389	99.62
400.613	88.62
400.837	92.62
401.062	82.62
401.286	84.62
401.51	102.62
401.734	93.62
401.958	102.62
402.182	115.62
402.406	122.62
402.63	120.62
402.854	97.62
403.078	80.62
403.302	100.62
403.526	99.62
403.75	98.62
403.974	84.62
404.198	82.62
404.422	104.62
404.645	91.62
404.869	93.62
405.093	90.62
405.317	96.62
405.541	108.62
405.765	96.62
405.988	107.62
406.212	143.62
406.436	172.62
406.66	127.62
406.883	100.62
407.107	105.62
407.331	111.62
407.555	102.62
407.778	86.62
408.002	88.62
408.226	98.62
408.449	89.62
408.673	88.62
408.896	108.62
409.12	103.62
409.344	103.62
409.567	76.62
409.791	93.62
410.014	90.62
410.238	114.62
410.461	93.62
410.685	99.62
410.908	98.62
411.132	110.62
411.355	89.62
411.578	95.62
411.802	89.62
412.025	95.62
412.249	102.62
412.472	96.62
412.695	104.62
412.919	102.62
413.142	89.62
413.365	96.62
413.589	109.62
413.812	86.62
414.035	106.62
414.258	117.62
414.482	93.62
414.705	107.62
414.928	96.62
415.151	95.62
415.374	106.62
415.597	90.62
415.821	88.62
416.044	78.62
416.267	74.62
416.49	98.62
416.713	93.62
416.936	96.62
417.159	73.62
417.382	89.62
417.605	95.62
417.828	88.62
418.051	98.62
418.274	103.62
418.497	89.62
418.72	81.62
418.943	87.62
419.166	105.62
419.389	100.62
419.611	102.62
419.834	104.62
420.057	99.62
420.28	89.62
420.503	89.62
420.726	101.62
420.948	103.62
421.171	92.62
421.394	94.62
421.617	93.62
421.839	91.62
422.062	109.62
422.285	104.62
422.507	90.62
422.73	98.62
422.953	89.62
423.175	88.62
423.398	99.62
423.621	97.62
423.843	93.62
424.066	91.62
424.288	95.62
424.511	85.62
424.733	92.62
424.956	105.62
425.178	96.62
425.401	107.62
425.623	98.62
425.846	88.62
426.068	90.62
426.291	75.62
426.513	103.62
426.735	105.62
426.958	90.62
427.18	107.62
427.402	122.62
427.625	123.62
427.847	102.62
428.069	103.62
428.292	92.62
428.514	97.62
428.736	89.62
428.958	92.62
429.181	85.62
429.403	84.62
429.625	90.62
429.847	98.62
430.069	98.62
430.292	91.62
430.514	96.62
430.736	92.62
430.958	90.62
431.18	87.62
431.402	97.62
431.624	91.62
431.846	78.62
432.068	102.62
432.29	86.62
432.512	80.62
432.734	93.62
432.956	89.62
433.178	95.62
433.4	93.62
433.622	100.62
433.844	95.62
434.066	104.62
434.287	94.62
434.509	84.62
434.731	84.62
434.953	91.62
435.175	95.62
435.397	93.62
435.618	84.62
435.84	92.62
436.062	113.62
436.284	109.62
436.505	92.62
436.727	90.62
436.949	107.62
437.17	92.62
437.392	92.62
437.614	90.62
437.835	95.62
438.057	108.62
438.278	103.62
438.5	102.62
438.721	118.62
438.943	97.62
439.165	81.62
439.386	85.62
439.608	112.62
439.829	108.62
440.05	120.62
440.272	137.62
440.493	90.62
440.715	113.62
440.936	106.62
441.158	80.62
441.379	110.62
441.6	98.62
441.822	101.62
442.043	104.62
442.264	95.62
442.486	108.62
442.707	89.62
442.928	98.62
443.149	114.62
443.371	97.62
443.592	93.62
443.813	97.62
444.034	106.62
444.255	87.62
444.476	81.62
444.698	86.62
444.919	95.62
445.14	135.62
445.361	117.62
445.582	104.62
445.803	122.62
446.024	127.62
446.245	136.62
446.466	110.62
446.687	88.62
446.908	86.62
447.129	93.62
447.35	95.62
447.571	92.62
447.792	87.62
448.013	89.62
448.234	94.62
448.455	110.62
448.675	114.62
448.896	89.62
449.117	101.62
449.338	101.62
449.559	99.62
449.779	115.62
450	97.62
450.221	85.62
450.442	93.62
450.662	97.62
450.883	88.62
451.104	77.62
451.324	86.62
451.545	102.62
451.766	86.62
451.986	86.62
452.207	96.62
452.428	90.62
452.648	102.62
452.869	113.62
453.089	95.62
453.31	114.62
453.53	88.62
453.751	96.62
453.971	92.62
454.192	106.62
454.412	98.62
454.633	80.62
454.853	87.62
455.073	90.62
455.294	73.62
455.514	93.62
455.734	85.62
455.955	88.62
456.175	87.62
456.395	88.62
456.616	88.62
456.836	71.62
457.056	88.62
457.276	88.62
457.497	94.62
457.717	96.62
457.937	88.62
458.157	87.62
458.377	88.62
458.598	112.62
458.818	111.62
459.038	122.62
459.258	104.62
459.478	87.62
459.698	89.62
459.918	96.62
460.138	89.62
460.358	96.62
460.578	90.62
460.798	83.62
461.018	88.62
461.238	101.62
461.458	92.62
461.678	84.62
461.898	82.62
462.118	91.62
462.338	90.62
462.558	93.62
462.777	81.62
462.997	70.62
463.217	89.62
463.437	108.62
463.657	108.62
463.876	103.62
464.096	80.62
464.316	92.62
464.536	91.62
464.755	92.62
464.975	121.62
465.195	132.62
465.414	114.62
465.634	88.62
465.854	92.62
466.073	85.62
466.293	78.62
466.512	81.62
466.732	104.62
466.951	102.62
467.171	100.62
467.391	101.62
467.61	105.62
467.829	96.62
468.049	77.62
468.268	92.62
468.488	96.62
468.707	75.62
468.927	89.62
469.146	93.62
469.365	92.62
469.585	75.62
469.804	92.62
470.023	97.62
470.243	104.62
470.462	109.62
470.681	104.62
470.901	94.62
471.12	96.62
471.339	84.62
471.558	106.62
471.777	90.62
471.997	83.62
472.216	105.62
472.435	123.62
472.654	88.62
472.873	100.62
473.092	86.62
473.311	80.62
473.53	91.62
473.749	98.62
473.968	92.62
474.187	96.62
474.406	96.62
474.625	84.62
474.844	76.62
475.063	84.62
475.282	91.62
475.501	87.62
475.72	103.62
475.939	75.62
476.158	86.62
476.377	80.62
476.596	96.62
476.814	94.62
477.033	92.62
477.252	89.62
477.471	111.62
477.69	87.62
477.908	99.62
478.127	97.62
478.346	82.62
478.564	94.62
478.783	88.62
479.002	95.62
479.22	110.62
479.439	103.62
479.658	86.62
479.876	100.62
480.095	84.62
480.313	89.62
480.532	101.62
480.751	87.62
480.969	110.62
481.188	189.62
481.406	134.62
481.624	106.62
481.843	89.62
482.061	100.62
482.28	89.62
482.498	92.62
482.717	100.62
482.935	97.62
483.153	82.62
483.372	112.62
483.59	81.62
483.808	93.62
484.027	93.62
484.245	97.62
484.463	97.62
484.681	109.62
484.9	100.62
485.118	78.62
485.336	88.62
485.554	112.62
485.772	104.62
485.99	104.62
486.209	97.62
486.427	113.62
486.645	131.62
486.863	104.62
487.081	106.62
487.299	103.62
487.517	104.62
487.735	94.62
487.953	99.62
488.171	81.62
488.389	104.62
488.607	100.62
488.825	102.62
489.043	99.62
489.261	92.62
489.479	100.62
489.696	91.62
489.914	73.62
490.132	101.62
490.35	74.62
490.568	90.62
490.786	88.62
491.003	100.62
491.221	92.62
491.439	101.62
491.657	96.62
491.874	103.62
492.092	91.62
492.31	92.62
492.527	90.62
492.745	87.62
492.963	100.62
493.18	92.62
493.398	94.62
493.615	92.62
493.833	97.62
494.05	76.62
494.268	98.62
494.485	92.62
494.703	96.62
494.92	78.62
495.138	92.62
495.355	89.62
495.573	85.62
495.79	96.62
496.008	91.62
496.225	87.62
496.442	92.62
496.66	99.62
496.877	102.62
497.094	100.62
497.312	92.62
497.529	92.62
497.746	91.62
497.963	97.62
498.181	85.62
498.398	102.62
498.615	101.62
498.832	106.62
499.049	94.62
499.267	97.62
499.484	97.62
499.701	89.62
499.918	98.62
500.135	96.62
500.352	100.62
500.569	98.62
500.786	93.62
501.003	94.62
501.22	96.62
501.437	88.62
501.654	81.62
501.871	103.62
502.088	99.62
502.305	92.62
502.522	85.62
502.739	105.62
502.956	88.62
503.172	90.62
503.389	108.62
503.606	100.62
503.823	91.62
504.04	102.62
504.256	96.62
504.473	86.62
504.69	91.62
504.907	95.62
505.123	81.62
505.34	90.62
505.557	82.62
505.773	80.62
505.99	91.62
506.207	100.62
506.423	95.62
506.64	88.62
506.856	98.62
507.073	94.62
507.289	92.62
507.506	112.62
507.722	114.62
507.939	92.62
508.155	103.62
508.372	94.62
508.588	96.62
508.805	96.62
509.021	89.62
509.238	90.62
509.454	107.62
509.67	97.62
509.887	111.62
510.103	119.62
510.319	152.62
510.536	518.62
510.752	1584.62
510.968	462.62
511.184	151.62
511.401	122.62
511.617	92.62
511.833	84.62
512.049	94.62
512.265	88.62
512.481	89.62
512.698	89.62
512.914	79.62
513.13	110.62
513.346	86.62
513.562	100.62
513.778	102.62
513.994	85.62
514.21	93.62
514.426	114.62
514.642	116.62
514.858	114.62
