Data from Circ_1980_H10_HRD10591_00041.txt Node
Date: Wed Jan 03 12:38:06 EST 2024
User: Yrep
Spectrometer: HR+D1059
Trigger mode: 1
Integration Time (sec): 1.000000E-1
Scans to average: 1
Electric dark correction enabled: true
Nonlinearity correction enabled: false
Boxcar width: 0
XAxis mode: Wavelengths
Number of Pixels in Spectrum: 2048
>>>>>Begin Spectral Data<<<<<
223.165	-23.62
223.4	-23.62
223.635	-23.62
223.869	-26.62
224.104	-26.62
224.338	-6.62
224.573	-8.62
224.808	-14.62
225.042	-18.62
225.277	1.38
225.511	-5.62
225.746	2.38
225.98	12.38
226.215	-0.62
226.449	29.38
226.683	15.38
226.918	30.38
227.152	40.38
227.387	50.38
227.621	13.38
227.856	41.38
228.09	51.38
228.324	49.38
228.559	47.38
228.793	46.38
229.027	42.38
229.262	58.38
229.496	60.38
229.73	63.38
229.964	78.38
230.199	71.38
230.433	66.38
230.667	75.38
230.901	83.38
231.136	66.38
231.37	77.38
231.604	85.38
231.838	82.38
232.072	83.38
232.306	78.38
232.541	63.38
232.775	75.38
233.009	75.38
233.243	77.38
233.477	69.38
233.711	80.38
233.945	90.38
234.179	71.38
234.413	78.38
234.647	71.38
234.881	75.38
235.115	58.38
235.349	82.38
235.583	76.38
235.817	74.38
236.051	73.38
236.285	68.38
236.519	75.38
236.753	77.38
236.987	64.38
237.221	69.38
237.455	77.38
237.689	73.38
237.922	70.38
238.156	64.38
238.39	62.38
238.624	70.38
238.858	56.38
239.091	77.38
239.325	71.38
239.559	68.38
239.793	81.38
240.027	71.38
240.26	64.38
240.494	63.38
240.728	66.38
240.961	68.38
241.195	73.38
241.429	80.38
241.662	76.38
241.896	69.38
242.13	68.38
242.363	79.38
242.597	70.38
242.83	77.38
243.064	81.38
243.298	67.38
243.531	67.38
243.765	68.38
243.998	83.38
244.232	81.38
244.465	68.38
244.699	72.38
244.932	77.38
245.166	61.38
245.399	66.38
245.633	61.38
245.866	82.38
246.099	73.38
246.333	63.38
246.566	79.38
246.8	73.38
247.033	95.38
247.266	69.38
247.5	81.38
247.733	77.38
247.966	85.38
248.2	79.38
248.433	72.38
248.666	87.38
248.899	68.38
249.133	73.38
249.366	101.38
249.599	83.38
249.832	73.38
250.066	85.38
250.299	87.38
250.532	72.38
250.765	80.38
250.998	68.38
251.231	73.38
251.465	84.38
251.698	61.38
251.931	66.38
252.164	82.38
252.397	69.38
252.63	76.38
252.863	87.38
253.096	65.38
253.329	82.38
253.562	69.38
253.795	81.38
254.028	77.38
254.261	80.38
254.494	73.38
254.727	65.38
254.96	69.38
255.193	73.38
255.426	62.38
255.659	75.38
255.892	90.38
256.124	89.38
256.357	74.38
256.59	68.38
256.823	84.38
257.056	79.38
257.289	80.38
257.521	66.38
257.754	71.38
257.987	62.38
258.22	83.38
258.452	77.38
258.685	71.38
258.918	75.38
259.151	78.38
259.383	61.38
259.616	64.38
259.849	70.38
260.081	73.38
260.314	85.38
260.547	70.38
260.779	81.38
261.012	81.38
261.244	72.38
261.477	79.38
261.71	75.38
261.942	94.38
262.175	103.38
262.407	85.38
262.64	82.38
262.872	86.38
263.105	82.38
263.337	74.38
263.57	78.38
263.802	71.38
264.035	77.38
264.267	74.38
264.499	70.38
264.732	82.38
264.964	81.38
265.197	89.38
265.429	80.38
265.661	75.38
265.894	77.38
266.126	71.38
266.358	68.38
266.591	86.38
266.823	81.38
267.055	75.38
267.287	72.38
267.52	73.38
267.752	74.38
267.984	90.38
268.216	81.38
268.448	79.38
268.681	88.38
268.913	79.38
269.145	83.38
269.377	88.38
269.609	87.38
269.841	79.38
270.073	94.38
270.306	82.38
270.538	60.38
270.77	77.38
271.002	79.38
271.234	83.38
271.466	94.38
271.698	79.38
271.93	70.38
272.162	83.38
272.394	74.38
272.626	71.38
272.858	73.38
273.09	73.38
273.322	62.38
273.553	78.38
273.785	72.38
274.017	74.38
274.249	93.38
274.481	77.38
274.713	80.38
274.945	65.38
275.176	99.38
275.408	67.38
275.64	87.38
275.872	75.38
276.104	79.38
276.335	83.38
276.567	90.38
276.799	93.38
277.031	95.38
277.262	81.38
277.494	89.38
277.726	87.38
277.957	87.38
278.189	90.38
278.421	66.38
278.652	89.38
278.884	89.38
279.115	91.38
279.347	77.38
279.579	78.38
279.81	83.38
280.042	84.38
280.273	88.38
280.505	73.38
280.736	56.38
280.968	87.38
281.199	86.38
281.431	82.38
281.662	93.38
281.894	81.38
282.125	88.38
282.356	112.38
282.588	113.38
282.819	89.38
283.051	86.38
283.282	82.38
283.513	87.38
283.745	81.38
283.976	93.38
284.207	69.38
284.439	75.38
284.67	82.38
284.901	87.38
285.132	90.38
285.364	81.38
285.595	77.38
285.826	90.38
286.057	70.38
286.288	64.38
286.52	68.38
286.751	77.38
286.982	89.38
287.213	74.38
287.444	99.38
287.675	80.38
287.906	72.38
288.138	81.38
288.369	90.38
288.6	81.38
288.831	74.38
289.062	85.38
289.293	94.38
289.524	93.38
289.755	93.38
289.986	86.38
290.217	72.38
290.448	78.38
290.679	83.38
290.91	98.38
291.141	84.38
291.371	85.38
291.602	78.38
291.833	67.38
292.064	67.38
292.295	73.38
292.526	79.38
292.757	88.38
292.987	80.38
293.218	86.38
293.449	77.38
293.68	87.38
293.91	79.38
294.141	98.38
294.372	83.38
294.603	88.38
294.833	86.38
295.064	89.38
295.295	89.38
295.525	88.38
295.756	94.38
295.987	110.38
296.217	127.38
296.448	109.38
296.679	90.38
296.909	81.38
297.14	82.38
297.37	96.38
297.601	78.38
297.831	78.38
298.062	88.38
298.292	75.38
298.523	83.38
298.753	85.38
298.984	78.38
299.214	89.38
299.445	83.38
299.675	86.38
299.905	77.38
300.136	90.38
300.366	84.38
300.597	95.38
300.827	100.38
301.057	91.38
301.288	95.38
301.518	85.38
301.748	93.38
301.979	119.38
302.209	77.38
302.439	77.38
302.669	96.38
302.9	83.38
303.13	83.38
303.36	91.38
303.59	77.38
303.82	103.38
304.051	72.38
304.281	90.38
304.511	86.38
304.741	81.38
304.971	80.38
305.201	88.38
305.431	87.38
305.661	86.38
305.891	90.38
306.121	65.38
306.352	91.38
306.582	82.38
306.812	93.38
307.042	100.38
307.272	94.38
307.502	96.38
307.731	104.38
307.961	84.38
308.191	85.38
308.421	83.38
308.651	86.38
308.881	77.38
309.111	95.38
309.341	96.38
309.571	88.38
309.8	91.38
310.03	86.38
310.26	101.38
310.49	103.38
310.72	84.38
310.949	92.38
311.179	97.38
311.409	95.38
311.639	70.38
311.868	90.38
312.098	82.38
312.328	102.38
312.557	99.38
312.787	99.38
313.017	80.38
313.246	102.38
313.476	91.38
313.706	85.38
313.935	85.38
314.165	82.38
314.394	83.38
314.624	81.38
314.853	88.38
315.083	83.38
315.312	93.38
315.542	79.38
315.771	89.38
316.001	94.38
316.23	102.38
316.46	79.38
316.689	93.38
316.919	80.38
317.148	86.38
317.377	94.38
317.607	78.38
317.836	81.38
318.065	93.38
318.295	82.38
318.524	89.38
318.753	90.38
318.983	84.38
319.212	73.38
319.441	93.38
319.67	113.38
319.9	94.38
320.129	103.38
320.358	89.38
320.587	93.38
320.816	80.38
321.046	80.38
321.275	84.38
321.504	93.38
321.733	97.38
321.962	90.38
322.191	84.38
322.42	93.38
322.649	87.38
322.878	103.38
323.108	94.38
323.337	113.38
323.566	120.38
323.795	126.38
324.024	156.38
324.253	303.38
324.482	601.38
324.71	1221.38
324.939	1547.38
325.168	580.38
325.397	194.38
325.626	111.38
325.855	110.38
326.084	106.38
326.313	127.38
326.542	121.38
326.77	181.38
326.999	345.38
327.228	665.38
327.457	1214.38
327.686	983.38
327.914	274.38
328.143	160.38
328.372	121.38
328.6	106.38
328.829	100.38
329.058	100.38
329.287	96.38
329.515	93.38
329.744	90.38
329.972	88.38
330.201	119.38
330.43	116.38
330.658	115.38
330.887	101.38
331.115	106.38
331.344	79.38
331.572	88.38
331.801	107.38
332.03	83.38
332.258	82.38
332.486	74.38
332.715	99.38
332.943	92.38
333.172	93.38
333.4	83.38
333.629	98.38
333.857	89.38
334.085	91.38
334.314	105.38
334.542	101.38
334.771	103.38
334.999	87.38
335.227	87.38
335.455	86.38
335.684	90.38
335.912	94.38
336.14	93.38
336.369	78.38
336.597	86.38
336.825	97.38
337.053	90.38
337.281	93.38
337.51	80.38
337.738	93.38
337.966	74.38
338.194	93.38
338.422	75.38
338.65	86.38
338.878	85.38
339.106	81.38
339.334	95.38
339.562	96.38
339.79	76.38
340.018	85.38
340.246	91.38
340.474	74.38
340.702	73.38
340.93	90.38
341.158	81.38
341.386	83.38
341.614	92.38
341.842	97.38
342.07	88.38
342.298	83.38
342.526	88.38
342.754	85.38
342.981	91.38
343.209	77.38
343.437	87.38
343.665	76.38
343.893	75.38
344.12	95.38
344.348	101.38
344.576	95.38
344.804	88.38
345.031	78.38
345.259	83.38
345.487	85.38
345.714	85.38
345.942	68.38
346.17	86.38
346.397	80.38
346.625	89.38
346.853	83.38
347.08	82.38
347.308	87.38
347.535	83.38
347.763	86.38
347.99	103.38
348.218	99.38
348.445	96.38
348.673	88.38
348.9	94.38
349.128	77.38
349.355	93.38
349.583	83.38
349.81	95.38
350.037	97.38
350.265	82.38
350.492	93.38
350.72	94.38
350.947	91.38
351.174	87.38
351.402	105.38
351.629	90.38
351.856	104.38
352.083	91.38
352.311	104.38
352.538	102.38
352.765	93.38
352.992	81.38
353.22	104.38
353.447	105.38
353.674	90.38
353.901	112.38
354.128	98.38
354.355	88.38
354.583	95.38
354.81	85.38
355.037	87.38
355.264	90.38
355.491	80.38
355.718	90.38
355.945	87.38
356.172	73.38
356.399	96.38
356.626	81.38
356.853	99.38
357.08	90.38
357.307	77.38
357.534	87.38
357.761	80.38
357.988	92.38
358.215	90.38
358.441	86.38
358.668	94.38
358.895	89.38
359.122	66.38
359.349	81.38
359.576	101.38
359.802	88.38
360.029	96.38
360.256	98.38
360.483	82.38
360.709	92.38
360.936	81.38
361.163	84.38
361.39	82.38
361.616	93.38
361.843	81.38
362.07	83.38
362.296	93.38
362.523	86.38
362.749	87.38
362.976	100.38
363.203	81.38
363.429	71.38
363.656	84.38
363.882	93.38
364.109	89.38
364.335	93.38
364.562	87.38
364.788	71.38
365.015	90.38
365.241	93.38
365.468	112.38
365.694	85.38
365.92	83.38
366.147	97.38
366.373	94.38
366.599	97.38
366.826	78.38
367.052	96.38
367.278	80.38
367.505	81.38
367.731	87.38
367.957	81.38
368.184	82.38
368.41	90.38
368.636	98.38
368.862	105.38
369.089	102.38
369.315	86.38
369.541	89.38
369.767	97.38
369.993	77.38
370.219	90.38
370.445	90.38
370.672	85.38
370.898	85.38
371.124	92.38
371.35	74.38
371.576	84.38
371.802	71.38
372.028	84.38
372.254	95.38
372.48	85.38
372.706	91.38
372.932	83.38
373.158	87.38
373.384	79.38
373.61	84.38
373.835	78.38
374.061	81.38
374.287	84.38
374.513	96.38
374.739	93.38
374.965	89.38
375.191	99.38
375.416	89.38
375.642	86.38
375.868	79.38
376.094	92.38
376.319	73.38
376.545	90.38
376.771	79.38
376.997	96.38
377.222	89.38
377.448	87.38
377.674	71.38
377.899	72.38
378.125	89.38
378.35	83.38
378.576	92.38
378.802	95.38
379.027	82.38
379.253	79.38
379.478	93.38
379.704	73.38
379.929	98.38
380.155	94.38
380.38	84.38
380.606	79.38
380.831	80.38
381.057	110.38
381.282	90.38
381.507	100.38
381.733	94.38
381.958	96.38
382.184	92.38
382.409	104.38
382.634	101.38
382.86	97.38
383.085	87.38
383.31	87.38
383.535	105.38
383.761	99.38
383.986	96.38
384.211	103.38
384.436	97.38
384.662	82.38
384.887	100.38
385.112	96.38
385.337	86.38
385.562	85.38
385.787	83.38
386.013	104.38
386.238	102.38
386.463	92.38
386.688	95.38
386.913	95.38
387.138	117.38
387.363	111.38
387.588	97.38
387.813	91.38
388.038	107.38
388.263	111.38
388.488	98.38
388.713	91.38
388.938	80.38
389.163	84.38
389.387	83.38
389.612	98.38
389.837	85.38
390.062	90.38
390.287	84.38
390.512	83.38
390.736	73.38
390.961	74.38
391.186	92.38
391.411	95.38
391.636	95.38
391.86	73.38
392.085	95.38
392.31	80.38
392.534	83.38
392.759	73.38
392.984	77.38
393.208	74.38
393.433	85.38
393.658	75.38
393.882	75.38
394.107	82.38
394.331	86.38
394.556	82.38
394.78	83.38
395.005	71.38
395.229	72.38
395.454	81.38
395.678	79.38
395.903	78.38
396.127	77.38
396.352	92.38
396.576	91.38
396.801	89.38
397.025	62.38
397.249	77.38
397.474	91.38
397.698	90.38
397.922	82.38
398.147	68.38
398.371	85.38
398.595	83.38
398.82	82.38
399.044	87.38
399.268	92.38
399.492	81.38
399.717	99.38
399.941	85.38
400.165	90.38
400.389	88.38
400.613	85.38
400.837	84.38
401.062	82.38
401.286	89.38
401.51	74.38
401.734	101.38
401.958	100.38
402.182	102.38
402.406	114.38
402.63	109.38
402.854	82.38
403.078	78.38
403.302	77.38
403.526	73.38
403.75	90.38
403.974	91.38
404.198	78.38
404.422	75.38
404.645	87.38
404.869	79.38
405.093	101.38
405.317	92.38
405.541	83.38
405.765	82.38
405.988	94.38
406.212	139.38
406.436	172.38
406.66	114.38
406.883	85.38
407.107	86.38
407.331	83.38
407.555	81.38
407.778	72.38
408.002	85.38
408.226	81.38
408.449	81.38
408.673	78.38
408.896	82.38
409.12	90.38
409.344	83.38
409.567	87.38
409.791	85.38
410.014	95.38
410.238	83.38
410.461	80.38
410.685	77.38
410.908	93.38
411.132	92.38
411.355	87.38
411.578	86.38
411.802	82.38
412.025	81.38
412.249	86.38
412.472	94.38
412.695	98.38
412.919	86.38
413.142	79.38
413.365	90.38
413.589	85.38
413.812	77.38
414.035	80.38
414.258	80.38
414.482	91.38
414.705	82.38
414.928	99.38
415.151	88.38
415.374	90.38
415.597	84.38
415.821	83.38
416.044	93.38
416.267	85.38
416.49	80.38
416.713	85.38
416.936	81.38
417.159	87.38
417.382	94.38
417.605	85.38
417.828	97.38
418.051	82.38
418.274	95.38
418.497	89.38
418.72	89.38
418.943	83.38
419.166	87.38
419.389	71.38
419.611	71.38
419.834	80.38
420.057	72.38
420.28	81.38
420.503	78.38
420.726	92.38
420.948	78.38
421.171	85.38
421.394	95.38
421.617	85.38
421.839	90.38
422.062	102.38
422.285	84.38
422.507	96.38
422.73	100.38
422.953	105.38
423.175	63.38
423.398	86.38
423.621	93.38
423.843	89.38
424.066	83.38
424.288	73.38
424.511	83.38
424.733	106.38
424.956	100.38
425.178	94.38
425.401	101.38
425.623	98.38
425.846	93.38
426.068	75.38
426.291	95.38
426.513	86.38
426.735	82.38
426.958	86.38
427.18	82.38
427.402	134.38
427.625	134.38
427.847	106.38
428.069	97.38
428.292	87.38
428.514	81.38
428.736	74.38
428.958	73.38
429.181	69.38
429.403	91.38
429.625	84.38
429.847	85.38
430.069	88.38
430.292	84.38
430.514	81.38
430.736	78.38
430.958	87.38
431.18	86.38
431.402	91.38
431.624	77.38
431.846	90.38
432.068	87.38
432.29	90.38
432.512	90.38
432.734	70.38
432.956	82.38
433.178	94.38
433.4	82.38
433.622	88.38
433.844	86.38
434.066	83.38
434.287	81.38
434.509	85.38
434.731	82.38
434.953	87.38
435.175	77.38
435.397	83.38
435.618	82.38
435.84	90.38
436.062	98.38
436.284	104.38
436.505	67.38
436.727	87.38
436.949	78.38
437.17	81.38
437.392	87.38
437.614	98.38
437.835	85.38
438.057	95.38
438.278	92.38
438.5	89.38
438.721	101.38
438.943	78.38
439.165	65.38
439.386	82.38
439.608	81.38
439.829	105.38
440.05	110.38
440.272	114.38
440.493	84.38
440.715	82.38
440.936	79.38
441.158	82.38
441.379	75.38
441.6	87.38
441.822	77.38
442.043	81.38
442.264	93.38
442.486	89.38
442.707	84.38
442.928	98.38
443.149	114.38
443.371	119.38
443.592	100.38
443.813	94.38
444.034	86.38
444.255	104.38
444.476	78.38
444.698	95.38
444.919	87.38
445.14	133.38
445.361	114.38
445.582	106.38
445.803	119.38
446.024	106.38
446.245	99.38
446.466	91.38
446.687	87.38
446.908	79.38
447.129	92.38
447.35	99.38
447.571	96.38
447.792	80.38
448.013	87.38
448.234	95.38
448.455	80.38
448.675	81.38
448.896	99.38
449.117	79.38
449.338	90.38
449.559	124.38
449.779	115.38
450	79.38
450.221	88.38
450.442	88.38
450.662	90.38
450.883	103.38
451.104	102.38
451.324	87.38
451.545	77.38
451.766	65.38
451.986	81.38
452.207	93.38
452.428	68.38
452.648	89.38
452.869	105.38
453.089	101.38
453.31	90.38
453.53	85.38
453.751	87.38
453.971	65.38
454.192	104.38
454.412	69.38
454.633	94.38
454.853	78.38
455.073	89.38
455.294	99.38
455.514	82.38
455.734	83.38
455.955	71.38
456.175	83.38
456.395	70.38
456.616	74.38
456.836	82.38
457.056	73.38
457.276	82.38
457.497	70.38
457.717	81.38
457.937	77.38
458.157	99.38
458.377	74.38
458.598	94.38
458.818	113.38
459.038	120.38
459.258	91.38
459.478	93.38
459.698	78.38
459.918	75.38
460.138	61.38
460.358	85.38
460.578	79.38
460.798	83.38
461.018	77.38
461.238	90.38
461.458	71.38
461.678	73.38
461.898	82.38
462.118	97.38
462.338	88.38
462.558	93.38
462.777	87.38
462.997	88.38
463.217	81.38
463.437	78.38
463.657	88.38
463.876	87.38
464.096	73.38
464.316	72.38
464.536	78.38
464.755	85.38
464.975	96.38
465.195	113.38
465.414	129.38
465.634	76.38
465.854	73.38
466.073	79.38
466.293	82.38
466.512	83.38
466.732	88.38
466.951	71.38
467.171	81.38
467.391	72.38
467.61	90.38
467.829	107.38
468.049	82.38
468.268	95.38
468.488	86.38
468.707	71.38
468.927	90.38
469.146	75.38
469.365	81.38
469.585	80.38
469.804	85.38
470.023	67.38
470.243	89.38
470.462	95.38
470.681	89.38
470.901	75.38
471.12	86.38
471.339	65.38
471.558	80.38
471.777	70.38
471.997	101.38
472.216	104.38
472.435	130.38
472.654	91.38
472.873	83.38
473.092	77.38
473.311	80.38
473.53	82.38
473.749	75.38
473.968	74.38
474.187	85.38
474.406	83.38
474.625	97.38
474.844	69.38
475.063	88.38
475.282	60.38
475.501	63.38
475.72	95.38
475.939	70.38
476.158	79.38
476.377	87.38
476.596	73.38
476.814	73.38
477.033	77.38
477.252	87.38
477.471	83.38
477.69	84.38
477.908	87.38
478.127	91.38
478.346	68.38
478.564	91.38
478.783	91.38
479.002	91.38
479.22	80.38
479.439	100.38
479.658	82.38
479.876	66.38
480.095	89.38
480.313	92.38
480.532	79.38
480.751	88.38
480.969	117.38
481.188	173.38
481.406	147.38
481.624	112.38
481.843	94.38
482.061	74.38
482.28	63.38
482.498	77.38
482.717	95.38
482.935	86.38
483.153	81.38
483.372	81.38
483.59	78.38
483.808	87.38
484.027	82.38
484.245	85.38
484.463	96.38
484.681	98.38
484.9	90.38
485.118	93.38
485.336	90.38
485.554	101.38
485.772	98.38
485.99	100.38
486.209	111.38
486.427	111.38
486.645	103.38
486.863	101.38
487.081	97.38
487.299	97.38
487.517	77.38
487.735	78.38
487.953	85.38
488.171	81.38
488.389	68.38
488.607	85.38
488.825	82.38
489.043	59.38
489.261	93.38
489.479	79.38
489.696	95.38
489.914	86.38
490.132	79.38
490.35	88.38
490.568	94.38
490.786	82.38
491.003	77.38
491.221	73.38
491.439	72.38
491.657	79.38
491.874	92.38
492.092	67.38
492.31	64.38
492.527	88.38
492.745	91.38
492.963	92.38
493.18	87.38
493.398	78.38
493.615	75.38
493.833	74.38
494.05	74.38
494.268	88.38
494.485	68.38
494.703	88.38
494.92	95.38
495.138	88.38
495.355	83.38
495.573	90.38
495.79	77.38
496.008	94.38
496.225	90.38
496.442	80.38
496.66	87.38
496.877	78.38
497.094	93.38
497.312	85.38
497.529	84.38
497.746	74.38
497.963	78.38
498.181	101.38
498.398	90.38
498.615	94.38
498.832	104.38
499.049	73.38
499.267	81.38
499.484	74.38
499.701	91.38
499.918	83.38
500.135	79.38
500.352	86.38
500.569	78.38
500.786	77.38
501.003	89.38
501.22	80.38
501.437	67.38
501.654	90.38
501.871	90.38
502.088	85.38
502.305	86.38
502.522	82.38
502.739	74.38
502.956	68.38
503.172	90.38
503.389	81.38
503.606	91.38
503.823	84.38
504.04	86.38
504.256	86.38
504.473	86.38
504.69	94.38
504.907	104.38
505.123	79.38
505.34	91.38
505.557	67.38
505.773	86.38
505.99	86.38
506.207	88.38
506.423	73.38
506.64	94.38
506.856	81.38
507.073	75.38
507.289	80.38
507.506	92.38
507.722	85.38
507.939	91.38
508.155	74.38
508.372	85.38
508.588	87.38
508.805	84.38
509.021	95.38
509.238	80.38
509.454	89.38
509.67	93.38
509.887	96.38
510.103	111.38
510.319	174.38
510.536	570.38
510.752	1679.38
510.968	475.38
511.184	113.38
511.401	98.38
511.617	85.38
511.833	79.38
512.049	73.38
512.265	85.38
512.481	97.38
512.698	97.38
512.914	93.38
513.13	81.38
513.346	85.38
513.562	85.38
513.778	69.38
513.994	94.38
514.21	98.38
514.426	103.38
514.642	114.38
514.858	97.38
515.074	129.38
515.29	318.38
515.506	1015.38
515.721	367.38
515.937	126.38
516.153	91.38
516.369	83.38
516.585	96.38
516.801	70.38
517.016	76.38
517.232	72.38
517.448	92.38
517.664	82.38
517.879	81.38
