Data from Circ_1980_H10_HRD10591_00088.txt Node
Date: Wed Jan 03 12:38:15 EST 2024
User: Yrep
Spectrometer: HR+D1059
Trigger mode: 1
Integration Time (sec): 1.000000E-1
Scans to average: 1
Electric dark correction enabled: true
Nonlinearity correction enabled: false
Boxcar width: 0
XAxis mode: Wavelengths
Number of Pixels in Spectrum: 2048
>>>>>Begin Spectral Data<<<<<
223.165	-10.31
223.4	-10.31
223.635	-10.31
223.869	-20.31
224.104	-20.31
224.338	-11.31
224.573	-14.31
224.808	-11.31
225.042	-2.31
225.277	-6.31
225.511	2.69
225.746	-4.31
225.98	3.69
226.215	15.69
226.449	7.69
226.683	19.69
226.918	22.69
227.152	28.69
227.387	46.69
227.621	36.69
227.856	38.69
228.09	46.69
228.324	58.69
228.559	59.69
228.793	51.69
229.027	45.69
229.262	65.69
229.496	77.69
229.73	71.69
229.964	86.69
230.199	85.69
230.433	91.69
230.667	84.69
230.901	73.69
231.136	83.69
231.37	66.69
231.604	73.69
231.838	91.69
232.072	87.69
232.306	77.69
232.541	58.69
232.775	62.69
233.009	81.69
233.243	81.69
233.477	92.69
233.711	87.69
233.945	83.69
234.179	73.69
234.413	101.69
234.647	80.69
234.881	79.69
235.115	75.69
235.349	75.69
235.583	66.69
235.817	78.69
236.051	72.69
236.285	65.69
236.519	90.69
236.753	81.69
236.987	73.69
237.221	67.69
237.455	81.69
237.689	66.69
237.922	77.69
238.156	89.69
238.39	84.69
238.624	83.69
238.858	77.69
239.091	77.69
239.325	69.69
239.559	85.69
239.793	88.69
240.027	87.69
240.26	79.69
240.494	68.69
240.728	81.69
240.961	72.69
241.195	85.69
241.429	66.69
241.662	75.69
241.896	77.69
242.13	66.69
242.363	70.69
242.597	74.69
242.83	84.69
243.064	91.69
243.298	67.69
243.531	77.69
243.765	64.69
243.998	83.69
244.232	71.69
244.465	82.69
244.699	97.69
244.932	87.69
245.166	89.69
245.399	70.69
245.633	83.69
245.866	75.69
246.099	76.69
246.333	84.69
246.566	83.69
246.8	83.69
247.033	86.69
247.266	84.69
247.5	70.69
247.733	89.69
247.966	70.69
248.2	84.69
248.433	94.69
248.666	80.69
248.899	72.69
249.133	85.69
249.366	93.69
249.599	89.69
249.832	82.69
250.066	83.69
250.299	88.69
250.532	74.69
250.765	86.69
250.998	79.69
251.231	80.69
251.465	93.69
251.698	84.69
251.931	75.69
252.164	75.69
252.397	83.69
252.63	94.69
252.863	82.69
253.096	75.69
253.329	95.69
253.562	74.69
253.795	85.69
254.028	86.69
254.261	87.69
254.494	78.69
254.727	79.69
254.96	96.69
255.193	93.69
255.426	82.69
255.659	85.69
255.892	83.69
256.124	70.69
256.357	81.69
256.59	77.69
256.823	89.69
257.056	71.69
257.289	74.69
257.521	94.69
257.754	79.69
257.987	73.69
258.22	85.69
258.452	87.69
258.685	79.69
258.918	69.69
259.151	68.69
259.383	87.69
259.616	97.69
259.849	81.69
260.081	74.69
260.314	77.69
260.547	81.69
260.779	93.69
261.012	94.69
261.244	87.69
261.477	92.69
261.71	94.69
261.942	100.69
262.175	95.69
262.407	85.69
262.64	82.69
262.872	84.69
263.105	88.69
263.337	71.69
263.57	94.69
263.802	73.69
264.035	94.69
264.267	69.69
264.499	103.69
264.732	85.69
264.964	83.69
265.197	82.69
265.429	92.69
265.661	75.69
265.894	71.69
266.126	83.69
266.358	83.69
266.591	82.69
266.823	93.69
267.055	94.69
267.287	75.69
267.52	77.69
267.752	90.69
267.984	87.69
268.216	92.69
268.448	92.69
268.681	74.69
268.913	98.69
269.145	78.69
269.377	93.69
269.609	74.69
269.841	81.69
270.073	81.69
270.306	81.69
270.538	88.69
270.77	81.69
271.002	85.69
271.234	67.69
271.466	79.69
271.698	87.69
271.93	84.69
272.162	82.69
272.394	73.69
272.626	83.69
272.858	78.69
273.09	79.69
273.322	85.69
273.553	95.69
273.785	86.69
274.017	72.69
274.249	81.69
274.481	72.69
274.713	81.69
274.945	94.69
275.176	91.69
275.408	88.69
275.64	81.69
275.872	93.69
276.104	84.69
276.335	94.69
276.567	99.69
276.799	94.69
277.031	91.69
277.262	86.69
277.494	89.69
277.726	89.69
277.957	86.69
278.189	95.69
278.421	88.69
278.652	89.69
278.884	85.69
279.115	77.69
279.347	74.69
279.579	74.69
279.81	86.69
280.042	84.69
280.273	88.69
280.505	75.69
280.736	86.69
280.968	95.69
281.199	90.69
281.431	79.69
281.662	98.69
281.894	82.69
282.125	90.69
282.356	105.69
282.588	122.69
282.819	93.69
283.051	91.69
283.282	88.69
283.513	95.69
283.745	89.69
283.976	86.69
284.207	75.69
284.439	89.69
284.67	82.69
284.901	85.69
285.132	90.69
285.364	83.69
285.595	79.69
285.826	89.69
286.057	79.69
286.288	83.69
286.52	89.69
286.751	71.69
286.982	88.69
287.213	85.69
287.444	80.69
287.675	81.69
287.906	97.69
288.138	93.69
288.369	76.69
288.6	82.69
288.831	80.69
289.062	93.69
289.293	83.69
289.524	91.69
289.755	74.69
289.986	104.69
290.217	85.69
290.448	88.69
290.679	87.69
290.91	84.69
291.141	90.69
291.371	96.69
291.602	86.69
291.833	81.69
292.064	83.69
292.295	87.69
292.526	79.69
292.757	96.69
292.987	92.69
293.218	93.69
293.449	94.69
293.68	90.69
293.91	84.69
294.141	105.69
294.372	77.69
294.603	92.69
294.833	103.69
295.064	90.69
295.295	95.69
295.525	93.69
295.756	103.69
295.987	98.69
296.217	122.69
296.448	100.69
296.679	84.69
296.909	84.69
297.14	84.69
297.37	77.69
297.601	92.69
297.831	77.69
298.062	85.69
298.292	89.69
298.523	92.69
298.753	81.69
298.984	97.69
299.214	87.69
299.445	91.69
299.675	90.69
299.905	91.69
300.136	78.69
300.366	87.69
300.597	76.69
300.827	98.69
301.057	87.69
301.288	94.69
301.518	89.69
301.748	87.69
301.979	114.69
302.209	92.69
302.439	98.69
302.669	100.69
302.9	91.69
303.13	107.69
303.36	80.69
303.59	93.69
303.82	108.69
304.051	99.69
304.281	94.69
304.511	83.69
304.741	93.69
304.971	86.69
305.201	79.69
305.431	91.69
305.661	83.69
305.891	86.69
306.121	89.69
306.352	100.69
306.582	104.69
306.812	78.69
307.042	96.69
307.272	100.69
307.502	92.69
307.731	107.69
307.961	86.69
308.191	101.69
308.421	89.69
308.651	85.69
308.881	95.69
309.111	101.69
309.341	98.69
309.571	95.69
309.8	94.69
310.03	84.69
310.26	89.69
310.49	95.69
310.72	93.69
310.949	102.69
311.179	92.69
311.409	94.69
311.639	100.69
311.868	103.69
312.098	101.69
312.328	101.69
312.557	87.69
312.787	90.69
313.017	93.69
313.246	77.69
313.476	81.69
313.706	91.69
313.935	96.69
314.165	101.69
314.394	75.69
314.624	89.69
314.853	100.69
315.083	86.69
315.312	77.69
315.542	93.69
315.771	89.69
316.001	78.69
316.23	70.69
316.46	90.69
316.689	85.69
316.919	77.69
317.148	93.69
317.377	75.69
317.607	97.69
317.836	93.69
318.065	101.69
318.295	99.69
318.524	92.69
318.753	79.69
318.983	83.69
319.212	91.69
319.441	97.69
319.67	99.69
319.9	115.69
320.129	79.69
320.358	85.69
320.587	95.69
320.816	96.69
321.046	101.69
321.275	90.69
321.504	89.69
321.733	91.69
321.962	101.69
322.191	101.69
322.42	102.69
322.649	105.69
322.878	102.69
323.108	104.69
323.337	120.69
323.566	118.69
323.795	131.69
324.024	167.69
324.253	289.69
324.482	610.69
324.71	1240.69
324.939	1581.69
325.168	614.69
325.397	189.69
325.626	133.69
325.855	118.69
326.084	113.69
326.313	109.69
326.542	126.69
326.77	184.69
326.999	344.69
327.228	678.69
327.457	1226.69
327.686	995.69
327.914	281.69
328.143	157.69
328.372	129.69
328.6	118.69
328.829	110.69
329.058	114.69
329.287	128.69
329.515	99.69
329.744	119.69
329.972	118.69
330.201	115.69
330.43	137.69
330.658	125.69
330.887	127.69
331.115	114.69
331.344	96.69
331.572	93.69
331.801	89.69
332.03	85.69
332.258	97.69
332.486	90.69
332.715	72.69
332.943	94.69
333.172	83.69
333.4	96.69
333.629	88.69
333.857	104.69
334.085	93.69
334.314	111.69
334.542	130.69
334.771	131.69
334.999	84.69
335.227	93.69
335.455	89.69
335.684	101.69
335.912	110.69
336.14	106.69
336.369	101.69
336.597	94.69
336.825	77.69
337.053	90.69
337.281	94.69
337.51	81.69
337.738	101.69
337.966	87.69
338.194	100.69
338.422	84.69
338.65	82.69
338.878	95.69
339.106	85.69
339.334	97.69
339.562	86.69
339.79	98.69
340.018	86.69
340.246	89.69
340.474	96.69
340.702	98.69
340.93	75.69
341.158	94.69
341.386	89.69
341.614	87.69
341.842	88.69
342.07	83.69
342.298	101.69
342.526	90.69
342.754	90.69
342.981	70.69
343.209	83.69
343.437	94.69
343.665	104.69
343.893	91.69
344.12	115.69
344.348	83.69
344.576	94.69
344.804	101.69
345.031	89.69
345.259	76.69
345.487	87.69
345.714	86.69
345.942	90.69
346.17	103.69
346.397	95.69
346.625	95.69
346.853	95.69
347.08	91.69
347.308	93.69
347.535	79.69
347.763	101.69
347.99	99.69
348.218	97.69
348.445	101.69
348.673	112.69
348.9	93.69
349.128	90.69
349.355	83.69
349.583	108.69
349.81	94.69
350.037	103.69
350.265	98.69
350.492	91.69
350.72	105.69
350.947	111.69
351.174	106.69
351.402	105.69
351.629	90.69
351.856	100.69
352.083	95.69
352.311	116.69
352.538	106.69
352.765	104.69
352.992	97.69
353.22	92.69
353.447	85.69
353.674	91.69
353.901	102.69
354.128	89.69
354.355	98.69
354.583	107.69
354.81	97.69
355.037	97.69
355.264	93.69
355.491	93.69
355.718	92.69
355.945	83.69
356.172	82.69
356.399	90.69
356.626	101.69
356.853	98.69
357.08	94.69
357.307	89.69
357.534	85.69
357.761	82.69
357.988	74.69
358.215	88.69
358.441	104.69
358.668	94.69
358.895	89.69
359.122	89.69
359.349	89.69
359.576	86.69
359.802	89.69
360.029	114.69
360.256	92.69
360.483	95.69
360.709	97.69
360.936	98.69
361.163	90.69
361.39	96.69
361.616	84.69
361.843	85.69
362.07	80.69
362.296	92.69
362.523	101.69
362.749	91.69
362.976	101.69
363.203	99.69
363.429	103.69
363.656	103.69
363.882	92.69
364.109	99.69
364.335	97.69
364.562	83.69
364.788	78.69
365.015	102.69
365.241	107.69
365.468	101.69
365.694	102.69
365.92	93.69
366.147	101.69
366.373	84.69
366.599	95.69
366.826	89.69
367.052	91.69
367.278	82.69
367.505	78.69
367.731	115.69
367.957	76.69
368.184	83.69
368.41	87.69
368.636	94.69
368.862	104.69
369.089	89.69
369.315	83.69
369.541	86.69
369.767	87.69
369.993	99.69
370.219	94.69
370.445	89.69
370.672	90.69
370.898	93.69
371.124	78.69
371.35	93.69
371.576	103.69
371.802	90.69
372.028	97.69
372.254	85.69
372.48	89.69
372.706	72.69
372.932	91.69
373.158	88.69
373.384	101.69
373.61	89.69
373.835	104.69
374.061	89.69
374.287	94.69
374.513	86.69
374.739	83.69
374.965	93.69
375.191	87.69
375.416	81.69
375.642	91.69
375.868	87.69
376.094	70.69
376.319	93.69
376.545	94.69
376.771	78.69
376.997	89.69
377.222	68.69
377.448	101.69
377.674	90.69
377.899	89.69
378.125	93.69
378.35	93.69
378.576	85.69
378.802	72.69
379.027	87.69
379.253	95.69
379.478	75.69
379.704	77.69
379.929	101.69
380.155	96.69
380.38	94.69
380.606	94.69
380.831	91.69
381.057	90.69
381.282	100.69
381.507	94.69
381.733	97.69
381.958	93.69
382.184	83.69
382.409	86.69
382.634	110.69
382.86	103.69
383.085	86.69
383.31	89.69
383.535	87.69
383.761	94.69
383.986	106.69
384.211	99.69
384.436	99.69
384.662	101.69
384.887	98.69
385.112	89.69
385.337	95.69
385.562	102.69
385.787	92.69
386.013	76.69
386.238	106.69
386.463	105.69
386.688	107.69
386.913	107.69
387.138	97.69
387.363	106.69
387.588	102.69
387.813	93.69
388.038	97.69
388.263	101.69
388.488	117.69
388.713	93.69
388.938	92.69
389.163	89.69
389.387	86.69
389.612	89.69
389.837	94.69
390.062	93.69
390.287	98.69
390.512	90.69
390.736	92.69
390.961	100.69
391.186	87.69
391.411	85.69
391.636	76.69
391.86	81.69
392.085	85.69
392.31	89.69
392.534	89.69
392.759	83.69
392.984	83.69
393.208	87.69
393.433	92.69
393.658	87.69
393.882	90.69
394.107	76.69
394.331	89.69
394.556	75.69
394.78	102.69
395.005	92.69
395.229	89.69
395.454	101.69
395.678	77.69
395.903	91.69
396.127	97.69
396.352	94.69
396.576	81.69
396.801	88.69
397.025	91.69
397.249	68.69
397.474	81.69
397.698	73.69
397.922	108.69
398.147	78.69
398.371	87.69
398.595	81.69
398.82	72.69
399.044	83.69
399.268	89.69
399.492	89.69
399.717	97.69
399.941	88.69
400.165	84.69
400.389	84.69
400.613	84.69
400.837	85.69
401.062	84.69
401.286	75.69
401.51	83.69
401.734	84.69
401.958	97.69
402.182	117.69
402.406	126.69
402.63	110.69
402.854	90.69
403.078	85.69
403.302	67.69
403.526	69.69
403.75	81.69
403.974	75.69
404.198	91.69
404.422	85.69
404.645	90.69
404.869	76.69
405.093	89.69
405.317	101.69
405.541	91.69
405.765	91.69
405.988	100.69
406.212	159.69
406.436	171.69
406.66	115.69
406.883	94.69
407.107	96.69
407.331	102.69
407.555	97.69
407.778	87.69
408.002	87.69
408.226	91.69
408.449	76.69
408.673	83.69
408.896	91.69
409.12	89.69
409.344	84.69
409.567	85.69
409.791	90.69
410.014	91.69
410.238	102.69
410.461	93.69
410.685	92.69
410.908	88.69
411.132	94.69
411.355	95.69
411.578	97.69
411.802	79.69
412.025	98.69
412.249	72.69
412.472	98.69
412.695	79.69
412.919	93.69
413.142	87.69
413.365	74.69
413.589	86.69
413.812	102.69
414.035	95.69
414.258	103.69
414.482	84.69
414.705	94.69
414.928	90.69
415.151	85.69
415.374	99.69
415.597	84.69
415.821	90.69
416.044	83.69
416.267	94.69
416.49	99.69
416.713	103.69
416.936	86.69
417.159	78.69
417.382	83.69
417.605	97.69
417.828	91.69
418.051	98.69
418.274	90.69
418.497	90.69
418.72	89.69
418.943	80.69
419.166	77.69
419.389	86.69
419.611	83.69
419.834	93.69
420.057	94.69
420.28	93.69
420.503	78.69
420.726	78.69
420.948	94.69
421.171	87.69
421.394	81.69
421.617	83.69
421.839	81.69
422.062	85.69
422.285	95.69
422.507	86.69
422.73	93.69
422.953	78.69
423.175	69.69
423.398	72.69
423.621	76.69
423.843	89.69
424.066	76.69
424.288	97.69
424.511	83.69
424.733	77.69
424.956	94.69
425.178	99.69
425.401	93.69
425.623	88.69
425.846	87.69
426.068	77.69
426.291	77.69
426.513	67.69
426.735	94.69
426.958	77.69
427.18	111.69
427.402	111.69
427.625	130.69
427.847	109.69
428.069	104.69
428.292	92.69
428.514	93.69
428.736	78.69
428.958	66.69
429.181	92.69
429.403	71.69
429.625	91.69
429.847	93.69
430.069	85.69
430.292	89.69
430.514	88.69
430.736	93.69
430.958	83.69
431.18	63.69
431.402	79.69
431.624	95.69
431.846	95.69
432.068	78.69
432.29	90.69
432.512	72.69
432.734	94.69
432.956	92.69
433.178	95.69
433.4	97.69
433.622	88.69
433.844	95.69
434.066	91.69
434.287	95.69
434.509	83.69
434.731	90.69
434.953	77.69
435.175	81.69
435.397	86.69
435.618	91.69
435.84	92.69
436.062	104.69
436.284	104.69
436.505	93.69
436.727	89.69
436.949	94.69
437.17	90.69
437.392	84.69
437.614	78.69
437.835	93.69
438.057	98.69
438.278	89.69
438.5	85.69
438.721	102.69
438.943	85.69
439.165	85.69
439.386	92.69
439.608	99.69
439.829	93.69
440.05	107.69
440.272	121.69
440.493	81.69
440.715	85.69
440.936	76.69
441.158	94.69
441.379	86.69
441.6	86.69
441.822	88.69
442.043	92.69
442.264	100.69
442.486	97.69
442.707	104.69
442.928	98.69
443.149	106.69
443.371	117.69
443.592	95.69
443.813	105.69
444.034	103.69
444.255	95.69
444.476	86.69
444.698	89.69
444.919	94.69
445.14	138.69
445.361	120.69
445.582	109.69
445.803	116.69
446.024	122.69
446.245	113.69
446.466	92.69
446.687	85.69
446.908	81.69
447.129	86.69
447.35	78.69
447.571	95.69
447.792	92.69
448.013	94.69
448.234	88.69
448.455	95.69
448.675	96.69
448.896	87.69
449.117	87.69
449.338	103.69
449.559	105.69
449.779	120.69
450	88.69
450.221	94.69
450.442	83.69
450.662	100.69
450.883	98.69
451.104	103.69
451.324	85.69
451.545	103.69
451.766	68.69
451.986	78.69
452.207	97.69
452.428	90.69
452.648	88.69
452.869	92.69
453.089	110.69
453.31	106.69
453.53	89.69
453.751	87.69
453.971	102.69
454.192	100.69
454.412	100.69
454.633	92.69
454.853	86.69
455.073	78.69
455.294	78.69
455.514	75.69
455.734	102.69
455.955	85.69
456.175	73.69
456.395	88.69
456.616	85.69
456.836	86.69
457.056	90.69
457.276	93.69
457.497	81.69
457.717	79.69
457.937	75.69
458.157	73.69
458.377	90.69
458.598	102.69
458.818	130.69
459.038	129.69
459.258	105.69
459.478	82.69
459.698	82.69
459.918	83.69
460.138	78.69
460.358	89.69
460.578	83.69
460.798	90.69
461.018	107.69
461.238	84.69
461.458	74.69
461.678	93.69
461.898	99.69
462.118	78.69
462.338	85.69
462.558	91.69
462.777	95.69
462.997	89.69
463.217	84.69
463.437	87.69
463.657	90.69
463.876	74.69
464.096	100.69
464.316	91.69
464.536	93.69
464.755	89.69
464.975	94.69
465.195	133.69
465.414	134.69
465.634	79.69
465.854	92.69
466.073	81.69
466.293	79.69
466.512	92.69
466.732	101.69
466.951	87.69
467.171	93.69
467.391	101.69
467.61	88.69
467.829	76.69
468.049	104.69
468.268	96.69
468.488	86.69
468.707	85.69
468.927	84.69
469.146	77.69
469.365	73.69
469.585	74.69
469.804	78.69
470.023	88.69
470.243	90.69
470.462	88.69
470.681	106.69
470.901	94.69
471.12	85.69
471.339	82.69
471.558	74.69
471.777	81.69
471.997	85.69
472.216	106.69
472.435	137.69
472.654	87.69
472.873	76.69
473.092	87.69
473.311	95.69
473.53	89.69
473.749	85.69
473.968	99.69
474.187	81.69
474.406	90.69
474.625	91.69
474.844	97.69
475.063	99.69
475.282	90.69
475.501	92.69
475.72	88.69
475.939	68.69
476.158	76.69
476.377	81.69
476.596	87.69
476.814	99.69
477.033	92.69
477.252	70.69
477.471	83.69
477.69	85.69
477.908	84.69
478.127	81.69
478.346	85.69
478.564	94.69
478.783	94.69
479.002	79.69
479.22	93.69
479.439	88.69
479.658	93.69
479.876	75.69
480.095	81.69
480.313	82.69
480.532	67.69
480.751	93.69
480.969	94.69
481.188	184.69
481.406	142.69
481.624	91.69
481.843	75.69
482.061	96.69
482.28	85.69
482.498	83.69
482.717	89.69
482.935	70.69
483.153	93.69
483.372	89.69
483.59	93.69
483.808	97.69
484.027	93.69
484.245	86.69
484.463	76.69
484.681	84.69
484.9	88.69
485.118	89.69
485.336	92.69
485.554	87.69
485.772	95.69
485.99	91.69
486.209	86.69
486.427	108.69
486.645	109.69
486.863	84.69
487.081	82.69
487.299	97.69
487.517	90.69
487.735	101.69
487.953	97.69
488.171	90.69
488.389	89.69
488.607	109.69
488.825	100.69
489.043	77.69
489.261	91.69
489.479	90.69
489.696	91.69
489.914	74.69
490.132	104.69
490.35	85.69
490.568	93.69
490.786	90.69
491.003	79.69
491.221	100.69
491.439	92.69
491.657	99.69
491.874	84.69
492.092	105.69
492.31	91.69
492.527	103.69
492.745	84.69
492.963	102.69
493.18	92.69
493.398	75.69
493.615	96.69
493.833	78.69
494.05	90.69
494.268	86.69
494.485	83.69
494.703	76.69
494.92	93.69
495.138	95.69
495.355	85.69
495.573	94.69
495.79	93.69
496.008	92.69
496.225	92.69
496.442	84.69
496.66	90.69
496.877	102.69
497.094	100.69
497.312	100.69
497.529	83.69
497.746	86.69
497.963	101.69
498.181	87.69
498.398	95.69
498.615	93.69
498.832	101.69
499.049	91.69
499.267	84.69
499.484	75.69
499.701	96.69
499.918	94.69
500.135	75.69
500.352	78.69
500.569	90.69
500.786	93.69
501.003	106.69
501.22	89.69
501.437	78.69
501.654	101.69
501.871	97.69
502.088	97.69
502.305	85.69
502.522	98.69
502.739	87.69
502.956	85.69
503.172	75.69
503.389	91.69
503.606	93.69
503.823	89.69
504.04	98.69
504.256	75.69
504.473	81.69
504.69	85.69
504.907	97.69
505.123	89.69
505.34	78.69
505.557	81.69
505.773	97.69
505.99	86.69
506.207	91.69
506.423	78.69
506.64	91.69
506.856	89.69
507.073	99.69
507.289	96.69
507.506	84.69
507.722	89.69
507.939	89.69
508.155	101.69
508.372	90.69
508.588	94.69
508.805	102.69
509.021	101.69
509.238	86.69
509.454	92.69
509.67	92.69
509.887	118.69
510.103	111.69
510.319	178.69
510.536	569.69
510.752	1787.69
510.968	518.69
511.184	150.69
511.401	89.69
511.617	93.69
511.833	83.69
512.049	83.69
512.265	88.69
512.481	90.69
512.698	97.69
512.914	101.69
513.13	102.69
513.346	71.69
513.562	83.69
513.778	98.69
513.994	99.69
514.21	92.69
514.426	103.69
514.642	109.69
514.858	122.69
515.074	145.69
515.29	332.69
515.506	1050.69
515.721	414.69
515.937	122.69
516.153	105.69
516.369	87.69
516.585	91.69
516.801	97.69
