Data from Circ_1980_H10_HRD10591_00052.txt Node
Date: Wed Jan 03 12:38:08 EST 2024
User: Yrep
Spectrometer: HR+D1059
Trigger mode: 1
Integration Time (sec): 1.000000E-1
Scans to average: 1
Electric dark correction enabled: true
Nonlinearity correction enabled: false
Boxcar width: 0
XAxis mode: Wavelengths
Number of Pixels in Spectrum: 2048
>>>>>Begin Spectral Data<<<<<
223.165	-12.44
223.4	-12.44
223.635	-12.44
223.869	-18.44
224.104	-24.44
224.338	-19.44
224.573	-17.44
224.808	-13.44
225.042	-30.44
225.277	-8.44
225.511	10.56
225.746	11.56
225.98	11.56
226.215	24.56
226.449	11.56
226.683	20.56
226.918	21.56
227.152	32.56
227.387	43.56
227.621	46.56
227.856	42.56
228.09	45.56
228.324	58.56
228.559	62.56
228.793	63.56
229.027	74.56
229.262	53.56
229.496	76.56
229.73	68.56
229.964	89.56
230.199	81.56
230.433	96.56
230.667	87.56
230.901	81.56
231.136	90.56
231.37	86.56
231.604	91.56
231.838	85.56
232.072	67.56
232.306	72.56
232.541	98.56
232.775	89.56
233.009	90.56
233.243	93.56
233.477	87.56
233.711	78.56
233.945	54.56
234.179	77.56
234.413	98.56
234.647	92.56
234.881	77.56
235.115	75.56
235.349	76.56
235.583	78.56
235.817	76.56
236.051	74.56
236.285	95.56
236.519	62.56
236.753	80.56
236.987	84.56
237.221	94.56
237.455	78.56
237.689	65.56
237.922	80.56
238.156	87.56
238.39	76.56
238.624	83.56
238.858	85.56
239.091	76.56
239.325	79.56
239.559	92.56
239.793	87.56
240.027	85.56
240.26	73.56
240.494	78.56
240.728	85.56
240.961	76.56
241.195	80.56
241.429	93.56
241.662	76.56
241.896	98.56
242.13	75.56
242.363	85.56
242.597	78.56
242.83	89.56
243.064	75.56
243.298	85.56
243.531	72.56
243.765	72.56
243.998	89.56
244.232	74.56
244.465	85.56
244.699	81.56
244.932	91.56
245.166	72.56
245.399	68.56
245.633	78.56
245.866	75.56
246.099	72.56
246.333	72.56
246.566	72.56
246.8	88.56
247.033	92.56
247.266	75.56
247.5	99.56
247.733	74.56
247.966	86.56
248.2	73.56
248.433	89.56
248.666	73.56
248.899	90.56
249.133	94.56
249.366	111.56
249.599	92.56
249.832	77.56
250.066	78.56
250.299	77.56
250.532	100.56
250.765	70.56
250.998	85.56
251.231	77.56
251.465	84.56
251.698	80.56
251.931	74.56
252.164	89.56
252.397	77.56
252.63	93.56
252.863	86.56
253.096	81.56
253.329	81.56
253.562	84.56
253.795	88.56
254.028	82.56
254.261	95.56
254.494	78.56
254.727	96.56
254.96	93.56
255.193	86.56
255.426	95.56
255.659	86.56
255.892	100.56
256.124	77.56
256.357	96.56
256.59	88.56
256.823	79.56
257.056	88.56
257.289	86.56
257.521	88.56
257.754	88.56
257.987	85.56
258.22	81.56
258.452	89.56
258.685	97.56
258.918	95.56
259.151	97.56
259.383	112.56
259.616	81.56
259.849	84.56
260.081	84.56
260.314	86.56
260.547	78.56
260.779	84.56
261.012	108.56
261.244	85.56
261.477	91.56
261.71	109.56
261.942	90.56
262.175	103.56
262.407	80.56
262.64	77.56
262.872	88.56
263.105	88.56
263.337	94.56
263.57	89.56
263.802	96.56
264.035	78.56
264.267	86.56
264.499	87.56
264.732	69.56
264.964	98.56
265.197	75.56
265.429	94.56
265.661	84.56
265.894	74.56
266.126	60.56
266.358	87.56
266.591	81.56
266.823	88.56
267.055	84.56
267.287	81.56
267.52	90.56
267.752	87.56
267.984	80.56
268.216	78.56
268.448	79.56
268.681	79.56
268.913	86.56
269.145	85.56
269.377	88.56
269.609	102.56
269.841	90.56
270.073	77.56
270.306	88.56
270.538	78.56
270.77	82.56
271.002	84.56
271.234	80.56
271.466	94.56
271.698	90.56
271.93	86.56
272.162	86.56
272.394	82.56
272.626	93.56
272.858	81.56
273.09	93.56
273.322	81.56
273.553	79.56
273.785	87.56
274.017	94.56
274.249	92.56
274.481	76.56
274.713	93.56
274.945	73.56
275.176	97.56
275.408	93.56
275.64	82.56
275.872	84.56
276.104	108.56
276.335	84.56
276.567	102.56
276.799	105.56
277.031	109.56
277.262	94.56
277.494	92.56
277.726	101.56
277.957	90.56
278.189	86.56
278.421	88.56
278.652	84.56
278.884	94.56
279.115	88.56
279.347	87.56
279.579	94.56
279.81	92.56
280.042	95.56
280.273	94.56
280.505	94.56
280.736	97.56
280.968	87.56
281.199	95.56
281.431	95.56
281.662	88.56
281.894	91.56
282.125	100.56
282.356	113.56
282.588	123.56
282.819	97.56
283.051	87.56
283.282	87.56
283.513	94.56
283.745	86.56
283.976	88.56
284.207	81.56
284.439	86.56
284.67	93.56
284.901	110.56
285.132	80.56
285.364	90.56
285.595	91.56
285.826	94.56
286.057	102.56
286.288	87.56
286.52	99.56
286.751	83.56
286.982	93.56
287.213	86.56
287.444	97.56
287.675	95.56
287.906	112.56
288.138	88.56
288.369	94.56
288.6	108.56
288.831	79.56
289.062	80.56
289.293	100.56
289.524	83.56
289.755	87.56
289.986	92.56
290.217	88.56
290.448	101.56
290.679	88.56
290.91	80.56
291.141	89.56
291.371	88.56
291.602	98.56
291.833	90.56
292.064	104.56
292.295	105.56
292.526	92.56
292.757	89.56
292.987	93.56
293.218	94.56
293.449	89.56
293.68	91.56
293.91	86.56
294.141	90.56
294.372	96.56
294.603	88.56
294.833	94.56
295.064	79.56
295.295	102.56
295.525	90.56
295.756	107.56
295.987	110.56
296.217	126.56
296.448	116.56
296.679	81.56
296.909	80.56
297.14	82.56
297.37	84.56
297.601	101.56
297.831	90.56
298.062	92.56
298.292	94.56
298.523	95.56
298.753	92.56
298.984	92.56
299.214	100.56
299.445	92.56
299.675	106.56
299.905	109.56
300.136	94.56
300.366	94.56
300.597	93.56
300.827	92.56
301.057	89.56
301.288	93.56
301.518	91.56
301.748	109.56
301.979	109.56
302.209	81.56
302.439	90.56
302.669	88.56
302.9	89.56
303.13	94.56
303.36	95.56
303.59	100.56
303.82	100.56
304.051	84.56
304.281	97.56
304.511	104.56
304.741	94.56
304.971	99.56
305.201	90.56
305.431	86.56
305.661	96.56
305.891	91.56
306.121	100.56
306.352	99.56
306.582	120.56
306.812	85.56
307.042	95.56
307.272	80.56
307.502	103.56
307.731	103.56
307.961	83.56
308.191	79.56
308.421	87.56
308.651	97.56
308.881	92.56
309.111	97.56
309.341	102.56
309.571	92.56
309.8	98.56
310.03	95.56
310.26	97.56
310.49	98.56
310.72	90.56
310.949	89.56
311.179	96.56
311.409	94.56
311.639	111.56
311.868	103.56
312.098	109.56
312.328	98.56
312.557	93.56
312.787	98.56
313.017	94.56
313.246	99.56
313.476	90.56
313.706	91.56
313.935	103.56
314.165	88.56
314.394	110.56
314.624	98.56
314.853	97.56
315.083	92.56
315.312	102.56
315.542	86.56
315.771	97.56
316.001	76.56
316.23	88.56
316.46	89.56
316.689	92.56
316.919	92.56
317.148	97.56
317.377	90.56
317.607	93.56
317.836	95.56
318.065	98.56
318.295	92.56
318.524	89.56
318.753	85.56
318.983	96.56
319.212	84.56
319.441	103.56
319.67	100.56
319.9	82.56
320.129	90.56
320.358	97.56
320.587	88.56
320.816	103.56
321.046	95.56
321.275	110.56
321.504	98.56
321.733	96.56
321.962	91.56
322.191	100.56
322.42	90.56
322.649	105.56
322.878	95.56
323.108	114.56
323.337	105.56
323.566	109.56
323.795	136.56
324.024	174.56
324.253	326.56
324.482	602.56
324.71	1217.56
324.939	1617.56
325.168	633.56
325.397	189.56
325.626	138.56
325.855	137.56
326.084	103.56
326.313	130.56
326.542	136.56
326.77	184.56
326.999	354.56
327.228	692.56
327.457	1227.56
327.686	1026.56
327.914	300.56
328.143	150.56
328.372	139.56
328.6	129.56
328.829	101.56
329.058	113.56
329.287	118.56
329.515	97.56
329.744	118.56
329.972	100.56
330.201	112.56
330.43	126.56
330.658	126.56
330.887	120.56
331.115	112.56
331.344	105.56
331.572	111.56
331.801	110.56
332.03	106.56
332.258	94.56
332.486	95.56
332.715	96.56
332.943	85.56
333.172	84.56
333.4	87.56
333.629	97.56
333.857	110.56
334.085	112.56
334.314	123.56
334.542	140.56
334.771	117.56
334.999	114.56
335.227	104.56
335.455	79.56
335.684	88.56
335.912	94.56
336.14	106.56
336.369	101.56
336.597	102.56
336.825	115.56
337.053	96.56
337.281	103.56
337.51	89.56
337.738	88.56
337.966	93.56
338.194	94.56
338.422	88.56
338.65	100.56
338.878	94.56
339.106	89.56
339.334	81.56
339.562	82.56
339.79	87.56
340.018	103.56
340.246	93.56
340.474	109.56
340.702	91.56
340.93	100.56
341.158	97.56
341.386	102.56
341.614	96.56
341.842	74.56
342.07	94.56
342.298	108.56
342.526	91.56
342.754	78.56
342.981	87.56
343.209	88.56
343.437	86.56
343.665	79.56
343.893	96.56
344.12	98.56
344.348	97.56
344.576	92.56
344.804	110.56
345.031	96.56
345.259	94.56
345.487	81.56
345.714	91.56
345.942	98.56
346.17	100.56
346.397	111.56
346.625	91.56
346.853	95.56
347.08	96.56
347.308	96.56
347.535	94.56
347.763	100.56
347.99	91.56
348.218	102.56
348.445	93.56
348.673	96.56
348.9	105.56
349.128	94.56
349.355	99.56
349.583	81.56
349.81	102.56
350.037	102.56
350.265	100.56
350.492	77.56
350.72	86.56
350.947	88.56
351.174	98.56
351.402	92.56
351.629	98.56
351.856	91.56
352.083	88.56
352.311	91.56
352.538	95.56
352.765	101.56
352.992	107.56
353.22	91.56
353.447	107.56
353.674	86.56
353.901	112.56
354.128	100.56
354.355	111.56
354.583	94.56
354.81	105.56
355.037	88.56
355.264	90.56
355.491	95.56
355.718	97.56
355.945	93.56
356.172	98.56
356.399	88.56
356.626	100.56
356.853	94.56
357.08	98.56
357.307	88.56
357.534	98.56
357.761	88.56
357.988	84.56
358.215	91.56
358.441	79.56
358.668	100.56
358.895	86.56
359.122	98.56
359.349	88.56
359.576	85.56
359.802	82.56
360.029	109.56
360.256	105.56
360.483	101.56
360.709	89.56
360.936	107.56
361.163	84.56
361.39	89.56
361.616	91.56
361.843	94.56
362.07	101.56
362.296	105.56
362.523	94.56
362.749	88.56
362.976	93.56
363.203	93.56
363.429	87.56
363.656	89.56
363.882	82.56
364.109	96.56
364.335	97.56
364.562	100.56
364.788	92.56
365.015	97.56
365.241	105.56
365.468	103.56
365.694	92.56
365.92	92.56
366.147	88.56
366.373	84.56
366.599	96.56
366.826	105.56
367.052	97.56
367.278	97.56
367.505	99.56
367.731	98.56
367.957	90.56
368.184	102.56
368.41	75.56
368.636	95.56
368.862	111.56
369.089	114.56
369.315	101.56
369.541	84.56
369.767	96.56
369.993	100.56
370.219	95.56
370.445	81.56
370.672	94.56
370.898	90.56
371.124	89.56
371.35	92.56
371.576	88.56
371.802	90.56
372.028	104.56
372.254	88.56
372.48	90.56
372.706	90.56
372.932	92.56
373.158	87.56
373.384	104.56
373.61	100.56
373.835	89.56
374.061	87.56
374.287	89.56
374.513	80.56
374.739	90.56
374.965	96.56
375.191	99.56
375.416	99.56
375.642	99.56
375.868	87.56
376.094	88.56
376.319	87.56
376.545	103.56
376.771	122.56
376.997	84.56
377.222	90.56
377.448	80.56
377.674	84.56
377.899	90.56
378.125	88.56
378.35	91.56
378.576	88.56
378.802	84.56
379.027	104.56
379.253	83.56
379.478	118.56
379.704	89.56
379.929	86.56
380.155	103.56
380.38	94.56
380.606	100.56
380.831	112.56
381.057	91.56
381.282	93.56
381.507	90.56
381.733	91.56
381.958	101.56
382.184	110.56
382.409	90.56
382.634	96.56
382.86	90.56
383.085	103.56
383.31	99.56
383.535	102.56
383.761	113.56
383.986	98.56
384.211	91.56
384.436	97.56
384.662	97.56
384.887	114.56
385.112	96.56
385.337	95.56
385.562	113.56
385.787	95.56
386.013	107.56
386.238	97.56
386.463	114.56
386.688	115.56
386.913	105.56
387.138	116.56
387.363	117.56
387.588	93.56
387.813	100.56
388.038	113.56
388.263	108.56
388.488	104.56
388.713	102.56
388.938	96.56
389.163	106.56
389.387	97.56
389.612	99.56
389.837	96.56
390.062	91.56
390.287	105.56
390.512	86.56
390.736	78.56
390.961	98.56
391.186	91.56
391.411	100.56
391.636	101.56
391.86	98.56
392.085	100.56
392.31	88.56
392.534	88.56
392.759	88.56
392.984	91.56
393.208	94.56
393.433	78.56
393.658	94.56
393.882	86.56
394.107	95.56
394.331	87.56
394.556	105.56
394.78	90.56
395.005	95.56
395.229	79.56
395.454	78.56
395.678	88.56
395.903	77.56
396.127	81.56
396.352	88.56
396.576	88.56
396.801	106.56
397.025	109.56
397.249	92.56
397.474	81.56
397.698	86.56
397.922	87.56
398.147	80.56
398.371	92.56
398.595	90.56
398.82	86.56
399.044	90.56
399.268	99.56
399.492	90.56
399.717	100.56
399.941	92.56
400.165	84.56
400.389	85.56
400.613	90.56
400.837	84.56
401.062	81.56
401.286	88.56
401.51	90.56
401.734	96.56
401.958	101.56
402.182	124.56
402.406	145.56
402.63	109.56
402.854	93.56
403.078	74.56
403.302	102.56
403.526	80.56
403.75	96.56
403.974	94.56
404.198	82.56
404.422	84.56
404.645	83.56
404.869	82.56
405.093	92.56
405.317	82.56
405.541	88.56
405.765	102.56
405.988	104.56
406.212	139.56
406.436	195.56
406.66	125.56
406.883	96.56
407.107	82.56
407.331	96.56
407.555	81.56
407.778	109.56
408.002	86.56
408.226	105.56
408.449	85.56
408.673	95.56
408.896	90.56
409.12	79.56
409.344	98.56
409.567	103.56
409.791	96.56
410.014	105.56
410.238	101.56
410.461	97.56
410.685	102.56
410.908	90.56
411.132	101.56
411.355	103.56
411.578	85.56
411.802	94.56
412.025	76.56
412.249	88.56
412.472	95.56
412.695	97.56
412.919	105.56
413.142	93.56
413.365	89.56
413.589	94.56
413.812	93.56
414.035	93.56
414.258	89.56
414.482	93.56
414.705	94.56
414.928	88.56
415.151	105.56
415.374	95.56
415.597	85.56
415.821	86.56
416.044	100.56
416.267	82.56
416.49	92.56
416.713	93.56
416.936	92.56
417.159	94.56
417.382	72.56
417.605	79.56
417.828	103.56
418.051	92.56
418.274	95.56
418.497	94.56
418.72	81.56
418.943	102.56
419.166	82.56
419.389	86.56
419.611	76.56
419.834	100.56
420.057	91.56
420.28	89.56
420.503	85.56
420.726	77.56
420.948	94.56
421.171	93.56
421.394	98.56
421.617	93.56
421.839	84.56
422.062	92.56
422.285	98.56
422.507	106.56
422.73	110.56
422.953	92.56
423.175	87.56
423.398	82.56
423.621	106.56
423.843	89.56
424.066	90.56
424.288	89.56
424.511	83.56
424.733	98.56
424.956	100.56
425.178	99.56
425.401	100.56
425.623	101.56
425.846	79.56
426.068	90.56
426.291	94.56
426.513	88.56
426.735	104.56
426.958	93.56
427.18	97.56
427.402	112.56
427.625	126.56
427.847	120.56
428.069	105.56
428.292	96.56
428.514	78.56
428.736	98.56
428.958	75.56
429.181	88.56
429.403	95.56
429.625	84.56
429.847	102.56
430.069	89.56
430.292	101.56
430.514	80.56
430.736	96.56
430.958	86.56
431.18	90.56
431.402	71.56
431.624	78.56
431.846	92.56
432.068	101.56
432.29	87.56
432.512	89.56
432.734	81.56
432.956	86.56
433.178	106.56
433.4	91.56
433.622	80.56
433.844	96.56
434.066	103.56
434.287	88.56
434.509	91.56
434.731	89.56
434.953	89.56
435.175	103.56
435.397	89.56
435.618	85.56
435.84	101.56
436.062	111.56
436.284	99.56
436.505	92.56
436.727	107.56
436.949	95.56
437.17	72.56
437.392	86.56
437.614	90.56
437.835	96.56
438.057	100.56
438.278	104.56
438.5	99.56
438.721	103.56
438.943	107.56
439.165	82.56
439.386	97.56
439.608	105.56
439.829	101.56
440.05	110.56
440.272	126.56
440.493	84.56
440.715	92.56
440.936	96.56
441.158	91.56
441.379	83.56
441.6	94.56
441.822	95.56
442.043	92.56
442.264	95.56
442.486	104.56
442.707	89.56
442.928	102.56
443.149	117.56
443.371	110.56
443.592	98.56
443.813	104.56
444.034	100.56
444.255	104.56
444.476	93.56
444.698	94.56
444.919	84.56
445.14	127.56
445.361	116.56
445.582	114.56
445.803	118.56
446.024	119.56
446.245	103.56
446.466	111.56
446.687	94.56
446.908	86.56
447.129	87.56
447.35	94.56
447.571	84.56
447.792	101.56
448.013	103.56
448.234	102.56
448.455	88.56
448.675	90.56
448.896	108.56
449.117	88.56
449.338	107.56
449.559	118.56
449.779	121.56
450	92.56
450.221	89.56
450.442	79.56
450.662	95.56
450.883	88.56
451.104	117.56
451.324	96.56
451.545	79.56
451.766	94.56
451.986	92.56
452.207	86.56
452.428	90.56
452.648	103.56
452.869	104.56
453.089	102.56
453.31	108.56
453.53	97.56
453.751	92.56
453.971	96.56
454.192	104.56
454.412	92.56
454.633	83.56
454.853	91.56
455.073	100.56
455.294	100.56
455.514	97.56
455.734	94.56
455.955	105.56
456.175	90.56
456.395	90.56
456.616	90.56
456.836	84.56
457.056	87.56
457.276	88.56
457.497	94.56
457.717	81.56
457.937	86.56
458.157	90.56
458.377	74.56
458.598	95.56
458.818	116.56
459.038	118.56
459.258	106.56
459.478	94.56
459.698	95.56
459.918	104.56
460.138	74.56
460.358	93.56
460.578	93.56
460.798	92.56
461.018	111.56
461.238	107.56
461.458	99.56
461.678	76.56
461.898	97.56
462.118	80.56
462.338	77.56
462.558	90.56
462.777	91.56
462.997	92.56
463.217	81.56
463.437	90.56
463.657	91.56
463.876	81.56
464.096	97.56
464.316	91.56
464.536	93.56
464.755	94.56
464.975	101.56
465.195	138.56
465.414	128.56
465.634	95.56
465.854	94.56
466.073	81.56
466.293	76.56
466.512	97.56
466.732	94.56
466.951	86.56
467.171	81.56
467.391	101.56
467.61	105.56
467.829	100.56
468.049	77.56
468.268	107.56
468.488	103.56
468.707	103.56
468.927	86.56
469.146	79.56
469.365	92.56
469.585	86.56
469.804	88.56
470.023	82.56
470.243	87.56
470.462	100.56
470.681	105.56
470.901	85.56
471.12	81.56
471.339	99.56
471.558	72.56
471.777	90.56
471.997	95.56
472.216	118.56
472.435	139.56
472.654	93.56
472.873	97.56
473.092	79.56
473.311	98.56
473.53	96.56
473.749	94.56
473.968	92.56
474.187	104.56
474.406	90.56
474.625	91.56
474.844	81.56
475.063	81.56
475.282	89.56
475.501	84.56
475.72	100.56
475.939	86.56
476.158	94.56
476.377	97.56
476.596	90.56
476.814	77.56
477.033	80.56
477.252	90.56
477.471	76.56
477.69	81.56
477.908	92.56
478.127	93.56
478.346	93.56
478.564	103.56
478.783	91.56
479.002	88.56
479.22	104.56
479.439	82.56
479.658	92.56
479.876	92.56
480.095	76.56
480.313	93.56
480.532	94.56
480.751	106.56
480.969	104.56
481.188	195.56
481.406	146.56
481.624	95.56
481.843	79.56
482.061	94.56
482.28	81.56
482.498	100.56
482.717	92.56
482.935	97.56
483.153	96.56
483.372	96.56
483.59	85.56
483.808	94.56
484.027	102.56
484.245	92.56
484.463	78.56
484.681	91.56
484.9	86.56
485.118	106.56
485.336	111.56
485.554	102.56
485.772	103.56
485.99	111.56
486.209	108.56
486.427	109.56
486.645	113.56
486.863	99.56
487.081	101.56
487.299	92.56
487.517	94.56
487.735	95.56
487.953	90.56
488.171	104.56
488.389	96.56
488.607	95.56
488.825	88.56
489.043	92.56
489.261	93.56
489.479	90.56
489.696	80.56
489.914	91.56
490.132	86.56
490.35	108.56
490.568	81.56
490.786	91.56
491.003	92.56
491.221	84.56
491.439	93.56
491.657	108.56
491.874	107.56
492.092	73.56
492.31	89.56
492.527	90.56
492.745	102.56
492.963	97.56
493.18	89.56
493.398	95.56
493.615	96.56
493.833	98.56
494.05	84.56
494.268	84.56
494.485	103.56
494.703	81.56
494.92	86.56
495.138	86.56
495.355	102.56
495.573	101.56
495.79	97.56
496.008	95.56
496.225	98.56
496.442	94.56
496.66	97.56
496.877	100.56
497.094	104.56
497.312	81.56
497.529	88.56
497.746	89.56
497.963	85.56
498.181	100.56
498.398	88.56
498.615	97.56
498.832	86.56
499.049	77.56
499.267	82.56
499.484	93.56
499.701	93.56
499.918	101.56
500.135	80.56
500.352	92.56
500.569	90.56
500.786	108.56
501.003	94.56
501.22	94.56
501.437	92.56
501.654	88.56
501.871	102.56
502.088	89.56
502.305	88.56
502.522	92.56
502.739	90.56
502.956	85.56
503.172	82.56
503.389	88.56
503.606	101.56
503.823	80.56
504.04	96.56
504.256	76.56
504.473	89.56
504.69	103.56
504.907	92.56
505.123	91.56
505.34	104.56
505.557	97.56
505.773	98.56
505.99	90.56
506.207	90.56
506.423	79.56
506.64	90.56
506.856	109.56
507.073	100.56
507.289	94.56
507.506	97.56
507.722	118.56
507.939	109.56
508.155	114.56
508.372	96.56
508.588	94.56
508.805	103.56
509.021	100.56
509.238	104.56
509.454	97.56
509.67	106.56
509.887	89.56
510.103	117.56
510.319	179.56
510.536	562.56
510.752	1735.56
510.968	489.56
511.184	150.56
511.401	100.56
511.617	88.56
511.833	106.56
512.049	82.56
512.265	95.56
512.481	68.56
512.698	90.56
512.914	93.56
513.13	111.56
513.346	100.56
513.562	81.56
513.778	93.56
513.994	102.56
514.21	101.56
514.426	108.56
514.642	132.56
514.858	109.56
515.074	121.56
