Data from Circ_1980_H10_HRD10591_00007.txt Node
Date: Wed Jan 03 12:37:59 EST 2024
User: Yrep
Spectrometer: HR+D1059
Trigger mode: 1
Integration Time (sec): 1.000000E-1
Scans to average: 1
Electric dark correction enabled: true
Nonlinearity correction enabled: false
Boxcar width: 0
XAxis mode: Wavelengths
Number of Pixels in Spectrum: 2048
>>>>>Begin Spectral Data<<<<<
223.165	-23.25
223.4	-23.25
223.635	-23.25
223.869	-26.25
224.104	-19.25
224.338	-12.25
224.573	-11.25
224.808	-11.25
225.042	4.75
225.277	9.75
225.511	-6.25
225.746	9.75
225.98	11.75
226.215	3.75
226.449	4.75
226.683	19.75
226.918	17.75
227.152	27.75
227.387	34.75
227.621	40.75
227.856	50.75
228.09	41.75
228.324	57.75
228.559	60.75
228.793	58.75
229.027	59.75
229.262	56.75
229.496	69.75
229.73	58.75
229.964	71.75
230.199	70.75
230.433	74.75
230.667	74.75
230.901	78.75
231.136	62.75
231.37	67.75
231.604	86.75
231.838	89.75
232.072	84.75
232.306	78.75
232.541	73.75
232.775	77.75
233.009	85.75
233.243	73.75
233.477	67.75
233.711	64.75
233.945	73.75
234.179	80.75
234.413	86.75
234.647	66.75
234.881	87.75
235.115	83.75
235.349	83.75
235.583	80.75
235.817	95.75
236.051	79.75
236.285	61.75
236.519	68.75
236.753	72.75
236.987	61.75
237.221	87.75
237.455	73.75
237.689	63.75
237.922	73.75
238.156	69.75
238.39	68.75
238.624	71.75
238.858	65.75
239.091	73.75
239.325	83.75
239.559	71.75
239.793	81.75
240.027	76.75
240.26	71.75
240.494	73.75
240.728	77.75
240.961	62.75
241.195	68.75
241.429	66.75
241.662	59.75
241.896	69.75
242.13	73.75
242.363	77.75
242.597	60.75
242.83	60.75
243.064	61.75
243.298	76.75
243.531	78.75
243.765	69.75
243.998	65.75
244.232	66.75
244.465	79.75
244.699	73.75
244.932	69.75
245.166	72.75
245.399	73.75
245.633	69.75
245.866	89.75
246.099	92.75
246.333	71.75
246.566	79.75
246.8	69.75
247.033	83.75
247.266	72.75
247.5	68.75
247.733	70.75
247.966	87.75
248.2	79.75
248.433	65.75
248.666	73.75
248.899	80.75
249.133	93.75
249.366	80.75
249.599	86.75
249.832	79.75
250.066	82.75
250.299	60.75
250.532	72.75
250.765	75.75
250.998	80.75
251.231	63.75
251.465	69.75
251.698	76.75
251.931	85.75
252.164	87.75
252.397	85.75
252.63	79.75
252.863	75.75
253.096	83.75
253.329	77.75
253.562	76.75
253.795	88.75
254.028	76.75
254.261	76.75
254.494	77.75
254.727	80.75
254.96	71.75
255.193	83.75
255.426	73.75
255.659	68.75
255.892	83.75
256.124	68.75
256.357	83.75
256.59	75.75
256.823	76.75
257.056	68.75
257.289	84.75
257.521	70.75
257.754	81.75
257.987	85.75
258.22	87.75
258.452	86.75
258.685	83.75
258.918	83.75
259.151	80.75
259.383	82.75
259.616	79.75
259.849	90.75
260.081	81.75
260.314	68.75
260.547	76.75
260.779	79.75
261.012	89.75
261.244	73.75
261.477	86.75
261.71	89.75
261.942	101.75
262.175	101.75
262.407	87.75
262.64	87.75
262.872	79.75
263.105	68.75
263.337	59.75
263.57	84.75
263.802	71.75
264.035	85.75
264.267	75.75
264.499	72.75
264.732	89.75
264.964	72.75
265.197	55.75
265.429	79.75
265.661	63.75
265.894	69.75
266.126	66.75
266.358	77.75
266.591	64.75
266.823	80.75
267.055	92.75
267.287	84.75
267.52	80.75
267.752	81.75
267.984	83.75
268.216	76.75
268.448	67.75
268.681	89.75
268.913	81.75
269.145	81.75
269.377	81.75
269.609	84.75
269.841	83.75
270.073	86.75
270.306	88.75
270.538	93.75
270.77	71.75
271.002	74.75
271.234	73.75
271.466	76.75
271.698	75.75
271.93	82.75
272.162	84.75
272.394	74.75
272.626	81.75
272.858	82.75
273.09	86.75
273.322	85.75
273.553	76.75
273.785	87.75
274.017	77.75
274.249	76.75
274.481	80.75
274.713	75.75
274.945	88.75
275.176	83.75
275.408	83.75
275.64	74.75
275.872	88.75
276.104	86.75
276.335	71.75
276.567	103.75
276.799	96.75
277.031	75.75
277.262	73.75
277.494	90.75
277.726	79.75
277.957	68.75
278.189	81.75
278.421	90.75
278.652	93.75
278.884	91.75
279.115	85.75
279.347	76.75
279.579	80.75
279.81	79.75
280.042	83.75
280.273	93.75
280.505	81.75
280.736	76.75
280.968	92.75
281.199	98.75
281.431	83.75
281.662	79.75
281.894	92.75
282.125	100.75
282.356	100.75
282.588	128.75
282.819	107.75
283.051	96.75
283.282	76.75
283.513	67.75
283.745	71.75
283.976	80.75
284.207	80.75
284.439	82.75
284.67	89.75
284.901	87.75
285.132	90.75
285.364	92.75
285.595	69.75
285.826	69.75
286.057	86.75
286.288	87.75
286.52	84.75
286.751	84.75
286.982	83.75
287.213	87.75
287.444	96.75
287.675	88.75
287.906	84.75
288.138	80.75
288.369	85.75
288.6	96.75
288.831	80.75
289.062	85.75
289.293	90.75
289.524	70.75
289.755	74.75
289.986	88.75
290.217	95.75
290.448	90.75
290.679	84.75
290.91	99.75
291.141	94.75
291.371	98.75
291.602	84.75
291.833	81.75
292.064	79.75
292.295	77.75
292.526	72.75
292.757	73.75
292.987	79.75
293.218	83.75
293.449	92.75
293.68	82.75
293.91	82.75
294.141	74.75
294.372	85.75
294.603	83.75
294.833	68.75
295.064	92.75
295.295	85.75
295.525	87.75
295.756	100.75
295.987	85.75
296.217	127.75
296.448	111.75
296.679	109.75
296.909	81.75
297.14	81.75
297.37	69.75
297.601	83.75
297.831	84.75
298.062	90.75
298.292	89.75
298.523	84.75
298.753	95.75
298.984	74.75
299.214	77.75
299.445	99.75
299.675	84.75
299.905	103.75
300.136	89.75
300.366	80.75
300.597	95.75
300.827	91.75
301.057	92.75
301.288	102.75
301.518	86.75
301.748	79.75
301.979	100.75
302.209	79.75
302.439	89.75
302.669	89.75
302.9	93.75
303.13	81.75
303.36	71.75
303.59	100.75
303.82	87.75
304.051	89.75
304.281	99.75
304.511	88.75
304.741	81.75
304.971	76.75
305.201	84.75
305.431	81.75
305.661	79.75
305.891	87.75
306.121	77.75
306.352	104.75
306.582	85.75
306.812	91.75
307.042	98.75
307.272	88.75
307.502	95.75
307.731	76.75
307.961	88.75
308.191	100.75
308.421	75.75
308.651	84.75
308.881	81.75
309.111	91.75
309.341	88.75
309.571	84.75
309.8	91.75
310.03	94.75
310.26	89.75
310.49	87.75
310.72	83.75
310.949	97.75
311.179	74.75
311.409	98.75
311.639	106.75
311.868	90.75
312.098	79.75
312.328	96.75
312.557	91.75
312.787	89.75
313.017	88.75
313.246	93.75
313.476	80.75
313.706	96.75
313.935	84.75
314.165	85.75
314.394	87.75
314.624	83.75
314.853	91.75
315.083	88.75
315.312	87.75
315.542	90.75
315.771	93.75
316.001	96.75
316.23	79.75
316.46	76.75
316.689	84.75
316.919	75.75
317.148	88.75
317.377	98.75
317.607	105.75
317.836	85.75
318.065	81.75
318.295	69.75
318.524	66.75
318.753	83.75
318.983	95.75
319.212	89.75
319.441	108.75
319.67	88.75
319.9	99.75
320.129	87.75
320.358	83.75
320.587	100.75
320.816	97.75
321.046	84.75
321.275	92.75
321.504	82.75
321.733	96.75
321.962	95.75
322.191	95.75
322.42	97.75
322.649	98.75
322.878	102.75
323.108	100.75
323.337	98.75
323.566	115.75
323.795	124.75
324.024	163.75
324.253	293.75
324.482	616.75
324.71	1267.75
324.939	1623.75
325.168	621.75
325.397	187.75
325.626	120.75
325.855	121.75
326.084	124.75
326.313	119.75
326.542	141.75
326.77	195.75
326.999	348.75
327.228	712.75
327.457	1343.75
327.686	1075.75
327.914	289.75
328.143	169.75
328.372	136.75
328.6	107.75
328.829	104.75
329.058	110.75
329.287	96.75
329.515	84.75
329.744	110.75
329.972	101.75
330.201	102.75
330.43	138.75
330.658	109.75
330.887	114.75
331.115	99.75
331.344	104.75
331.572	91.75
331.801	84.75
332.03	84.75
332.258	91.75
332.486	92.75
332.715	82.75
332.943	95.75
333.172	85.75
333.4	104.75
333.629	73.75
333.857	93.75
334.085	105.75
334.314	112.75
334.542	136.75
334.771	123.75
334.999	92.75
335.227	100.75
335.455	94.75
335.684	95.75
335.912	91.75
336.14	89.75
336.369	81.75
336.597	99.75
336.825	98.75
337.053	88.75
337.281	91.75
337.51	95.75
337.738	91.75
337.966	85.75
338.194	95.75
338.422	102.75
338.65	90.75
338.878	91.75
339.106	91.75
339.334	96.75
339.562	82.75
339.79	81.75
340.018	75.75
340.246	81.75
340.474	83.75
340.702	90.75
340.93	101.75
341.158	90.75
341.386	100.75
341.614	91.75
341.842	87.75
342.07	95.75
342.298	87.75
342.526	68.75
342.754	95.75
342.981	90.75
343.209	88.75
343.437	107.75
343.665	86.75
343.893	98.75
344.12	96.75
344.348	109.75
344.576	81.75
344.804	89.75
345.031	96.75
345.259	87.75
345.487	86.75
345.714	80.75
345.942	91.75
346.17	74.75
346.397	75.75
346.625	88.75
346.853	92.75
347.08	101.75
347.308	91.75
347.535	87.75
347.763	99.75
347.99	97.75
348.218	98.75
348.445	90.75
348.673	81.75
348.9	81.75
349.128	89.75
349.355	84.75
349.583	87.75
349.81	92.75
350.037	103.75
350.265	98.75
350.492	99.75
350.72	89.75
350.947	105.75
351.174	103.75
351.402	92.75
351.629	103.75
351.856	91.75
352.083	109.75
352.311	105.75
352.538	103.75
352.765	106.75
352.992	101.75
353.22	99.75
353.447	106.75
353.674	96.75
353.901	93.75
354.128	95.75
354.355	87.75
354.583	92.75
354.81	97.75
355.037	93.75
355.264	112.75
355.491	84.75
355.718	113.75
355.945	94.75
356.172	97.75
356.399	88.75
356.626	93.75
356.853	88.75
357.08	108.75
357.307	100.75
357.534	103.75
357.761	95.75
357.988	96.75
358.215	97.75
358.441	96.75
358.668	101.75
358.895	88.75
359.122	93.75
359.349	84.75
359.576	91.75
359.802	89.75
360.029	115.75
360.256	103.75
360.483	88.75
360.709	79.75
360.936	104.75
361.163	85.75
361.39	98.75
361.616	79.75
361.843	92.75
362.07	102.75
362.296	100.75
362.523	80.75
362.749	81.75
362.976	88.75
363.203	109.75
363.429	83.75
363.656	95.75
363.882	81.75
364.109	91.75
364.335	91.75
364.562	100.75
364.788	87.75
365.015	89.75
365.241	81.75
365.468	86.75
365.694	91.75
365.92	97.75
366.147	77.75
366.373	93.75
366.599	77.75
366.826	100.75
367.052	94.75
367.278	101.75
367.505	85.75
367.731	76.75
367.957	83.75
368.184	86.75
368.41	99.75
368.636	113.75
368.862	101.75
369.089	105.75
369.315	85.75
369.541	86.75
369.767	82.75
369.993	92.75
370.219	85.75
370.445	80.75
370.672	73.75
370.898	95.75
371.124	93.75
371.35	91.75
371.576	76.75
371.802	90.75
372.028	90.75
372.254	90.75
372.48	98.75
372.706	94.75
372.932	83.75
373.158	86.75
373.384	94.75
373.61	97.75
373.835	85.75
374.061	91.75
374.287	95.75
374.513	88.75
374.739	89.75
374.965	100.75
375.191	81.75
375.416	95.75
375.642	101.75
375.868	89.75
376.094	87.75
376.319	101.75
376.545	92.75
376.771	86.75
376.997	96.75
377.222	92.75
377.448	90.75
377.674	101.75
377.899	78.75
378.125	82.75
378.35	84.75
378.576	98.75
378.802	95.75
379.027	96.75
379.253	92.75
379.478	99.75
379.704	83.75
379.929	94.75
380.155	102.75
380.38	90.75
380.606	96.75
380.831	95.75
381.057	100.75
381.282	87.75
381.507	85.75
381.733	90.75
381.958	96.75
382.184	93.75
382.409	100.75
382.634	114.75
382.86	97.75
383.085	91.75
383.31	103.75
383.535	95.75
383.761	105.75
383.986	107.75
384.211	109.75
384.436	107.75
384.662	106.75
384.887	90.75
385.112	118.75
385.337	119.75
385.562	122.75
385.787	112.75
386.013	128.75
386.238	121.75
386.463	110.75
386.688	122.75
386.913	117.75
387.138	115.75
387.363	106.75
387.588	99.75
387.813	109.75
388.038	120.75
388.263	136.75
388.488	119.75
388.713	88.75
388.938	81.75
389.163	80.75
389.387	89.75
389.612	82.75
389.837	87.75
390.062	74.75
390.287	86.75
390.512	87.75
390.736	90.75
390.961	98.75
391.186	102.75
391.411	89.75
391.636	85.75
391.86	95.75
392.085	85.75
392.31	81.75
392.534	72.75
392.759	75.75
392.984	83.75
393.208	94.75
393.433	96.75
393.658	107.75
393.882	81.75
394.107	83.75
394.331	83.75
394.556	86.75
394.78	86.75
395.005	99.75
395.229	85.75
395.454	71.75
395.678	79.75
395.903	92.75
396.127	90.75
396.352	79.75
396.576	76.75
396.801	74.75
397.025	92.75
397.249	102.75
397.474	98.75
397.698	75.75
397.922	94.75
398.147	82.75
398.371	92.75
398.595	76.75
398.82	79.75
399.044	82.75
399.268	74.75
399.492	105.75
399.717	89.75
399.941	96.75
400.165	85.75
400.389	80.75
400.613	83.75
400.837	97.75
401.062	93.75
401.286	101.75
401.51	94.75
401.734	91.75
401.958	86.75
402.182	106.75
402.406	124.75
402.63	100.75
402.854	79.75
403.078	79.75
403.302	77.75
403.526	82.75
403.75	76.75
403.974	82.75
404.198	82.75
404.422	68.75
404.645	88.75
404.869	89.75
405.093	91.75
405.317	94.75
405.541	93.75
405.765	87.75
405.988	93.75
406.212	146.75
406.436	179.75
406.66	117.75
406.883	87.75
407.107	95.75
407.331	98.75
407.555	94.75
407.778	82.75
408.002	95.75
408.226	93.75
408.449	101.75
408.673	72.75
408.896	74.75
409.12	87.75
409.344	90.75
409.567	88.75
409.791	95.75
410.014	101.75
410.238	95.75
410.461	85.75
410.685	83.75
410.908	80.75
411.132	95.75
411.355	100.75
411.578	94.75
411.802	84.75
412.025	85.75
412.249	90.75
412.472	92.75
412.695	87.75
412.919	87.75
413.142	89.75
413.365	92.75
413.589	101.75
413.812	76.75
414.035	81.75
414.258	71.75
414.482	92.75
414.705	85.75
414.928	79.75
415.151	87.75
415.374	84.75
415.597	87.75
415.821	109.75
416.044	90.75
416.267	75.75
416.49	91.75
416.713	81.75
416.936	83.75
417.159	79.75
417.382	90.75
417.605	83.75
417.828	88.75
418.051	86.75
418.274	70.75
418.497	83.75
418.72	84.75
418.943	95.75
419.166	83.75
419.389	89.75
419.611	86.75
419.834	97.75
420.057	94.75
420.28	82.75
420.503	92.75
420.726	84.75
420.948	96.75
421.171	94.75
421.394	84.75
421.617	87.75
421.839	89.75
422.062	82.75
422.285	77.75
422.507	87.75
422.73	71.75
422.953	106.75
423.175	91.75
423.398	72.75
423.621	86.75
423.843	83.75
424.066	79.75
424.288	80.75
424.511	79.75
424.733	99.75
424.956	84.75
425.178	95.75
425.401	90.75
425.623	87.75
425.846	81.75
426.068	89.75
426.291	91.75
426.513	82.75
426.735	90.75
426.958	90.75
427.18	96.75
427.402	119.75
427.625	121.75
427.847	92.75
428.069	102.75
428.292	85.75
428.514	77.75
428.736	70.75
428.958	82.75
429.181	91.75
429.403	102.75
429.625	76.75
429.847	72.75
430.069	90.75
430.292	78.75
430.514	92.75
430.736	86.75
430.958	81.75
431.18	79.75
431.402	96.75
431.624	89.75
431.846	71.75
432.068	91.75
432.29	91.75
432.512	89.75
432.734	87.75
432.956	64.75
433.178	91.75
433.4	87.75
433.622	87.75
433.844	83.75
434.066	93.75
434.287	102.75
434.509	77.75
434.731	88.75
434.953	68.75
435.175	82.75
435.397	81.75
435.618	90.75
435.84	83.75
436.062	120.75
436.284	100.75
436.505	93.75
436.727	91.75
436.949	87.75
437.17	70.75
437.392	92.75
437.614	80.75
437.835	86.75
438.057	115.75
438.278	109.75
438.5	90.75
438.721	122.75
438.943	93.75
439.165	87.75
439.386	91.75
439.608	68.75
439.829	87.75
440.05	97.75
440.272	114.75
440.493	91.75
440.715	89.75
440.936	83.75
441.158	95.75
441.379	84.75
441.6	91.75
441.822	91.75
442.043	87.75
442.264	104.75
442.486	79.75
442.707	85.75
442.928	89.75
443.149	103.75
443.371	114.75
443.592	100.75
443.813	74.75
444.034	95.75
444.255	101.75
444.476	89.75
444.698	97.75
444.919	99.75
445.14	114.75
445.361	121.75
445.582	97.75
445.803	120.75
446.024	112.75
446.245	117.75
446.466	97.75
446.687	87.75
446.908	87.75
447.129	81.75
447.35	105.75
447.571	87.75
447.792	84.75
448.013	88.75
448.234	89.75
448.455	84.75
448.675	97.75
448.896	98.75
449.117	84.75
449.338	99.75
449.559	107.75
449.779	111.75
450	111.75
450.221	81.75
450.442	80.75
450.662	72.75
450.883	99.75
451.104	97.75
451.324	95.75
451.545	87.75
451.766	72.75
451.986	83.75
452.207	81.75
452.428	69.75
452.648	99.75
452.869	108.75
453.089	101.75
453.31	100.75
453.53	93.75
453.751	97.75
453.971	84.75
454.192	103.75
454.412	82.75
454.633	82.75
454.853	77.75
455.073	74.75
455.294	90.75
455.514	95.75
455.734	91.75
455.955	87.75
456.175	87.75
456.395	97.75
456.616	84.75
456.836	84.75
457.056	82.75
457.276	79.75
457.497	82.75
457.717	90.75
457.937	92.75
458.157	82.75
458.377	86.75
458.598	85.75
458.818	107.75
459.038	128.75
459.258	105.75
459.478	87.75
459.698	92.75
459.918	81.75
460.138	79.75
460.358	99.75
460.578	89.75
460.798	83.75
461.018	82.75
461.238	72.75
461.458	85.75
461.678	73.75
461.898	88.75
462.118	82.75
462.338	80.75
462.558	72.75
462.777	73.75
462.997	86.75
463.217	69.75
463.437	88.75
463.657	87.75
463.876	93.75
464.096	82.75
464.316	85.75
464.536	101.75
464.755	99.75
464.975	91.75
465.195	119.75
465.414	136.75
465.634	75.75
465.854	75.75
466.073	82.75
466.293	85.75
466.512	63.75
466.732	89.75
466.951	84.75
467.171	85.75
467.391	81.75
467.61	84.75
467.829	69.75
468.049	95.75
468.268	89.75
468.488	88.75
468.707	90.75
468.927	79.75
469.146	59.75
469.365	84.75
469.585	84.75
469.804	87.75
470.023	90.75
470.243	71.75
470.462	85.75
470.681	90.75
470.901	93.75
471.12	89.75
471.339	82.75
471.558	90.75
471.777	83.75
471.997	86.75
472.216	105.75
472.435	123.75
472.654	82.75
472.873	77.75
473.092	68.75
473.311	81.75
473.53	82.75
473.749	82.75
473.968	85.75
474.187	84.75
474.406	73.75
474.625	87.75
474.844	86.75
475.063	91.75
475.282	97.75
475.501	108.75
475.72	98.75
475.939	92.75
476.158	73.75
476.377	93.75
476.596	85.75
476.814	81.75
477.033	68.75
477.252	79.75
477.471	85.75
477.69	80.75
477.908	93.75
478.127	96.75
478.346	84.75
478.564	86.75
478.783	77.75
479.002	87.75
479.22	84.75
479.439	108.75
479.658	104.75
479.876	108.75
480.095	88.75
480.313	82.75
480.532	89.75
480.751	91.75
480.969	102.75
481.188	165.75
481.406	122.75
481.624	87.75
481.843	90.75
482.061	87.75
482.28	89.75
482.498	72.75
482.717	99.75
482.935	89.75
483.153	93.75
483.372	96.75
483.59	95.75
483.808	78.75
484.027	79.75
484.245	91.75
484.463	98.75
484.681	95.75
484.9	90.75
485.118	90.75
485.336	85.75
485.554	111.75
485.772	103.75
485.99	105.75
486.209	108.75
486.427	93.75
486.645	112.75
486.863	99.75
487.081	94.75
487.299	95.75
487.517	110.75
487.735	82.75
487.953	86.75
488.171	106.75
488.389	75.75
488.607	96.75
488.825	83.75
489.043	79.75
489.261	78.75
489.479	100.75
489.696	84.75
489.914	73.75
490.132	83.75
490.35	92.75
490.568	92.75
490.786	79.75
491.003	75.75
491.221	91.75
491.439	75.75
491.657	92.75
491.874	81.75
492.092	83.75
492.31	76.75
492.527	77.75
492.745	81.75
492.963	91.75
493.18	93.75
493.398	86.75
493.615	92.75
493.833	81.75
494.05	83.75
494.268	75.75
494.485	81.75
494.703	75.75
494.92	92.75
495.138	75.75
495.355	80.75
495.573	93.75
495.79	91.75
496.008	85.75
496.225	90.75
496.442	88.75
496.66	92.75
496.877	99.75
497.094	84.75
497.312	82.75
497.529	82.75
497.746	88.75
497.963	87.75
498.181	79.75
498.398	88.75
498.615	106.75
498.832	85.75
499.049	99.75
499.267	93.75
499.484	80.75
499.701	72.75
499.918	83.75
500.135	74.75
500.352	99.75
500.569	76.75
500.786	90.75
501.003	83.75
501.22	90.75
501.437	90.75
501.654	89.75
501.871	89.75
502.088	69.75
502.305	96.75
502.522	93.75
502.739	91.75
502.956	91.75
503.172	92.75
503.389	82.75
503.606	92.75
503.823	91.75
504.04	91.75
504.256	87.75
504.473	81.75
504.69	92.75
504.907	80.75
505.123	93.75
505.34	90.75
505.557	92.75
505.773	72.75
505.99	87.75
506.207	84.75
506.423	85.75
506.64	97.75
506.856	87.75
507.073	89.75
507.289	86.75
507.506	99.75
507.722	96.75
507.939	95.75
508.155	91.75
508.372	75.75
508.588	87.75
508.805	100.75
509.021	93.75
509.238	101.75
509.454	87.75
509.67	88.75
509.887	91.75
510.103	125.75
510.319	174.75
510.536	562.75
510.752	1668.75
510.968	471.75
511.184	129.75
511.401	99.75
511.617	93.75
511.833	92.75
512.049	86.75
512.265	80.75
512.481	95.75
512.698	93.75
512.914	90.75
513.13	85.75
513.346	87.75
513.562	87.75
513.778	88.75
513.994	76.75
514.21	83.75
514.426	100.75
514.642	119.75
514.858	109.75
515.074	121.75
515.29	315.75
515.506	970.75
515.721	375.75
515.937	118.75
516.153	94.75
516.369	99.75
516.585	83.75
516.801	99.75
517.016	95.75
517.232	79.75
