Data from Circ_1980_H10_HRD10591_00014.txt Node
Date: Wed Jan 03 12:38:01 EST 2024
User: Yrep
Spectrometer: HR+D1059
Trigger mode: 1
Integration Time (sec): 1.000000E-1
Scans to average: 1
Electric dark correction enabled: true
Nonlinearity correction enabled: false
Boxcar width: 0
XAxis mode: Wavelengths
Number of Pixels in Spectrum: 2048
>>>>>Begin Spectral Data<<<<<
223.165	-25.25
223.4	-25.25
223.635	-25.25
223.869	-9.25
224.104	-23.25
224.338	-10.25
224.573	-15.25
224.808	-11.25
225.042	-4.25
225.277	1.75
225.511	-3.25
225.746	0.75
225.98	1.75
226.215	-3.25
226.449	19.75
226.683	21.75
226.918	23.75
227.152	35.75
227.387	27.75
227.621	39.75
227.856	44.75
228.09	55.75
228.324	49.75
228.559	59.75
228.793	55.75
229.027	61.75
229.262	74.75
229.496	69.75
229.73	95.75
229.964	76.75
230.199	78.75
230.433	75.75
230.667	87.75
230.901	72.75
231.136	88.75
231.37	85.75
231.604	84.75
231.838	89.75
232.072	84.75
232.306	80.75
232.541	75.75
232.775	77.75
233.009	68.75
233.243	79.75
233.477	87.75
233.711	78.75
233.945	76.75
234.179	70.75
234.413	77.75
234.647	80.75
234.881	92.75
235.115	75.75
235.349	75.75
235.583	84.75
235.817	96.75
236.051	94.75
236.285	78.75
236.519	72.75
236.753	74.75
236.987	76.75
237.221	102.75
237.455	88.75
237.689	87.75
237.922	93.75
238.156	91.75
238.39	45.75
238.624	70.75
238.858	71.75
239.091	61.75
239.325	74.75
239.559	61.75
239.793	76.75
240.027	89.75
240.26	74.75
240.494	79.75
240.728	68.75
240.961	56.75
241.195	84.75
241.429	78.75
241.662	83.75
241.896	84.75
242.13	75.75
242.363	62.75
242.597	73.75
242.83	80.75
243.064	77.75
243.298	65.75
243.531	84.75
243.765	62.75
243.998	65.75
244.232	84.75
244.465	80.75
244.699	69.75
244.932	61.75
245.166	72.75
245.399	75.75
245.633	83.75
245.866	73.75
246.099	83.75
246.333	77.75
246.566	76.75
246.8	80.75
247.033	83.75
247.266	72.75
247.5	87.75
247.733	64.75
247.966	78.75
248.2	85.75
248.433	91.75
248.666	87.75
248.899	75.75
249.133	76.75
249.366	93.75
249.599	88.75
249.832	74.75
250.066	75.75
250.299	85.75
250.532	82.75
250.765	78.75
250.998	72.75
251.231	74.75
251.465	73.75
251.698	90.75
251.931	61.75
252.164	72.75
252.397	96.75
252.63	93.75
252.863	69.75
253.096	72.75
253.329	86.75
253.562	82.75
253.795	85.75
254.028	73.75
254.261	85.75
254.494	76.75
254.727	101.75
254.96	91.75
255.193	78.75
255.426	95.75
255.659	90.75
255.892	94.75
256.124	101.75
256.357	90.75
256.59	71.75
256.823	77.75
257.056	91.75
257.289	77.75
257.521	87.75
257.754	61.75
257.987	71.75
258.22	74.75
258.452	91.75
258.685	79.75
258.918	94.75
259.151	77.75
259.383	78.75
259.616	75.75
259.849	90.75
260.081	88.75
260.314	88.75
260.547	92.75
260.779	82.75
261.012	83.75
261.244	79.75
261.477	74.75
261.71	85.75
261.942	89.75
262.175	102.75
262.407	102.75
262.64	90.75
262.872	91.75
263.105	86.75
263.337	79.75
263.57	66.75
263.802	78.75
264.035	84.75
264.267	85.75
264.499	76.75
264.732	88.75
264.964	78.75
265.197	64.75
265.429	76.75
265.661	78.75
265.894	87.75
266.126	86.75
266.358	91.75
266.591	76.75
266.823	89.75
267.055	76.75
267.287	76.75
267.52	76.75
267.752	80.75
267.984	73.75
268.216	79.75
268.448	92.75
268.681	87.75
268.913	76.75
269.145	84.75
269.377	70.75
269.609	76.75
269.841	80.75
270.073	87.75
270.306	87.75
270.538	82.75
270.77	89.75
271.002	91.75
271.234	87.75
271.466	87.75
271.698	86.75
271.93	91.75
272.162	91.75
272.394	93.75
272.626	98.75
272.858	89.75
273.09	98.75
273.322	75.75
273.553	91.75
273.785	83.75
274.017	94.75
274.249	91.75
274.481	93.75
274.713	86.75
274.945	103.75
275.176	92.75
275.408	89.75
275.64	75.75
275.872	90.75
276.104	86.75
276.335	91.75
276.567	89.75
276.799	91.75
277.031	89.75
277.262	99.75
277.494	96.75
277.726	92.75
277.957	67.75
278.189	75.75
278.421	85.75
278.652	93.75
278.884	92.75
279.115	93.75
279.347	92.75
279.579	84.75
279.81	83.75
280.042	78.75
280.273	87.75
280.505	80.75
280.736	80.75
280.968	102.75
281.199	91.75
281.431	78.75
281.662	90.75
281.894	87.75
282.125	89.75
282.356	85.75
282.588	121.75
282.819	109.75
283.051	78.75
283.282	68.75
283.513	92.75
283.745	93.75
283.976	84.75
284.207	95.75
284.439	83.75
284.67	84.75
284.901	92.75
285.132	91.75
285.364	92.75
285.595	93.75
285.826	78.75
286.057	96.75
286.288	95.75
286.52	80.75
286.751	79.75
286.982	84.75
287.213	91.75
287.444	55.75
287.675	86.75
287.906	83.75
288.138	87.75
288.369	92.75
288.6	91.75
288.831	76.75
289.062	103.75
289.293	87.75
289.524	92.75
289.755	102.75
289.986	83.75
290.217	93.75
290.448	94.75
290.679	83.75
290.91	101.75
291.141	90.75
291.371	81.75
291.602	73.75
291.833	103.75
292.064	92.75
292.295	101.75
292.526	84.75
292.757	88.75
292.987	93.75
293.218	93.75
293.449	89.75
293.68	87.75
293.91	79.75
294.141	96.75
294.372	77.75
294.603	81.75
294.833	81.75
295.064	90.75
295.295	102.75
295.525	87.75
295.756	104.75
295.987	104.75
296.217	113.75
296.448	111.75
296.679	94.75
296.909	89.75
297.14	85.75
297.37	92.75
297.601	93.75
297.831	89.75
298.062	104.75
298.292	111.75
298.523	84.75
298.753	105.75
298.984	78.75
299.214	87.75
299.445	95.75
299.675	93.75
299.905	87.75
300.136	84.75
300.366	87.75
300.597	93.75
300.827	93.75
301.057	113.75
301.288	108.75
301.518	76.75
301.748	89.75
301.979	104.75
302.209	86.75
302.439	93.75
302.669	92.75
302.9	84.75
303.13	97.75
303.36	95.75
303.59	82.75
303.82	97.75
304.051	83.75
304.281	76.75
304.511	84.75
304.741	107.75
304.971	92.75
305.201	89.75
305.431	97.75
305.661	86.75
305.891	100.75
306.121	103.75
306.352	102.75
306.582	90.75
306.812	80.75
307.042	95.75
307.272	96.75
307.502	99.75
307.731	87.75
307.961	99.75
308.191	103.75
308.421	92.75
308.651	95.75
308.881	87.75
309.111	101.75
309.341	108.75
309.571	100.75
309.8	84.75
310.03	99.75
310.26	91.75
310.49	98.75
310.72	91.75
310.949	94.75
311.179	99.75
311.409	90.75
311.639	94.75
311.868	103.75
312.098	92.75
312.328	96.75
312.557	88.75
312.787	104.75
313.017	102.75
313.246	86.75
313.476	106.75
313.706	102.75
313.935	87.75
314.165	89.75
314.394	110.75
314.624	99.75
314.853	87.75
315.083	99.75
315.312	101.75
315.542	107.75
315.771	100.75
316.001	103.75
316.23	97.75
316.46	91.75
316.689	89.75
316.919	96.75
317.148	80.75
317.377	102.75
317.607	94.75
317.836	108.75
318.065	90.75
318.295	99.75
318.524	97.75
318.753	100.75
318.983	86.75
319.212	103.75
319.441	88.75
319.67	91.75
319.9	103.75
320.129	102.75
320.358	104.75
320.587	88.75
320.816	97.75
321.046	102.75
321.275	99.75
321.504	104.75
321.733	86.75
321.962	88.75
322.191	94.75
322.42	100.75
322.649	96.75
322.878	102.75
323.108	99.75
323.337	107.75
323.566	116.75
323.795	121.75
324.024	176.75
324.253	286.75
324.482	568.75
324.71	1134.75
324.939	1482.75
325.168	572.75
325.397	209.75
325.626	134.75
325.855	127.75
326.084	107.75
326.313	104.75
326.542	117.75
326.77	182.75
326.999	335.75
327.228	670.75
327.457	1194.75
327.686	974.75
327.914	266.75
328.143	161.75
328.372	125.75
328.6	105.75
328.829	111.75
329.058	108.75
329.287	119.75
329.515	102.75
329.744	89.75
329.972	94.75
330.201	116.75
330.43	119.75
330.658	105.75
330.887	104.75
331.115	107.75
331.344	108.75
331.572	102.75
331.801	101.75
332.03	90.75
332.258	103.75
332.486	92.75
332.715	76.75
332.943	94.75
333.172	89.75
333.4	72.75
333.629	111.75
333.857	104.75
334.085	109.75
334.314	104.75
334.542	111.75
334.771	116.75
334.999	106.75
335.227	88.75
335.455	106.75
335.684	111.75
335.912	101.75
336.14	117.75
336.369	112.75
336.597	94.75
336.825	99.75
337.053	89.75
337.281	79.75
337.51	99.75
337.738	99.75
337.966	94.75
338.194	100.75
338.422	84.75
338.65	85.75
338.878	76.75
339.106	88.75
339.334	73.75
339.562	98.75
339.79	84.75
340.018	97.75
340.246	94.75
340.474	93.75
340.702	100.75
340.93	90.75
341.158	99.75
341.386	104.75
341.614	105.75
341.842	113.75
342.07	85.75
342.298	102.75
342.526	110.75
342.754	90.75
342.981	88.75
343.209	90.75
343.437	94.75
343.665	80.75
343.893	84.75
344.12	100.75
344.348	89.75
344.576	93.75
344.804	86.75
345.031	88.75
345.259	101.75
345.487	98.75
345.714	96.75
345.942	88.75
346.17	89.75
346.397	92.75
346.625	91.75
346.853	95.75
347.08	85.75
347.308	104.75
347.535	83.75
347.763	94.75
347.99	100.75
348.218	104.75
348.445	90.75
348.673	93.75
348.9	79.75
349.128	101.75
349.355	97.75
349.583	103.75
349.81	97.75
350.037	99.75
350.265	106.75
350.492	108.75
350.72	79.75
350.947	104.75
351.174	107.75
351.402	92.75
351.629	92.75
351.856	111.75
352.083	96.75
352.311	105.75
352.538	98.75
352.765	105.75
352.992	89.75
353.22	103.75
353.447	104.75
353.674	101.75
353.901	101.75
354.128	102.75
354.355	88.75
354.583	109.75
354.81	103.75
355.037	102.75
355.264	101.75
355.491	110.75
355.718	94.75
355.945	104.75
356.172	104.75
356.399	107.75
356.626	96.75
356.853	101.75
357.08	94.75
357.307	94.75
357.534	81.75
357.761	92.75
357.988	99.75
358.215	104.75
358.441	97.75
358.668	112.75
358.895	92.75
359.122	93.75
359.349	98.75
359.576	105.75
359.802	96.75
360.029	107.75
360.256	99.75
360.483	91.75
360.709	96.75
360.936	93.75
361.163	88.75
361.39	87.75
361.616	88.75
361.843	95.75
362.07	86.75
362.296	88.75
362.523	105.75
362.749	85.75
362.976	76.75
363.203	101.75
363.429	93.75
363.656	92.75
363.882	81.75
364.109	101.75
364.335	92.75
364.562	103.75
364.788	93.75
365.015	93.75
365.241	94.75
365.468	92.75
365.694	99.75
365.92	96.75
366.147	92.75
366.373	94.75
366.599	90.75
366.826	85.75
367.052	87.75
367.278	95.75
367.505	84.75
367.731	87.75
367.957	90.75
368.184	99.75
368.41	78.75
368.636	94.75
368.862	97.75
369.089	90.75
369.315	104.75
369.541	89.75
369.767	88.75
369.993	88.75
370.219	85.75
370.445	96.75
370.672	94.75
370.898	102.75
371.124	83.75
371.35	93.75
371.576	96.75
371.802	78.75
372.028	104.75
372.254	100.75
372.48	84.75
372.706	85.75
372.932	99.75
373.158	92.75
373.384	91.75
373.61	93.75
373.835	102.75
374.061	101.75
374.287	95.75
374.513	88.75
374.739	109.75
374.965	93.75
375.191	95.75
375.416	77.75
375.642	87.75
375.868	98.75
376.094	101.75
376.319	102.75
376.545	91.75
376.771	85.75
376.997	88.75
377.222	90.75
377.448	106.75
377.674	94.75
377.899	72.75
378.125	92.75
378.35	100.75
378.576	90.75
378.802	93.75
379.027	100.75
379.253	98.75
379.478	96.75
379.704	101.75
379.929	105.75
380.155	91.75
380.38	101.75
380.606	112.75
380.831	94.75
381.057	110.75
381.282	88.75
381.507	94.75
381.733	112.75
381.958	95.75
382.184	112.75
382.409	111.75
382.634	110.75
382.86	98.75
383.085	106.75
383.31	112.75
383.535	100.75
383.761	112.75
383.986	106.75
384.211	98.75
384.436	105.75
384.662	111.75
384.887	122.75
385.112	116.75
385.337	119.75
385.562	107.75
385.787	117.75
386.013	122.75
386.238	133.75
386.463	127.75
386.688	129.75
386.913	122.75
387.138	117.75
387.363	109.75
387.588	115.75
387.813	104.75
388.038	126.75
388.263	124.75
388.488	122.75
388.713	105.75
388.938	107.75
389.163	111.75
389.387	90.75
389.612	89.75
389.837	96.75
390.062	93.75
390.287	78.75
390.512	82.75
390.736	96.75
390.961	94.75
391.186	100.75
391.411	88.75
391.636	100.75
391.86	83.75
392.085	91.75
392.31	85.75
392.534	79.75
392.759	97.75
392.984	84.75
393.208	82.75
393.433	98.75
393.658	97.75
393.882	78.75
394.107	99.75
394.331	83.75
394.556	93.75
394.78	110.75
395.005	87.75
395.229	89.75
395.454	91.75
395.678	93.75
395.903	96.75
396.127	86.75
396.352	84.75
396.576	88.75
396.801	78.75
397.025	95.75
397.249	88.75
397.474	80.75
397.698	73.75
397.922	87.75
398.147	100.75
398.371	88.75
398.595	88.75
398.82	75.75
399.044	83.75
399.268	103.75
399.492	69.75
399.717	102.75
399.941	87.75
400.165	89.75
400.389	95.75
400.613	84.75
400.837	76.75
401.062	84.75
401.286	88.75
401.51	88.75
401.734	84.75
401.958	94.75
402.182	108.75
402.406	121.75
402.63	96.75
402.854	83.75
403.078	84.75
403.302	78.75
403.526	103.75
403.75	90.75
403.974	81.75
404.198	83.75
404.422	85.75
404.645	90.75
404.869	100.75
405.093	81.75
405.317	96.75
405.541	95.75
405.765	92.75
405.988	96.75
406.212	128.75
406.436	162.75
406.66	111.75
406.883	97.75
407.107	83.75
407.331	89.75
407.555	96.75
407.778	87.75
408.002	91.75
408.226	94.75
408.449	92.75
408.673	92.75
408.896	100.75
409.12	93.75
409.344	101.75
409.567	91.75
409.791	99.75
410.014	99.75
410.238	81.75
410.461	101.75
410.685	87.75
410.908	101.75
411.132	102.75
411.355	104.75
411.578	103.75
411.802	96.75
412.025	103.75
412.249	101.75
412.472	77.75
412.695	96.75
412.919	108.75
413.142	80.75
413.365	99.75
413.589	87.75
413.812	92.75
414.035	94.75
414.258	97.75
414.482	84.75
414.705	70.75
414.928	103.75
415.151	101.75
415.374	96.75
415.597	93.75
415.821	79.75
416.044	99.75
416.267	88.75
416.49	101.75
416.713	88.75
416.936	94.75
417.159	89.75
417.382	78.75
417.605	95.75
417.828	90.75
418.051	88.75
418.274	104.75
418.497	74.75
418.72	88.75
418.943	103.75
419.166	97.75
419.389	93.75
419.611	95.75
419.834	85.75
420.057	98.75
420.28	90.75
420.503	95.75
420.726	72.75
420.948	85.75
421.171	95.75
421.394	84.75
421.617	107.75
421.839	94.75
422.062	68.75
422.285	100.75
422.507	92.75
422.73	97.75
422.953	96.75
423.175	92.75
423.398	94.75
423.621	90.75
423.843	80.75
424.066	87.75
424.288	83.75
424.511	102.75
424.733	96.75
424.956	91.75
425.178	89.75
425.401	94.75
425.623	105.75
425.846	100.75
426.068	85.75
426.291	88.75
426.513	105.75
426.735	92.75
426.958	95.75
427.18	100.75
427.402	112.75
427.625	112.75
427.847	99.75
428.069	80.75
428.292	77.75
428.514	85.75
428.736	94.75
428.958	76.75
429.181	83.75
429.403	88.75
429.625	84.75
429.847	96.75
430.069	96.75
430.292	89.75
430.514	92.75
430.736	86.75
430.958	81.75
431.18	101.75
431.402	80.75
431.624	96.75
431.846	89.75
432.068	102.75
432.29	92.75
432.512	99.75
432.734	84.75
432.956	85.75
433.178	101.75
433.4	92.75
433.622	87.75
433.844	101.75
434.066	84.75
434.287	85.75
434.509	84.75
434.731	97.75
434.953	92.75
435.175	88.75
435.397	87.75
435.618	73.75
435.84	91.75
436.062	108.75
436.284	99.75
436.505	100.75
436.727	102.75
436.949	94.75
437.17	87.75
437.392	76.75
437.614	83.75
437.835	88.75
438.057	107.75
438.278	95.75
438.5	91.75
438.721	104.75
438.943	96.75
439.165	98.75
439.386	90.75
439.608	94.75
439.829	96.75
440.05	109.75
440.272	124.75
440.493	94.75
440.715	80.75
440.936	87.75
441.158	105.75
441.379	94.75
441.6	95.75
441.822	84.75
442.043	110.75
442.264	106.75
442.486	94.75
442.707	92.75
442.928	97.75
443.149	107.75
443.371	118.75
443.592	108.75
443.813	104.75
444.034	98.75
444.255	101.75
444.476	82.75
444.698	91.75
444.919	75.75
445.14	118.75
445.361	129.75
445.582	95.75
445.803	116.75
446.024	102.75
446.245	101.75
446.466	97.75
446.687	85.75
446.908	83.75
447.129	95.75
447.35	89.75
447.571	107.75
447.792	95.75
448.013	93.75
448.234	90.75
448.455	90.75
448.675	87.75
448.896	107.75
449.117	88.75
449.338	116.75
449.559	110.75
449.779	108.75
450	79.75
450.221	78.75
450.442	78.75
450.662	96.75
450.883	89.75
451.104	95.75
451.324	96.75
451.545	95.75
451.766	86.75
451.986	80.75
452.207	82.75
452.428	79.75
452.648	101.75
452.869	95.75
453.089	85.75
453.31	101.75
453.53	111.75
453.751	97.75
453.971	99.75
454.192	91.75
454.412	77.75
454.633	87.75
454.853	99.75
455.073	86.75
455.294	92.75
455.514	105.75
455.734	94.75
455.955	85.75
456.175	85.75
456.395	78.75
456.616	87.75
456.836	102.75
457.056	75.75
457.276	94.75
457.497	95.75
457.717	92.75
457.937	85.75
458.157	91.75
458.377	89.75
458.598	91.75
458.818	121.75
459.038	127.75
459.258	96.75
459.478	85.75
459.698	79.75
459.918	90.75
460.138	84.75
460.358	91.75
460.578	81.75
460.798	103.75
461.018	89.75
461.238	98.75
461.458	115.75
461.678	88.75
461.898	91.75
462.118	88.75
462.338	83.75
462.558	95.75
462.777	81.75
462.997	99.75
463.217	96.75
463.437	82.75
463.657	93.75
463.876	107.75
464.096	94.75
464.316	85.75
464.536	91.75
464.755	90.75
464.975	89.75
465.195	111.75
465.414	121.75
465.634	94.75
465.854	87.75
466.073	89.75
466.293	88.75
466.512	87.75
466.732	89.75
466.951	100.75
467.171	78.75
467.391	95.75
467.61	93.75
467.829	85.75
468.049	97.75
468.268	88.75
468.488	89.75
468.707	83.75
468.927	97.75
469.146	94.75
469.365	84.75
469.585	99.75
469.804	91.75
470.023	82.75
470.243	88.75
470.462	96.75
470.681	111.75
470.901	84.75
471.12	89.75
471.339	88.75
471.558	87.75
471.777	86.75
471.997	77.75
472.216	99.75
472.435	120.75
472.654	100.75
472.873	84.75
473.092	79.75
473.311	87.75
473.53	69.75
473.749	93.75
473.968	105.75
474.187	91.75
474.406	93.75
474.625	91.75
474.844	83.75
475.063	87.75
475.282	96.75
475.501	88.75
475.72	100.75
475.939	84.75
476.158	87.75
476.377	95.75
476.596	92.75
476.814	89.75
477.033	92.75
477.252	91.75
477.471	92.75
477.69	85.75
477.908	82.75
478.127	85.75
478.346	92.75
478.564	84.75
478.783	80.75
479.002	91.75
479.22	93.75
479.439	92.75
479.658	96.75
479.876	96.75
480.095	85.75
480.313	80.75
480.532	106.75
480.751	96.75
480.969	102.75
481.188	169.75
481.406	127.75
481.624	102.75
481.843	92.75
482.061	83.75
482.28	91.75
482.498	102.75
482.717	83.75
482.935	97.75
483.153	78.75
483.372	88.75
483.59	93.75
483.808	87.75
484.027	86.75
484.245	92.75
484.463	83.75
484.681	94.75
484.9	91.75
485.118	96.75
485.336	91.75
485.554	93.75
485.772	111.75
485.99	102.75
486.209	123.75
486.427	120.75
486.645	123.75
486.863	98.75
487.081	106.75
487.299	92.75
487.517	96.75
487.735	89.75
487.953	90.75
488.171	95.75
488.389	96.75
488.607	97.75
488.825	83.75
489.043	81.75
489.261	83.75
489.479	87.75
489.696	96.75
489.914	84.75
490.132	87.75
490.35	79.75
490.568	76.75
490.786	91.75
491.003	88.75
491.221	96.75
491.439	86.75
491.657	92.75
491.874	97.75
492.092	87.75
492.31	80.75
492.527	89.75
492.745	83.75
492.963	94.75
493.18	93.75
493.398	98.75
493.615	103.75
493.833	93.75
494.05	76.75
494.268	82.75
494.485	84.75
494.703	78.75
494.92	93.75
495.138	78.75
495.355	93.75
495.573	101.75
495.79	89.75
496.008	91.75
496.225	100.75
496.442	86.75
496.66	81.75
496.877	85.75
497.094	97.75
497.312	78.75
497.529	81.75
497.746	100.75
497.963	91.75
498.181	86.75
498.398	97.75
498.615	107.75
498.832	113.75
499.049	85.75
499.267	85.75
499.484	94.75
499.701	91.75
499.918	105.75
500.135	107.75
500.352	78.75
500.569	78.75
500.786	91.75
501.003	95.75
501.22	80.75
501.437	101.75
501.654	88.75
501.871	100.75
502.088	90.75
502.305	111.75
502.522	91.75
502.739	88.75
502.956	94.75
503.172	87.75
503.389	101.75
503.606	104.75
503.823	97.75
504.04	87.75
504.256	90.75
504.473	91.75
504.69	93.75
504.907	105.75
505.123	92.75
505.34	96.75
505.557	102.75
505.773	93.75
505.99	84.75
506.207	91.75
506.423	91.75
506.64	75.75
506.856	87.75
507.073	93.75
507.289	96.75
507.506	93.75
507.722	96.75
507.939	96.75
508.155	93.75
508.372	99.75
508.588	95.75
508.805	91.75
509.021	99.75
509.238	97.75
509.454	94.75
509.67	103.75
509.887	99.75
510.103	111.75
510.319	171.75
510.536	521.75
510.752	1491.75
510.968	422.75
511.184	122.75
511.401	107.75
511.617	104.75
511.833	100.75
512.049	100.75
512.265	92.75
512.481	93.75
512.698	91.75
512.914	97.75
513.13	107.75
513.346	89.75
513.562	93.75
513.778	96.75
513.994	86.75
514.21	88.75
514.426	102.75
514.642	110.75
514.858	97.75
515.074	140.75
515.29	298.75
515.506	873.75
