Data from Circ_1980_H10_HRD10591_00074.txt Node
Date: Wed Jan 03 12:38:13 EST 2024
User: Yrep
Spectrometer: HR+D1059
Trigger mode: 1
Integration Time (sec): 1.000000E-1
Scans to average: 1
Electric dark correction enabled: true
Nonlinearity correction enabled: false
Boxcar width: 0
XAxis mode: Wavelengths
Number of Pixels in Spectrum: 2048
>>>>>Begin Spectral Data<<<<<
223.165	-9
223.4	-9
223.635	-9
223.869	-17
224.104	-27
224.338	-4
224.573	-25
224.808	-9
225.042	-12
225.277	-9
225.511	-3
225.746	4
225.98	9
226.215	9
226.449	-2
226.683	18
226.918	38
227.152	39
227.387	49
227.621	41
227.856	45
228.09	39
228.324	48
228.559	59
228.793	64
229.027	86
229.262	70
229.496	94
229.73	70
229.964	95
230.199	72
230.433	89
230.667	85
230.901	86
231.136	77
231.37	89
231.604	81
231.838	72
232.072	81
232.306	81
232.541	68
232.775	86
233.009	77
233.243	91
233.477	77
233.711	91
233.945	99
234.179	88
234.413	88
234.647	84
234.881	87
235.115	76
235.349	85
235.583	78
235.817	87
236.051	73
236.285	85
236.519	75
236.753	72
236.987	77
237.221	87
237.455	94
237.689	80
237.922	73
238.156	74
238.39	75
238.624	65
238.858	79
239.091	83
239.325	80
239.559	83
239.793	84
240.027	87
240.26	74
240.494	69
240.728	68
240.961	98
241.195	76
241.429	79
241.662	74
241.896	77
242.13	89
242.363	76
242.597	83
242.83	75
243.064	73
243.298	88
243.531	75
243.765	78
243.998	86
244.232	84
244.465	73
244.699	69
244.932	81
245.166	87
245.399	92
245.633	88
245.866	94
246.099	75
246.333	81
246.566	70
246.8	77
247.033	86
247.266	77
247.5	85
247.733	89
247.966	75
248.2	75
248.433	87
248.666	97
248.899	79
249.133	99
249.366	90
249.599	90
249.832	79
250.066	88
250.299	80
250.532	97
250.765	87
250.998	85
251.231	73
251.465	90
251.698	85
251.931	74
252.164	97
252.397	80
252.63	93
252.863	77
253.096	77
253.329	79
253.562	87
253.795	95
254.028	89
254.261	88
254.494	70
254.727	86
254.96	90
255.193	87
255.426	87
255.659	90
255.892	92
256.124	75
256.357	79
256.59	98
256.823	77
257.056	98
257.289	98
257.521	74
257.754	92
257.987	82
258.22	96
258.452	95
258.685	87
258.918	85
259.151	94
259.383	80
259.616	89
259.849	86
260.081	88
260.314	104
260.547	82
260.779	97
261.012	75
261.244	92
261.477	93
261.71	71
261.942	109
262.175	119
262.407	100
262.64	79
262.872	87
263.105	103
263.337	89
263.57	79
263.802	90
264.035	76
264.267	86
264.499	89
264.732	93
264.964	83
265.197	91
265.429	71
265.661	95
265.894	91
266.126	87
266.358	89
266.591	82
266.823	95
267.055	87
267.287	75
267.52	93
267.752	90
267.984	80
268.216	81
268.448	89
268.681	75
268.913	91
269.145	96
269.377	79
269.609	87
269.841	93
270.073	88
270.306	88
270.538	86
270.77	87
271.002	74
271.234	87
271.466	78
271.698	79
271.93	86
272.162	93
272.394	93
272.626	96
272.858	84
273.09	105
273.322	83
273.553	90
273.785	77
274.017	93
274.249	87
274.481	65
274.713	107
274.945	87
275.176	92
275.408	97
275.64	77
275.872	95
276.104	103
276.335	96
276.567	93
276.799	101
277.031	75
277.262	82
277.494	89
277.726	96
277.957	85
278.189	96
278.421	95
278.652	95
278.884	78
279.115	91
279.347	79
279.579	71
279.81	90
280.042	89
280.273	95
280.505	86
280.736	83
280.968	73
281.199	93
281.431	80
281.662	101
281.894	100
282.125	102
282.356	113
282.588	118
282.819	97
283.051	90
283.282	79
283.513	87
283.745	90
283.976	77
284.207	93
284.439	92
284.67	80
284.901	83
285.132	110
285.364	85
285.595	80
285.826	84
286.057	75
286.288	92
286.52	82
286.751	92
286.982	89
287.213	85
287.444	78
287.675	80
287.906	86
288.138	103
288.369	85
288.6	99
288.831	89
289.062	96
289.293	82
289.524	90
289.755	78
289.986	97
290.217	80
290.448	87
290.679	92
290.91	92
291.141	89
291.371	91
291.602	89
291.833	102
292.064	101
292.295	92
292.526	93
292.757	98
292.987	91
293.218	99
293.449	93
293.68	102
293.91	77
294.141	86
294.372	95
294.603	85
294.833	92
295.064	92
295.295	80
295.525	91
295.756	101
295.987	112
296.217	126
296.448	113
296.679	95
296.909	90
297.14	105
297.37	96
297.601	79
297.831	88
298.062	93
298.292	88
298.523	99
298.753	101
298.984	104
299.214	94
299.445	96
299.675	101
299.905	95
300.136	79
300.366	87
300.597	85
300.827	80
301.057	94
301.288	98
301.518	90
301.748	94
301.979	105
302.209	85
302.439	93
302.669	93
302.9	92
303.13	100
303.36	100
303.59	101
303.82	108
304.051	99
304.281	94
304.511	98
304.741	88
304.971	100
305.201	82
305.431	104
305.661	101
305.891	96
306.121	103
306.352	106
306.582	86
306.812	99
307.042	89
307.272	87
307.502	96
307.731	94
307.961	101
308.191	93
308.421	94
308.651	94
308.881	85
309.111	102
309.341	97
309.571	102
309.8	101
310.03	99
310.26	102
310.49	103
310.72	90
310.949	103
311.179	91
311.409	89
311.639	105
311.868	97
312.098	106
312.328	102
312.557	95
312.787	93
313.017	89
313.246	99
313.476	98
313.706	86
313.935	80
314.165	89
314.394	93
314.624	98
314.853	90
315.083	89
315.312	98
315.542	99
315.771	81
316.001	104
316.23	103
316.46	95
316.689	88
316.919	101
317.148	87
317.377	103
317.607	77
317.836	105
318.065	99
318.295	101
318.524	91
318.753	106
318.983	94
319.212	98
319.441	105
319.67	114
319.9	97
320.129	79
320.358	91
320.587	103
320.816	103
321.046	103
321.275	107
321.504	100
321.733	109
321.962	93
322.191	121
322.42	118
322.649	117
322.878	109
323.108	103
323.337	114
323.566	120
323.795	131
324.024	157
324.253	305
324.482	592
324.71	1210
324.939	1552
325.168	605
325.397	201
325.626	135
325.855	119
326.084	109
326.313	125
326.542	138
326.77	199
326.999	348
327.228	684
327.457	1251
327.686	981
327.914	292
328.143	175
328.372	133
328.6	98
328.829	109
329.058	110
329.287	120
329.515	99
329.744	113
329.972	118
330.201	110
330.43	131
330.658	126
330.887	118
331.115	110
331.344	99
331.572	110
331.801	113
332.03	111
332.258	92
332.486	102
332.715	85
332.943	93
333.172	98
333.4	85
333.629	101
333.857	98
334.085	106
334.314	108
334.542	124
334.771	111
334.999	102
335.227	102
335.455	90
335.684	102
335.912	104
336.14	96
336.369	95
336.597	102
336.825	98
337.053	87
337.281	100
337.51	105
337.738	103
337.966	93
338.194	94
338.422	91
338.65	104
338.878	89
339.106	89
339.334	91
339.562	87
339.79	88
340.018	93
340.246	89
340.474	91
340.702	92
340.93	103
341.158	99
341.386	101
341.614	82
341.842	88
342.07	93
342.298	87
342.526	87
342.754	93
342.981	95
343.209	88
343.437	112
343.665	103
343.893	95
344.12	85
344.348	94
344.576	86
344.804	98
345.031	86
345.259	93
345.487	92
345.714	96
345.942	101
346.17	79
346.397	81
346.625	69
346.853	97
347.08	97
347.308	90
347.535	85
347.763	108
347.99	96
348.218	103
348.445	97
348.673	92
348.9	104
349.128	91
349.355	100
349.583	90
349.81	89
350.037	93
350.265	102
350.492	95
350.72	99
350.947	99
351.174	106
351.402	113
351.629	98
351.856	114
352.083	103
352.311	106
352.538	97
352.765	90
352.992	119
353.22	123
353.447	101
353.674	99
353.901	97
354.128	93
354.355	104
354.583	98
354.81	99
355.037	77
355.264	89
355.491	104
355.718	102
355.945	116
356.172	93
356.399	99
356.626	101
356.853	85
357.08	106
357.307	95
357.534	106
357.761	95
357.988	117
358.215	107
358.441	103
358.668	93
358.895	88
359.122	109
359.349	103
359.576	103
359.802	105
360.029	106
360.256	102
360.483	93
360.709	85
360.936	90
361.163	103
361.39	85
361.616	108
361.843	101
362.07	117
362.296	103
362.523	91
362.749	105
362.976	85
363.203	89
363.429	85
363.656	80
363.882	92
364.109	101
364.335	91
364.562	87
364.788	93
365.015	72
365.241	95
365.468	102
365.694	110
365.92	86
366.147	99
366.373	74
366.599	74
366.826	90
367.052	78
367.278	81
367.505	82
367.731	89
367.957	92
368.184	97
368.41	98
368.636	89
368.862	108
369.089	82
369.315	101
369.541	99
369.767	88
369.993	82
370.219	81
370.445	87
370.672	89
370.898	95
371.124	85
371.35	93
371.576	83
371.802	94
372.028	89
372.254	87
372.48	94
372.706	95
372.932	91
373.158	89
373.384	93
373.61	97
373.835	108
374.061	98
374.287	89
374.513	89
374.739	84
374.965	93
375.191	94
375.416	76
375.642	85
375.868	93
376.094	97
376.319	89
376.545	90
376.771	95
376.997	82
377.222	90
377.448	83
377.674	97
377.899	106
378.125	77
378.35	105
378.576	79
378.802	94
379.027	95
379.253	93
379.478	111
379.704	82
379.929	97
380.155	96
380.38	93
380.606	90
380.831	91
381.057	104
381.282	111
381.507	103
381.733	97
381.958	94
382.184	102
382.409	97
382.634	109
382.86	97
383.085	106
383.31	103
383.535	99
383.761	108
383.986	92
384.211	89
384.436	110
384.662	98
384.887	108
385.112	91
385.337	101
385.562	99
385.787	104
386.013	117
386.238	105
386.463	91
386.688	108
386.913	98
387.138	109
387.363	115
387.588	104
387.813	97
388.038	110
388.263	111
388.488	112
388.713	99
388.938	103
389.163	104
389.387	96
389.612	91
389.837	98
390.062	104
390.287	90
390.512	74
390.736	105
390.961	90
391.186	98
391.411	98
391.636	88
391.86	83
392.085	79
392.31	96
392.534	83
392.759	82
392.984	90
393.208	84
393.433	88
393.658	90
393.882	97
394.107	87
394.331	85
394.556	81
394.78	93
395.005	83
395.229	83
395.454	102
395.678	90
395.903	99
396.127	95
396.352	90
396.576	78
396.801	91
397.025	102
397.249	93
397.474	95
397.698	82
397.922	100
398.147	89
398.371	87
398.595	79
398.82	96
399.044	92
399.268	79
399.492	91
399.717	96
399.941	82
400.165	83
400.389	101
400.613	82
400.837	85
401.062	85
401.286	95
401.51	96
401.734	92
401.958	101
402.182	113
402.406	127
402.63	106
402.854	93
403.078	95
403.302	79
403.526	89
403.75	105
403.974	100
404.198	83
404.422	89
404.645	97
404.869	101
405.093	96
405.317	93
405.541	106
405.765	101
405.988	105
406.212	134
406.436	153
406.66	133
406.883	102
407.107	98
407.331	96
407.555	104
407.778	99
408.002	85
408.226	88
408.449	85
408.673	91
408.896	87
409.12	95
409.344	81
409.567	82
409.791	98
410.014	93
410.238	81
410.461	95
410.685	86
410.908	99
411.132	106
411.355	107
411.578	88
411.802	90
412.025	93
412.249	81
412.472	97
412.695	110
412.919	78
413.142	94
413.365	92
413.589	82
413.812	92
414.035	91
414.258	103
414.482	104
414.705	95
414.928	95
415.151	100
415.374	112
415.597	90
415.821	98
416.044	91
416.267	73
416.49	86
416.713	86
416.936	82
417.159	81
417.382	88
417.605	83
417.828	103
418.051	93
418.274	113
418.497	77
418.72	76
418.943	88
419.166	89
419.389	100
419.611	101
419.834	96
420.057	103
420.28	93
420.503	76
420.726	99
420.948	102
421.171	101
421.394	105
421.617	98
421.839	89
422.062	80
422.285	91
422.507	90
422.73	98
422.953	107
423.175	109
423.398	105
423.621	103
423.843	87
424.066	78
424.288	87
424.511	107
424.733	85
424.956	104
425.178	85
425.401	96
425.623	94
425.846	87
426.068	98
426.291	78
426.513	93
426.735	97
426.958	98
427.18	104
427.402	119
427.625	127
427.847	104
428.069	101
428.292	79
428.514	69
428.736	113
428.958	89
429.181	93
429.403	85
429.625	87
429.847	82
430.069	97
430.292	90
430.514	87
430.736	93
430.958	94
431.18	89
431.402	94
431.624	90
431.846	82
432.068	93
432.29	79
432.512	78
432.734	89
432.956	93
433.178	105
433.4	104
433.622	100
433.844	78
434.066	94
434.287	97
434.509	91
434.731	88
434.953	88
435.175	82
435.397	90
435.618	81
435.84	105
436.062	107
436.284	103
436.505	104
436.727	93
436.949	99
437.17	93
437.392	93
437.614	86
437.835	100
438.057	114
438.278	107
438.5	105
438.721	114
438.943	96
439.165	81
439.386	97
439.608	96
439.829	85
440.05	106
440.272	128
440.493	95
440.715	92
440.936	98
441.158	85
441.379	104
441.6	87
441.822	89
442.043	85
442.264	98
442.486	98
442.707	89
442.928	106
443.149	100
443.371	110
443.592	107
443.813	95
444.034	90
444.255	97
444.476	85
444.698	83
444.919	99
445.14	128
445.361	105
445.582	99
445.803	104
446.024	117
446.245	118
446.466	112
446.687	88
446.908	91
447.129	85
447.35	94
447.571	99
447.792	99
448.013	75
448.234	117
448.455	98
448.675	97
448.896	99
449.117	92
449.338	91
449.559	123
449.779	110
450	96
450.221	101
450.442	95
450.662	85
450.883	103
451.104	97
451.324	106
451.545	80
451.766	95
451.986	95
452.207	80
452.428	97
452.648	83
452.869	110
453.089	112
453.31	113
453.53	105
453.751	90
453.971	101
454.192	105
454.412	82
454.633	95
454.853	90
455.073	75
455.294	88
455.514	92
455.734	94
455.955	106
456.175	89
456.395	85
456.616	93
456.836	94
457.056	83
457.276	89
457.497	107
457.717	98
457.937	82
458.157	86
458.377	101
458.598	113
458.818	120
459.038	140
459.258	98
459.478	77
459.698	80
459.918	93
460.138	87
460.358	79
460.578	87
460.798	104
461.018	89
461.238	73
461.458	82
461.678	85
461.898	87
462.118	80
462.338	92
462.558	92
462.777	86
462.997	92
463.217	86
463.437	91
463.657	80
463.876	106
464.096	99
464.316	100
464.536	86
464.755	89
464.975	97
465.195	124
465.414	129
465.634	95
465.854	97
466.073	88
466.293	86
466.512	81
466.732	82
466.951	89
467.171	103
467.391	102
467.61	96
467.829	90
468.049	104
468.268	97
468.488	94
468.707	78
468.927	68
469.146	92
469.365	106
469.585	96
469.804	101
470.023	100
470.243	82
470.462	93
470.681	92
470.901	89
471.12	85
471.339	79
471.558	96
471.777	88
471.997	101
472.216	110
472.435	143
472.654	100
472.873	91
473.092	86
473.311	100
473.53	89
473.749	106
473.968	82
474.187	89
474.406	97
474.625	93
474.844	81
475.063	109
475.282	96
475.501	99
475.72	102
475.939	105
476.158	105
476.377	86
476.596	73
476.814	105
477.033	97
477.252	88
477.471	98
477.69	96
477.908	90
478.127	104
478.346	117
478.564	93
478.783	101
479.002	95
479.22	92
479.439	113
479.658	101
479.876	89
480.095	96
480.313	101
480.532	68
480.751	99
480.969	93
481.188	172
481.406	141
481.624	98
481.843	94
482.061	87
482.28	91
482.498	94
482.717	78
482.935	91
483.153	81
483.372	76
483.59	91
483.808	94
484.027	85
484.245	97
484.463	93
484.681	97
484.9	93
485.118	102
485.336	79
485.554	107
485.772	89
485.99	98
486.209	109
486.427	97
486.645	114
486.863	114
487.081	96
487.299	96
487.517	92
487.735	90
487.953	81
488.171	86
488.389	103
488.607	96
488.825	95
489.043	85
489.261	92
489.479	103
489.696	98
489.914	82
490.132	76
490.35	92
490.568	95
490.786	82
491.003	92
491.221	85
491.439	95
491.657	98
491.874	94
492.092	97
492.31	83
492.527	88
492.745	86
492.963	87
493.18	83
493.398	112
493.615	110
493.833	92
494.05	85
494.268	77
494.485	92
494.703	101
494.92	89
495.138	89
495.355	91
495.573	93
495.79	94
496.008	101
496.225	95
496.442	95
496.66	100
496.877	89
497.094	111
497.312	79
497.529	89
497.746	85
497.963	102
498.181	88
498.398	90
498.615	105
498.832	98
499.049	92
499.267	99
499.484	105
499.701	83
499.918	95
500.135	98
500.352	100
500.569	90
500.786	97
501.003	94
501.22	107
501.437	91
501.654	88
501.871	99
502.088	87
502.305	106
502.522	91
502.739	94
502.956	89
503.172	95
503.389	89
503.606	93
503.823	89
504.04	98
504.256	85
504.473	70
504.69	91
504.907	91
505.123	101
505.34	93
505.557	77
505.773	89
505.99	82
506.207	78
506.423	95
506.64	85
506.856	104
507.073	91
507.289	92
507.506	93
507.722	96
507.939	96
508.155	94
508.372	96
508.588	81
508.805	79
509.021	92
509.238	96
509.454	104
509.67	106
509.887	105
510.103	123
510.319	165
510.536	518
510.752	1576
510.968	458
511.184	139
511.401	105
511.617	97
511.833	89
512.049	90
512.265	92
512.481	105
512.698	107
512.914	73
513.13	81
513.346	88
513.562	103
513.778	97
513.994	100
514.21	92
514.426	125
514.642	109
514.858	118
515.074	138
515.29	309
515.506	917
515.721	353
515.937	130
516.153	98
516.369	85
516.585	88
516.801	90
517.016	98
517.232	90
517.448	98
517.664	77
517.879	94
518.095	92
518.311	97
518.527	105
518.742	85
518.958	93
519.173	94
519.389	106
519.605	102
519.82	85
520.036	108
520.251	121
520.467	101
520.682	96
520.898	106
521.113	119
521.329	105
521.544	161
521.76	368
521.975	1477
522.19	896
522.406	209
522.621	108
522.836	100
523.052	96
523.267	97
523.482	93
523.698	102
523.913	141
524.128	95
524.343	95
524.559	100
524.774	95
524.989	90
525.204	116
525.419	109
525.634	82
525.849	83
526.064	81
526.28	91
526.495	94
526.71	102
526.925	99
527.14	97
527.355	96
527.57	90
527.785	80
527.999	91
528.214	98
528.429	106
528.644	94
528.859	98
529.074	102
529.289	114
529.503	129
529.718	99
529.933	90
530.148	89
530.363	88
530.577	86
530.792	82
531.007	74
531.221	96
531.436	89
531.651	93
531.865	95
532.08	101
532.295	93
532.509	99
532.724	99
532.938	92
533.153	107
533.367	88
533.582	90
533.796	94
534.011	98
534.225	106
534.44	90
534.654	104
534.868	88
535.083	91
535.297	107
535.511	102
535.726	110
535.94	92
536.154	85
536.369	89
536.583	92
536.797	83
537.011	89
537.225	95
537.44	107
537.654	95
537.868	95
538.082	90
538.296	106
538.51	76
538.724	89
538.938	104
539.153	90
539.367	117
539.581	77
539.795	97
540.009	89
540.222	102
540.436	90
540.65	89
540.864	108
541.078	95
541.292	86
541.506	101
541.72	97
541.934	88
542.147	109
542.361	89
542.575	87
542.789	93
543.002	108
543.216	103
543.43	111
543.644	103
543.857	78
544.071	94
544.285	100
544.498	93
544.712	93
544.925	93
545.139	88
545.352	89
545.566	77
545.779	91
545.993	93
546.206	103
546.42	95
546.633	94
546.847	103
547.06	91
547.274	91
547.487	88
547.7	77
547.914	90
548.127	95
548.34	81
548.554	84
548.767	107
548.98	87
549.193	86
549.407	98
549.62	96
549.833	94
550.046	78
550.259	89
550.473	82
550.686	84
550.899	77
551.112	81
551.325	91
551.538	85
551.751	93
551.964	77
552.177	104
552.39	81
552.603	89
552.816	85
553.029	85
553.242	85
553.455	93
553.667	97
553.88	93
554.093	95
554.306	90
554.519	95
554.732	93
554.944	89
555.157	94
555.37	93
555.583	89
555.795	103
556.008	96
556.221	92
556.433	102
556.646	97
556.859	97
557.071	90
557.284	82
557.496	101
557.709	87
557.921	92
558.134	99
558.346	98
558.559	87
558.771	79
558.984	83
559.196	92
559.409	94
559.621	100
559.833	103
560.046	88
560.258	89
560.47	89
560.683	92
560.895	108
561.107	97
561.32	88
561.532	82
561.744	81
561.956	88
562.168	99
562.381	107
562.593	94
562.805	81
563.017	90
563.229	96
563.441	88
563.653	102
563.865	99
564.077	99
564.289	91
564.501	99
564.713	88
564.925	93
565.137	90
565.349	88
565.561	92
565.773	82
565.985	80
566.197	79
566.408	82
566.62	73
566.832	83
567.044	100
567.255	82
567.467	90
567.679	80
567.891	89
568.102	93
568.314	94
568.526	83
568.737	78
568.949	102
569.161	93
569.372	95
569.584	94
569.795	100
570.007	113
570.218	180
570.43	128
570.641	88
570.853	92
571.064	94
571.276	92
571.487	91
571.698	77
571.91	80
572.121	101
572.333	89
572.544	89
572.755	93
572.966	96
573.178	103
573.389	94
573.6	87
573.811	92
574.023	88
574.234	87
574.445	109
574.656	98
574.867	91
575.078	97
575.289	83
575.501	79
575.712	85
575.923	83
576.134	109
576.345	105
576.556	102
576.767	80
576.978	90
577.188	97
577.399	93
577.61	90
577.821	96
578.032	110
578.243	210
578.454	519
578.665	163
578.875	105
579.086	98
579.297	89
579.508	79
579.718	93
579.929	92
580.14	100
580.35	100
580.561	81
580.772	99
580.982	78
581.193	80
581.403	92
581.614	89
581.825	88
582.035	80
582.246	91
582.456	96
582.667	97
582.877	90
583.087	84
583.298	78
