Data from Circ_1980_H10_HRD10591_00091.txt Node
Date: Wed Jan 03 12:38:16 EST 2024
User: Yrep
Spectrometer: HR+D1059
Trigger mode: 1
Integration Time (sec): 1.000000E-1
Scans to average: 1
Electric dark correction enabled: true
Nonlinearity correction enabled: false
Boxcar width: 0
XAxis mode: Wavelengths
Number of Pixels in Spectrum: 2048
>>>>>Begin Spectral Data<<<<<
223.165	-13
223.4	-13
223.635	-13
223.869	-25
224.104	-11
224.338	-18
224.573	-20
224.808	1
225.042	-4
225.277	-6
225.511	12
225.746	-3
225.98	13
226.215	6
226.449	0
226.683	6
226.918	32
227.152	30
227.387	37
227.621	37
227.856	45
228.09	46
228.324	49
228.559	72
228.793	53
229.027	52
229.262	49
229.496	62
229.73	87
229.964	80
230.199	78
230.433	70
230.667	90
230.901	81
231.136	81
231.37	75
231.604	71
231.838	84
232.072	70
232.306	95
232.541	78
232.775	95
233.009	93
233.243	99
233.477	88
233.711	87
233.945	80
234.179	75
234.413	70
234.647	83
234.881	93
235.115	83
235.349	85
235.583	96
235.817	85
236.051	85
236.285	85
236.519	85
236.753	93
236.987	83
237.221	67
237.455	89
237.689	78
237.922	77
238.156	85
238.39	69
238.624	78
238.858	67
239.091	82
239.325	67
239.559	65
239.793	77
240.027	89
240.26	93
240.494	86
240.728	82
240.961	93
241.195	88
241.429	75
241.662	84
241.896	93
242.13	74
242.363	73
242.597	74
242.83	86
243.064	73
243.298	76
243.531	80
243.765	86
243.998	74
244.232	94
244.465	91
244.699	81
244.932	87
245.166	81
245.399	81
245.633	80
245.866	89
246.099	82
246.333	80
246.566	79
246.8	86
247.033	82
247.266	79
247.5	92
247.733	80
247.966	89
248.2	90
248.433	93
248.666	89
248.899	89
249.133	90
249.366	106
249.599	88
249.832	85
250.066	82
250.299	82
250.532	90
250.765	73
250.998	93
251.231	89
251.465	88
251.698	94
251.931	92
252.164	97
252.397	94
252.63	78
252.863	75
253.096	87
253.329	100
253.562	82
253.795	85
254.028	91
254.261	81
254.494	82
254.727	61
254.96	76
255.193	82
255.426	88
255.659	102
255.892	85
256.124	90
256.357	91
256.59	95
256.823	78
257.056	78
257.289	83
257.521	86
257.754	80
257.987	87
258.22	78
258.452	89
258.685	93
258.918	96
259.151	88
259.383	74
259.616	81
259.849	91
260.081	90
260.314	89
260.547	88
260.779	84
261.012	79
261.244	79
261.477	85
261.71	101
261.942	97
262.175	103
262.407	82
262.64	81
262.872	75
263.105	78
263.337	103
263.57	89
263.802	92
264.035	103
264.267	97
264.499	89
264.732	92
264.964	88
265.197	77
265.429	87
265.661	99
265.894	82
266.126	89
266.358	74
266.591	86
266.823	83
267.055	94
267.287	89
267.52	89
267.752	94
267.984	74
268.216	87
268.448	98
268.681	97
268.913	93
269.145	80
269.377	76
269.609	69
269.841	91
270.073	90
270.306	83
270.538	103
270.77	88
271.002	89
271.234	73
271.466	87
271.698	74
271.93	81
272.162	105
272.394	88
272.626	92
272.858	78
273.09	79
273.322	101
273.553	83
273.785	82
274.017	80
274.249	79
274.481	89
274.713	85
274.945	80
275.176	98
275.408	90
275.64	93
275.872	86
276.104	90
276.335	86
276.567	108
276.799	115
277.031	102
277.262	93
277.494	93
277.726	94
277.957	97
278.189	77
278.421	85
278.652	100
278.884	98
279.115	85
279.347	79
279.579	79
279.81	101
280.042	76
280.273	89
280.505	83
280.736	94
280.968	91
281.199	95
281.431	74
281.662	93
281.894	93
282.125	96
282.356	109
282.588	131
282.819	104
283.051	99
283.282	84
283.513	82
283.745	82
283.976	81
284.207	91
284.439	99
284.67	92
284.901	90
285.132	71
285.364	99
285.595	94
285.826	82
286.057	85
286.288	85
286.52	87
286.751	87
286.982	86
287.213	90
287.444	84
287.675	93
287.906	96
288.138	91
288.369	94
288.6	98
288.831	99
289.062	99
289.293	91
289.524	93
289.755	90
289.986	78
290.217	81
290.448	92
290.679	77
290.91	101
291.141	79
291.371	69
291.602	103
291.833	88
292.064	83
292.295	80
292.526	101
292.757	93
292.987	92
293.218	93
293.449	91
293.68	93
293.91	67
294.141	95
294.372	89
294.603	96
294.833	93
295.064	94
295.295	81
295.525	87
295.756	98
295.987	96
296.217	112
296.448	124
296.679	103
296.909	85
297.14	99
297.37	98
297.601	95
297.831	93
298.062	81
298.292	87
298.523	99
298.753	91
298.984	110
299.214	101
299.445	96
299.675	81
299.905	82
300.136	82
300.366	95
300.597	83
300.827	96
301.057	113
301.288	109
301.518	93
301.748	96
301.979	115
302.209	87
302.439	90
302.669	89
302.9	82
303.13	96
303.36	94
303.59	103
303.82	98
304.051	92
304.281	74
304.511	97
304.741	91
304.971	90
305.201	91
305.431	96
305.661	98
305.891	106
306.121	86
306.352	99
306.582	97
306.812	104
307.042	86
307.272	82
307.502	112
307.731	89
307.961	89
308.191	98
308.421	91
308.651	104
308.881	94
309.111	95
309.341	108
309.571	86
309.8	113
310.03	94
310.26	88
310.49	106
310.72	78
310.949	98
311.179	104
311.409	96
311.639	99
311.868	97
312.098	94
312.328	95
312.557	105
312.787	97
313.017	94
313.246	99
313.476	87
313.706	94
313.935	105
314.165	99
314.394	114
314.624	99
314.853	107
315.083	97
315.312	104
315.542	92
315.771	92
316.001	98
316.23	92
316.46	86
316.689	96
316.919	93
317.148	95
317.377	106
317.607	97
317.836	95
318.065	96
318.295	85
318.524	97
318.753	86
318.983	93
319.212	98
319.441	102
319.67	101
319.9	101
320.129	88
320.358	85
320.587	103
320.816	96
321.046	93
321.275	87
321.504	95
321.733	92
321.962	92
322.191	106
322.42	100
322.649	101
322.878	116
323.108	97
323.337	113
323.566	110
323.795	132
324.024	153
324.253	297
324.482	591
324.71	1165
324.939	1516
325.168	581
325.397	194
325.626	139
325.855	97
326.084	108
326.313	111
326.542	138
326.77	188
326.999	340
327.228	663
327.457	1237
327.686	944
327.914	290
328.143	169
328.372	141
328.6	115
328.829	114
329.058	130
329.287	114
329.515	112
329.744	99
329.972	111
330.201	98
330.43	115
330.658	112
330.887	120
331.115	109
331.344	95
331.572	88
331.801	97
332.03	102
332.258	105
332.486	98
332.715	88
332.943	103
333.172	105
333.4	93
333.629	107
333.857	97
334.085	99
334.314	104
334.542	135
334.771	132
334.999	101
335.227	98
335.455	101
335.684	103
335.912	94
336.14	96
336.369	113
336.597	97
336.825	98
337.053	102
337.281	104
337.51	106
337.738	102
337.966	95
338.194	106
338.422	97
338.65	101
338.878	91
339.106	97
339.334	93
339.562	88
339.79	82
340.018	112
340.246	91
340.474	95
340.702	89
340.93	90
341.158	79
341.386	87
341.614	90
341.842	104
342.07	88
342.298	98
342.526	86
342.754	96
342.981	95
343.209	106
343.437	92
343.665	81
343.893	85
344.12	100
344.348	93
344.576	73
344.804	93
345.031	103
345.259	102
345.487	100
345.714	100
345.942	101
346.17	95
346.397	97
346.625	89
346.853	94
347.08	81
347.308	100
347.535	107
347.763	93
347.99	90
348.218	109
348.445	95
348.673	92
348.9	109
349.128	96
349.355	83
349.583	99
349.81	98
350.037	98
350.265	98
350.492	104
350.72	90
350.947	101
351.174	117
351.402	107
351.629	87
351.856	98
352.083	101
352.311	105
352.538	98
352.765	103
352.992	107
353.22	104
353.447	105
353.674	78
353.901	107
354.128	99
354.355	97
354.583	110
354.81	108
355.037	90
355.264	105
355.491	95
355.718	97
355.945	96
356.172	101
356.399	101
356.626	98
356.853	100
357.08	103
357.307	83
357.534	90
357.761	92
357.988	96
358.215	95
358.441	106
358.668	99
358.895	98
359.122	95
359.349	80
359.576	89
359.802	89
360.029	105
360.256	104
360.483	93
360.709	85
360.936	95
361.163	80
361.39	105
361.616	87
361.843	97
362.07	97
362.296	99
362.523	92
362.749	94
362.976	95
363.203	91
363.429	85
363.656	95
363.882	93
364.109	92
364.335	83
364.562	78
364.788	88
365.015	103
365.241	93
365.468	102
365.694	108
365.92	88
366.147	97
366.373	72
366.599	92
366.826	87
367.052	97
367.278	86
367.505	90
367.731	92
367.957	86
368.184	81
368.41	102
368.636	110
368.862	114
369.089	102
369.315	106
369.541	107
369.767	91
369.993	101
370.219	90
370.445	87
370.672	96
370.898	88
371.124	91
371.35	87
371.576	92
371.802	75
372.028	101
372.254	88
372.48	95
372.706	90
372.932	82
373.158	85
373.384	96
373.61	108
373.835	111
374.061	92
374.287	90
374.513	80
374.739	91
374.965	91
375.191	106
375.416	83
375.642	87
375.868	104
376.094	87
376.319	95
376.545	91
376.771	97
376.997	106
377.222	99
377.448	95
377.674	95
377.899	107
378.125	101
378.35	105
378.576	78
378.802	87
379.027	98
379.253	100
379.478	98
379.704	91
379.929	96
380.155	85
380.38	92
380.606	97
380.831	94
381.057	99
381.282	89
381.507	90
381.733	95
381.958	95
382.184	104
382.409	92
382.634	106
382.86	86
383.085	103
383.31	101
383.535	106
383.761	101
383.986	97
384.211	108
384.436	110
384.662	107
384.887	111
385.112	85
385.337	111
385.562	109
385.787	95
386.013	98
386.238	119
386.463	101
386.688	110
386.913	92
387.138	107
387.363	110
387.588	106
387.813	98
388.038	104
388.263	106
388.488	114
388.713	109
388.938	112
389.163	123
389.387	99
389.612	87
389.837	112
390.062	85
390.287	80
390.512	82
390.736	80
390.961	97
391.186	106
391.411	94
391.636	94
391.86	99
392.085	85
392.31	73
392.534	94
392.759	102
392.984	93
393.208	88
393.433	81
393.658	98
393.882	97
394.107	96
394.331	89
394.556	93
394.78	86
395.005	89
395.229	85
395.454	84
395.678	86
395.903	86
396.127	85
396.352	80
396.576	83
396.801	99
397.025	101
397.249	90
397.474	79
397.698	89
397.922	87
398.147	89
398.371	89
398.595	106
398.82	102
399.044	89
399.268	99
399.492	101
399.717	85
399.941	78
400.165	102
400.389	83
400.613	79
400.837	90
401.062	83
401.286	80
401.51	91
401.734	89
401.958	97
402.182	123
402.406	141
402.63	119
402.854	103
403.078	103
403.302	89
403.526	97
403.75	89
403.974	97
404.198	92
404.422	80
404.645	81
404.869	100
405.093	101
405.317	104
405.541	99
405.765	89
405.988	106
406.212	130
406.436	160
406.66	115
406.883	92
407.107	108
407.331	97
407.555	93
407.778	87
408.002	92
408.226	98
408.449	80
408.673	90
408.896	107
409.12	111
409.344	109
409.567	95
409.791	91
410.014	98
410.238	95
410.461	93
410.685	99
410.908	112
411.132	107
411.355	96
411.578	101
411.802	94
412.025	82
412.249	64
412.472	97
412.695	97
412.919	101
413.142	93
413.365	89
413.589	87
413.812	85
414.035	95
414.258	88
414.482	82
414.705	85
414.928	97
415.151	98
415.374	93
415.597	98
415.821	77
416.044	93
416.267	78
416.49	86
416.713	85
416.936	89
417.159	86
417.382	105
417.605	89
417.828	99
418.051	97
418.274	92
418.497	78
418.72	82
418.943	82
419.166	98
419.389	99
419.611	103
419.834	98
420.057	94
420.28	89
420.503	81
420.726	77
420.948	93
421.171	83
421.394	93
421.617	85
421.839	88
422.062	90
422.285	95
422.507	95
422.73	102
422.953	81
423.175	93
423.398	88
423.621	83
423.843	100
424.066	85
424.288	105
424.511	82
424.733	90
424.956	95
425.178	95
425.401	102
425.623	105
425.846	91
426.068	100
426.291	93
426.513	94
426.735	96
426.958	93
427.18	112
427.402	115
427.625	127
427.847	112
428.069	101
428.292	98
428.514	101
428.736	93
428.958	95
429.181	82
429.403	78
429.625	75
429.847	81
430.069	98
430.292	95
430.514	90
430.736	95
430.958	90
431.18	82
431.402	86
431.624	89
431.846	93
432.068	91
432.29	89
432.512	93
432.734	86
432.956	93
433.178	92
433.4	105
433.622	95
433.844	103
434.066	94
434.287	88
434.509	107
434.731	93
434.953	93
435.175	89
435.397	88
435.618	99
435.84	92
436.062	106
436.284	108
436.505	105
436.727	96
436.949	97
437.17	103
437.392	84
437.614	88
437.835	97
438.057	111
438.278	95
438.5	98
438.721	105
438.943	95
439.165	91
439.386	104
439.608	86
439.829	80
440.05	111
440.272	139
440.493	89
440.715	81
440.936	83
441.158	92
441.379	86
441.6	88
441.822	80
442.043	103
442.264	99
442.486	92
442.707	92
442.928	104
443.149	103
443.371	113
443.592	99
443.813	101
444.034	110
444.255	94
444.476	88
444.698	84
444.919	91
445.14	136
445.361	121
445.582	101
445.803	105
446.024	108
446.245	120
446.466	93
446.687	89
446.908	87
447.129	102
447.35	77
447.571	101
447.792	97
448.013	89
448.234	90
448.455	97
448.675	93
448.896	101
449.117	103
449.338	96
449.559	119
449.779	109
450	90
450.221	93
450.442	90
450.662	100
450.883	93
451.104	104
451.324	105
451.545	84
451.766	85
451.986	104
452.207	99
452.428	99
452.648	94
452.869	110
453.089	97
453.31	101
453.53	102
453.751	102
453.971	113
454.192	97
454.412	90
454.633	94
454.853	97
455.073	98
455.294	81
455.514	83
455.734	92
455.955	88
456.175	88
456.395	85
456.616	91
456.836	86
457.056	74
457.276	89
457.497	77
457.717	85
457.937	94
458.157	99
458.377	96
458.598	102
458.818	142
459.038	126
459.258	94
459.478	93
459.698	88
459.918	79
460.138	85
460.358	109
460.578	77
460.798	82
461.018	98
461.238	86
461.458	92
461.678	87
461.898	109
462.118	90
462.338	97
462.558	96
462.777	73
462.997	101
463.217	78
463.437	89
463.657	87
463.876	91
464.096	89
464.316	100
464.536	90
464.755	94
464.975	98
465.195	137
465.414	146
465.634	102
465.854	94
466.073	109
466.293	90
466.512	87
466.732	104
466.951	80
467.171	84
467.391	101
467.61	97
467.829	96
468.049	107
468.268	110
468.488	106
468.707	94
468.927	89
469.146	93
469.365	78
469.585	96
469.804	102
470.023	94
470.243	96
470.462	79
470.681	94
470.901	89
471.12	83
471.339	95
471.558	79
471.777	91
471.997	93
472.216	119
472.435	132
472.654	106
472.873	75
473.092	89
473.311	88
473.53	99
473.749	101
473.968	97
474.187	102
474.406	93
474.625	87
474.844	95
475.063	87
475.282	87
475.501	79
475.72	101
475.939	79
476.158	87
476.377	88
476.596	89
476.814	95
477.033	100
477.252	89
477.471	85
477.69	91
477.908	89
478.127	100
478.346	93
478.564	100
478.783	99
479.002	96
479.22	95
479.439	97
479.658	98
479.876	91
480.095	77
480.313	89
480.532	89
480.751	94
480.969	109
481.188	189
481.406	147
481.624	98
481.843	91
482.061	89
482.28	91
482.498	90
482.717	84
482.935	94
483.153	88
483.372	96
483.59	95
483.808	103
484.027	94
484.245	95
484.463	98
484.681	109
484.9	98
485.118	91
485.336	92
485.554	114
485.772	94
485.99	107
486.209	109
486.427	113
486.645	110
486.863	106
487.081	101
487.299	105
487.517	90
487.735	97
487.953	94
488.171	96
488.389	97
488.607	110
488.825	99
489.043	97
489.261	82
489.479	80
489.696	84
489.914	92
490.132	94
490.35	84
490.568	90
490.786	96
491.003	85
491.221	94
491.439	87
491.657	86
491.874	87
492.092	95
492.31	94
492.527	90
492.745	89
492.963	90
493.18	110
493.398	90
493.615	90
493.833	99
494.05	101
494.268	95
494.485	79
494.703	104
494.92	95
495.138	98
495.355	90
495.573	96
495.79	105
496.008	96
496.225	94
496.442	106
496.66	97
496.877	108
497.094	96
497.312	89
497.529	91
497.746	89
497.963	95
498.181	98
498.398	97
498.615	109
498.832	99
499.049	95
499.267	89
499.484	87
499.701	96
499.918	85
500.135	91
500.352	79
500.569	100
500.786	77
501.003	92
501.22	103
501.437	110
501.654	76
501.871	103
502.088	92
502.305	89
502.522	108
502.739	89
502.956	85
503.172	97
503.389	92
503.606	90
503.823	112
504.04	86
504.256	83
504.473	95
504.69	93
504.907	109
505.123	96
505.34	87
505.557	90
505.773	90
505.99	75
506.207	95
506.423	97
506.64	94
506.856	87
507.073	86
507.289	91
507.506	101
507.722	116
507.939	94
508.155	93
508.372	107
508.588	99
508.805	99
509.021	87
509.238	93
509.454	96
509.67	96
509.887	109
510.103	114
510.319	171
510.536	548
510.752	1643
510.968	476
511.184	142
511.401	106
511.617	94
511.833	99
512.049	99
512.265	89
512.481	93
512.698	91
512.914	99
513.13	85
513.346	86
513.562	103
513.778	96
513.994	97
514.21	105
514.426	101
514.642	100
514.858	118
515.074	126
515.29	330
515.506	973
515.721	379
515.937	135
516.153	105
516.369	96
516.585	95
516.801	104
517.016	107
517.232	93
517.448	102
517.664	105
517.879	97
518.095	98
518.311	103
518.527	107
518.742	115
518.958	94
519.173	93
519.389	94
519.605	98
519.82	96
520.036	103
520.251	123
520.467	110
520.682	97
520.898	99
521.113	119
521.329	124
521.544	166
521.76	375
521.975	1570
522.19	972
522.406	237
522.621	110
522.836	105
523.052	102
523.267	75
523.482	96
523.698	108
523.913	113
524.128	106
524.343	80
524.559	92
524.774	102
524.989	92
525.204	99
525.419	92
525.634	93
525.849	87
526.064	102
526.28	89
526.495	85
526.71	102
526.925	93
527.14	92
527.355	87
527.57	89
527.785	86
527.999	91
528.214	88
528.429	103
528.644	96
528.859	105
529.074	106
529.289	95
529.503	143
529.718	91
529.933	109
530.148	87
530.363	82
530.577	92
530.792	94
531.007	88
531.221	102
531.436	104
531.651	90
531.865	101
532.08	76
532.295	88
532.509	96
532.724	97
532.938	94
533.153	97
533.367	97
533.582	86
533.796	96
534.011	97
534.225	93
534.44	103
534.654	107
534.868	94
535.083	109
535.297	89
535.511	87
535.726	96
535.94	93
536.154	96
536.369	102
536.583	82
536.797	89
537.011	94
537.225	94
537.44	97
537.654	101
537.868	90
538.082	78
538.296	73
538.51	106
538.724	87
538.938	101
539.153	82
539.367	92
539.581	86
539.795	85
540.009	89
540.222	105
540.436	100
540.65	85
540.864	95
541.078	102
541.292	83
541.506	91
541.72	93
541.934	77
542.147	78
542.361	97
542.575	106
542.789	95
543.002	93
543.216	100
543.43	88
543.644	96
543.857	87
544.071	90
544.285	109
544.498	99
544.712	93
544.925	86
545.139	77
545.352	83
545.566	74
545.779	101
545.993	102
546.206	98
546.42	81
546.633	88
546.847	98
547.06	101
547.274	107
547.487	101
547.7	82
547.914	86
548.127	98
548.34	106
548.554	93
548.767	93
548.98	99
549.193	90
549.407	79
549.62	95
549.833	97
550.046	98
550.259	95
550.473	97
550.686	101
550.899	98
551.112	94
551.325	87
551.538	95
551.751	97
551.964	96
552.177	97
552.39	101
552.603	95
552.816	95
553.029	96
553.242	100
553.455	105
553.667	95
553.88	101
554.093	105
554.306	101
554.519	95
554.732	88
554.944	104
555.157	89
555.37	89
555.583	94
555.795	96
556.008	79
556.221	93
556.433	107
556.646	93
556.859	93
557.071	96
557.284	82
557.496	93
557.709	105
557.921	97
558.134	103
558.346	90
558.559	91
558.771	93
558.984	92
559.196	90
559.409	109
559.621	89
559.833	80
560.046	95
560.258	86
560.47	87
560.683	90
560.895	78
561.107	95
561.32	92
561.532	87
561.744	100
561.956	109
562.168	95
562.381	93
562.593	78
562.805	98
563.017	102
563.229	99
563.441	100
563.653	85
563.865	92
564.077	88
564.289	91
564.501	104
564.713	87
564.925	95
565.137	106
565.349	98
565.561	83
565.773	90
565.985	88
566.197	100
566.408	93
566.62	85
566.832	80
567.044	85
567.255	95
567.467	86
567.679	93
567.891	87
568.102	91
568.314	85
568.526	87
568.737	87
568.949	90
569.161	79
569.372	83
569.584	96
569.795	103
570.007	91
570.218	187
570.43	103
570.641	87
570.853	101
571.064	103
571.276	95
571.487	94
571.698	92
571.91	97
572.121	100
572.333	100
572.544	80
572.755	79
572.966	88
573.178	89
573.389	109
573.6	98
573.811	95
574.023	87
574.234	85
574.445	93
574.656	89
574.867	90
575.078	85
575.289	73
575.501	101
575.712	89
575.923	104
576.134	89
576.345	95
576.556	96
576.767	103
576.978	94
577.188	86
577.399	87
577.61	103
577.821	82
578.032	95
578.243	215
578.454	531
578.665	183
578.875	95
579.086	72
579.297	99
579.508	101
579.718	91
579.929	92
580.14	98
580.35	97
580.561	86
580.772	105
580.982	106
581.193	102
581.403	104
581.614	86
581.825	88
582.035	94
582.246	78
582.456	86
582.667	98
582.877	91
583.087	87
583.298	90
