Data from Circ_1980_H10_HRD10591_00003.txt Node
Date: Wed Jan 03 12:37:58 EST 2024
User: Yrep
Spectrometer: HR+D1059
Trigger mode: 1
Integration Time (sec): 1.000000E-1
Scans to average: 1
Electric dark correction enabled: true
Nonlinearity correction enabled: false
Boxcar width: 0
XAxis mode: Wavelengths
Number of Pixels in Spectrum: 2048
>>>>>Begin Spectral Data<<<<<
223.165	-10.12
223.4	-10.12
223.635	-10.12
223.869	-19.12
224.104	-34.12
224.338	-21.12
224.573	-9.12
224.808	-8.12
225.042	0.88
225.277	-21.12
225.511	3.88
225.746	12.88
225.98	-4.12
226.215	15.88
226.449	27.88
226.683	6.88
226.918	21.88
227.152	36.88
227.387	44.88
227.621	45.88
227.856	51.88
228.09	55.88
228.324	59.88
228.559	59.88
228.793	59.88
229.027	70.88
229.262	49.88
229.496	50.88
229.73	67.88
229.964	73.88
230.199	62.88
230.433	73.88
230.667	74.88
230.901	74.88
231.136	81.88
231.37	81.88
231.604	70.88
231.838	85.88
232.072	79.88
232.306	67.88
232.541	90.88
232.775	74.88
233.009	90.88
233.243	95.88
233.477	86.88
233.711	77.88
233.945	77.88
234.179	74.88
234.413	64.88
234.647	72.88
234.881	93.88
235.115	90.88
235.349	68.88
235.583	76.88
235.817	69.88
236.051	93.88
236.285	71.88
236.519	79.88
236.753	88.88
236.987	89.88
237.221	89.88
237.455	85.88
237.689	74.88
237.922	73.88
238.156	69.88
238.39	61.88
238.624	73.88
238.858	85.88
239.091	66.88
239.325	75.88
239.559	82.88
239.793	69.88
240.027	77.88
240.26	84.88
240.494	81.88
240.728	77.88
240.961	70.88
241.195	84.88
241.429	89.88
241.662	73.88
241.896	71.88
242.13	87.88
242.363	67.88
242.597	65.88
242.83	83.88
243.064	86.88
243.298	81.88
243.531	87.88
243.765	77.88
243.998	67.88
244.232	87.88
244.465	64.88
244.699	90.88
244.932	77.88
245.166	62.88
245.399	81.88
245.633	79.88
245.866	77.88
246.099	77.88
246.333	90.88
246.566	69.88
246.8	81.88
247.033	79.88
247.266	79.88
247.5	59.88
247.733	77.88
247.966	79.88
248.2	77.88
248.433	87.88
248.666	73.88
248.899	85.88
249.133	82.88
249.366	95.88
249.599	77.88
249.832	74.88
250.066	83.88
250.299	85.88
250.532	91.88
250.765	84.88
250.998	83.88
251.231	70.88
251.465	62.88
251.698	73.88
251.931	91.88
252.164	74.88
252.397	106.88
252.63	86.88
252.863	70.88
253.096	74.88
253.329	78.88
253.562	75.88
253.795	80.88
254.028	78.88
254.261	85.88
254.494	90.88
254.727	91.88
254.96	77.88
255.193	79.88
255.426	67.88
255.659	82.88
255.892	97.88
256.124	84.88
256.357	75.88
256.59	82.88
256.823	77.88
257.056	63.88
257.289	88.88
257.521	89.88
257.754	68.88
257.987	76.88
258.22	76.88
258.452	79.88
258.685	77.88
258.918	78.88
259.151	81.88
259.383	77.88
259.616	79.88
259.849	86.88
260.081	78.88
260.314	95.88
260.547	75.88
260.779	76.88
261.012	86.88
261.244	76.88
261.477	78.88
261.71	90.88
261.942	97.88
262.175	100.88
262.407	85.88
262.64	88.88
262.872	81.88
263.105	77.88
263.337	92.88
263.57	93.88
263.802	74.88
264.035	80.88
264.267	64.88
264.499	76.88
264.732	88.88
264.964	68.88
265.197	72.88
265.429	79.88
265.661	82.88
265.894	85.88
266.126	72.88
266.358	85.88
266.591	86.88
266.823	97.88
267.055	86.88
267.287	89.88
267.52	93.88
267.752	90.88
267.984	85.88
268.216	90.88
268.448	81.88
268.681	78.88
268.913	70.88
269.145	81.88
269.377	103.88
269.609	82.88
269.841	100.88
270.073	87.88
270.306	86.88
270.538	90.88
270.77	68.88
271.002	67.88
271.234	99.88
271.466	85.88
271.698	83.88
271.93	85.88
272.162	89.88
272.394	81.88
272.626	102.88
272.858	75.88
273.09	76.88
273.322	83.88
273.553	69.88
273.785	88.88
274.017	81.88
274.249	90.88
274.481	91.88
274.713	82.88
274.945	89.88
275.176	79.88
275.408	95.88
275.64	74.88
275.872	78.88
276.104	84.88
276.335	97.88
276.567	78.88
276.799	107.88
277.031	99.88
277.262	94.88
277.494	69.88
277.726	77.88
277.957	77.88
278.189	72.88
278.421	93.88
278.652	81.88
278.884	77.88
279.115	87.88
279.347	83.88
279.579	82.88
279.81	82.88
280.042	78.88
280.273	91.88
280.505	81.88
280.736	88.88
280.968	92.88
281.199	92.88
281.431	91.88
281.662	89.88
281.894	76.88
282.125	85.88
282.356	85.88
282.588	101.88
282.819	102.88
283.051	89.88
283.282	76.88
283.513	90.88
283.745	74.88
283.976	84.88
284.207	97.88
284.439	88.88
284.67	76.88
284.901	89.88
285.132	89.88
285.364	78.88
285.595	81.88
285.826	79.88
286.057	81.88
286.288	95.88
286.52	87.88
286.751	87.88
286.982	76.88
287.213	88.88
287.444	93.88
287.675	90.88
287.906	75.88
288.138	89.88
288.369	74.88
288.6	91.88
288.831	85.88
289.062	92.88
289.293	84.88
289.524	89.88
289.755	82.88
289.986	90.88
290.217	90.88
290.448	97.88
290.679	81.88
290.91	91.88
291.141	94.88
291.371	78.88
291.602	88.88
291.833	86.88
292.064	86.88
292.295	91.88
292.526	89.88
292.757	95.88
292.987	78.88
293.218	92.88
293.449	94.88
293.68	85.88
293.91	82.88
294.141	99.88
294.372	72.88
294.603	85.88
294.833	86.88
295.064	92.88
295.295	84.88
295.525	88.88
295.756	70.88
295.987	105.88
296.217	111.88
296.448	100.88
296.679	94.88
296.909	83.88
297.14	89.88
297.37	87.88
297.601	93.88
297.831	89.88
298.062	90.88
298.292	86.88
298.523	93.88
298.753	88.88
298.984	79.88
299.214	90.88
299.445	81.88
299.675	85.88
299.905	94.88
300.136	91.88
300.366	97.88
300.597	87.88
300.827	93.88
301.057	81.88
301.288	110.88
301.518	109.88
301.748	87.88
301.979	96.88
302.209	90.88
302.439	74.88
302.669	100.88
302.9	102.88
303.13	98.88
303.36	102.88
303.59	96.88
303.82	95.88
304.051	103.88
304.281	99.88
304.511	84.88
304.741	70.88
304.971	86.88
305.201	95.88
305.431	88.88
305.661	84.88
305.891	86.88
306.121	102.88
306.352	103.88
306.582	97.88
306.812	94.88
307.042	103.88
307.272	97.88
307.502	92.88
307.731	94.88
307.961	91.88
308.191	87.88
308.421	91.88
308.651	97.88
308.881	99.88
309.111	121.88
309.341	101.88
309.571	98.88
309.8	92.88
310.03	96.88
310.26	97.88
310.49	97.88
310.72	88.88
310.949	93.88
311.179	91.88
311.409	92.88
311.639	82.88
311.868	92.88
312.098	100.88
312.328	96.88
312.557	104.88
312.787	98.88
313.017	85.88
313.246	95.88
313.476	91.88
313.706	89.88
313.935	82.88
314.165	91.88
314.394	98.88
314.624	78.88
314.853	87.88
315.083	85.88
315.312	100.88
315.542	103.88
315.771	95.88
316.001	86.88
316.23	82.88
316.46	86.88
316.689	90.88
316.919	92.88
317.148	99.88
317.377	87.88
317.607	87.88
317.836	89.88
318.065	85.88
318.295	86.88
318.524	100.88
318.753	91.88
318.983	101.88
319.212	92.88
319.441	106.88
319.67	93.88
319.9	92.88
320.129	84.88
320.358	108.88
320.587	89.88
320.816	108.88
321.046	93.88
321.275	85.88
321.504	92.88
321.733	100.88
321.962	101.88
322.191	89.88
322.42	98.88
322.649	99.88
322.878	119.88
323.108	112.88
323.337	104.88
323.566	113.88
323.795	130.88
324.024	154.88
324.253	266.88
324.482	539.88
324.71	1093.88
324.939	1455.88
325.168	558.88
325.397	181.88
325.626	119.88
325.855	117.88
326.084	105.88
326.313	119.88
326.542	125.88
326.77	178.88
326.999	323.88
327.228	662.88
327.457	1186.88
327.686	931.88
327.914	273.88
328.143	158.88
328.372	134.88
328.6	108.88
328.829	97.88
329.058	107.88
329.287	90.88
329.515	100.88
329.744	111.88
329.972	94.88
330.201	102.88
330.43	109.88
330.658	106.88
330.887	116.88
331.115	107.88
331.344	103.88
331.572	107.88
331.801	94.88
332.03	86.88
332.258	93.88
332.486	88.88
332.715	89.88
332.943	89.88
333.172	90.88
333.4	78.88
333.629	94.88
333.857	102.88
334.085	97.88
334.314	102.88
334.542	123.88
334.771	117.88
334.999	91.88
335.227	95.88
335.455	96.88
335.684	85.88
335.912	99.88
336.14	101.88
336.369	85.88
336.597	109.88
336.825	90.88
337.053	91.88
337.281	81.88
337.51	75.88
337.738	101.88
337.966	81.88
338.194	86.88
338.422	86.88
338.65	90.88
338.878	102.88
339.106	87.88
339.334	106.88
339.562	89.88
339.79	87.88
340.018	82.88
340.246	66.88
340.474	99.88
340.702	91.88
340.93	85.88
341.158	87.88
341.386	93.88
341.614	96.88
341.842	99.88
342.07	85.88
342.298	97.88
342.526	93.88
342.754	94.88
342.981	85.88
343.209	96.88
343.437	108.88
343.665	94.88
343.893	95.88
344.12	88.88
344.348	74.88
344.576	85.88
344.804	94.88
345.031	106.88
345.259	86.88
345.487	81.88
345.714	83.88
345.942	90.88
346.17	97.88
346.397	102.88
346.625	91.88
346.853	90.88
347.08	85.88
347.308	101.88
347.535	98.88
347.763	101.88
347.99	95.88
348.218	101.88
348.445	86.88
348.673	88.88
348.9	99.88
349.128	94.88
349.355	92.88
349.583	98.88
349.81	97.88
350.037	95.88
350.265	93.88
350.492	99.88
350.72	99.88
350.947	94.88
351.174	97.88
351.402	97.88
351.629	99.88
351.856	101.88
352.083	98.88
352.311	99.88
352.538	101.88
352.765	102.88
352.992	104.88
353.22	88.88
353.447	83.88
353.674	99.88
353.901	99.88
354.128	86.88
354.355	94.88
354.583	87.88
354.81	105.88
355.037	110.88
355.264	102.88
355.491	91.88
355.718	92.88
355.945	92.88
356.172	87.88
356.399	89.88
356.626	101.88
356.853	88.88
357.08	94.88
357.307	85.88
357.534	101.88
357.761	91.88
357.988	98.88
358.215	102.88
358.441	93.88
358.668	105.88
358.895	101.88
359.122	99.88
359.349	103.88
359.576	105.88
359.802	76.88
360.029	103.88
360.256	99.88
360.483	87.88
360.709	78.88
360.936	93.88
361.163	96.88
361.39	101.88
361.616	101.88
361.843	86.88
362.07	85.88
362.296	89.88
362.523	79.88
362.749	81.88
362.976	88.88
363.203	103.88
363.429	105.88
363.656	110.88
363.882	96.88
364.109	88.88
364.335	93.88
364.562	85.88
364.788	88.88
365.015	94.88
365.241	78.88
365.468	97.88
365.694	89.88
365.92	101.88
366.147	85.88
366.373	83.88
366.599	76.88
366.826	78.88
367.052	103.88
367.278	90.88
367.505	87.88
367.731	87.88
367.957	97.88
368.184	94.88
368.41	84.88
368.636	102.88
368.862	116.88
369.089	86.88
369.315	77.88
369.541	88.88
369.767	97.88
369.993	76.88
370.219	83.88
370.445	95.88
370.672	93.88
370.898	97.88
371.124	85.88
371.35	94.88
371.576	87.88
371.802	84.88
372.028	77.88
372.254	69.88
372.48	92.88
372.706	77.88
372.932	75.88
373.158	92.88
373.384	93.88
373.61	100.88
373.835	93.88
374.061	83.88
374.287	85.88
374.513	84.88
374.739	97.88
374.965	91.88
375.191	89.88
375.416	92.88
375.642	82.88
375.868	100.88
376.094	93.88
376.319	96.88
376.545	106.88
376.771	99.88
376.997	95.88
377.222	84.88
377.448	94.88
377.674	108.88
377.899	93.88
378.125	89.88
378.35	89.88
378.576	84.88
378.802	89.88
379.027	90.88
379.253	97.88
379.478	97.88
379.704	98.88
379.929	93.88
380.155	109.88
380.38	94.88
380.606	98.88
380.831	109.88
381.057	103.88
381.282	93.88
381.507	90.88
381.733	107.88
381.958	116.88
382.184	106.88
382.409	91.88
382.634	105.88
382.86	124.88
383.085	112.88
383.31	115.88
383.535	109.88
383.761	120.88
383.986	117.88
384.211	126.88
384.436	115.88
384.662	102.88
384.887	123.88
385.112	135.88
385.337	133.88
385.562	117.88
385.787	122.88
386.013	127.88
386.238	123.88
386.463	117.88
386.688	131.88
386.913	120.88
387.138	137.88
387.363	121.88
387.588	126.88
387.813	118.88
388.038	129.88
388.263	134.88
388.488	131.88
388.713	98.88
388.938	87.88
389.163	83.88
389.387	89.88
389.612	97.88
389.837	95.88
390.062	78.88
390.287	94.88
390.512	101.88
390.736	94.88
390.961	95.88
391.186	87.88
391.411	84.88
391.636	91.88
391.86	87.88
392.085	69.88
392.31	89.88
392.534	83.88
392.759	89.88
392.984	78.88
393.208	97.88
393.433	89.88
393.658	87.88
393.882	81.88
394.107	81.88
394.331	91.88
394.556	88.88
394.78	97.88
395.005	89.88
395.229	90.88
395.454	73.88
395.678	102.88
395.903	81.88
396.127	85.88
396.352	85.88
396.576	93.88
396.801	78.88
397.025	81.88
397.249	90.88
397.474	99.88
397.698	69.88
397.922	80.88
398.147	83.88
398.371	76.88
398.595	79.88
398.82	83.88
399.044	79.88
399.268	73.88
399.492	90.88
399.717	87.88
399.941	94.88
400.165	110.88
400.389	81.88
400.613	92.88
400.837	72.88
401.062	97.88
401.286	81.88
401.51	95.88
401.734	90.88
401.958	99.88
402.182	111.88
402.406	115.88
402.63	112.88
402.854	78.88
403.078	83.88
403.302	73.88
403.526	95.88
403.75	87.88
403.974	85.88
404.198	77.88
404.422	89.88
404.645	93.88
404.869	99.88
405.093	97.88
405.317	99.88
405.541	98.88
405.765	95.88
405.988	91.88
406.212	133.88
406.436	173.88
406.66	107.88
406.883	109.88
407.107	93.88
407.331	98.88
407.555	91.88
407.778	75.88
408.002	94.88
408.226	83.88
408.449	94.88
408.673	81.88
408.896	91.88
409.12	100.88
409.344	91.88
409.567	88.88
409.791	85.88
410.014	96.88
410.238	93.88
410.461	90.88
410.685	92.88
410.908	97.88
411.132	93.88
411.355	89.88
411.578	94.88
411.802	92.88
412.025	92.88
412.249	99.88
412.472	93.88
412.695	91.88
412.919	85.88
413.142	103.88
413.365	96.88
413.589	87.88
413.812	88.88
414.035	78.88
414.258	101.88
414.482	85.88
414.705	91.88
414.928	86.88
415.151	100.88
415.374	126.88
415.597	96.88
415.821	92.88
416.044	106.88
416.267	89.88
416.49	86.88
416.713	88.88
416.936	93.88
417.159	90.88
417.382	97.88
417.605	93.88
417.828	79.88
418.051	106.88
418.274	89.88
418.497	79.88
418.72	90.88
418.943	91.88
419.166	90.88
419.389	87.88
419.611	92.88
419.834	91.88
420.057	93.88
420.28	92.88
420.503	77.88
420.726	77.88
420.948	89.88
421.171	87.88
421.394	91.88
421.617	101.88
421.839	84.88
422.062	99.88
422.285	98.88
422.507	77.88
422.73	74.88
422.953	92.88
423.175	101.88
423.398	100.88
423.621	105.88
423.843	94.88
424.066	85.88
424.288	88.88
424.511	99.88
424.733	91.88
424.956	93.88
425.178	100.88
425.401	86.88
425.623	95.88
425.846	81.88
426.068	76.88
426.291	86.88
426.513	101.88
426.735	86.88
426.958	79.88
427.18	101.88
427.402	121.88
427.625	126.88
427.847	104.88
428.069	91.88
428.292	81.88
428.514	81.88
428.736	71.88
428.958	90.88
429.181	96.88
429.403	92.88
429.625	85.88
429.847	81.88
430.069	85.88
430.292	86.88
430.514	93.88
430.736	87.88
430.958	75.88
431.18	83.88
431.402	79.88
431.624	97.88
431.846	83.88
432.068	84.88
432.29	73.88
432.512	90.88
432.734	97.88
432.956	83.88
433.178	86.88
433.4	102.88
433.622	99.88
433.844	89.88
434.066	100.88
434.287	90.88
434.509	87.88
434.731	103.88
434.953	85.88
435.175	88.88
435.397	99.88
435.618	78.88
435.84	92.88
436.062	96.88
436.284	106.88
436.505	96.88
436.727	95.88
436.949	86.88
437.17	93.88
437.392	73.88
437.614	78.88
437.835	94.88
438.057	98.88
438.278	81.88
438.5	110.88
438.721	89.88
438.943	101.88
439.165	92.88
439.386	92.88
439.608	89.88
439.829	87.88
440.05	110.88
440.272	123.88
440.493	99.88
440.715	88.88
440.936	91.88
441.158	80.88
441.379	86.88
441.6	86.88
441.822	81.88
442.043	81.88
442.264	104.88
442.486	100.88
442.707	96.88
442.928	101.88
443.149	115.88
443.371	99.88
443.592	95.88
443.813	99.88
444.034	91.88
444.255	83.88
444.476	85.88
444.698	85.88
444.919	86.88
445.14	123.88
445.361	131.88
445.582	110.88
445.803	109.88
446.024	110.88
446.245	115.88
446.466	94.88
446.687	77.88
446.908	81.88
447.129	91.88
447.35	88.88
447.571	94.88
447.792	89.88
448.013	98.88
448.234	97.88
448.455	94.88
448.675	114.88
448.896	101.88
449.117	88.88
449.338	98.88
449.559	117.88
449.779	117.88
450	88.88
450.221	81.88
450.442	71.88
450.662	89.88
450.883	89.88
451.104	93.88
451.324	97.88
451.545	85.88
451.766	97.88
451.986	82.88
452.207	84.88
452.428	95.88
452.648	89.88
452.869	95.88
453.089	104.88
453.31	96.88
453.53	90.88
453.751	95.88
453.971	87.88
454.192	95.88
454.412	81.88
454.633	81.88
454.853	74.88
455.073	94.88
455.294	85.88
455.514	91.88
455.734	89.88
455.955	91.88
456.175	77.88
456.395	85.88
456.616	71.88
456.836	90.88
457.056	65.88
457.276	77.88
457.497	83.88
457.717	88.88
457.937	81.88
458.157	76.88
458.377	70.88
458.598	107.88
458.818	120.88
459.038	116.88
459.258	102.88
459.478	96.88
459.698	92.88
459.918	105.88
460.138	92.88
460.358	97.88
460.578	85.88
460.798	103.88
461.018	78.88
461.238	82.88
461.458	87.88
461.678	60.88
461.898	90.88
462.118	94.88
462.338	86.88
462.558	85.88
462.777	77.88
462.997	84.88
463.217	85.88
463.437	73.88
463.657	85.88
463.876	94.88
464.096	104.88
464.316	85.88
464.536	85.88
464.755	95.88
464.975	75.88
465.195	109.88
465.414	120.88
465.634	77.88
465.854	81.88
466.073	89.88
466.293	83.88
466.512	71.88
466.732	89.88
466.951	86.88
467.171	90.88
467.391	92.88
467.61	81.88
467.829	99.88
468.049	91.88
468.268	97.88
468.488	92.88
468.707	94.88
468.927	87.88
469.146	98.88
469.365	94.88
469.585	92.88
469.804	89.88
470.023	89.88
470.243	76.88
470.462	91.88
470.681	94.88
470.901	86.88
471.12	85.88
471.339	96.88
471.558	86.88
471.777	92.88
471.997	97.88
472.216	99.88
472.435	124.88
472.654	101.88
472.873	87.88
473.092	78.88
473.311	99.88
473.53	77.88
473.749	92.88
473.968	97.88
474.187	111.88
474.406	81.88
474.625	91.88
474.844	74.88
475.063	83.88
475.282	85.88
475.501	83.88
475.72	85.88
475.939	79.88
476.158	76.88
476.377	87.88
476.596	73.88
476.814	87.88
477.033	87.88
477.252	78.88
477.471	85.88
477.69	97.88
477.908	90.88
478.127	85.88
478.346	69.88
478.564	89.88
478.783	85.88
479.002	81.88
479.22	92.88
479.439	97.88
479.658	99.88
479.876	105.88
480.095	93.88
480.313	100.88
480.532	91.88
480.751	107.88
480.969	108.88
481.188	183.88
481.406	134.88
481.624	101.88
481.843	90.88
482.061	99.88
482.28	85.88
482.498	92.88
482.717	83.88
482.935	97.88
483.153	88.88
483.372	98.88
483.59	87.88
483.808	94.88
484.027	93.88
484.245	103.88
484.463	91.88
484.681	101.88
484.9	79.88
485.118	91.88
485.336	91.88
485.554	106.88
485.772	114.88
485.99	104.88
486.209	105.88
486.427	113.88
486.645	109.88
486.863	107.88
487.081	106.88
487.299	102.88
487.517	86.88
487.735	91.88
487.953	89.88
488.171	99.88
488.389	96.88
488.607	93.88
488.825	85.88
489.043	93.88
489.261	88.88
489.479	92.88
489.696	93.88
489.914	91.88
490.132	94.88
490.35	72.88
490.568	87.88
490.786	100.88
491.003	94.88
491.221	86.88
491.439	86.88
491.657	97.88
491.874	101.88
492.092	88.88
492.31	91.88
492.527	104.88
492.745	90.88
492.963	97.88
493.18	84.88
493.398	91.88
493.615	110.88
493.833	89.88
494.05	91.88
494.268	88.88
494.485	89.88
494.703	77.88
494.92	89.88
495.138	92.88
495.355	96.88
495.573	88.88
495.79	93.88
496.008	105.88
496.225	92.88
496.442	97.88
496.66	101.88
496.877	93.88
497.094	101.88
497.312	85.88
497.529	83.88
497.746	99.88
497.963	86.88
498.181	95.88
498.398	96.88
498.615	94.88
498.832	82.88
499.049	87.88
499.267	90.88
499.484	93.88
499.701	94.88
499.918	85.88
500.135	78.88
500.352	115.88
500.569	74.88
500.786	98.88
501.003	93.88
501.22	92.88
501.437	84.88
501.654	79.88
501.871	93.88
502.088	93.88
502.305	92.88
502.522	94.88
502.739	85.88
502.956	81.88
503.172	87.88
503.389	79.88
503.606	85.88
503.823	97.88
504.04	107.88
504.256	85.88
504.473	96.88
504.69	93.88
504.907	99.88
505.123	89.88
505.34	89.88
505.557	95.88
505.773	89.88
505.99	93.88
506.207	98.88
506.423	90.88
506.64	86.88
506.856	83.88
507.073	91.88
507.289	93.88
507.506	102.88
507.722	99.88
507.939	97.88
508.155	89.88
508.372	110.88
508.588	101.88
508.805	97.88
509.021	91.88
509.238	105.88
509.454	92.88
509.67	89.88
509.887	91.88
510.103	117.88
510.319	171.88
510.536	495.88
510.752	1412.88
510.968	425.88
511.184	120.88
511.401	86.88
511.617	94.88
511.833	94.88
512.049	95.88
512.265	92.88
512.481	99.88
512.698	89.88
512.914	87.88
513.13	91.88
513.346	88.88
513.562	95.88
513.778	96.88
513.994	89.88
514.21	91.88
514.426	106.88
514.642	115.88
514.858	93.88
515.074	124.88
515.29	276.88
515.506	796.88
515.721	303.88
515.937	122.88
516.153	103.88
516.369	83.88
516.585	88.88
