Data from Circ_1980_H10_HRD10591_00029.txt Node
Date: Wed Jan 03 12:38:04 EST 2024
User: Yrep
Spectrometer: HR+D1059
Trigger mode: 1
Integration Time (sec): 1.000000E-1
Scans to average: 1
Electric dark correction enabled: true
Nonlinearity correction enabled: false
Boxcar width: 0
XAxis mode: Wavelengths
Number of Pixels in Spectrum: 2048
>>>>>Begin Spectral Data<<<<<
223.165	-15.5
223.4	-15.5
223.635	-15.5
223.869	-23.5
224.104	-25.5
224.338	-9.5
224.573	-31.5
224.808	-6.5
225.042	-7.5
225.277	14.5
225.511	-3.5
225.746	4.5
225.98	14.5
226.215	-5.5
226.449	20.5
226.683	12.5
226.918	26.5
227.152	35.5
227.387	38.5
227.621	38.5
227.856	37.5
228.09	32.5
228.324	48.5
228.559	46.5
228.793	50.5
229.027	75.5
229.262	54.5
229.496	84.5
229.73	74.5
229.964	61.5
230.199	77.5
230.433	63.5
230.667	103.5
230.901	70.5
231.136	72.5
231.37	87.5
231.604	93.5
231.838	89.5
232.072	66.5
232.306	86.5
232.541	86.5
232.775	83.5
233.009	79.5
233.243	82.5
233.477	86.5
233.711	88.5
233.945	86.5
234.179	70.5
234.413	76.5
234.647	68.5
234.881	81.5
235.115	80.5
235.349	87.5
235.583	99.5
235.817	89.5
236.051	78.5
236.285	77.5
236.519	60.5
236.753	86.5
236.987	92.5
237.221	77.5
237.455	74.5
237.689	72.5
237.922	84.5
238.156	75.5
238.39	73.5
238.624	88.5
238.858	82.5
239.091	84.5
239.325	78.5
239.559	90.5
239.793	74.5
240.027	78.5
240.26	63.5
240.494	54.5
240.728	84.5
240.961	74.5
241.195	77.5
241.429	86.5
241.662	70.5
241.896	75.5
242.13	72.5
242.363	77.5
242.597	74.5
242.83	91.5
243.064	75.5
243.298	82.5
243.531	98.5
243.765	70.5
243.998	89.5
244.232	91.5
244.465	99.5
244.699	77.5
244.932	85.5
245.166	71.5
245.399	80.5
245.633	67.5
245.866	72.5
246.099	83.5
246.333	86.5
246.566	84.5
246.8	83.5
247.033	73.5
247.266	78.5
247.5	73.5
247.733	87.5
247.966	88.5
248.2	89.5
248.433	74.5
248.666	72.5
248.899	76.5
249.133	88.5
249.366	69.5
249.599	104.5
249.832	82.5
250.066	94.5
250.299	79.5
250.532	84.5
250.765	82.5
250.998	78.5
251.231	85.5
251.465	72.5
251.698	78.5
251.931	76.5
252.164	82.5
252.397	75.5
252.63	87.5
252.863	84.5
253.096	82.5
253.329	84.5
253.562	88.5
253.795	68.5
254.028	90.5
254.261	70.5
254.494	77.5
254.727	96.5
254.96	78.5
255.193	75.5
255.426	66.5
255.659	80.5
255.892	93.5
256.124	86.5
256.357	82.5
256.59	75.5
256.823	77.5
257.056	92.5
257.289	90.5
257.521	79.5
257.754	66.5
257.987	74.5
258.22	82.5
258.452	88.5
258.685	77.5
258.918	76.5
259.151	73.5
259.383	78.5
259.616	77.5
259.849	74.5
260.081	86.5
260.314	76.5
260.547	78.5
260.779	83.5
261.012	74.5
261.244	88.5
261.477	94.5
261.71	90.5
261.942	109.5
262.175	97.5
262.407	74.5
262.64	84.5
262.872	86.5
263.105	85.5
263.337	92.5
263.57	91.5
263.802	94.5
264.035	76.5
264.267	79.5
264.499	88.5
264.732	77.5
264.964	80.5
265.197	80.5
265.429	83.5
265.661	87.5
265.894	79.5
266.126	97.5
266.358	99.5
266.591	95.5
266.823	88.5
267.055	87.5
267.287	99.5
267.52	88.5
267.752	84.5
267.984	98.5
268.216	92.5
268.448	85.5
268.681	77.5
268.913	82.5
269.145	78.5
269.377	78.5
269.609	90.5
269.841	103.5
270.073	73.5
270.306	84.5
270.538	88.5
270.77	75.5
271.002	98.5
271.234	78.5
271.466	75.5
271.698	90.5
271.93	93.5
272.162	78.5
272.394	102.5
272.626	87.5
272.858	89.5
273.09	104.5
273.322	86.5
273.553	91.5
273.785	80.5
274.017	83.5
274.249	81.5
274.481	64.5
274.713	92.5
274.945	87.5
275.176	88.5
275.408	83.5
275.64	62.5
275.872	88.5
276.104	90.5
276.335	72.5
276.567	84.5
276.799	79.5
277.031	90.5
277.262	87.5
277.494	78.5
277.726	89.5
277.957	70.5
278.189	78.5
278.421	93.5
278.652	94.5
278.884	78.5
279.115	81.5
279.347	82.5
279.579	88.5
279.81	87.5
280.042	103.5
280.273	82.5
280.505	91.5
280.736	100.5
280.968	78.5
281.199	84.5
281.431	78.5
281.662	92.5
281.894	86.5
282.125	92.5
282.356	126.5
282.588	117.5
282.819	111.5
283.051	87.5
283.282	72.5
283.513	87.5
283.745	89.5
283.976	97.5
284.207	73.5
284.439	87.5
284.67	79.5
284.901	88.5
285.132	87.5
285.364	99.5
285.595	92.5
285.826	98.5
286.057	105.5
286.288	67.5
286.52	78.5
286.751	82.5
286.982	83.5
287.213	91.5
287.444	86.5
287.675	89.5
287.906	96.5
288.138	95.5
288.369	82.5
288.6	95.5
288.831	92.5
289.062	93.5
289.293	84.5
289.524	83.5
289.755	92.5
289.986	89.5
290.217	94.5
290.448	92.5
290.679	77.5
290.91	79.5
291.141	82.5
291.371	91.5
291.602	98.5
291.833	88.5
292.064	91.5
292.295	76.5
292.526	75.5
292.757	88.5
292.987	103.5
293.218	91.5
293.449	96.5
293.68	99.5
293.91	84.5
294.141	80.5
294.372	88.5
294.603	95.5
294.833	79.5
295.064	101.5
295.295	84.5
295.525	78.5
295.756	92.5
295.987	101.5
296.217	117.5
296.448	99.5
296.679	88.5
296.909	91.5
297.14	88.5
297.37	71.5
297.601	86.5
297.831	101.5
298.062	86.5
298.292	77.5
298.523	94.5
298.753	92.5
298.984	94.5
299.214	85.5
299.445	77.5
299.675	95.5
299.905	94.5
300.136	91.5
300.366	83.5
300.597	80.5
300.827	91.5
301.057	81.5
301.288	111.5
301.518	91.5
301.748	86.5
301.979	116.5
302.209	82.5
302.439	87.5
302.669	86.5
302.9	89.5
303.13	76.5
303.36	81.5
303.59	100.5
303.82	90.5
304.051	90.5
304.281	88.5
304.511	88.5
304.741	95.5
304.971	78.5
305.201	87.5
305.431	83.5
305.661	87.5
305.891	95.5
306.121	88.5
306.352	90.5
306.582	101.5
306.812	80.5
307.042	77.5
307.272	95.5
307.502	88.5
307.731	90.5
307.961	90.5
308.191	96.5
308.421	96.5
308.651	97.5
308.881	85.5
309.111	104.5
309.341	108.5
309.571	100.5
309.8	91.5
310.03	106.5
310.26	92.5
310.49	78.5
310.72	100.5
310.949	105.5
311.179	112.5
311.409	86.5
311.639	99.5
311.868	104.5
312.098	95.5
312.328	94.5
312.557	95.5
312.787	85.5
313.017	102.5
313.246	94.5
313.476	95.5
313.706	103.5
313.935	93.5
314.165	93.5
314.394	88.5
314.624	95.5
314.853	98.5
315.083	95.5
315.312	95.5
315.542	85.5
315.771	85.5
316.001	81.5
316.23	77.5
316.46	88.5
316.689	98.5
316.919	94.5
317.148	96.5
317.377	86.5
317.607	84.5
317.836	104.5
318.065	98.5
318.295	79.5
318.524	80.5
318.753	95.5
318.983	99.5
319.212	107.5
319.441	110.5
319.67	103.5
319.9	82.5
320.129	97.5
320.358	92.5
320.587	83.5
320.816	94.5
321.046	102.5
321.275	99.5
321.504	90.5
321.733	94.5
321.962	96.5
322.191	104.5
322.42	80.5
322.649	102.5
322.878	105.5
323.108	108.5
323.337	122.5
323.566	118.5
323.795	131.5
324.024	167.5
324.253	284.5
324.482	601.5
324.71	1252.5
324.939	1653.5
325.168	602.5
325.397	210.5
325.626	122.5
325.855	118.5
326.084	102.5
326.313	106.5
326.542	120.5
326.77	188.5
326.999	348.5
327.228	712.5
327.457	1287.5
327.686	1023.5
327.914	298.5
328.143	154.5
328.372	128.5
328.6	113.5
328.829	94.5
329.058	108.5
329.287	120.5
329.515	110.5
329.744	110.5
329.972	93.5
330.201	86.5
330.43	119.5
330.658	110.5
330.887	102.5
331.115	105.5
331.344	111.5
331.572	94.5
331.801	96.5
332.03	110.5
332.258	83.5
332.486	93.5
332.715	98.5
332.943	91.5
333.172	101.5
333.4	99.5
333.629	98.5
333.857	100.5
334.085	107.5
334.314	98.5
334.542	117.5
334.771	112.5
334.999	118.5
335.227	93.5
335.455	100.5
335.684	86.5
335.912	92.5
336.14	100.5
336.369	103.5
336.597	87.5
336.825	105.5
337.053	91.5
337.281	94.5
337.51	90.5
337.738	99.5
337.966	102.5
338.194	84.5
338.422	82.5
338.65	108.5
338.878	88.5
339.106	87.5
339.334	98.5
339.562	83.5
339.79	90.5
340.018	96.5
340.246	90.5
340.474	90.5
340.702	80.5
340.93	99.5
341.158	96.5
341.386	102.5
341.614	86.5
341.842	82.5
342.07	86.5
342.298	78.5
342.526	71.5
342.754	90.5
342.981	97.5
343.209	91.5
343.437	84.5
343.665	96.5
343.893	87.5
344.12	87.5
344.348	89.5
344.576	89.5
344.804	104.5
345.031	90.5
345.259	83.5
345.487	82.5
345.714	90.5
345.942	92.5
346.17	96.5
346.397	99.5
346.625	84.5
346.853	76.5
347.08	88.5
347.308	90.5
347.535	108.5
347.763	104.5
347.99	98.5
348.218	94.5
348.445	91.5
348.673	92.5
348.9	92.5
349.128	104.5
349.355	85.5
349.583	97.5
349.81	89.5
350.037	86.5
350.265	91.5
350.492	84.5
350.72	84.5
350.947	87.5
351.174	110.5
351.402	98.5
351.629	103.5
351.856	104.5
352.083	95.5
352.311	92.5
352.538	112.5
352.765	83.5
352.992	102.5
353.22	119.5
353.447	98.5
353.674	98.5
353.901	109.5
354.128	110.5
354.355	103.5
354.583	99.5
354.81	85.5
355.037	87.5
355.264	90.5
355.491	86.5
355.718	88.5
355.945	106.5
356.172	95.5
356.399	95.5
356.626	98.5
356.853	93.5
357.08	94.5
357.307	103.5
357.534	99.5
357.761	84.5
357.988	101.5
358.215	91.5
358.441	100.5
358.668	98.5
358.895	92.5
359.122	91.5
359.349	100.5
359.576	83.5
359.802	88.5
360.029	107.5
360.256	105.5
360.483	99.5
360.709	96.5
360.936	93.5
361.163	100.5
361.39	96.5
361.616	96.5
361.843	106.5
362.07	92.5
362.296	92.5
362.523	77.5
362.749	82.5
362.976	84.5
363.203	96.5
363.429	83.5
363.656	98.5
363.882	91.5
364.109	103.5
364.335	98.5
364.562	82.5
364.788	86.5
365.015	86.5
365.241	102.5
365.468	103.5
365.694	108.5
365.92	102.5
366.147	79.5
366.373	86.5
366.599	84.5
366.826	95.5
367.052	96.5
367.278	71.5
367.505	95.5
367.731	96.5
367.957	94.5
368.184	104.5
368.41	94.5
368.636	100.5
368.862	93.5
369.089	102.5
369.315	86.5
369.541	88.5
369.767	92.5
369.993	85.5
370.219	92.5
370.445	77.5
370.672	81.5
370.898	86.5
371.124	110.5
371.35	86.5
371.576	89.5
371.802	94.5
372.028	91.5
372.254	85.5
372.48	90.5
372.706	78.5
372.932	86.5
373.158	83.5
373.384	96.5
373.61	82.5
373.835	97.5
374.061	80.5
374.287	102.5
374.513	88.5
374.739	104.5
374.965	84.5
375.191	83.5
375.416	89.5
375.642	98.5
375.868	97.5
376.094	75.5
376.319	95.5
376.545	83.5
376.771	82.5
376.997	75.5
377.222	87.5
377.448	104.5
377.674	104.5
377.899	98.5
378.125	105.5
378.35	87.5
378.576	96.5
378.802	93.5
379.027	75.5
379.253	97.5
379.478	75.5
379.704	90.5
379.929	95.5
380.155	94.5
380.38	102.5
380.606	98.5
380.831	103.5
381.057	101.5
381.282	99.5
381.507	83.5
381.733	88.5
381.958	109.5
382.184	102.5
382.409	89.5
382.634	94.5
382.86	81.5
383.085	107.5
383.31	122.5
383.535	103.5
383.761	98.5
383.986	94.5
384.211	96.5
384.436	103.5
384.662	101.5
384.887	110.5
385.112	117.5
385.337	104.5
385.562	113.5
385.787	115.5
386.013	116.5
386.238	120.5
386.463	102.5
386.688	113.5
386.913	116.5
387.138	111.5
387.363	98.5
387.588	105.5
387.813	110.5
388.038	123.5
388.263	120.5
388.488	112.5
388.713	93.5
388.938	90.5
389.163	102.5
389.387	77.5
389.612	97.5
389.837	89.5
390.062	75.5
390.287	84.5
390.512	91.5
390.736	112.5
390.961	84.5
391.186	99.5
391.411	88.5
391.636	86.5
391.86	84.5
392.085	100.5
392.31	94.5
392.534	96.5
392.759	95.5
392.984	91.5
393.208	91.5
393.433	101.5
393.658	82.5
393.882	80.5
394.107	92.5
394.331	96.5
394.556	79.5
394.78	102.5
395.005	92.5
395.229	86.5
395.454	98.5
395.678	85.5
395.903	89.5
396.127	86.5
396.352	85.5
396.576	92.5
396.801	96.5
397.025	94.5
397.249	86.5
397.474	91.5
397.698	94.5
397.922	90.5
398.147	82.5
398.371	104.5
398.595	77.5
398.82	88.5
399.044	100.5
399.268	90.5
399.492	90.5
399.717	83.5
399.941	96.5
400.165	94.5
400.389	84.5
400.613	83.5
400.837	91.5
401.062	93.5
401.286	88.5
401.51	95.5
401.734	101.5
401.958	100.5
402.182	104.5
402.406	133.5
402.63	106.5
402.854	98.5
403.078	87.5
403.302	86.5
403.526	103.5
403.75	85.5
403.974	80.5
404.198	91.5
404.422	86.5
404.645	83.5
404.869	84.5
405.093	103.5
405.317	92.5
405.541	87.5
405.765	94.5
405.988	100.5
406.212	143.5
406.436	173.5
406.66	112.5
406.883	100.5
407.107	83.5
407.331	90.5
407.555	82.5
407.778	93.5
408.002	95.5
408.226	94.5
408.449	95.5
408.673	96.5
408.896	92.5
409.12	92.5
409.344	82.5
409.567	88.5
409.791	100.5
410.014	91.5
410.238	93.5
410.461	100.5
410.685	86.5
410.908	102.5
411.132	95.5
411.355	92.5
411.578	84.5
411.802	98.5
412.025	84.5
412.249	85.5
412.472	88.5
412.695	99.5
412.919	76.5
413.142	89.5
413.365	89.5
413.589	93.5
413.812	86.5
414.035	90.5
414.258	83.5
414.482	101.5
414.705	87.5
414.928	90.5
415.151	108.5
415.374	89.5
415.597	80.5
415.821	79.5
416.044	86.5
416.267	102.5
416.49	95.5
416.713	96.5
416.936	75.5
417.159	68.5
417.382	86.5
417.605	101.5
417.828	88.5
418.051	91.5
418.274	79.5
418.497	99.5
418.72	87.5
418.943	83.5
419.166	95.5
419.389	85.5
419.611	90.5
419.834	98.5
420.057	103.5
420.28	78.5
420.503	91.5
420.726	92.5
420.948	99.5
421.171	97.5
421.394	85.5
421.617	106.5
421.839	79.5
422.062	91.5
422.285	95.5
422.507	104.5
422.73	100.5
422.953	81.5
423.175	86.5
423.398	79.5
423.621	87.5
423.843	78.5
424.066	82.5
424.288	80.5
424.511	77.5
424.733	83.5
424.956	113.5
425.178	110.5
425.401	94.5
425.623	95.5
425.846	98.5
426.068	74.5
426.291	86.5
426.513	72.5
426.735	79.5
426.958	99.5
427.18	100.5
427.402	112.5
427.625	147.5
427.847	118.5
428.069	100.5
428.292	66.5
428.514	78.5
428.736	94.5
428.958	73.5
429.181	87.5
429.403	82.5
429.625	101.5
429.847	82.5
430.069	93.5
430.292	81.5
430.514	89.5
430.736	86.5
430.958	88.5
431.18	85.5
431.402	79.5
431.624	90.5
431.846	106.5
432.068	84.5
432.29	94.5
432.512	83.5
432.734	91.5
432.956	86.5
433.178	90.5
433.4	107.5
433.622	78.5
433.844	88.5
434.066	84.5
434.287	99.5
434.509	80.5
434.731	92.5
434.953	86.5
435.175	102.5
435.397	91.5
435.618	80.5
435.84	96.5
436.062	106.5
436.284	102.5
436.505	115.5
436.727	93.5
436.949	91.5
437.17	82.5
437.392	84.5
437.614	79.5
437.835	94.5
438.057	87.5
438.278	99.5
438.5	94.5
438.721	99.5
438.943	82.5
439.165	92.5
439.386	122.5
439.608	87.5
439.829	96.5
440.05	110.5
440.272	123.5
440.493	94.5
440.715	96.5
440.936	92.5
441.158	94.5
441.379	95.5
441.6	90.5
441.822	94.5
442.043	94.5
442.264	99.5
442.486	94.5
442.707	82.5
442.928	97.5
443.149	93.5
443.371	99.5
443.592	104.5
443.813	104.5
444.034	106.5
444.255	104.5
444.476	85.5
444.698	87.5
444.919	96.5
445.14	126.5
445.361	116.5
445.582	107.5
445.803	113.5
446.024	118.5
446.245	108.5
446.466	88.5
446.687	92.5
446.908	88.5
447.129	90.5
447.35	98.5
447.571	84.5
447.792	87.5
448.013	82.5
448.234	110.5
448.455	90.5
448.675	113.5
448.896	102.5
449.117	84.5
449.338	109.5
449.559	115.5
449.779	123.5
450	98.5
450.221	86.5
450.442	96.5
450.662	88.5
450.883	107.5
451.104	98.5
451.324	96.5
451.545	84.5
451.766	62.5
451.986	95.5
452.207	87.5
452.428	82.5
452.648	82.5
452.869	103.5
453.089	94.5
453.31	103.5
453.53	75.5
453.751	95.5
453.971	106.5
454.192	92.5
454.412	87.5
454.633	102.5
454.853	95.5
455.073	94.5
455.294	86.5
455.514	99.5
455.734	88.5
455.955	94.5
456.175	90.5
456.395	85.5
456.616	84.5
456.836	86.5
457.056	82.5
457.276	85.5
457.497	84.5
457.717	76.5
457.937	71.5
458.157	64.5
458.377	85.5
458.598	101.5
458.818	111.5
459.038	127.5
459.258	92.5
459.478	96.5
459.698	88.5
459.918	88.5
460.138	87.5
460.358	67.5
460.578	98.5
460.798	82.5
461.018	94.5
461.238	84.5
461.458	104.5
461.678	95.5
461.898	89.5
462.118	81.5
462.338	92.5
462.558	88.5
462.777	91.5
462.997	83.5
463.217	105.5
463.437	87.5
463.657	86.5
463.876	88.5
464.096	96.5
464.316	100.5
464.536	83.5
464.755	87.5
464.975	92.5
465.195	137.5
465.414	118.5
465.634	103.5
465.854	77.5
466.073	87.5
466.293	95.5
466.512	94.5
466.732	88.5
466.951	98.5
467.171	77.5
467.391	84.5
467.61	94.5
467.829	83.5
468.049	109.5
468.268	99.5
468.488	75.5
468.707	84.5
468.927	93.5
469.146	82.5
469.365	89.5
469.585	86.5
469.804	89.5
470.023	94.5
470.243	92.5
470.462	86.5
470.681	90.5
470.901	99.5
471.12	76.5
471.339	94.5
471.558	76.5
471.777	90.5
471.997	95.5
472.216	106.5
472.435	113.5
472.654	107.5
472.873	77.5
473.092	94.5
473.311	86.5
473.53	68.5
473.749	95.5
473.968	87.5
474.187	93.5
474.406	101.5
474.625	91.5
474.844	88.5
475.063	85.5
475.282	100.5
475.501	93.5
475.72	92.5
475.939	82.5
476.158	88.5
476.377	86.5
476.596	91.5
476.814	94.5
477.033	90.5
477.252	86.5
477.471	78.5
477.69	100.5
477.908	83.5
478.127	111.5
478.346	86.5
478.564	89.5
478.783	97.5
479.002	86.5
479.22	74.5
479.439	100.5
479.658	101.5
479.876	94.5
480.095	89.5
480.313	106.5
480.532	90.5
480.751	96.5
480.969	114.5
481.188	174.5
481.406	138.5
481.624	91.5
481.843	80.5
482.061	88.5
482.28	79.5
482.498	87.5
482.717	77.5
482.935	100.5
483.153	84.5
483.372	90.5
483.59	104.5
483.808	83.5
484.027	94.5
484.245	93.5
484.463	101.5
484.681	98.5
484.9	92.5
485.118	77.5
485.336	117.5
485.554	109.5
485.772	98.5
485.99	106.5
486.209	99.5
486.427	104.5
486.645	98.5
486.863	108.5
487.081	91.5
487.299	102.5
487.517	91.5
487.735	89.5
487.953	91.5
488.171	105.5
488.389	90.5
488.607	108.5
488.825	89.5
489.043	93.5
489.261	100.5
489.479	91.5
489.696	109.5
489.914	86.5
490.132	97.5
490.35	97.5
490.568	70.5
490.786	102.5
491.003	100.5
491.221	87.5
491.439	88.5
491.657	96.5
491.874	96.5
492.092	99.5
492.31	91.5
492.527	68.5
492.745	80.5
492.963	87.5
493.18	93.5
493.398	93.5
493.615	103.5
493.833	100.5
494.05	96.5
494.268	82.5
494.485	87.5
494.703	82.5
494.92	90.5
495.138	86.5
495.355	87.5
495.573	94.5
495.79	98.5
496.008	113.5
496.225	82.5
496.442	94.5
496.66	97.5
496.877	90.5
497.094	92.5
497.312	69.5
497.529	90.5
497.746	94.5
497.963	93.5
498.181	78.5
498.398	92.5
498.615	106.5
498.832	94.5
499.049	87.5
499.267	86.5
499.484	90.5
499.701	87.5
499.918	81.5
500.135	98.5
500.352	89.5
500.569	86.5
500.786	91.5
501.003	90.5
501.22	88.5
501.437	86.5
501.654	82.5
501.871	102.5
502.088	94.5
502.305	88.5
502.522	83.5
502.739	94.5
502.956	97.5
503.172	98.5
503.389	108.5
503.606	104.5
503.823	86.5
504.04	100.5
504.256	95.5
504.473	91.5
504.69	82.5
504.907	92.5
505.123	81.5
505.34	86.5
505.557	81.5
505.773	88.5
505.99	94.5
506.207	102.5
506.423	95.5
506.64	77.5
506.856	85.5
507.073	103.5
507.289	91.5
507.506	92.5
507.722	104.5
507.939	88.5
508.155	105.5
508.372	100.5
508.588	96.5
508.805	96.5
509.021	96.5
509.238	89.5
509.454	78.5
509.67	116.5
509.887	110.5
510.103	123.5
510.319	165.5
510.536	562.5
510.752	1646.5
510.968	477.5
511.184	132.5
511.401	96.5
511.617	93.5
511.833	87.5
512.049	94.5
512.265	102.5
512.481	102.5
512.698	81.5
512.914	83.5
513.13	104.5
513.346	90.5
513.562	102.5
513.778	79.5
513.994	84.5
514.21	104.5
514.426	109.5
514.642	107.5
514.858	117.5
515.074	152.5
515.29	314.5
515.506	951.5
515.721	364.5
515.937	124.5
516.153	99.5
516.369	96.5
516.585	98.5
516.801	82.5
517.016	100.5
517.232	92.5
517.448	91.5
517.664	88.5
517.879	107.5
518.095	89.5
518.311	87.5
518.527	92.5
518.742	88.5
518.958	98.5
519.173	89.5
519.389	95.5
519.605	90.5
519.82	96.5
520.036	111.5
520.251	118.5
520.467	97.5
520.682	109.5
520.898	109.5
521.113	88.5
521.329	114.5
521.544	147.5
521.76	377.5
521.975	1578.5
522.19	932.5
522.406	228.5
522.621	105.5
522.836	99.5
523.052	90.5
523.267	90.5
523.482	89.5
523.698	95.5
523.913	107.5
524.128	97.5
524.343	82.5
524.559	104.5
524.774	94.5
524.989	97.5
525.204	100.5
525.419	100.5
525.634	91.5
525.849	81.5
526.064	90.5
526.28	104.5
526.495	102.5
526.71	78.5
526.925	96.5
527.14	92.5
527.355	100.5
527.57	86.5
527.785	92.5
527.999	90.5
528.214	90.5
528.429	95.5
528.644	91.5
528.859	79.5
529.074	105.5
529.289	108.5
529.503	138.5
529.718	98.5
529.933	103.5
530.148	103.5
530.363	89.5
530.577	94.5
530.792	86.5
531.007	90.5
531.221	95.5
531.436	88.5
531.651	83.5
531.865	98.5
532.08	101.5
532.295	83.5
532.509	87.5
532.724	106.5
532.938	94.5
533.153	102.5
533.367	90.5
533.582	104.5
533.796	101.5
534.011	98.5
534.225	87.5
534.44	99.5
534.654	101.5
534.868	98.5
535.083	72.5
535.297	85.5
535.511	93.5
