Data from Circ_1980_H10_HRD10591_00087.txt Node
Date: Wed Jan 03 12:38:15 EST 2024
User: Yrep
Spectrometer: HR+D1059
Trigger mode: 1
Integration Time (sec): 1.000000E-1
Scans to average: 1
Electric dark correction enabled: true
Nonlinearity correction enabled: false
Boxcar width: 0
XAxis mode: Wavelengths
Number of Pixels in Spectrum: 2048
>>>>>Begin Spectral Data<<<<<
223.165	-10.81
223.4	-10.81
223.635	-10.81
223.869	-19.81
224.104	-17.81
224.338	-4.81
224.573	-20.81
224.808	-4.81
225.042	-5.81
225.277	-15.81
225.511	0.19
225.746	8.19
225.98	-11.81
226.215	0.19
226.449	9.19
226.683	24.19
226.918	28.19
227.152	42.19
227.387	48.19
227.621	33.19
227.856	41.19
228.09	51.19
228.324	55.19
228.559	58.19
228.793	61.19
229.027	53.19
229.262	76.19
229.496	62.19
229.73	84.19
229.964	71.19
230.199	67.19
230.433	88.19
230.667	83.19
230.901	78.19
231.136	88.19
231.37	78.19
231.604	80.19
231.838	83.19
232.072	76.19
232.306	79.19
232.541	85.19
232.775	72.19
233.009	76.19
233.243	83.19
233.477	80.19
233.711	80.19
233.945	84.19
234.179	76.19
234.413	67.19
234.647	62.19
234.881	62.19
235.115	85.19
235.349	85.19
235.583	85.19
235.817	78.19
236.051	90.19
236.285	93.19
236.519	91.19
236.753	84.19
236.987	74.19
237.221	87.19
237.455	80.19
237.689	85.19
237.922	70.19
238.156	81.19
238.39	79.19
238.624	67.19
238.858	75.19
239.091	78.19
239.325	73.19
239.559	74.19
239.793	61.19
240.027	74.19
240.26	76.19
240.494	71.19
240.728	87.19
240.961	74.19
241.195	88.19
241.429	75.19
241.662	85.19
241.896	86.19
242.13	76.19
242.363	79.19
242.597	86.19
242.83	90.19
243.064	72.19
243.298	81.19
243.531	90.19
243.765	89.19
243.998	65.19
244.232	78.19
244.465	74.19
244.699	89.19
244.932	75.19
245.166	68.19
245.399	72.19
245.633	79.19
245.866	65.19
246.099	71.19
246.333	78.19
246.566	83.19
246.8	79.19
247.033	80.19
247.266	79.19
247.5	89.19
247.733	83.19
247.966	87.19
248.2	79.19
248.433	71.19
248.666	66.19
248.899	94.19
249.133	91.19
249.366	89.19
249.599	88.19
249.832	85.19
250.066	71.19
250.299	83.19
250.532	72.19
250.765	80.19
250.998	84.19
251.231	75.19
251.465	72.19
251.698	89.19
251.931	75.19
252.164	71.19
252.397	100.19
252.63	75.19
252.863	91.19
253.096	94.19
253.329	84.19
253.562	84.19
253.795	90.19
254.028	90.19
254.261	79.19
254.494	77.19
254.727	86.19
254.96	85.19
255.193	73.19
255.426	80.19
255.659	60.19
255.892	85.19
256.124	83.19
256.357	92.19
256.59	97.19
256.823	89.19
257.056	72.19
257.289	87.19
257.521	93.19
257.754	92.19
257.987	86.19
258.22	85.19
258.452	75.19
258.685	69.19
258.918	87.19
259.151	84.19
259.383	86.19
259.616	88.19
259.849	75.19
260.081	73.19
260.314	87.19
260.547	89.19
260.779	63.19
261.012	92.19
261.244	85.19
261.477	88.19
261.71	86.19
261.942	102.19
262.175	107.19
262.407	89.19
262.64	86.19
262.872	85.19
263.105	95.19
263.337	90.19
263.57	77.19
263.802	83.19
264.035	89.19
264.267	86.19
264.499	89.19
264.732	83.19
264.964	88.19
265.197	85.19
265.429	69.19
265.661	83.19
265.894	83.19
266.126	84.19
266.358	90.19
266.591	89.19
266.823	91.19
267.055	77.19
267.287	85.19
267.52	86.19
267.752	75.19
267.984	89.19
268.216	89.19
268.448	85.19
268.681	80.19
268.913	76.19
269.145	86.19
269.377	91.19
269.609	80.19
269.841	85.19
270.073	86.19
270.306	81.19
270.538	78.19
270.77	84.19
271.002	87.19
271.234	89.19
271.466	97.19
271.698	92.19
271.93	91.19
272.162	81.19
272.394	87.19
272.626	83.19
272.858	87.19
273.09	91.19
273.322	85.19
273.553	92.19
273.785	95.19
274.017	73.19
274.249	85.19
274.481	92.19
274.713	90.19
274.945	85.19
275.176	85.19
275.408	90.19
275.64	92.19
275.872	86.19
276.104	71.19
276.335	102.19
276.567	89.19
276.799	105.19
277.031	85.19
277.262	96.19
277.494	86.19
277.726	92.19
277.957	96.19
278.189	69.19
278.421	76.19
278.652	91.19
278.884	87.19
279.115	88.19
279.347	82.19
279.579	88.19
279.81	84.19
280.042	89.19
280.273	86.19
280.505	93.19
280.736	80.19
280.968	91.19
281.199	83.19
281.431	78.19
281.662	91.19
281.894	84.19
282.125	93.19
282.356	110.19
282.588	128.19
282.819	107.19
283.051	94.19
283.282	88.19
283.513	94.19
283.745	102.19
283.976	86.19
284.207	96.19
284.439	77.19
284.67	72.19
284.901	93.19
285.132	81.19
285.364	79.19
285.595	77.19
285.826	69.19
286.057	94.19
286.288	87.19
286.52	88.19
286.751	88.19
286.982	84.19
287.213	90.19
287.444	80.19
287.675	88.19
287.906	106.19
288.138	91.19
288.369	100.19
288.6	97.19
288.831	77.19
289.062	87.19
289.293	96.19
289.524	77.19
289.755	85.19
289.986	93.19
290.217	81.19
290.448	101.19
290.679	95.19
290.91	98.19
291.141	93.19
291.371	84.19
291.602	93.19
291.833	97.19
292.064	91.19
292.295	95.19
292.526	88.19
292.757	95.19
292.987	85.19
293.218	86.19
293.449	78.19
293.68	86.19
293.91	91.19
294.141	99.19
294.372	80.19
294.603	68.19
294.833	101.19
295.064	93.19
295.295	75.19
295.525	87.19
295.756	105.19
295.987	110.19
296.217	126.19
296.448	103.19
296.679	98.19
296.909	88.19
297.14	89.19
297.37	84.19
297.601	98.19
297.831	92.19
298.062	99.19
298.292	87.19
298.523	80.19
298.753	93.19
298.984	92.19
299.214	92.19
299.445	75.19
299.675	91.19
299.905	101.19
300.136	99.19
300.366	87.19
300.597	79.19
300.827	85.19
301.057	95.19
301.288	87.19
301.518	87.19
301.748	84.19
301.979	100.19
302.209	88.19
302.439	90.19
302.669	83.19
302.9	84.19
303.13	90.19
303.36	93.19
303.59	96.19
303.82	101.19
304.051	90.19
304.281	87.19
304.511	89.19
304.741	91.19
304.971	89.19
305.201	102.19
305.431	89.19
305.661	84.19
305.891	96.19
306.121	97.19
306.352	87.19
306.582	112.19
306.812	95.19
307.042	88.19
307.272	97.19
307.502	95.19
307.731	90.19
307.961	99.19
308.191	84.19
308.421	97.19
308.651	86.19
308.881	72.19
309.111	83.19
309.341	81.19
309.571	106.19
309.8	102.19
310.03	96.19
310.26	100.19
310.49	107.19
310.72	104.19
310.949	97.19
311.179	93.19
311.409	103.19
311.639	109.19
311.868	93.19
312.098	103.19
312.328	99.19
312.557	117.19
312.787	98.19
313.017	105.19
313.246	93.19
313.476	84.19
313.706	99.19
313.935	91.19
314.165	96.19
314.394	92.19
314.624	94.19
314.853	90.19
315.083	88.19
315.312	97.19
315.542	91.19
315.771	89.19
316.001	92.19
316.23	83.19
316.46	105.19
316.689	87.19
316.919	89.19
317.148	81.19
317.377	95.19
317.607	72.19
317.836	88.19
318.065	109.19
318.295	95.19
318.524	89.19
318.753	85.19
318.983	96.19
319.212	77.19
319.441	104.19
319.67	110.19
319.9	103.19
320.129	96.19
320.358	96.19
320.587	96.19
320.816	102.19
321.046	99.19
321.275	99.19
321.504	77.19
321.733	86.19
321.962	105.19
322.191	94.19
322.42	105.19
322.649	109.19
322.878	109.19
323.108	102.19
323.337	108.19
323.566	117.19
323.795	117.19
324.024	164.19
324.253	290.19
324.482	585.19
324.71	1194.19
324.939	1596.19
325.168	597.19
325.397	193.19
325.626	142.19
325.855	103.19
326.084	110.19
326.313	124.19
326.542	136.19
326.77	191.19
326.999	351.19
327.228	687.19
327.457	1231.19
327.686	985.19
327.914	291.19
328.143	174.19
328.372	124.19
328.6	111.19
328.829	108.19
329.058	103.19
329.287	112.19
329.515	116.19
329.744	99.19
329.972	104.19
330.201	124.19
330.43	114.19
330.658	125.19
330.887	134.19
331.115	88.19
331.344	95.19
331.572	93.19
331.801	105.19
332.03	101.19
332.258	111.19
332.486	94.19
332.715	91.19
332.943	105.19
333.172	95.19
333.4	99.19
333.629	83.19
333.857	106.19
334.085	109.19
334.314	110.19
334.542	128.19
334.771	105.19
334.999	100.19
335.227	100.19
335.455	93.19
335.684	93.19
335.912	96.19
336.14	104.19
336.369	99.19
336.597	88.19
336.825	107.19
337.053	99.19
337.281	92.19
337.51	80.19
337.738	99.19
337.966	85.19
338.194	99.19
338.422	101.19
338.65	102.19
338.878	96.19
339.106	86.19
339.334	97.19
339.562	78.19
339.79	85.19
340.018	93.19
340.246	90.19
340.474	87.19
340.702	93.19
340.93	93.19
341.158	97.19
341.386	104.19
341.614	100.19
341.842	107.19
342.07	86.19
342.298	87.19
342.526	87.19
342.754	105.19
342.981	103.19
343.209	93.19
343.437	95.19
343.665	80.19
343.893	84.19
344.12	94.19
344.348	95.19
344.576	92.19
344.804	94.19
345.031	103.19
345.259	94.19
345.487	94.19
345.714	102.19
345.942	95.19
346.17	94.19
346.397	93.19
346.625	88.19
346.853	92.19
347.08	91.19
347.308	96.19
347.535	95.19
347.763	94.19
347.99	114.19
348.218	93.19
348.445	95.19
348.673	100.19
348.9	89.19
349.128	101.19
349.355	98.19
349.583	112.19
349.81	85.19
350.037	103.19
350.265	97.19
350.492	84.19
350.72	102.19
350.947	95.19
351.174	100.19
351.402	102.19
351.629	114.19
351.856	100.19
352.083	93.19
352.311	113.19
352.538	96.19
352.765	100.19
352.992	107.19
353.22	93.19
353.447	98.19
353.674	92.19
353.901	85.19
354.128	117.19
354.355	99.19
354.583	100.19
354.81	103.19
355.037	99.19
355.264	101.19
355.491	101.19
355.718	85.19
355.945	96.19
356.172	99.19
356.399	105.19
356.626	103.19
356.853	109.19
357.08	102.19
357.307	86.19
357.534	91.19
357.761	88.19
357.988	104.19
358.215	89.19
358.441	95.19
358.668	89.19
358.895	87.19
359.122	96.19
359.349	90.19
359.576	93.19
359.802	92.19
360.029	97.19
360.256	85.19
360.483	93.19
360.709	88.19
360.936	104.19
361.163	94.19
361.39	87.19
361.616	95.19
361.843	95.19
362.07	85.19
362.296	86.19
362.523	100.19
362.749	88.19
362.976	91.19
363.203	83.19
363.429	98.19
363.656	89.19
363.882	85.19
364.109	94.19
364.335	91.19
364.562	100.19
364.788	100.19
365.015	93.19
365.241	77.19
365.468	109.19
365.694	91.19
365.92	92.19
366.147	104.19
366.373	115.19
366.599	85.19
366.826	82.19
367.052	91.19
367.278	82.19
367.505	87.19
367.731	88.19
367.957	96.19
368.184	102.19
368.41	103.19
368.636	115.19
368.862	97.19
369.089	101.19
369.315	98.19
369.541	86.19
369.767	93.19
369.993	95.19
370.219	110.19
370.445	89.19
370.672	93.19
370.898	85.19
371.124	80.19
371.35	85.19
371.576	81.19
371.802	98.19
372.028	87.19
372.254	91.19
372.48	84.19
372.706	104.19
372.932	89.19
373.158	74.19
373.384	99.19
373.61	96.19
373.835	81.19
374.061	91.19
374.287	89.19
374.513	98.19
374.739	95.19
374.965	85.19
375.191	83.19
375.416	79.19
375.642	83.19
375.868	95.19
376.094	95.19
376.319	95.19
376.545	90.19
376.771	86.19
376.997	84.19
377.222	97.19
377.448	88.19
377.674	95.19
377.899	95.19
378.125	95.19
378.35	92.19
378.576	107.19
378.802	104.19
379.027	82.19
379.253	78.19
379.478	93.19
379.704	89.19
379.929	99.19
380.155	97.19
380.38	96.19
380.606	95.19
380.831	103.19
381.057	95.19
381.282	99.19
381.507	96.19
381.733	80.19
381.958	90.19
382.184	100.19
382.409	101.19
382.634	108.19
382.86	101.19
383.085	108.19
383.31	104.19
383.535	109.19
383.761	107.19
383.986	106.19
384.211	97.19
384.436	95.19
384.662	93.19
384.887	100.19
385.112	95.19
385.337	106.19
385.562	108.19
385.787	101.19
386.013	122.19
386.238	97.19
386.463	107.19
386.688	94.19
386.913	99.19
387.138	103.19
387.363	100.19
387.588	90.19
387.813	97.19
388.038	97.19
388.263	110.19
388.488	109.19
388.713	92.19
388.938	100.19
389.163	95.19
389.387	91.19
389.612	90.19
389.837	104.19
390.062	74.19
390.287	92.19
390.512	97.19
390.736	97.19
390.961	109.19
391.186	100.19
391.411	85.19
391.636	77.19
391.86	78.19
392.085	89.19
392.31	74.19
392.534	83.19
392.759	78.19
392.984	80.19
393.208	87.19
393.433	98.19
393.658	99.19
393.882	87.19
394.107	90.19
394.331	85.19
394.556	88.19
394.78	102.19
395.005	89.19
395.229	81.19
395.454	86.19
395.678	91.19
395.903	94.19
396.127	73.19
396.352	96.19
396.576	94.19
396.801	90.19
397.025	88.19
397.249	87.19
397.474	95.19
397.698	86.19
397.922	110.19
398.147	92.19
398.371	81.19
398.595	77.19
398.82	92.19
399.044	88.19
399.268	101.19
399.492	99.19
399.717	97.19
399.941	92.19
400.165	90.19
400.389	89.19
400.613	83.19
400.837	85.19
401.062	69.19
401.286	87.19
401.51	89.19
401.734	94.19
401.958	103.19
402.182	104.19
402.406	123.19
402.63	124.19
402.854	93.19
403.078	87.19
403.302	94.19
403.526	83.19
403.75	83.19
403.974	83.19
404.198	91.19
404.422	93.19
404.645	90.19
404.869	75.19
405.093	93.19
405.317	93.19
405.541	86.19
405.765	110.19
405.988	109.19
406.212	131.19
406.436	178.19
406.66	134.19
406.883	78.19
407.107	78.19
407.331	89.19
407.555	108.19
407.778	101.19
408.002	84.19
408.226	104.19
408.449	86.19
408.673	101.19
408.896	83.19
409.12	84.19
409.344	93.19
409.567	106.19
409.791	87.19
410.014	95.19
410.238	83.19
410.461	89.19
410.685	95.19
410.908	86.19
411.132	101.19
411.355	121.19
411.578	96.19
411.802	87.19
412.025	96.19
412.249	104.19
412.472	91.19
412.695	91.19
412.919	89.19
413.142	96.19
413.365	84.19
413.589	76.19
413.812	83.19
414.035	99.19
414.258	74.19
414.482	73.19
414.705	85.19
414.928	97.19
415.151	89.19
415.374	100.19
415.597	80.19
415.821	95.19
416.044	80.19
416.267	87.19
416.49	85.19
416.713	67.19
416.936	91.19
417.159	87.19
417.382	91.19
417.605	88.19
417.828	101.19
418.051	85.19
418.274	101.19
418.497	93.19
418.72	80.19
418.943	104.19
419.166	101.19
419.389	88.19
419.611	74.19
419.834	101.19
420.057	75.19
420.28	100.19
420.503	93.19
420.726	85.19
420.948	67.19
421.171	92.19
421.394	97.19
421.617	120.19
421.839	93.19
422.062	84.19
422.285	73.19
422.507	96.19
422.73	94.19
422.953	96.19
423.175	96.19
423.398	107.19
423.621	97.19
423.843	95.19
424.066	88.19
424.288	85.19
424.511	102.19
424.733	107.19
424.956	99.19
425.178	104.19
425.401	93.19
425.623	93.19
425.846	93.19
426.068	88.19
426.291	88.19
426.513	92.19
426.735	72.19
426.958	86.19
427.18	100.19
427.402	133.19
427.625	137.19
427.847	117.19
428.069	113.19
428.292	108.19
428.514	92.19
428.736	88.19
428.958	87.19
429.181	83.19
429.403	86.19
429.625	74.19
429.847	96.19
430.069	102.19
430.292	101.19
430.514	92.19
430.736	80.19
430.958	93.19
431.18	84.19
431.402	80.19
431.624	96.19
431.846	86.19
432.068	92.19
432.29	90.19
432.512	85.19
432.734	84.19
432.956	92.19
433.178	96.19
433.4	84.19
433.622	107.19
433.844	88.19
434.066	95.19
434.287	92.19
434.509	80.19
434.731	92.19
434.953	79.19
435.175	92.19
435.397	101.19
435.618	95.19
435.84	88.19
436.062	105.19
436.284	112.19
436.505	93.19
436.727	104.19
436.949	86.19
437.17	96.19
437.392	86.19
437.614	90.19
437.835	101.19
438.057	107.19
438.278	104.19
438.5	101.19
438.721	110.19
438.943	99.19
439.165	104.19
439.386	87.19
439.608	89.19
439.829	97.19
440.05	112.19
440.272	121.19
440.493	100.19
440.715	88.19
440.936	84.19
441.158	79.19
441.379	76.19
441.6	95.19
441.822	90.19
442.043	103.19
442.264	99.19
442.486	83.19
442.707	104.19
442.928	108.19
443.149	103.19
443.371	118.19
443.592	109.19
443.813	101.19
444.034	94.19
444.255	71.19
444.476	80.19
444.698	95.19
444.919	99.19
445.14	128.19
445.361	116.19
445.582	101.19
445.803	117.19
446.024	114.19
446.245	110.19
446.466	109.19
446.687	105.19
446.908	98.19
447.129	95.19
447.35	89.19
447.571	102.19
447.792	83.19
448.013	101.19
448.234	111.19
448.455	102.19
448.675	85.19
448.896	113.19
449.117	75.19
449.338	120.19
449.559	111.19
449.779	110.19
450	89.19
450.221	89.19
450.442	87.19
450.662	101.19
450.883	104.19
451.104	117.19
451.324	84.19
451.545	85.19
451.766	94.19
451.986	85.19
452.207	86.19
452.428	99.19
452.648	98.19
452.869	96.19
453.089	105.19
453.31	106.19
453.53	92.19
453.751	86.19
453.971	92.19
454.192	88.19
454.412	99.19
454.633	98.19
454.853	77.19
455.073	87.19
455.294	87.19
455.514	96.19
455.734	95.19
455.955	76.19
456.175	87.19
456.395	83.19
456.616	101.19
456.836	87.19
457.056	84.19
457.276	94.19
457.497	84.19
457.717	92.19
457.937	77.19
458.157	85.19
458.377	92.19
458.598	95.19
458.818	129.19
459.038	133.19
459.258	93.19
459.478	93.19
459.698	81.19
459.918	82.19
460.138	88.19
460.358	100.19
460.578	91.19
460.798	93.19
461.018	87.19
461.238	87.19
461.458	81.19
461.678	92.19
461.898	95.19
462.118	94.19
462.338	100.19
462.558	99.19
462.777	100.19
462.997	84.19
463.217	84.19
463.437	76.19
463.657	92.19
463.876	85.19
464.096	90.19
464.316	87.19
464.536	89.19
464.755	89.19
464.975	102.19
465.195	137.19
465.414	124.19
465.634	104.19
465.854	81.19
466.073	83.19
466.293	73.19
466.512	73.19
466.732	88.19
466.951	75.19
467.171	111.19
467.391	93.19
467.61	101.19
467.829	103.19
468.049	103.19
468.268	103.19
468.488	88.19
468.707	97.19
468.927	95.19
469.146	83.19
469.365	87.19
469.585	90.19
469.804	99.19
470.023	89.19
470.243	89.19
470.462	86.19
470.681	107.19
470.901	88.19
471.12	83.19
471.339	76.19
471.558	78.19
471.777	94.19
471.997	92.19
472.216	127.19
472.435	125.19
472.654	99.19
472.873	89.19
473.092	97.19
473.311	94.19
473.53	88.19
473.749	82.19
473.968	88.19
474.187	114.19
474.406	91.19
474.625	95.19
474.844	96.19
475.063	103.19
475.282	84.19
475.501	84.19
475.72	76.19
475.939	89.19
476.158	89.19
476.377	100.19
476.596	76.19
476.814	95.19
477.033	101.19
477.252	100.19
477.471	70.19
477.69	87.19
477.908	93.19
478.127	107.19
478.346	77.19
478.564	85.19
478.783	80.19
479.002	97.19
479.22	92.19
479.439	97.19
479.658	93.19
479.876	101.19
480.095	103.19
480.313	70.19
480.532	87.19
480.751	90.19
480.969	106.19
481.188	197.19
481.406	159.19
481.624	96.19
481.843	84.19
482.061	83.19
482.28	93.19
482.498	87.19
482.717	92.19
482.935	87.19
483.153	87.19
483.372	77.19
483.59	80.19
483.808	86.19
484.027	91.19
484.245	96.19
484.463	87.19
484.681	109.19
484.9	96.19
485.118	105.19
485.336	100.19
485.554	98.19
485.772	104.19
485.99	99.19
486.209	94.19
486.427	104.19
486.645	103.19
486.863	92.19
487.081	103.19
487.299	101.19
487.517	88.19
487.735	107.19
487.953	112.19
488.171	95.19
488.389	100.19
488.607	92.19
488.825	95.19
489.043	89.19
489.261	90.19
489.479	80.19
489.696	96.19
489.914	85.19
490.132	93.19
490.35	99.19
490.568	83.19
490.786	88.19
491.003	95.19
491.221	94.19
491.439	84.19
491.657	104.19
491.874	83.19
492.092	89.19
492.31	96.19
492.527	111.19
492.745	94.19
492.963	95.19
493.18	83.19
493.398	88.19
493.615	103.19
493.833	120.19
494.05	86.19
494.268	84.19
494.485	96.19
494.703	87.19
494.92	81.19
495.138	102.19
495.355	95.19
495.573	86.19
495.79	100.19
496.008	99.19
496.225	90.19
496.442	88.19
496.66	98.19
496.877	84.19
497.094	92.19
497.312	91.19
497.529	100.19
497.746	85.19
497.963	77.19
498.181	94.19
498.398	110.19
498.615	100.19
498.832	93.19
499.049	90.19
499.267	105.19
499.484	91.19
499.701	103.19
499.918	91.19
500.135	90.19
500.352	104.19
500.569	103.19
500.786	92.19
501.003	80.19
501.22	86.19
501.437	86.19
501.654	107.19
501.871	102.19
502.088	84.19
502.305	95.19
502.522	81.19
502.739	85.19
502.956	102.19
503.172	97.19
503.389	102.19
503.606	107.19
503.823	96.19
504.04	98.19
504.256	81.19
504.473	79.19
504.69	109.19
504.907	96.19
505.123	81.19
505.34	77.19
505.557	93.19
505.773	85.19
505.99	88.19
506.207	87.19
506.423	84.19
506.64	85.19
506.856	85.19
507.073	72.19
507.289	92.19
507.506	84.19
507.722	90.19
507.939	95.19
508.155	107.19
508.372	87.19
508.588	87.19
508.805	91.19
509.021	92.19
509.238	97.19
509.454	106.19
509.67	109.19
509.887	91.19
510.103	107.19
510.319	170.19
510.536	531.19
510.752	1643.19
510.968	499.19
511.184	132.19
511.401	105.19
511.617	103.19
511.833	106.19
512.049	86.19
512.265	91.19
512.481	99.19
512.698	107.19
512.914	93.19
513.13	100.19
513.346	100.19
513.562	92.19
513.778	101.19
513.994	95.19
514.21	88.19
514.426	118.19
514.642	120.19
514.858	109.19
515.074	133.19
515.29	309.19
515.506	970.19
