Data from Circ_1980_H10_HRD10591_00080.txt Node
Date: Wed Jan 03 12:38:14 EST 2024
User: Yrep
Spectrometer: HR+D1059
Trigger mode: 1
Integration Time (sec): 1.000000E-1
Scans to average: 1
Electric dark correction enabled: true
Nonlinearity correction enabled: false
Boxcar width: 0
XAxis mode: Wavelengths
Number of Pixels in Spectrum: 2048
>>>>>Begin Spectral Data<<<<<
223.165	-14.31
223.4	-14.31
223.635	-14.31
223.869	-9.31
224.104	-18.31
224.338	-2.31
224.573	-16.31
224.808	-8.31
225.042	-3.31
225.277	-12.31
225.511	-9.31
225.746	-2.31
225.98	0.69
226.215	9.69
226.449	22.69
226.683	12.69
226.918	21.69
227.152	28.69
227.387	32.69
227.621	32.69
227.856	47.69
228.09	37.69
228.324	61.69
228.559	49.69
228.793	50.69
229.027	58.69
229.262	67.69
229.496	65.69
229.73	60.69
229.964	71.69
230.199	65.69
230.433	80.69
230.667	93.69
230.901	76.69
231.136	69.69
231.37	65.69
231.604	67.69
231.838	83.69
232.072	76.69
232.306	78.69
232.541	77.69
232.775	78.69
233.009	70.69
233.243	87.69
233.477	78.69
233.711	71.69
233.945	74.69
234.179	92.69
234.413	73.69
234.647	76.69
234.881	75.69
235.115	81.69
235.349	78.69
235.583	86.69
235.817	62.69
236.051	63.69
236.285	71.69
236.519	65.69
236.753	68.69
236.987	81.69
237.221	77.69
237.455	82.69
237.689	77.69
237.922	85.69
238.156	58.69
238.39	74.69
238.624	76.69
238.858	61.69
239.091	78.69
239.325	82.69
239.559	76.69
239.793	70.69
240.027	71.69
240.26	69.69
240.494	65.69
240.728	62.69
240.961	71.69
241.195	89.69
241.429	89.69
241.662	72.69
241.896	70.69
242.13	59.69
242.363	68.69
242.597	73.69
242.83	75.69
243.064	64.69
243.298	84.69
243.531	66.69
243.765	70.69
243.998	86.69
244.232	87.69
244.465	71.69
244.699	92.69
244.932	73.69
245.166	81.69
245.399	74.69
245.633	73.69
245.866	78.69
246.099	73.69
246.333	72.69
246.566	72.69
246.8	86.69
247.033	68.69
247.266	85.69
247.5	67.69
247.733	72.69
247.966	84.69
248.2	77.69
248.433	81.69
248.666	65.69
248.899	80.69
249.133	85.69
249.366	98.69
249.599	95.69
249.832	76.69
250.066	73.69
250.299	78.69
250.532	83.69
250.765	81.69
250.998	81.69
251.231	83.69
251.465	72.69
251.698	69.69
251.931	86.69
252.164	71.69
252.397	87.69
252.63	75.69
252.863	69.69
253.096	78.69
253.329	76.69
253.562	91.69
253.795	89.69
254.028	74.69
254.261	91.69
254.494	84.69
254.727	85.69
254.96	75.69
255.193	84.69
255.426	94.69
255.659	73.69
255.892	85.69
256.124	84.69
256.357	74.69
256.59	92.69
256.823	67.69
257.056	70.69
257.289	97.69
257.521	71.69
257.754	85.69
257.987	81.69
258.22	87.69
258.452	78.69
258.685	70.69
258.918	80.69
259.151	83.69
259.383	80.69
259.616	68.69
259.849	90.69
260.081	93.69
260.314	75.69
260.547	68.69
260.779	72.69
261.012	71.69
261.244	83.69
261.477	89.69
261.71	85.69
261.942	113.69
262.175	113.69
262.407	94.69
262.64	76.69
262.872	73.69
263.105	74.69
263.337	98.69
263.57	81.69
263.802	85.69
264.035	92.69
264.267	85.69
264.499	84.69
264.732	86.69
264.964	83.69
265.197	76.69
265.429	85.69
265.661	81.69
265.894	96.69
266.126	77.69
266.358	76.69
266.591	74.69
266.823	70.69
267.055	78.69
267.287	77.69
267.52	89.69
267.752	83.69
267.984	81.69
268.216	76.69
268.448	69.69
268.681	83.69
268.913	77.69
269.145	81.69
269.377	81.69
269.609	86.69
269.841	78.69
270.073	78.69
270.306	93.69
270.538	85.69
270.77	74.69
271.002	85.69
271.234	95.69
271.466	73.69
271.698	90.69
271.93	79.69
272.162	79.69
272.394	84.69
272.626	81.69
272.858	86.69
273.09	78.69
273.322	73.69
273.553	64.69
273.785	85.69
274.017	81.69
274.249	85.69
274.481	83.69
274.713	78.69
274.945	90.69
275.176	91.69
275.408	85.69
275.64	88.69
275.872	87.69
276.104	91.69
276.335	78.69
276.567	83.69
276.799	99.69
277.031	90.69
277.262	83.69
277.494	100.69
277.726	89.69
277.957	85.69
278.189	87.69
278.421	93.69
278.652	87.69
278.884	90.69
279.115	100.69
279.347	91.69
279.579	99.69
279.81	80.69
280.042	76.69
280.273	86.69
280.505	107.69
280.736	81.69
280.968	69.69
281.199	78.69
281.431	93.69
281.662	83.69
281.894	97.69
282.125	99.69
282.356	110.69
282.588	126.69
282.819	106.69
283.051	95.69
283.282	85.69
283.513	89.69
283.745	90.69
283.976	87.69
284.207	94.69
284.439	87.69
284.67	93.69
284.901	74.69
285.132	89.69
285.364	72.69
285.595	86.69
285.826	82.69
286.057	94.69
286.288	84.69
286.52	96.69
286.751	100.69
286.982	87.69
287.213	91.69
287.444	90.69
287.675	81.69
287.906	89.69
288.138	98.69
288.369	94.69
288.6	88.69
288.831	81.69
289.062	93.69
289.293	80.69
289.524	87.69
289.755	88.69
289.986	81.69
290.217	90.69
290.448	95.69
290.679	90.69
290.91	82.69
291.141	90.69
291.371	88.69
291.602	84.69
291.833	89.69
292.064	83.69
292.295	94.69
292.526	93.69
292.757	83.69
292.987	88.69
293.218	83.69
293.449	76.69
293.68	79.69
293.91	65.69
294.141	93.69
294.372	94.69
294.603	93.69
294.833	79.69
295.064	83.69
295.295	92.69
295.525	90.69
295.756	95.69
295.987	121.69
296.217	118.69
296.448	103.69
296.679	92.69
296.909	82.69
297.14	87.69
297.37	83.69
297.601	73.69
297.831	77.69
298.062	89.69
298.292	93.69
298.523	101.69
298.753	85.69
298.984	82.69
299.214	79.69
299.445	104.69
299.675	94.69
299.905	90.69
300.136	91.69
300.366	71.69
300.597	89.69
300.827	90.69
301.057	85.69
301.288	93.69
301.518	91.69
301.748	87.69
301.979	94.69
302.209	88.69
302.439	86.69
302.669	85.69
302.9	91.69
303.13	99.69
303.36	88.69
303.59	95.69
303.82	95.69
304.051	88.69
304.281	86.69
304.511	78.69
304.741	85.69
304.971	91.69
305.201	91.69
305.431	79.69
305.661	79.69
305.891	98.69
306.121	95.69
306.352	94.69
306.582	97.69
306.812	84.69
307.042	90.69
307.272	87.69
307.502	92.69
307.731	110.69
307.961	96.69
308.191	92.69
308.421	106.69
308.651	99.69
308.881	87.69
309.111	91.69
309.341	94.69
309.571	84.69
309.8	95.69
310.03	97.69
310.26	94.69
310.49	95.69
310.72	101.69
310.949	95.69
311.179	106.69
311.409	85.69
311.639	60.69
311.868	91.69
312.098	88.69
312.328	99.69
312.557	97.69
312.787	101.69
313.017	112.69
313.246	103.69
313.476	101.69
313.706	93.69
313.935	86.69
314.165	105.69
314.394	89.69
314.624	88.69
314.853	103.69
315.083	105.69
315.312	99.69
315.542	83.69
315.771	78.69
316.001	87.69
316.23	77.69
316.46	95.69
316.689	87.69
316.919	91.69
317.148	91.69
317.377	91.69
317.607	77.69
317.836	91.69
318.065	93.69
318.295	96.69
318.524	93.69
318.753	87.69
318.983	85.69
319.212	94.69
319.441	99.69
319.67	109.69
319.9	88.69
320.129	91.69
320.358	94.69
320.587	94.69
320.816	105.69
321.046	95.69
321.275	95.69
321.504	101.69
321.733	106.69
321.962	90.69
322.191	105.69
322.42	101.69
322.649	104.69
322.878	100.69
323.108	94.69
323.337	108.69
323.566	125.69
323.795	124.69
324.024	175.69
324.253	307.69
324.482	640.69
324.71	1267.69
324.939	1649.69
325.168	613.69
325.397	211.69
325.626	147.69
325.855	119.69
326.084	115.69
326.313	122.69
326.542	132.69
326.77	191.69
326.999	374.69
327.228	734.69
327.457	1341.69
327.686	1057.69
327.914	317.69
328.143	185.69
328.372	137.69
328.6	110.69
328.829	107.69
329.058	114.69
329.287	122.69
329.515	100.69
329.744	103.69
329.972	114.69
330.201	119.69
330.43	115.69
330.658	119.69
330.887	106.69
331.115	117.69
331.344	103.69
331.572	101.69
331.801	82.69
332.03	76.69
332.258	93.69
332.486	99.69
332.715	95.69
332.943	75.69
333.172	98.69
333.4	101.69
333.629	103.69
333.857	103.69
334.085	99.69
334.314	105.69
334.542	126.69
334.771	137.69
334.999	94.69
335.227	99.69
335.455	90.69
335.684	97.69
335.912	83.69
336.14	105.69
336.369	100.69
336.597	91.69
336.825	101.69
337.053	95.69
337.281	97.69
337.51	93.69
337.738	99.69
337.966	93.69
338.194	87.69
338.422	84.69
338.65	84.69
338.878	98.69
339.106	92.69
339.334	94.69
339.562	90.69
339.79	91.69
340.018	78.69
340.246	91.69
340.474	89.69
340.702	95.69
340.93	98.69
341.158	99.69
341.386	94.69
341.614	101.69
341.842	93.69
342.07	83.69
342.298	89.69
342.526	97.69
342.754	92.69
342.981	83.69
343.209	82.69
343.437	114.69
343.665	76.69
343.893	91.69
344.12	96.69
344.348	73.69
344.576	93.69
344.804	92.69
345.031	74.69
345.259	98.69
345.487	95.69
345.714	97.69
345.942	92.69
346.17	92.69
346.397	90.69
346.625	87.69
346.853	93.69
347.08	95.69
347.308	86.69
347.535	92.69
347.763	89.69
347.99	91.69
348.218	97.69
348.445	84.69
348.673	89.69
348.9	99.69
349.128	91.69
349.355	99.69
349.583	100.69
349.81	95.69
350.037	106.69
350.265	92.69
350.492	95.69
350.72	84.69
350.947	110.69
351.174	102.69
351.402	96.69
351.629	93.69
351.856	93.69
352.083	102.69
352.311	99.69
352.538	92.69
352.765	119.69
352.992	118.69
353.22	101.69
353.447	101.69
353.674	112.69
353.901	100.69
354.128	94.69
354.355	105.69
354.583	98.69
354.81	113.69
355.037	120.69
355.264	105.69
355.491	94.69
355.718	85.69
355.945	92.69
356.172	94.69
356.399	88.69
356.626	95.69
356.853	100.69
357.08	94.69
357.307	78.69
357.534	89.69
357.761	85.69
357.988	88.69
358.215	99.69
358.441	98.69
358.668	96.69
358.895	99.69
359.122	96.69
359.349	100.69
359.576	90.69
359.802	95.69
360.029	91.69
360.256	109.69
360.483	93.69
360.709	90.69
360.936	107.69
361.163	88.69
361.39	89.69
361.616	93.69
361.843	88.69
362.07	84.69
362.296	104.69
362.523	91.69
362.749	80.69
362.976	85.69
363.203	101.69
363.429	91.69
363.656	83.69
363.882	95.69
364.109	89.69
364.335	93.69
364.562	90.69
364.788	96.69
365.015	80.69
365.241	93.69
365.468	109.69
365.694	98.69
365.92	97.69
366.147	93.69
366.373	98.69
366.599	94.69
366.826	85.69
367.052	76.69
367.278	104.69
367.505	99.69
367.731	91.69
367.957	90.69
368.184	89.69
368.41	90.69
368.636	99.69
368.862	114.69
369.089	93.69
369.315	84.69
369.541	79.69
369.767	88.69
369.993	83.69
370.219	92.69
370.445	89.69
370.672	101.69
370.898	90.69
371.124	90.69
371.35	75.69
371.576	77.69
371.802	82.69
372.028	93.69
372.254	83.69
372.48	84.69
372.706	85.69
372.932	89.69
373.158	83.69
373.384	85.69
373.61	77.69
373.835	89.69
374.061	93.69
374.287	92.69
374.513	95.69
374.739	87.69
374.965	98.69
375.191	81.69
375.416	89.69
375.642	73.69
375.868	88.69
376.094	102.69
376.319	75.69
376.545	89.69
376.771	78.69
376.997	78.69
377.222	100.69
377.448	94.69
377.674	83.69
377.899	99.69
378.125	90.69
378.35	102.69
378.576	95.69
378.802	78.69
379.027	87.69
379.253	91.69
379.478	96.69
379.704	97.69
379.929	104.69
380.155	108.69
380.38	111.69
380.606	87.69
380.831	110.69
381.057	103.69
381.282	93.69
381.507	87.69
381.733	96.69
381.958	82.69
382.184	94.69
382.409	91.69
382.634	93.69
382.86	99.69
383.085	114.69
383.31	98.69
383.535	107.69
383.761	106.69
383.986	100.69
384.211	96.69
384.436	107.69
384.662	83.69
384.887	87.69
385.112	98.69
385.337	100.69
385.562	103.69
385.787	102.69
386.013	94.69
386.238	111.69
386.463	105.69
386.688	101.69
386.913	105.69
387.138	105.69
387.363	104.69
387.588	110.69
387.813	105.69
388.038	102.69
388.263	117.69
388.488	114.69
388.713	99.69
388.938	94.69
389.163	102.69
389.387	107.69
389.612	83.69
389.837	94.69
390.062	90.69
390.287	95.69
390.512	82.69
390.736	85.69
390.961	93.69
391.186	99.69
391.411	92.69
391.636	84.69
391.86	99.69
392.085	104.69
392.31	89.69
392.534	91.69
392.759	90.69
392.984	78.69
393.208	90.69
393.433	92.69
393.658	88.69
393.882	89.69
394.107	88.69
394.331	77.69
394.556	75.69
394.78	91.69
395.005	110.69
395.229	85.69
395.454	92.69
395.678	91.69
395.903	89.69
396.127	86.69
396.352	92.69
396.576	75.69
396.801	91.69
397.025	84.69
397.249	84.69
397.474	79.69
397.698	76.69
397.922	87.69
398.147	89.69
398.371	86.69
398.595	95.69
398.82	79.69
399.044	78.69
399.268	94.69
399.492	88.69
399.717	90.69
399.941	88.69
400.165	101.69
400.389	91.69
400.613	88.69
400.837	87.69
401.062	76.69
401.286	83.69
401.51	94.69
401.734	78.69
401.958	101.69
402.182	104.69
402.406	130.69
402.63	109.69
402.854	85.69
403.078	87.69
403.302	91.69
403.526	95.69
403.75	87.69
403.974	86.69
404.198	72.69
404.422	85.69
404.645	82.69
404.869	87.69
405.093	85.69
405.317	97.69
405.541	92.69
405.765	97.69
405.988	101.69
406.212	145.69
406.436	180.69
406.66	137.69
406.883	106.69
407.107	83.69
407.331	102.69
407.555	108.69
407.778	90.69
408.002	85.69
408.226	94.69
408.449	92.69
408.673	81.69
408.896	85.69
409.12	85.69
409.344	86.69
409.567	88.69
409.791	101.69
410.014	92.69
410.238	77.69
410.461	106.69
410.685	86.69
410.908	105.69
411.132	111.69
411.355	90.69
411.578	96.69
411.802	81.69
412.025	103.69
412.249	92.69
412.472	85.69
412.695	81.69
412.919	96.69
413.142	85.69
413.365	85.69
413.589	81.69
413.812	91.69
414.035	89.69
414.258	78.69
414.482	94.69
414.705	79.69
414.928	99.69
415.151	91.69
415.374	98.69
415.597	85.69
415.821	72.69
416.044	104.69
416.267	100.69
416.49	88.69
416.713	72.69
416.936	102.69
417.159	86.69
417.382	85.69
417.605	81.69
417.828	85.69
418.051	86.69
418.274	85.69
418.497	107.69
418.72	78.69
418.943	93.69
419.166	95.69
419.389	91.69
419.611	83.69
419.834	80.69
420.057	91.69
420.28	77.69
420.503	82.69
420.726	92.69
420.948	81.69
421.171	95.69
421.394	92.69
421.617	92.69
421.839	84.69
422.062	94.69
422.285	91.69
422.507	92.69
422.73	95.69
422.953	100.69
423.175	85.69
423.398	101.69
423.621	95.69
423.843	82.69
424.066	78.69
424.288	91.69
424.511	81.69
424.733	88.69
424.956	96.69
425.178	99.69
425.401	95.69
425.623	92.69
425.846	92.69
426.068	87.69
426.291	96.69
426.513	71.69
426.735	90.69
426.958	91.69
427.18	99.69
427.402	119.69
427.625	142.69
427.847	130.69
428.069	106.69
428.292	84.69
428.514	103.69
428.736	90.69
428.958	93.69
429.181	89.69
429.403	71.69
429.625	83.69
429.847	105.69
430.069	92.69
430.292	85.69
430.514	83.69
430.736	74.69
430.958	81.69
431.18	85.69
431.402	78.69
431.624	87.69
431.846	97.69
432.068	87.69
432.29	100.69
432.512	86.69
432.734	84.69
432.956	96.69
433.178	82.69
433.4	100.69
433.622	103.69
433.844	85.69
434.066	98.69
434.287	84.69
434.509	98.69
434.731	83.69
434.953	88.69
435.175	77.69
435.397	90.69
435.618	99.69
435.84	90.69
436.062	116.69
436.284	118.69
436.505	94.69
436.727	105.69
436.949	97.69
437.17	106.69
437.392	86.69
437.614	107.69
437.835	99.69
438.057	93.69
438.278	73.69
438.5	101.69
438.721	99.69
438.943	94.69
439.165	85.69
439.386	86.69
439.608	89.69
439.829	110.69
440.05	98.69
440.272	134.69
440.493	80.69
440.715	94.69
440.936	87.69
441.158	91.69
441.379	82.69
441.6	92.69
441.822	98.69
442.043	97.69
442.264	100.69
442.486	95.69
442.707	90.69
442.928	91.69
443.149	104.69
443.371	115.69
443.592	94.69
443.813	105.69
444.034	95.69
444.255	83.69
444.476	88.69
444.698	92.69
444.919	91.69
445.14	123.69
445.361	119.69
445.582	113.69
445.803	122.69
446.024	118.69
446.245	108.69
446.466	91.69
446.687	85.69
446.908	84.69
447.129	79.69
447.35	96.69
447.571	97.69
447.792	85.69
448.013	81.69
448.234	100.69
448.455	81.69
448.675	107.69
448.896	109.69
449.117	85.69
449.338	106.69
449.559	110.69
449.779	110.69
450	91.69
450.221	94.69
450.442	90.69
450.662	97.69
450.883	96.69
451.104	116.69
451.324	86.69
451.545	87.69
451.766	88.69
451.986	88.69
452.207	90.69
452.428	93.69
452.648	99.69
452.869	103.69
453.089	108.69
453.31	107.69
453.53	78.69
453.751	91.69
453.971	95.69
454.192	94.69
454.412	98.69
454.633	81.69
454.853	94.69
455.073	82.69
455.294	94.69
455.514	99.69
455.734	97.69
455.955	86.69
456.175	72.69
456.395	77.69
456.616	90.69
456.836	89.69
457.056	89.69
457.276	86.69
457.497	84.69
457.717	75.69
457.937	76.69
458.157	91.69
458.377	73.69
458.598	90.69
458.818	120.69
459.038	124.69
459.258	99.69
459.478	81.69
459.698	88.69
459.918	90.69
460.138	77.69
460.358	87.69
460.578	85.69
460.798	81.69
461.018	103.69
461.238	76.69
461.458	75.69
461.678	83.69
461.898	81.69
462.118	88.69
462.338	91.69
462.558	74.69
462.777	87.69
462.997	89.69
463.217	89.69
463.437	93.69
463.657	81.69
463.876	88.69
464.096	86.69
464.316	102.69
464.536	89.69
464.755	94.69
464.975	87.69
465.195	134.69
465.414	115.69
465.634	93.69
465.854	84.69
466.073	90.69
466.293	77.69
466.512	100.69
466.732	68.69
466.951	77.69
467.171	79.69
467.391	82.69
467.61	96.69
467.829	95.69
468.049	95.69
468.268	97.69
468.488	91.69
468.707	74.69
468.927	78.69
469.146	86.69
469.365	89.69
469.585	93.69
469.804	93.69
470.023	89.69
470.243	81.69
470.462	83.69
470.681	113.69
470.901	87.69
471.12	89.69
471.339	83.69
471.558	101.69
471.777	103.69
471.997	90.69
472.216	112.69
472.435	147.69
472.654	102.69
472.873	85.69
473.092	90.69
473.311	85.69
473.53	75.69
473.749	87.69
473.968	91.69
474.187	93.69
474.406	93.69
474.625	95.69
474.844	85.69
475.063	99.69
475.282	85.69
475.501	90.69
475.72	94.69
475.939	84.69
476.158	73.69
476.377	78.69
476.596	93.69
476.814	96.69
477.033	85.69
477.252	104.69
477.471	94.69
477.69	81.69
477.908	93.69
478.127	89.69
478.346	92.69
478.564	83.69
478.783	92.69
479.002	93.69
479.22	90.69
479.439	86.69
479.658	102.69
479.876	86.69
480.095	94.69
480.313	90.69
480.532	78.69
480.751	101.69
480.969	95.69
481.188	207.69
481.406	147.69
481.624	97.69
481.843	93.69
482.061	70.69
482.28	91.69
482.498	79.69
482.717	93.69
482.935	94.69
483.153	99.69
483.372	71.69
483.59	102.69
483.808	90.69
484.027	78.69
484.245	87.69
484.463	87.69
484.681	99.69
484.9	89.69
485.118	99.69
485.336	100.69
485.554	99.69
485.772	100.69
485.99	112.69
486.209	104.69
486.427	92.69
486.645	101.69
486.863	100.69
487.081	106.69
487.299	97.69
487.517	85.69
487.735	81.69
487.953	82.69
488.171	79.69
488.389	94.69
488.607	93.69
488.825	84.69
489.043	108.69
489.261	94.69
489.479	90.69
489.696	100.69
489.914	70.69
490.132	86.69
490.35	96.69
490.568	85.69
490.786	75.69
491.003	85.69
491.221	93.69
491.439	94.69
491.657	90.69
491.874	77.69
492.092	90.69
492.31	73.69
492.527	97.69
492.745	105.69
492.963	89.69
493.18	91.69
493.398	101.69
493.615	89.69
493.833	93.69
494.05	77.69
494.268	83.69
494.485	98.69
494.703	81.69
494.92	98.69
495.138	87.69
495.355	103.69
495.573	75.69
495.79	85.69
496.008	83.69
496.225	100.69
496.442	89.69
496.66	89.69
496.877	99.69
497.094	84.69
497.312	86.69
497.529	93.69
497.746	102.69
497.963	105.69
498.181	93.69
498.398	96.69
498.615	93.69
498.832	103.69
499.049	85.69
499.267	82.69
499.484	94.69
499.701	74.69
499.918	83.69
500.135	77.69
500.352	77.69
500.569	97.69
500.786	93.69
501.003	85.69
501.22	85.69
501.437	87.69
501.654	100.69
501.871	108.69
502.088	97.69
502.305	86.69
502.522	96.69
502.739	94.69
502.956	93.69
503.172	104.69
503.389	82.69
503.606	105.69
503.823	108.69
504.04	98.69
504.256	92.69
504.473	84.69
504.69	94.69
504.907	82.69
505.123	89.69
505.34	79.69
505.557	87.69
505.773	93.69
505.99	93.69
506.207	98.69
506.423	82.69
506.64	93.69
506.856	89.69
507.073	95.69
507.289	99.69
507.506	96.69
507.722	104.69
507.939	112.69
508.155	88.69
508.372	107.69
508.588	112.69
508.805	101.69
509.021	91.69
509.238	102.69
509.454	97.69
509.67	102.69
509.887	110.69
510.103	109.69
510.319	163.69
510.536	601.69
510.752	1863.69
510.968	523.69
511.184	130.69
511.401	101.69
511.617	83.69
511.833	85.69
512.049	92.69
512.265	98.69
512.481	94.69
512.698	97.69
512.914	85.69
513.13	89.69
513.346	99.69
513.562	105.69
513.778	100.69
513.994	94.69
514.21	93.69
514.426	99.69
514.642	132.69
514.858	109.69
515.074	136.69
515.29	374.69
515.506	1077.69
515.721	405.69
515.937	126.69
516.153	111.69
516.369	97.69
