Data from Circ_1980_H10_HRD10591_00062.txt Node
Date: Wed Jan 03 12:38:10 EST 2024
User: Yrep
Spectrometer: HR+D1059
Trigger mode: 1
Integration Time (sec): 1.000000E-1
Scans to average: 1
Electric dark correction enabled: true
Nonlinearity correction enabled: false
Boxcar width: 0
XAxis mode: Wavelengths
Number of Pixels in Spectrum: 2048
>>>>>Begin Spectral Data<<<<<
223.165	-31.88
223.4	-31.88
223.635	-31.88
223.869	-24.88
224.104	-23.88
224.338	-11.88
224.573	-11.88
224.808	-21.88
225.042	2.12
225.277	-0.88
225.511	-4.88
225.746	12.12
225.98	9.12
226.215	1.12
226.449	16.12
226.683	28.12
226.918	38.12
227.152	25.12
227.387	41.12
227.621	47.12
227.856	32.12
228.09	36.12
228.324	33.12
228.559	40.12
228.793	63.12
229.027	56.12
229.262	60.12
229.496	69.12
229.73	82.12
229.964	79.12
230.199	59.12
230.433	81.12
230.667	72.12
230.901	75.12
231.136	63.12
231.37	64.12
231.604	69.12
231.838	85.12
232.072	73.12
232.306	85.12
232.541	74.12
232.775	84.12
233.009	79.12
233.243	69.12
233.477	77.12
233.711	76.12
233.945	73.12
234.179	81.12
234.413	82.12
234.647	78.12
234.881	60.12
235.115	73.12
235.349	69.12
235.583	80.12
235.817	74.12
236.051	83.12
236.285	82.12
236.519	74.12
236.753	67.12
236.987	66.12
237.221	83.12
237.455	77.12
237.689	57.12
237.922	87.12
238.156	54.12
238.39	86.12
238.624	82.12
238.858	75.12
239.091	72.12
239.325	81.12
239.559	75.12
239.793	85.12
240.027	73.12
240.26	89.12
240.494	85.12
240.728	64.12
240.961	86.12
241.195	81.12
241.429	75.12
241.662	84.12
241.896	62.12
242.13	74.12
242.363	65.12
242.597	59.12
242.83	82.12
243.064	88.12
243.298	83.12
243.531	73.12
243.765	69.12
243.998	71.12
244.232	77.12
244.465	76.12
244.699	68.12
244.932	76.12
245.166	74.12
245.399	82.12
245.633	78.12
245.866	88.12
246.099	83.12
246.333	60.12
246.566	68.12
246.8	80.12
247.033	72.12
247.266	75.12
247.5	76.12
247.733	78.12
247.966	85.12
248.2	82.12
248.433	82.12
248.666	90.12
248.899	76.12
249.133	73.12
249.366	102.12
249.599	90.12
249.832	82.12
250.066	84.12
250.299	72.12
250.532	70.12
250.765	81.12
250.998	73.12
251.231	85.12
251.465	91.12
251.698	74.12
251.931	85.12
252.164	83.12
252.397	73.12
252.63	80.12
252.863	73.12
253.096	91.12
253.329	89.12
253.562	85.12
253.795	82.12
254.028	86.12
254.261	80.12
254.494	76.12
254.727	76.12
254.96	77.12
255.193	84.12
255.426	69.12
255.659	76.12
255.892	77.12
256.124	70.12
256.357	56.12
256.59	71.12
256.823	76.12
257.056	76.12
257.289	68.12
257.521	76.12
257.754	82.12
257.987	91.12
258.22	73.12
258.452	96.12
258.685	74.12
258.918	82.12
259.151	88.12
259.383	70.12
259.616	77.12
259.849	86.12
260.081	76.12
260.314	80.12
260.547	74.12
260.779	74.12
261.012	80.12
261.244	88.12
261.477	101.12
261.71	92.12
261.942	98.12
262.175	114.12
262.407	70.12
262.64	78.12
262.872	86.12
263.105	80.12
263.337	87.12
263.57	76.12
263.802	90.12
264.035	67.12
264.267	73.12
264.499	70.12
264.732	72.12
264.964	77.12
265.197	65.12
265.429	87.12
265.661	75.12
265.894	73.12
266.126	90.12
266.358	68.12
266.591	80.12
266.823	74.12
267.055	101.12
267.287	86.12
267.52	82.12
267.752	90.12
267.984	73.12
268.216	82.12
268.448	77.12
268.681	68.12
268.913	79.12
269.145	77.12
269.377	74.12
269.609	78.12
269.841	77.12
270.073	69.12
270.306	76.12
270.538	65.12
270.77	88.12
271.002	60.12
271.234	82.12
271.466	81.12
271.698	84.12
271.93	68.12
272.162	83.12
272.394	80.12
272.626	81.12
272.858	76.12
273.09	88.12
273.322	85.12
273.553	82.12
273.785	69.12
274.017	76.12
274.249	64.12
274.481	64.12
274.713	83.12
274.945	93.12
275.176	82.12
275.408	85.12
275.64	81.12
275.872	64.12
276.104	80.12
276.335	90.12
276.567	93.12
276.799	100.12
277.031	86.12
277.262	75.12
277.494	100.12
277.726	74.12
277.957	85.12
278.189	96.12
278.421	82.12
278.652	81.12
278.884	77.12
279.115	83.12
279.347	88.12
279.579	76.12
279.81	92.12
280.042	77.12
280.273	85.12
280.505	90.12
280.736	80.12
280.968	81.12
281.199	80.12
281.431	89.12
281.662	74.12
281.894	72.12
282.125	92.12
282.356	114.12
282.588	101.12
282.819	101.12
283.051	88.12
283.282	80.12
283.513	78.12
283.745	84.12
283.976	91.12
284.207	80.12
284.439	82.12
284.67	99.12
284.901	81.12
285.132	82.12
285.364	82.12
285.595	77.12
285.826	72.12
286.057	84.12
286.288	91.12
286.52	88.12
286.751	79.12
286.982	72.12
287.213	77.12
287.444	93.12
287.675	76.12
287.906	84.12
288.138	101.12
288.369	99.12
288.6	91.12
288.831	75.12
289.062	80.12
289.293	84.12
289.524	101.12
289.755	80.12
289.986	86.12
290.217	89.12
290.448	94.12
290.679	77.12
290.91	82.12
291.141	93.12
291.371	94.12
291.602	96.12
291.833	80.12
292.064	89.12
292.295	76.12
292.526	76.12
292.757	82.12
292.987	91.12
293.218	75.12
293.449	83.12
293.68	90.12
293.91	87.12
294.141	88.12
294.372	98.12
294.603	80.12
294.833	89.12
295.064	90.12
295.295	77.12
295.525	89.12
295.756	83.12
295.987	103.12
296.217	114.12
296.448	113.12
296.679	88.12
296.909	82.12
297.14	83.12
297.37	76.12
297.601	72.12
297.831	80.12
298.062	80.12
298.292	84.12
298.523	89.12
298.753	88.12
298.984	83.12
299.214	89.12
299.445	73.12
299.675	84.12
299.905	97.12
300.136	98.12
300.366	81.12
300.597	79.12
300.827	94.12
301.057	87.12
301.288	85.12
301.518	90.12
301.748	85.12
301.979	101.12
302.209	92.12
302.439	84.12
302.669	84.12
302.9	93.12
303.13	90.12
303.36	83.12
303.59	97.12
303.82	78.12
304.051	83.12
304.281	97.12
304.511	97.12
304.741	98.12
304.971	90.12
305.201	92.12
305.431	88.12
305.661	79.12
305.891	88.12
306.121	80.12
306.352	89.12
306.582	96.12
306.812	88.12
307.042	88.12
307.272	83.12
307.502	97.12
307.731	98.12
307.961	65.12
308.191	90.12
308.421	104.12
308.651	96.12
308.881	89.12
309.111	90.12
309.341	84.12
309.571	92.12
309.8	68.12
310.03	97.12
310.26	92.12
310.49	82.12
310.72	90.12
310.949	88.12
311.179	101.12
311.409	76.12
311.639	84.12
311.868	75.12
312.098	82.12
312.328	88.12
312.557	94.12
312.787	108.12
313.017	87.12
313.246	108.12
313.476	102.12
313.706	80.12
313.935	82.12
314.165	93.12
314.394	89.12
314.624	86.12
314.853	106.12
315.083	95.12
315.312	101.12
315.542	106.12
315.771	96.12
316.001	92.12
316.23	89.12
316.46	100.12
316.689	74.12
316.919	88.12
317.148	96.12
317.377	93.12
317.607	94.12
317.836	94.12
318.065	100.12
318.295	98.12
318.524	84.12
318.753	93.12
318.983	97.12
319.212	94.12
319.441	103.12
319.67	99.12
319.9	88.12
320.129	88.12
320.358	81.12
320.587	105.12
320.816	87.12
321.046	93.12
321.275	89.12
321.504	84.12
321.733	87.12
321.962	96.12
322.191	100.12
322.42	104.12
322.649	93.12
322.878	103.12
323.108	113.12
323.337	108.12
323.566	116.12
323.795	130.12
324.024	180.12
324.253	301.12
324.482	585.12
324.71	1174.12
324.939	1547.12
325.168	588.12
325.397	196.12
325.626	130.12
325.855	100.12
326.084	115.12
326.313	125.12
326.542	126.12
326.77	202.12
326.999	336.12
327.228	646.12
327.457	1204.12
327.686	960.12
327.914	284.12
328.143	150.12
328.372	126.12
328.6	113.12
328.829	101.12
329.058	110.12
329.287	112.12
329.515	98.12
329.744	104.12
329.972	102.12
330.201	120.12
330.43	121.12
330.658	130.12
330.887	117.12
331.115	115.12
331.344	96.12
331.572	96.12
331.801	89.12
332.03	94.12
332.258	95.12
332.486	94.12
332.715	93.12
332.943	81.12
333.172	98.12
333.4	90.12
333.629	98.12
333.857	114.12
334.085	100.12
334.314	106.12
334.542	109.12
334.771	114.12
334.999	91.12
335.227	114.12
335.455	88.12
335.684	92.12
335.912	99.12
336.14	105.12
336.369	92.12
336.597	115.12
336.825	92.12
337.053	93.12
337.281	83.12
337.51	96.12
337.738	93.12
337.966	84.12
338.194	85.12
338.422	84.12
338.65	106.12
338.878	92.12
339.106	80.12
339.334	92.12
339.562	85.12
339.79	83.12
340.018	86.12
340.246	86.12
340.474	77.12
340.702	89.12
340.93	98.12
341.158	89.12
341.386	87.12
341.614	97.12
341.842	89.12
342.07	77.12
342.298	92.12
342.526	80.12
342.754	81.12
342.981	87.12
343.209	84.12
343.437	96.12
343.665	98.12
343.893	68.12
344.12	77.12
344.348	90.12
344.576	78.12
344.804	90.12
345.031	98.12
345.259	70.12
345.487	82.12
345.714	101.12
345.942	92.12
346.17	89.12
346.397	96.12
346.625	108.12
346.853	91.12
347.08	89.12
347.308	92.12
347.535	86.12
347.763	102.12
347.99	95.12
348.218	87.12
348.445	105.12
348.673	92.12
348.9	80.12
349.128	96.12
349.355	83.12
349.583	98.12
349.81	96.12
350.037	87.12
350.265	82.12
350.492	99.12
350.72	104.12
350.947	74.12
351.174	97.12
351.402	89.12
351.629	95.12
351.856	106.12
352.083	99.12
352.311	102.12
352.538	111.12
352.765	98.12
352.992	112.12
353.22	111.12
353.447	90.12
353.674	97.12
353.901	94.12
354.128	86.12
354.355	104.12
354.583	80.12
354.81	100.12
355.037	80.12
355.264	80.12
355.491	93.12
355.718	92.12
355.945	101.12
356.172	86.12
356.399	90.12
356.626	96.12
356.853	96.12
357.08	109.12
357.307	104.12
357.534	84.12
357.761	91.12
357.988	98.12
358.215	108.12
358.441	96.12
358.668	85.12
358.895	90.12
359.122	88.12
359.349	91.12
359.576	89.12
359.802	91.12
360.029	97.12
360.256	89.12
360.483	97.12
360.709	98.12
360.936	92.12
361.163	87.12
361.39	91.12
361.616	93.12
361.843	85.12
362.07	100.12
362.296	88.12
362.523	92.12
362.749	82.12
362.976	86.12
363.203	81.12
363.429	90.12
363.656	92.12
363.882	89.12
364.109	97.12
364.335	89.12
364.562	105.12
364.788	91.12
365.015	93.12
365.241	98.12
365.468	101.12
365.694	98.12
365.92	90.12
366.147	72.12
366.373	88.12
366.599	92.12
366.826	75.12
367.052	101.12
367.278	97.12
367.505	92.12
367.731	80.12
367.957	96.12
368.184	86.12
368.41	94.12
368.636	102.12
368.862	106.12
369.089	104.12
369.315	77.12
369.541	91.12
369.767	87.12
369.993	90.12
370.219	80.12
370.445	91.12
370.672	77.12
370.898	97.12
371.124	104.12
371.35	82.12
371.576	87.12
371.802	87.12
372.028	84.12
372.254	82.12
372.48	90.12
372.706	86.12
372.932	86.12
373.158	99.12
373.384	90.12
373.61	92.12
373.835	81.12
374.061	82.12
374.287	98.12
374.513	85.12
374.739	90.12
374.965	90.12
375.191	86.12
375.416	92.12
375.642	79.12
375.868	84.12
376.094	90.12
376.319	98.12
376.545	97.12
376.771	84.12
376.997	73.12
377.222	95.12
377.448	85.12
377.674	105.12
377.899	86.12
378.125	84.12
378.35	81.12
378.576	94.12
378.802	85.12
379.027	72.12
379.253	103.12
379.478	88.12
379.704	89.12
379.929	88.12
380.155	88.12
380.38	101.12
380.606	80.12
380.831	90.12
381.057	104.12
381.282	84.12
381.507	84.12
381.733	108.12
381.958	98.12
382.184	93.12
382.409	105.12
382.634	103.12
382.86	98.12
383.085	115.12
383.31	103.12
383.535	96.12
383.761	96.12
383.986	100.12
384.211	103.12
384.436	100.12
384.662	101.12
384.887	101.12
385.112	109.12
385.337	99.12
385.562	86.12
385.787	106.12
386.013	102.12
386.238	123.12
386.463	108.12
386.688	132.12
386.913	100.12
387.138	102.12
387.363	106.12
387.588	113.12
387.813	114.12
388.038	88.12
388.263	102.12
388.488	102.12
388.713	101.12
388.938	82.12
389.163	90.12
389.387	98.12
389.612	94.12
389.837	98.12
390.062	89.12
390.287	98.12
390.512	85.12
390.736	99.12
390.961	102.12
391.186	92.12
391.411	75.12
391.636	94.12
391.86	84.12
392.085	81.12
392.31	87.12
392.534	82.12
392.759	94.12
392.984	87.12
393.208	75.12
393.433	89.12
393.658	101.12
393.882	73.12
394.107	83.12
394.331	97.12
394.556	84.12
394.78	98.12
395.005	95.12
395.229	77.12
395.454	86.12
395.678	73.12
395.903	84.12
396.127	80.12
396.352	83.12
396.576	68.12
396.801	87.12
397.025	79.12
397.249	74.12
397.474	96.12
397.698	75.12
397.922	68.12
398.147	91.12
398.371	94.12
398.595	92.12
398.82	95.12
399.044	88.12
399.268	92.12
399.492	103.12
399.717	95.12
399.941	84.12
400.165	88.12
400.389	91.12
400.613	101.12
400.837	96.12
401.062	81.12
401.286	76.12
401.51	66.12
401.734	88.12
401.958	80.12
402.182	99.12
402.406	124.12
402.63	106.12
402.854	84.12
403.078	92.12
403.302	73.12
403.526	84.12
403.75	97.12
403.974	80.12
404.198	80.12
404.422	87.12
404.645	94.12
404.869	84.12
405.093	96.12
405.317	93.12
405.541	90.12
405.765	89.12
405.988	101.12
406.212	133.12
406.436	168.12
406.66	112.12
406.883	84.12
407.107	97.12
407.331	94.12
407.555	92.12
407.778	93.12
408.002	96.12
408.226	87.12
408.449	92.12
408.673	77.12
408.896	86.12
409.12	96.12
409.344	77.12
409.567	84.12
409.791	90.12
410.014	95.12
410.238	97.12
410.461	102.12
410.685	102.12
410.908	93.12
411.132	94.12
411.355	89.12
411.578	93.12
411.802	85.12
412.025	85.12
412.249	75.12
412.472	98.12
412.695	98.12
412.919	106.12
413.142	90.12
413.365	75.12
413.589	74.12
413.812	88.12
414.035	83.12
414.258	89.12
414.482	80.12
414.705	85.12
414.928	91.12
415.151	98.12
415.374	86.12
415.597	92.12
415.821	89.12
416.044	88.12
416.267	72.12
416.49	90.12
416.713	95.12
416.936	100.12
417.159	69.12
417.382	69.12
417.605	78.12
417.828	80.12
418.051	92.12
418.274	84.12
418.497	77.12
418.72	84.12
418.943	82.12
419.166	97.12
419.389	98.12
419.611	95.12
419.834	91.12
420.057	89.12
420.28	75.12
420.503	75.12
420.726	90.12
420.948	87.12
421.171	71.12
421.394	87.12
421.617	81.12
421.839	83.12
422.062	93.12
422.285	90.12
422.507	85.12
422.73	80.12
422.953	91.12
423.175	96.12
423.398	76.12
423.621	78.12
423.843	92.12
424.066	88.12
424.288	90.12
424.511	91.12
424.733	102.12
424.956	104.12
425.178	93.12
425.401	102.12
425.623	105.12
425.846	93.12
426.068	92.12
426.291	88.12
426.513	92.12
426.735	93.12
426.958	89.12
427.18	96.12
427.402	125.12
427.625	126.12
427.847	108.12
428.069	83.12
428.292	88.12
428.514	77.12
428.736	82.12
428.958	92.12
429.181	84.12
429.403	90.12
429.625	71.12
429.847	96.12
430.069	92.12
430.292	89.12
430.514	94.12
430.736	89.12
430.958	105.12
431.18	83.12
431.402	99.12
431.624	67.12
431.846	91.12
432.068	85.12
432.29	85.12
432.512	83.12
432.734	93.12
432.956	90.12
433.178	101.12
433.4	91.12
433.622	89.12
433.844	87.12
434.066	100.12
434.287	97.12
434.509	79.12
434.731	94.12
434.953	82.12
435.175	83.12
435.397	83.12
435.618	82.12
435.84	100.12
436.062	123.12
436.284	105.12
436.505	84.12
436.727	100.12
436.949	77.12
437.17	88.12
437.392	83.12
437.614	92.12
437.835	96.12
438.057	122.12
438.278	98.12
438.5	81.12
438.721	106.12
438.943	111.12
439.165	82.12
439.386	92.12
439.608	82.12
439.829	74.12
440.05	114.12
440.272	119.12
440.493	87.12
440.715	97.12
440.936	86.12
441.158	87.12
441.379	77.12
441.6	86.12
441.822	100.12
442.043	92.12
442.264	104.12
442.486	98.12
442.707	89.12
442.928	93.12
443.149	87.12
443.371	97.12
443.592	104.12
443.813	98.12
444.034	105.12
444.255	94.12
444.476	77.12
444.698	89.12
444.919	85.12
445.14	131.12
445.361	102.12
445.582	96.12
445.803	119.12
446.024	112.12
446.245	108.12
446.466	83.12
446.687	78.12
446.908	83.12
447.129	91.12
447.35	69.12
447.571	84.12
447.792	91.12
448.013	83.12
448.234	105.12
448.455	90.12
448.675	94.12
448.896	104.12
449.117	94.12
449.338	91.12
449.559	124.12
449.779	110.12
450	91.12
450.221	95.12
450.442	85.12
450.662	95.12
450.883	88.12
451.104	91.12
451.324	80.12
451.545	86.12
451.766	71.12
451.986	68.12
452.207	81.12
452.428	93.12
452.648	99.12
452.869	102.12
453.089	108.12
453.31	100.12
453.53	81.12
453.751	74.12
453.971	90.12
454.192	98.12
454.412	95.12
454.633	84.12
454.853	81.12
455.073	76.12
455.294	86.12
455.514	80.12
455.734	85.12
455.955	90.12
456.175	92.12
456.395	80.12
456.616	77.12
456.836	86.12
457.056	96.12
457.276	78.12
457.497	70.12
457.717	67.12
457.937	68.12
458.157	93.12
458.377	90.12
458.598	90.12
458.818	120.12
459.038	130.12
459.258	96.12
459.478	77.12
459.698	81.12
459.918	96.12
460.138	88.12
460.358	87.12
460.578	90.12
460.798	82.12
461.018	77.12
461.238	73.12
461.458	85.12
461.678	92.12
461.898	72.12
462.118	85.12
462.338	83.12
462.558	65.12
462.777	82.12
462.997	63.12
463.217	88.12
463.437	70.12
463.657	80.12
463.876	90.12
464.096	91.12
464.316	76.12
464.536	81.12
464.755	90.12
464.975	106.12
465.195	125.12
465.414	130.12
465.634	98.12
465.854	83.12
466.073	85.12
466.293	95.12
466.512	75.12
466.732	81.12
466.951	89.12
467.171	97.12
467.391	85.12
467.61	78.12
467.829	98.12
468.049	96.12
468.268	95.12
468.488	62.12
468.707	100.12
468.927	107.12
469.146	73.12
469.365	102.12
469.585	84.12
469.804	94.12
470.023	93.12
470.243	105.12
470.462	92.12
470.681	103.12
470.901	93.12
471.12	74.12
471.339	82.12
471.558	78.12
471.777	86.12
471.997	101.12
472.216	108.12
472.435	124.12
472.654	98.12
472.873	82.12
473.092	90.12
473.311	80.12
473.53	75.12
473.749	74.12
473.968	83.12
474.187	98.12
474.406	84.12
474.625	78.12
474.844	94.12
475.063	86.12
475.282	103.12
475.501	91.12
475.72	89.12
475.939	79.12
476.158	97.12
476.377	82.12
476.596	63.12
476.814	89.12
477.033	85.12
477.252	84.12
477.471	71.12
477.69	80.12
477.908	88.12
478.127	96.12
478.346	75.12
478.564	94.12
478.783	98.12
479.002	101.12
479.22	80.12
479.439	90.12
479.658	99.12
479.876	86.12
480.095	77.12
480.313	83.12
480.532	79.12
480.751	81.12
480.969	95.12
481.188	176.12
481.406	151.12
481.624	94.12
481.843	77.12
482.061	80.12
482.28	78.12
482.498	88.12
482.717	96.12
482.935	80.12
483.153	95.12
483.372	84.12
483.59	80.12
483.808	90.12
484.027	93.12
484.245	69.12
484.463	94.12
484.681	93.12
484.9	99.12
485.118	84.12
485.336	94.12
485.554	104.12
485.772	97.12
485.99	97.12
486.209	101.12
486.427	97.12
486.645	103.12
486.863	109.12
487.081	100.12
487.299	100.12
487.517	98.12
487.735	97.12
487.953	93.12
488.171	88.12
488.389	88.12
488.607	92.12
488.825	101.12
489.043	88.12
489.261	84.12
489.479	90.12
489.696	93.12
489.914	92.12
490.132	76.12
490.35	96.12
490.568	92.12
490.786	98.12
491.003	91.12
491.221	97.12
491.439	77.12
491.657	91.12
491.874	92.12
492.092	96.12
492.31	89.12
492.527	94.12
492.745	96.12
492.963	94.12
493.18	98.12
493.398	103.12
493.615	100.12
493.833	94.12
494.05	88.12
494.268	102.12
494.485	111.12
494.703	71.12
494.92	79.12
495.138	94.12
495.355	69.12
495.573	88.12
495.79	90.12
496.008	91.12
496.225	93.12
496.442	84.12
496.66	101.12
496.877	85.12
497.094	83.12
497.312	85.12
497.529	89.12
497.746	79.12
497.963	75.12
498.181	88.12
498.398	95.12
498.615	101.12
498.832	89.12
499.049	87.12
499.267	107.12
499.484	85.12
499.701	100.12
499.918	98.12
500.135	92.12
500.352	90.12
500.569	86.12
500.786	98.12
501.003	83.12
501.22	84.12
501.437	73.12
501.654	94.12
501.871	89.12
502.088	75.12
502.305	96.12
502.522	98.12
502.739	75.12
502.956	79.12
503.172	86.12
503.389	88.12
503.606	100.12
503.823	85.12
504.04	84.12
504.256	91.12
504.473	89.12
504.69	87.12
504.907	93.12
505.123	93.12
505.34	90.12
505.557	88.12
505.773	97.12
505.99	86.12
506.207	101.12
506.423	94.12
506.64	78.12
506.856	89.12
507.073	92.12
507.289	93.12
507.506	81.12
507.722	100.12
507.939	99.12
508.155	87.12
508.372	90.12
508.588	101.12
508.805	103.12
509.021	101.12
509.238	86.12
509.454	79.12
509.67	108.12
509.887	96.12
510.103	116.12
510.319	158.12
510.536	532.12
510.752	1701.12
510.968	474.12
511.184	130.12
511.401	94.12
511.617	88.12
511.833	88.12
512.049	89.12
512.265	77.12
512.481	84.12
512.698	85.12
512.914	104.12
513.13	86.12
513.346	91.12
513.562	84.12
513.778	82.12
513.994	82.12
514.21	96.12
514.426	108.12
514.642	86.12
514.858	105.12
515.074	126.12
515.29	330.12
515.506	996.12
515.721	378.12
515.937	121.12
516.153	104.12
516.369	101.12
516.585	86.12
516.801	81.12
