Data from Circ_1980_H10_HRD10591_00037.txt Node
Date: Wed Jan 03 12:38:05 EST 2024
User: Yrep
Spectrometer: HR+D1059
Trigger mode: 1
Integration Time (sec): 1.000000E-1
Scans to average: 1
Electric dark correction enabled: true
Nonlinearity correction enabled: false
Boxcar width: 0
XAxis mode: Wavelengths
Number of Pixels in Spectrum: 2048
>>>>>Begin Spectral Data<<<<<
223.165	-18.31
223.4	-18.31
223.635	-18.31
223.869	-27.31
224.104	-18.31
224.338	-15.31
224.573	-17.31
224.808	-8.31
225.042	-14.31
225.277	7.69
225.511	-15.31
225.746	8.69
225.98	1.69
226.215	6.69
226.449	25.69
226.683	37.69
226.918	17.69
227.152	28.69
227.387	44.69
227.621	25.69
227.856	39.69
228.09	57.69
228.324	61.69
228.559	49.69
228.793	60.69
229.027	50.69
229.262	53.69
229.496	86.69
229.73	89.69
229.964	88.69
230.199	82.69
230.433	82.69
230.667	72.69
230.901	87.69
231.136	86.69
231.37	73.69
231.604	68.69
231.838	65.69
232.072	76.69
232.306	74.69
232.541	84.69
232.775	84.69
233.009	80.69
233.243	92.69
233.477	81.69
233.711	81.69
233.945	70.69
234.179	85.69
234.413	88.69
234.647	85.69
234.881	81.69
235.115	83.69
235.349	77.69
235.583	59.69
235.817	77.69
236.051	69.69
236.285	87.69
236.519	95.69
236.753	80.69
236.987	88.69
237.221	76.69
237.455	82.69
237.689	79.69
237.922	69.69
238.156	89.69
238.39	79.69
238.624	68.69
238.858	88.69
239.091	81.69
239.325	76.69
239.559	79.69
239.793	71.69
240.027	87.69
240.26	81.69
240.494	90.69
240.728	71.69
240.961	72.69
241.195	68.69
241.429	72.69
241.662	80.69
241.896	77.69
242.13	72.69
242.363	79.69
242.597	72.69
242.83	74.69
243.064	66.69
243.298	79.69
243.531	76.69
243.765	73.69
243.998	77.69
244.232	74.69
244.465	73.69
244.699	97.69
244.932	81.69
245.166	71.69
245.399	73.69
245.633	86.69
245.866	76.69
246.099	76.69
246.333	77.69
246.566	88.69
246.8	79.69
247.033	88.69
247.266	76.69
247.5	88.69
247.733	84.69
247.966	73.69
248.2	83.69
248.433	81.69
248.666	78.69
248.899	77.69
249.133	101.69
249.366	89.69
249.599	92.69
249.832	81.69
250.066	88.69
250.299	71.69
250.532	73.69
250.765	79.69
250.998	94.69
251.231	86.69
251.465	87.69
251.698	92.69
251.931	94.69
252.164	71.69
252.397	92.69
252.63	76.69
252.863	76.69
253.096	87.69
253.329	97.69
253.562	93.69
253.795	98.69
254.028	70.69
254.261	77.69
254.494	84.69
254.727	71.69
254.96	79.69
255.193	77.69
255.426	85.69
255.659	78.69
255.892	76.69
256.124	92.69
256.357	82.69
256.59	88.69
256.823	87.69
257.056	86.69
257.289	85.69
257.521	76.69
257.754	96.69
257.987	90.69
258.22	93.69
258.452	90.69
258.685	86.69
258.918	70.69
259.151	96.69
259.383	84.69
259.616	82.69
259.849	90.69
260.081	86.69
260.314	93.69
260.547	75.69
260.779	87.69
261.012	82.69
261.244	93.69
261.477	102.69
261.71	88.69
261.942	111.69
262.175	119.69
262.407	79.69
262.64	97.69
262.872	86.69
263.105	83.69
263.337	96.69
263.57	76.69
263.802	89.69
264.035	84.69
264.267	86.69
264.499	76.69
264.732	94.69
264.964	89.69
265.197	90.69
265.429	87.69
265.661	80.69
265.894	77.69
266.126	69.69
266.358	77.69
266.591	83.69
266.823	100.69
267.055	82.69
267.287	92.69
267.52	86.69
267.752	80.69
267.984	74.69
268.216	88.69
268.448	92.69
268.681	80.69
268.913	84.69
269.145	94.69
269.377	81.69
269.609	86.69
269.841	100.69
270.073	83.69
270.306	91.69
270.538	101.69
270.77	93.69
271.002	93.69
271.234	72.69
271.466	93.69
271.698	85.69
271.93	100.69
272.162	89.69
272.394	91.69
272.626	85.69
272.858	84.69
273.09	78.69
273.322	85.69
273.553	84.69
273.785	80.69
274.017	99.69
274.249	92.69
274.481	94.69
274.713	87.69
274.945	104.69
275.176	95.69
275.408	90.69
275.64	79.69
275.872	99.69
276.104	84.69
276.335	82.69
276.567	92.69
276.799	106.69
277.031	102.69
277.262	90.69
277.494	98.69
277.726	92.69
277.957	79.69
278.189	95.69
278.421	90.69
278.652	84.69
278.884	86.69
279.115	87.69
279.347	90.69
279.579	90.69
279.81	89.69
280.042	82.69
280.273	94.69
280.505	91.69
280.736	87.69
280.968	82.69
281.199	75.69
281.431	102.69
281.662	86.69
281.894	89.69
282.125	84.69
282.356	106.69
282.588	110.69
282.819	96.69
283.051	98.69
283.282	93.69
283.513	83.69
283.745	89.69
283.976	94.69
284.207	85.69
284.439	81.69
284.67	95.69
284.901	78.69
285.132	93.69
285.364	76.69
285.595	87.69
285.826	92.69
286.057	95.69
286.288	85.69
286.52	87.69
286.751	87.69
286.982	83.69
287.213	95.69
287.444	99.69
287.675	93.69
287.906	92.69
288.138	101.69
288.369	89.69
288.6	97.69
288.831	92.69
289.062	83.69
289.293	84.69
289.524	86.69
289.755	96.69
289.986	93.69
290.217	96.69
290.448	105.69
290.679	89.69
290.91	90.69
291.141	74.69
291.371	77.69
291.602	94.69
291.833	98.69
292.064	88.69
292.295	97.69
292.526	105.69
292.757	93.69
292.987	93.69
293.218	101.69
293.449	93.69
293.68	85.69
293.91	82.69
294.141	93.69
294.372	88.69
294.603	92.69
294.833	92.69
295.064	87.69
295.295	98.69
295.525	96.69
295.756	100.69
295.987	112.69
296.217	133.69
296.448	103.69
296.679	81.69
296.909	86.69
297.14	85.69
297.37	87.69
297.601	79.69
297.831	90.69
298.062	104.69
298.292	98.69
298.523	112.69
298.753	85.69
298.984	75.69
299.214	89.69
299.445	89.69
299.675	94.69
299.905	100.69
300.136	79.69
300.366	93.69
300.597	90.69
300.827	98.69
301.057	90.69
301.288	85.69
301.518	86.69
301.748	81.69
301.979	99.69
302.209	100.69
302.439	81.69
302.669	96.69
302.9	94.69
303.13	98.69
303.36	84.69
303.59	96.69
303.82	112.69
304.051	88.69
304.281	94.69
304.511	95.69
304.741	91.69
304.971	93.69
305.201	100.69
305.431	101.69
305.661	89.69
305.891	81.69
306.121	100.69
306.352	101.69
306.582	100.69
306.812	88.69
307.042	93.69
307.272	73.69
307.502	92.69
307.731	79.69
307.961	87.69
308.191	90.69
308.421	81.69
308.651	94.69
308.881	108.69
309.111	98.69
309.341	78.69
309.571	96.69
309.8	84.69
310.03	103.69
310.26	94.69
310.49	94.69
310.72	93.69
310.949	88.69
311.179	86.69
311.409	86.69
311.639	109.69
311.868	99.69
312.098	87.69
312.328	96.69
312.557	91.69
312.787	114.69
313.017	88.69
313.246	93.69
313.476	98.69
313.706	93.69
313.935	85.69
314.165	97.69
314.394	86.69
314.624	86.69
314.853	92.69
315.083	100.69
315.312	91.69
315.542	98.69
315.771	93.69
316.001	81.69
316.23	95.69
316.46	100.69
316.689	96.69
316.919	90.69
317.148	88.69
317.377	92.69
317.607	92.69
317.836	100.69
318.065	85.69
318.295	66.69
318.524	86.69
318.753	103.69
318.983	99.69
319.212	99.69
319.441	100.69
319.67	89.69
319.9	96.69
320.129	98.69
320.358	94.69
320.587	100.69
320.816	99.69
321.046	94.69
321.275	96.69
321.504	96.69
321.733	90.69
321.962	104.69
322.191	102.69
322.42	114.69
322.649	111.69
322.878	96.69
323.108	108.69
323.337	124.69
323.566	120.69
323.795	132.69
324.024	155.69
324.253	304.69
324.482	612.69
324.71	1207.69
324.939	1602.69
325.168	610.69
325.397	214.69
325.626	136.69
325.855	123.69
326.084	109.69
326.313	139.69
326.542	137.69
326.77	175.69
326.999	354.69
327.228	722.69
327.457	1270.69
327.686	1037.69
327.914	291.69
328.143	156.69
328.372	135.69
328.6	120.69
328.829	102.69
329.058	132.69
329.287	105.69
329.515	114.69
329.744	109.69
329.972	105.69
330.201	101.69
330.43	112.69
330.658	121.69
330.887	140.69
331.115	116.69
331.344	93.69
331.572	95.69
331.801	105.69
332.03	109.69
332.258	103.69
332.486	101.69
332.715	94.69
332.943	96.69
333.172	95.69
333.4	87.69
333.629	101.69
333.857	111.69
334.085	94.69
334.314	104.69
334.542	126.69
334.771	129.69
334.999	107.69
335.227	86.69
335.455	101.69
335.684	97.69
335.912	106.69
336.14	102.69
336.369	95.69
336.597	101.69
336.825	100.69
337.053	100.69
337.281	104.69
337.51	91.69
337.738	86.69
337.966	88.69
338.194	91.69
338.422	89.69
338.65	96.69
338.878	95.69
339.106	89.69
339.334	100.69
339.562	97.69
339.79	80.69
340.018	98.69
340.246	87.69
340.474	80.69
340.702	92.69
340.93	76.69
341.158	97.69
341.386	86.69
341.614	104.69
341.842	95.69
342.07	100.69
342.298	97.69
342.526	86.69
342.754	75.69
342.981	101.69
343.209	100.69
343.437	107.69
343.665	90.69
343.893	90.69
344.12	99.69
344.348	101.69
344.576	85.69
344.804	89.69
345.031	105.69
345.259	97.69
345.487	89.69
345.714	102.69
345.942	95.69
346.17	92.69
346.397	100.69
346.625	84.69
346.853	91.69
347.08	81.69
347.308	98.69
347.535	82.69
347.763	107.69
347.99	90.69
348.218	102.69
348.445	92.69
348.673	106.69
348.9	93.69
349.128	97.69
349.355	89.69
349.583	112.69
349.81	92.69
350.037	92.69
350.265	93.69
350.492	97.69
350.72	87.69
350.947	96.69
351.174	109.69
351.402	109.69
351.629	105.69
351.856	101.69
352.083	105.69
352.311	122.69
352.538	99.69
352.765	95.69
352.992	101.69
353.22	113.69
353.447	104.69
353.674	105.69
353.901	108.69
354.128	104.69
354.355	97.69
354.583	117.69
354.81	106.69
355.037	88.69
355.264	88.69
355.491	115.69
355.718	101.69
355.945	99.69
356.172	106.69
356.399	91.69
356.626	102.69
356.853	100.69
357.08	92.69
357.307	87.69
357.534	87.69
357.761	88.69
357.988	95.69
358.215	110.69
358.441	86.69
358.668	85.69
358.895	91.69
359.122	100.69
359.349	99.69
359.576	89.69
359.802	71.69
360.029	95.69
360.256	113.69
360.483	100.69
360.709	86.69
360.936	96.69
361.163	89.69
361.39	88.69
361.616	97.69
361.843	85.69
362.07	87.69
362.296	105.69
362.523	101.69
362.749	91.69
362.976	93.69
363.203	100.69
363.429	90.69
363.656	78.69
363.882	95.69
364.109	76.69
364.335	92.69
364.562	77.69
364.788	91.69
365.015	97.69
365.241	90.69
365.468	101.69
365.694	100.69
365.92	96.69
366.147	94.69
366.373	88.69
366.599	84.69
366.826	92.69
367.052	100.69
367.278	93.69
367.505	99.69
367.731	88.69
367.957	90.69
368.184	85.69
368.41	108.69
368.636	107.69
368.862	106.69
369.089	111.69
369.315	75.69
369.541	108.69
369.767	88.69
369.993	84.69
370.219	85.69
370.445	93.69
370.672	84.69
370.898	84.69
371.124	82.69
371.35	97.69
371.576	85.69
371.802	81.69
372.028	100.69
372.254	93.69
372.48	92.69
372.706	76.69
372.932	91.69
373.158	101.69
373.384	84.69
373.61	90.69
373.835	94.69
374.061	84.69
374.287	92.69
374.513	95.69
374.739	95.69
374.965	97.69
375.191	85.69
375.416	84.69
375.642	99.69
375.868	96.69
376.094	90.69
376.319	81.69
376.545	95.69
376.771	92.69
376.997	98.69
377.222	104.69
377.448	96.69
377.674	93.69
377.899	91.69
378.125	106.69
378.35	96.69
378.576	97.69
378.802	92.69
379.027	90.69
379.253	102.69
379.478	93.69
379.704	83.69
379.929	106.69
380.155	103.69
380.38	95.69
380.606	99.69
380.831	79.69
381.057	114.69
381.282	96.69
381.507	106.69
381.733	109.69
381.958	110.69
382.184	96.69
382.409	105.69
382.634	104.69
382.86	107.69
383.085	105.69
383.31	95.69
383.535	108.69
383.761	105.69
383.986	107.69
384.211	111.69
384.436	110.69
384.662	107.69
384.887	118.69
385.112	104.69
385.337	111.69
385.562	105.69
385.787	104.69
386.013	119.69
386.238	103.69
386.463	114.69
386.688	123.69
386.913	106.69
387.138	119.69
387.363	95.69
387.588	90.69
387.813	115.69
388.038	111.69
388.263	118.69
388.488	113.69
388.713	91.69
388.938	94.69
389.163	93.69
389.387	89.69
389.612	98.69
389.837	89.69
390.062	102.69
390.287	94.69
390.512	98.69
390.736	87.69
390.961	92.69
391.186	96.69
391.411	96.69
391.636	87.69
391.86	93.69
392.085	86.69
392.31	98.69
392.534	102.69
392.759	95.69
392.984	90.69
393.208	93.69
393.433	92.69
393.658	88.69
393.882	84.69
394.107	75.69
394.331	93.69
394.556	88.69
394.78	72.69
395.005	102.69
395.229	87.69
395.454	90.69
395.678	82.69
395.903	89.69
396.127	88.69
396.352	97.69
396.576	84.69
396.801	86.69
397.025	110.69
397.249	83.69
397.474	98.69
397.698	86.69
397.922	106.69
398.147	97.69
398.371	85.69
398.595	99.69
398.82	92.69
399.044	82.69
399.268	88.69
399.492	102.69
399.717	73.69
399.941	86.69
400.165	80.69
400.389	74.69
400.613	94.69
400.837	94.69
401.062	90.69
401.286	87.69
401.51	92.69
401.734	78.69
401.958	91.69
402.182	109.69
402.406	128.69
402.63	102.69
402.854	91.69
403.078	105.69
403.302	86.69
403.526	83.69
403.75	89.69
403.974	77.69
404.198	90.69
404.422	81.69
404.645	82.69
404.869	92.69
405.093	100.69
405.317	89.69
405.541	110.69
405.765	96.69
405.988	107.69
406.212	133.69
406.436	177.69
406.66	127.69
406.883	94.69
407.107	82.69
407.331	91.69
407.555	94.69
407.778	97.69
408.002	97.69
408.226	81.69
408.449	76.69
408.673	88.69
408.896	84.69
409.12	107.69
409.344	104.69
409.567	90.69
409.791	87.69
410.014	95.69
410.238	97.69
410.461	102.69
410.685	98.69
410.908	98.69
411.132	106.69
411.355	107.69
411.578	92.69
411.802	90.69
412.025	88.69
412.249	101.69
412.472	99.69
412.695	98.69
412.919	82.69
413.142	94.69
413.365	90.69
413.589	83.69
413.812	100.69
414.035	76.69
414.258	71.69
414.482	99.69
414.705	80.69
414.928	90.69
415.151	88.69
415.374	77.69
415.597	82.69
415.821	98.69
416.044	98.69
416.267	100.69
416.49	86.69
416.713	88.69
416.936	94.69
417.159	93.69
417.382	91.69
417.605	84.69
417.828	97.69
418.051	114.69
418.274	97.69
418.497	98.69
418.72	80.69
418.943	89.69
419.166	92.69
419.389	79.69
419.611	93.69
419.834	83.69
420.057	102.69
420.28	88.69
420.503	104.69
420.726	93.69
420.948	87.69
421.171	81.69
421.394	81.69
421.617	87.69
421.839	81.69
422.062	86.69
422.285	84.69
422.507	109.69
422.73	100.69
422.953	92.69
423.175	80.69
423.398	100.69
423.621	84.69
423.843	92.69
424.066	87.69
424.288	96.69
424.511	89.69
424.733	91.69
424.956	97.69
425.178	88.69
425.401	115.69
425.623	92.69
425.846	97.69
426.068	109.69
426.291	79.69
426.513	90.69
426.735	92.69
426.958	99.69
427.18	114.69
427.402	112.69
427.625	147.69
427.847	112.69
428.069	109.69
428.292	78.69
428.514	85.69
428.736	92.69
428.958	82.69
429.181	95.69
429.403	86.69
429.625	75.69
429.847	92.69
430.069	86.69
430.292	98.69
430.514	85.69
430.736	96.69
430.958	68.69
431.18	62.69
431.402	79.69
431.624	89.69
431.846	95.69
432.068	95.69
432.29	95.69
432.512	91.69
432.734	107.69
432.956	92.69
433.178	95.69
433.4	97.69
433.622	93.69
433.844	99.69
434.066	94.69
434.287	88.69
434.509	95.69
434.731	92.69
434.953	90.69
435.175	86.69
435.397	97.69
435.618	97.69
435.84	97.69
436.062	108.69
436.284	104.69
436.505	90.69
436.727	98.69
436.949	89.69
437.17	97.69
437.392	99.69
437.614	89.69
437.835	102.69
438.057	109.69
438.278	88.69
438.5	92.69
438.721	112.69
438.943	95.69
439.165	86.69
439.386	102.69
439.608	94.69
439.829	98.69
440.05	96.69
440.272	128.69
440.493	109.69
440.715	86.69
440.936	71.69
441.158	103.69
441.379	82.69
441.6	90.69
441.822	106.69
442.043	89.69
442.264	100.69
442.486	96.69
442.707	98.69
442.928	96.69
443.149	110.69
443.371	111.69
443.592	102.69
443.813	100.69
444.034	96.69
444.255	98.69
444.476	96.69
444.698	72.69
444.919	85.69
445.14	116.69
445.361	113.69
445.582	100.69
445.803	114.69
446.024	114.69
446.245	121.69
446.466	105.69
446.687	78.69
446.908	104.69
447.129	95.69
447.35	85.69
447.571	97.69
447.792	88.69
448.013	89.69
448.234	102.69
448.455	88.69
448.675	94.69
448.896	118.69
449.117	107.69
449.338	103.69
449.559	114.69
449.779	112.69
450	97.69
450.221	99.69
450.442	82.69
450.662	92.69
450.883	86.69
451.104	109.69
451.324	103.69
451.545	80.69
451.766	84.69
451.986	89.69
452.207	89.69
452.428	92.69
452.648	93.69
452.869	124.69
453.089	106.69
453.31	101.69
453.53	92.69
453.751	106.69
453.971	105.69
454.192	117.69
454.412	98.69
454.633	88.69
454.853	91.69
455.073	100.69
455.294	77.69
455.514	95.69
455.734	86.69
455.955	94.69
456.175	80.69
456.395	77.69
456.616	84.69
456.836	99.69
457.056	85.69
457.276	84.69
457.497	84.69
457.717	84.69
457.937	78.69
458.157	85.69
458.377	89.69
458.598	94.69
458.818	144.69
459.038	127.69
459.258	99.69
459.478	90.69
459.698	94.69
459.918	88.69
460.138	92.69
460.358	86.69
460.578	91.69
460.798	87.69
461.018	77.69
461.238	86.69
461.458	86.69
461.678	89.69
461.898	78.69
462.118	94.69
462.338	84.69
462.558	81.69
462.777	84.69
462.997	86.69
463.217	89.69
463.437	86.69
463.657	84.69
463.876	80.69
464.096	94.69
464.316	78.69
464.536	82.69
464.755	100.69
464.975	110.69
465.195	129.69
465.414	116.69
465.634	89.69
465.854	79.69
466.073	84.69
466.293	93.69
466.512	93.69
466.732	87.69
466.951	79.69
467.171	91.69
467.391	93.69
467.61	88.69
467.829	92.69
468.049	106.69
468.268	107.69
468.488	77.69
468.707	92.69
468.927	70.69
469.146	79.69
469.365	78.69
469.585	96.69
469.804	95.69
470.023	92.69
470.243	94.69
470.462	88.69
470.681	96.69
470.901	98.69
471.12	92.69
471.339	74.69
471.558	92.69
471.777	100.69
471.997	87.69
472.216	109.69
472.435	127.69
472.654	104.69
472.873	84.69
473.092	92.69
473.311	89.69
473.53	95.69
473.749	83.69
473.968	92.69
474.187	102.69
474.406	86.69
474.625	95.69
474.844	93.69
475.063	75.69
475.282	94.69
475.501	81.69
475.72	80.69
475.939	100.69
476.158	89.69
476.377	89.69
476.596	66.69
476.814	102.69
477.033	103.69
477.252	93.69
477.471	74.69
477.69	91.69
477.908	81.69
478.127	92.69
478.346	92.69
478.564	95.69
478.783	105.69
479.002	82.69
479.22	86.69
479.439	98.69
479.658	111.69
479.876	86.69
480.095	87.69
480.313	86.69
480.532	88.69
480.751	100.69
480.969	118.69
481.188	196.69
481.406	142.69
481.624	98.69
481.843	84.69
482.061	77.69
482.28	90.69
482.498	97.69
482.717	90.69
482.935	88.69
483.153	101.69
483.372	100.69
483.59	101.69
483.808	89.69
484.027	101.69
484.245	91.69
484.463	88.69
484.681	82.69
484.9	101.69
485.118	101.69
485.336	102.69
485.554	107.69
485.772	114.69
485.99	105.69
486.209	107.69
486.427	112.69
486.645	110.69
486.863	120.69
487.081	110.69
487.299	109.69
487.517	80.69
487.735	96.69
487.953	90.69
488.171	97.69
488.389	87.69
488.607	102.69
488.825	95.69
489.043	102.69
489.261	94.69
489.479	88.69
489.696	87.69
489.914	106.69
490.132	88.69
490.35	87.69
490.568	92.69
490.786	96.69
491.003	95.69
491.221	89.69
491.439	102.69
491.657	97.69
491.874	100.69
492.092	88.69
492.31	90.69
492.527	95.69
492.745	98.69
492.963	87.69
493.18	84.69
493.398	92.69
493.615	90.69
493.833	101.69
494.05	92.69
494.268	97.69
494.485	77.69
494.703	94.69
494.92	89.69
495.138	87.69
495.355	81.69
495.573	90.69
495.79	86.69
496.008	89.69
496.225	76.69
496.442	79.69
496.66	98.69
496.877	87.69
497.094	103.69
497.312	94.69
497.529	87.69
497.746	97.69
497.963	101.69
498.181	88.69
498.398	101.69
498.615	110.69
498.832	89.69
499.049	86.69
499.267	88.69
499.484	90.69
499.701	84.69
499.918	90.69
500.135	91.69
500.352	97.69
500.569	108.69
500.786	92.69
501.003	101.69
501.22	94.69
501.437	89.69
501.654	100.69
501.871	97.69
502.088	86.69
502.305	90.69
502.522	90.69
502.739	95.69
502.956	104.69
503.172	101.69
503.389	97.69
503.606	88.69
503.823	102.69
504.04	110.69
504.256	105.69
504.473	103.69
504.69	88.69
504.907	92.69
505.123	93.69
505.34	89.69
505.557	91.69
505.773	101.69
505.99	92.69
506.207	101.69
506.423	81.69
506.64	89.69
506.856	102.69
507.073	94.69
507.289	90.69
507.506	93.69
507.722	118.69
507.939	102.69
508.155	88.69
508.372	99.69
508.588	99.69
508.805	93.69
509.021	94.69
509.238	103.69
509.454	80.69
509.67	102.69
509.887	105.69
510.103	126.69
510.319	183.69
510.536	578.69
510.752	1813.69
510.968	529.69
511.184	137.69
511.401	95.69
511.617	103.69
511.833	88.69
512.049	95.69
512.265	80.69
512.481	87.69
512.698	92.69
512.914	86.69
513.13	86.69
513.346	91.69
513.562	97.69
513.778	85.69
513.994	113.69
514.21	96.69
514.426	134.69
514.642	114.69
514.858	108.69
515.074	142.69
515.29	331.69
