Data from Circ_1980_H10_HRD10591_00047.txt Node
Date: Wed Jan 03 12:38:07 EST 2024
User: Yrep
Spectrometer: HR+D1059
Trigger mode: 1
Integration Time (sec): 1.000000E-1
Scans to average: 1
Electric dark correction enabled: true
Nonlinearity correction enabled: false
Boxcar width: 0
XAxis mode: Wavelengths
Number of Pixels in Spectrum: 2048
>>>>>Begin Spectral Data<<<<<
223.165	-16.75
223.4	-16.75
223.635	-16.75
223.869	-14.75
224.104	-15.75
224.338	-14.75
224.573	-22.75
224.808	-12.75
225.042	-16.75
225.277	-5.75
225.511	6.25
225.746	5.25
225.98	-8.75
226.215	19.25
226.449	26.25
226.683	30.25
226.918	20.25
227.152	21.25
227.387	36.25
227.621	30.25
227.856	46.25
228.09	44.25
228.324	46.25
228.559	52.25
228.793	51.25
229.027	68.25
229.262	69.25
229.496	43.25
229.73	55.25
229.964	84.25
230.199	60.25
230.433	75.25
230.667	67.25
230.901	70.25
231.136	69.25
231.37	78.25
231.604	85.25
231.838	84.25
232.072	80.25
232.306	86.25
232.541	98.25
232.775	78.25
233.009	82.25
233.243	93.25
233.477	86.25
233.711	87.25
233.945	73.25
234.179	70.25
234.413	82.25
234.647	75.25
234.881	83.25
235.115	80.25
235.349	84.25
235.583	91.25
235.817	63.25
236.051	74.25
236.285	87.25
236.519	76.25
236.753	80.25
236.987	58.25
237.221	80.25
237.455	79.25
237.689	71.25
237.922	78.25
238.156	71.25
238.39	85.25
238.624	78.25
238.858	72.25
239.091	78.25
239.325	66.25
239.559	54.25
239.793	84.25
240.027	73.25
240.26	71.25
240.494	69.25
240.728	70.25
240.961	70.25
241.195	69.25
241.429	78.25
241.662	67.25
241.896	62.25
242.13	79.25
242.363	75.25
242.597	74.25
242.83	82.25
243.064	74.25
243.298	78.25
243.531	68.25
243.765	80.25
243.998	76.25
244.232	75.25
244.465	79.25
244.699	77.25
244.932	72.25
245.166	80.25
245.399	77.25
245.633	75.25
245.866	86.25
246.099	80.25
246.333	63.25
246.566	71.25
246.8	90.25
247.033	70.25
247.266	79.25
247.5	84.25
247.733	74.25
247.966	86.25
248.2	82.25
248.433	82.25
248.666	73.25
248.899	72.25
249.133	83.25
249.366	88.25
249.599	109.25
249.832	86.25
250.066	78.25
250.299	79.25
250.532	72.25
250.765	75.25
250.998	80.25
251.231	78.25
251.465	73.25
251.698	82.25
251.931	70.25
252.164	79.25
252.397	76.25
252.63	70.25
252.863	75.25
253.096	87.25
253.329	91.25
253.562	76.25
253.795	80.25
254.028	84.25
254.261	88.25
254.494	74.25
254.727	86.25
254.96	75.25
255.193	80.25
255.426	64.25
255.659	74.25
255.892	97.25
256.124	92.25
256.357	75.25
256.59	79.25
256.823	63.25
257.056	85.25
257.289	70.25
257.521	78.25
257.754	66.25
257.987	86.25
258.22	85.25
258.452	77.25
258.685	74.25
258.918	82.25
259.151	87.25
259.383	93.25
259.616	67.25
259.849	74.25
260.081	85.25
260.314	85.25
260.547	79.25
260.779	80.25
261.012	80.25
261.244	78.25
261.477	89.25
261.71	80.25
261.942	103.25
262.175	98.25
262.407	90.25
262.64	89.25
262.872	89.25
263.105	84.25
263.337	96.25
263.57	95.25
263.802	91.25
264.035	78.25
264.267	85.25
264.499	80.25
264.732	84.25
264.964	82.25
265.197	79.25
265.429	76.25
265.661	86.25
265.894	64.25
266.126	78.25
266.358	83.25
266.591	71.25
266.823	93.25
267.055	93.25
267.287	78.25
267.52	86.25
267.752	80.25
267.984	92.25
268.216	83.25
268.448	77.25
268.681	78.25
268.913	77.25
269.145	90.25
269.377	76.25
269.609	82.25
269.841	78.25
270.073	84.25
270.306	93.25
270.538	77.25
270.77	83.25
271.002	77.25
271.234	96.25
271.466	95.25
271.698	77.25
271.93	76.25
272.162	92.25
272.394	87.25
272.626	89.25
272.858	89.25
273.09	78.25
273.322	84.25
273.553	92.25
273.785	84.25
274.017	83.25
274.249	87.25
274.481	89.25
274.713	78.25
274.945	86.25
275.176	72.25
275.408	92.25
275.64	104.25
275.872	97.25
276.104	78.25
276.335	90.25
276.567	92.25
276.799	85.25
277.031	89.25
277.262	78.25
277.494	89.25
277.726	90.25
277.957	86.25
278.189	74.25
278.421	79.25
278.652	89.25
278.884	90.25
279.115	80.25
279.347	95.25
279.579	79.25
279.81	83.25
280.042	82.25
280.273	94.25
280.505	76.25
280.736	87.25
280.968	80.25
281.199	87.25
281.431	79.25
281.662	88.25
281.894	96.25
282.125	93.25
282.356	112.25
282.588	116.25
282.819	95.25
283.051	90.25
283.282	95.25
283.513	87.25
283.745	95.25
283.976	96.25
284.207	84.25
284.439	85.25
284.67	86.25
284.901	88.25
285.132	86.25
285.364	92.25
285.595	84.25
285.826	96.25
286.057	77.25
286.288	93.25
286.52	87.25
286.751	87.25
286.982	79.25
287.213	74.25
287.444	91.25
287.675	92.25
287.906	96.25
288.138	97.25
288.369	89.25
288.6	79.25
288.831	91.25
289.062	94.25
289.293	62.25
289.524	88.25
289.755	88.25
289.986	72.25
290.217	98.25
290.448	86.25
290.679	86.25
290.91	80.25
291.141	100.25
291.371	82.25
291.602	83.25
291.833	79.25
292.064	92.25
292.295	89.25
292.526	82.25
292.757	85.25
292.987	80.25
293.218	91.25
293.449	92.25
293.68	102.25
293.91	86.25
294.141	90.25
294.372	86.25
294.603	86.25
294.833	93.25
295.064	86.25
295.295	91.25
295.525	91.25
295.756	93.25
295.987	109.25
296.217	110.25
296.448	117.25
296.679	101.25
296.909	100.25
297.14	90.25
297.37	94.25
297.601	94.25
297.831	98.25
298.062	87.25
298.292	87.25
298.523	74.25
298.753	94.25
298.984	79.25
299.214	78.25
299.445	90.25
299.675	93.25
299.905	91.25
300.136	110.25
300.366	83.25
300.597	97.25
300.827	99.25
301.057	84.25
301.288	83.25
301.518	88.25
301.748	80.25
301.979	110.25
302.209	87.25
302.439	77.25
302.669	77.25
302.9	87.25
303.13	81.25
303.36	89.25
303.59	107.25
303.82	94.25
304.051	79.25
304.281	94.25
304.511	96.25
304.741	88.25
304.971	83.25
305.201	84.25
305.431	92.25
305.661	77.25
305.891	78.25
306.121	89.25
306.352	106.25
306.582	103.25
306.812	94.25
307.042	99.25
307.272	92.25
307.502	88.25
307.731	86.25
307.961	78.25
308.191	89.25
308.421	87.25
308.651	86.25
308.881	97.25
309.111	90.25
309.341	92.25
309.571	87.25
309.8	100.25
310.03	94.25
310.26	107.25
310.49	84.25
310.72	98.25
310.949	100.25
311.179	98.25
311.409	101.25
311.639	102.25
311.868	101.25
312.098	92.25
312.328	82.25
312.557	99.25
312.787	104.25
313.017	102.25
313.246	88.25
313.476	86.25
313.706	70.25
313.935	77.25
314.165	95.25
314.394	90.25
314.624	103.25
314.853	102.25
315.083	102.25
315.312	95.25
315.542	98.25
315.771	92.25
316.001	103.25
316.23	101.25
316.46	99.25
316.689	84.25
316.919	89.25
317.148	95.25
317.377	94.25
317.607	81.25
317.836	79.25
318.065	102.25
318.295	88.25
318.524	88.25
318.753	87.25
318.983	86.25
319.212	88.25
319.441	94.25
319.67	114.25
319.9	94.25
320.129	84.25
320.358	93.25
320.587	82.25
320.816	95.25
321.046	112.25
321.275	101.25
321.504	90.25
321.733	96.25
321.962	102.25
322.191	95.25
322.42	99.25
322.649	92.25
322.878	102.25
323.108	100.25
323.337	109.25
323.566	123.25
323.795	146.25
324.024	166.25
324.253	285.25
324.482	560.25
324.71	1153.25
324.939	1516.25
325.168	576.25
325.397	186.25
325.626	119.25
325.855	116.25
326.084	121.25
326.313	120.25
326.542	132.25
326.77	185.25
326.999	338.25
327.228	665.25
327.457	1193.25
327.686	951.25
327.914	280.25
328.143	161.25
328.372	140.25
328.6	103.25
328.829	108.25
329.058	116.25
329.287	95.25
329.515	93.25
329.744	100.25
329.972	122.25
330.201	104.25
330.43	118.25
330.658	131.25
330.887	108.25
331.115	110.25
331.344	100.25
331.572	99.25
331.801	102.25
332.03	97.25
332.258	94.25
332.486	100.25
332.715	85.25
332.943	90.25
333.172	90.25
333.4	91.25
333.629	102.25
333.857	106.25
334.085	107.25
334.314	110.25
334.542	115.25
334.771	114.25
334.999	102.25
335.227	96.25
335.455	78.25
335.684	90.25
335.912	70.25
336.14	85.25
336.369	93.25
336.597	96.25
336.825	113.25
337.053	94.25
337.281	98.25
337.51	98.25
337.738	78.25
337.966	94.25
338.194	84.25
338.422	103.25
338.65	97.25
338.878	85.25
339.106	89.25
339.334	101.25
339.562	85.25
339.79	86.25
340.018	76.25
340.246	86.25
340.474	95.25
340.702	93.25
340.93	90.25
341.158	97.25
341.386	92.25
341.614	99.25
341.842	95.25
342.07	83.25
342.298	98.25
342.526	91.25
342.754	91.25
342.981	81.25
343.209	87.25
343.437	97.25
343.665	111.25
343.893	96.25
344.12	94.25
344.348	98.25
344.576	102.25
344.804	93.25
345.031	85.25
345.259	97.25
345.487	96.25
345.714	89.25
345.942	77.25
346.17	89.25
346.397	84.25
346.625	97.25
346.853	93.25
347.08	98.25
347.308	82.25
347.535	98.25
347.763	99.25
347.99	96.25
348.218	93.25
348.445	96.25
348.673	98.25
348.9	99.25
349.128	95.25
349.355	89.25
349.583	101.25
349.81	86.25
350.037	92.25
350.265	99.25
350.492	91.25
350.72	97.25
350.947	89.25
351.174	99.25
351.402	98.25
351.629	110.25
351.856	105.25
352.083	102.25
352.311	106.25
352.538	111.25
352.765	103.25
352.992	117.25
353.22	105.25
353.447	111.25
353.674	108.25
353.901	110.25
354.128	89.25
354.355	93.25
354.583	85.25
354.81	83.25
355.037	95.25
355.264	78.25
355.491	100.25
355.718	91.25
355.945	98.25
356.172	104.25
356.399	94.25
356.626	92.25
356.853	98.25
357.08	117.25
357.307	103.25
357.534	102.25
357.761	94.25
357.988	76.25
358.215	86.25
358.441	108.25
358.668	91.25
358.895	102.25
359.122	88.25
359.349	92.25
359.576	94.25
359.802	101.25
360.029	92.25
360.256	109.25
360.483	90.25
360.709	80.25
360.936	91.25
361.163	93.25
361.39	89.25
361.616	95.25
361.843	86.25
362.07	85.25
362.296	101.25
362.523	90.25
362.749	84.25
362.976	96.25
363.203	98.25
363.429	91.25
363.656	100.25
363.882	88.25
364.109	87.25
364.335	89.25
364.562	90.25
364.788	96.25
365.015	91.25
365.241	88.25
365.468	89.25
365.694	95.25
365.92	93.25
366.147	82.25
366.373	86.25
366.599	88.25
366.826	78.25
367.052	98.25
367.278	101.25
367.505	86.25
367.731	84.25
367.957	93.25
368.184	100.25
368.41	84.25
368.636	118.25
368.862	92.25
369.089	98.25
369.315	84.25
369.541	87.25
369.767	83.25
369.993	83.25
370.219	74.25
370.445	68.25
370.672	78.25
370.898	73.25
371.124	92.25
371.35	74.25
371.576	91.25
371.802	77.25
372.028	89.25
372.254	79.25
372.48	86.25
372.706	97.25
372.932	94.25
373.158	76.25
373.384	96.25
373.61	82.25
373.835	98.25
374.061	90.25
374.287	85.25
374.513	106.25
374.739	97.25
374.965	90.25
375.191	90.25
375.416	84.25
375.642	88.25
375.868	99.25
376.094	84.25
376.319	99.25
376.545	92.25
376.771	88.25
376.997	72.25
377.222	108.25
377.448	92.25
377.674	103.25
377.899	87.25
378.125	109.25
378.35	94.25
378.576	98.25
378.802	96.25
379.027	91.25
379.253	98.25
379.478	90.25
379.704	95.25
379.929	97.25
380.155	95.25
380.38	104.25
380.606	92.25
380.831	86.25
381.057	91.25
381.282	95.25
381.507	95.25
381.733	89.25
381.958	92.25
382.184	101.25
382.409	102.25
382.634	102.25
382.86	101.25
383.085	100.25
383.31	93.25
383.535	107.25
383.761	112.25
383.986	98.25
384.211	98.25
384.436	93.25
384.662	109.25
384.887	100.25
385.112	112.25
385.337	115.25
385.562	110.25
385.787	114.25
386.013	104.25
386.238	100.25
386.463	117.25
386.688	99.25
386.913	108.25
387.138	116.25
387.363	109.25
387.588	94.25
387.813	114.25
388.038	105.25
388.263	109.25
388.488	95.25
388.713	103.25
388.938	96.25
389.163	90.25
389.387	86.25
389.612	92.25
389.837	94.25
390.062	101.25
390.287	100.25
390.512	83.25
390.736	83.25
390.961	88.25
391.186	88.25
391.411	87.25
391.636	93.25
391.86	88.25
392.085	79.25
392.31	88.25
392.534	79.25
392.759	90.25
392.984	90.25
393.208	96.25
393.433	93.25
393.658	87.25
393.882	103.25
394.107	88.25
394.331	98.25
394.556	88.25
394.78	85.25
395.005	94.25
395.229	86.25
395.454	96.25
395.678	88.25
395.903	87.25
396.127	89.25
396.352	92.25
396.576	80.25
396.801	90.25
397.025	73.25
397.249	106.25
397.474	85.25
397.698	75.25
397.922	90.25
398.147	98.25
398.371	86.25
398.595	86.25
398.82	94.25
399.044	80.25
399.268	82.25
399.492	95.25
399.717	91.25
399.941	103.25
400.165	78.25
400.389	88.25
400.613	81.25
400.837	86.25
401.062	98.25
401.286	95.25
401.51	100.25
401.734	78.25
401.958	71.25
402.182	106.25
402.406	121.25
402.63	105.25
402.854	94.25
403.078	93.25
403.302	90.25
403.526	85.25
403.75	95.25
403.974	88.25
404.198	74.25
404.422	74.25
404.645	94.25
404.869	96.25
405.093	86.25
405.317	90.25
405.541	95.25
405.765	95.25
405.988	104.25
406.212	135.25
406.436	169.25
406.66	123.25
406.883	88.25
407.107	93.25
407.331	100.25
407.555	91.25
407.778	94.25
408.002	80.25
408.226	96.25
408.449	107.25
408.673	98.25
408.896	86.25
409.12	95.25
409.344	98.25
409.567	80.25
409.791	80.25
410.014	94.25
410.238	90.25
410.461	95.25
410.685	88.25
410.908	95.25
411.132	103.25
411.355	92.25
411.578	91.25
411.802	92.25
412.025	89.25
412.249	88.25
412.472	76.25
412.695	106.25
412.919	98.25
413.142	72.25
413.365	80.25
413.589	76.25
413.812	87.25
414.035	93.25
414.258	91.25
414.482	95.25
414.705	90.25
414.928	95.25
415.151	86.25
415.374	96.25
415.597	85.25
415.821	103.25
416.044	93.25
416.267	84.25
416.49	91.25
416.713	89.25
416.936	79.25
417.159	92.25
417.382	84.25
417.605	88.25
417.828	97.25
418.051	85.25
418.274	89.25
418.497	82.25
418.72	100.25
418.943	86.25
419.166	90.25
419.389	74.25
419.611	87.25
419.834	84.25
420.057	87.25
420.28	82.25
420.503	96.25
420.726	79.25
420.948	100.25
421.171	98.25
421.394	92.25
421.617	107.25
421.839	94.25
422.062	84.25
422.285	78.25
422.507	88.25
422.73	96.25
422.953	85.25
423.175	79.25
423.398	82.25
423.621	88.25
423.843	86.25
424.066	85.25
424.288	91.25
424.511	89.25
424.733	87.25
424.956	108.25
425.178	91.25
425.401	102.25
425.623	90.25
425.846	89.25
426.068	88.25
426.291	108.25
426.513	83.25
426.735	79.25
426.958	91.25
427.18	94.25
427.402	115.25
427.625	122.25
427.847	116.25
428.069	94.25
428.292	101.25
428.514	77.25
428.736	87.25
428.958	90.25
429.181	75.25
429.403	80.25
429.625	85.25
429.847	96.25
430.069	90.25
430.292	82.25
430.514	90.25
430.736	87.25
430.958	85.25
431.18	92.25
431.402	79.25
431.624	82.25
431.846	96.25
432.068	80.25
432.29	75.25
432.512	90.25
432.734	86.25
432.956	91.25
433.178	106.25
433.4	81.25
433.622	84.25
433.844	93.25
434.066	95.25
434.287	104.25
434.509	95.25
434.731	95.25
434.953	106.25
435.175	92.25
435.397	76.25
435.618	84.25
435.84	94.25
436.062	97.25
436.284	98.25
436.505	107.25
436.727	102.25
436.949	98.25
437.17	87.25
437.392	89.25
437.614	87.25
437.835	96.25
438.057	93.25
438.278	98.25
438.5	88.25
438.721	94.25
438.943	91.25
439.165	90.25
439.386	75.25
439.608	83.25
439.829	83.25
440.05	123.25
440.272	114.25
440.493	96.25
440.715	94.25
440.936	91.25
441.158	92.25
441.379	84.25
441.6	91.25
441.822	94.25
442.043	92.25
442.264	83.25
442.486	93.25
442.707	91.25
442.928	113.25
443.149	111.25
443.371	101.25
443.592	101.25
443.813	100.25
444.034	107.25
444.255	84.25
444.476	78.25
444.698	74.25
444.919	93.25
445.14	124.25
445.361	118.25
445.582	100.25
445.803	112.25
446.024	115.25
446.245	116.25
446.466	99.25
446.687	87.25
446.908	91.25
447.129	89.25
447.35	91.25
447.571	83.25
447.792	80.25
448.013	95.25
448.234	109.25
448.455	93.25
448.675	97.25
448.896	105.25
449.117	109.25
449.338	90.25
449.559	112.25
449.779	106.25
450	100.25
450.221	79.25
450.442	83.25
450.662	87.25
450.883	93.25
451.104	107.25
451.324	90.25
451.545	88.25
451.766	101.25
451.986	86.25
452.207	80.25
452.428	92.25
452.648	97.25
452.869	111.25
453.089	98.25
453.31	99.25
453.53	87.25
453.751	94.25
453.971	109.25
454.192	82.25
454.412	84.25
454.633	80.25
454.853	77.25
455.073	84.25
455.294	87.25
455.514	95.25
455.734	100.25
455.955	84.25
456.175	94.25
456.395	84.25
456.616	90.25
456.836	61.25
457.056	75.25
457.276	77.25
457.497	86.25
457.717	84.25
457.937	78.25
458.157	92.25
458.377	79.25
458.598	91.25
458.818	111.25
459.038	127.25
459.258	91.25
459.478	78.25
459.698	89.25
459.918	90.25
460.138	85.25
460.358	77.25
460.578	86.25
460.798	82.25
461.018	83.25
461.238	79.25
461.458	80.25
461.678	80.25
461.898	78.25
462.118	93.25
462.338	91.25
462.558	86.25
462.777	98.25
462.997	86.25
463.217	85.25
463.437	83.25
463.657	92.25
463.876	92.25
464.096	83.25
464.316	74.25
464.536	82.25
464.755	91.25
464.975	94.25
465.195	126.25
465.414	140.25
465.634	90.25
465.854	89.25
466.073	95.25
466.293	78.25
466.512	78.25
466.732	77.25
466.951	83.25
467.171	97.25
467.391	95.25
467.61	103.25
467.829	91.25
468.049	86.25
468.268	90.25
468.488	76.25
468.707	91.25
468.927	77.25
469.146	87.25
469.365	86.25
469.585	87.25
469.804	96.25
470.023	106.25
470.243	96.25
470.462	95.25
470.681	87.25
470.901	83.25
471.12	74.25
471.339	85.25
471.558	73.25
471.777	83.25
471.997	91.25
472.216	109.25
472.435	131.25
472.654	98.25
472.873	91.25
473.092	93.25
473.311	92.25
473.53	102.25
473.749	86.25
473.968	79.25
474.187	97.25
474.406	91.25
474.625	90.25
474.844	95.25
475.063	100.25
475.282	91.25
475.501	70.25
475.72	86.25
475.939	86.25
476.158	91.25
476.377	105.25
476.596	67.25
476.814	85.25
477.033	88.25
477.252	88.25
477.471	85.25
477.69	94.25
477.908	72.25
478.127	78.25
478.346	82.25
478.564	88.25
478.783	95.25
479.002	90.25
479.22	86.25
479.439	85.25
479.658	90.25
479.876	98.25
480.095	89.25
480.313	90.25
480.532	104.25
480.751	93.25
480.969	113.25
481.188	171.25
481.406	136.25
481.624	101.25
481.843	78.25
482.061	87.25
482.28	84.25
482.498	74.25
482.717	83.25
482.935	83.25
483.153	101.25
483.372	100.25
483.59	99.25
483.808	92.25
484.027	90.25
484.245	83.25
484.463	97.25
484.681	102.25
484.9	82.25
485.118	91.25
485.336	96.25
485.554	108.25
485.772	108.25
485.99	97.25
486.209	109.25
486.427	110.25
486.645	107.25
486.863	98.25
487.081	102.25
487.299	91.25
487.517	92.25
487.735	102.25
487.953	91.25
488.171	93.25
488.389	94.25
488.607	78.25
488.825	90.25
489.043	94.25
489.261	88.25
489.479	85.25
489.696	88.25
489.914	73.25
490.132	90.25
490.35	92.25
490.568	82.25
490.786	73.25
491.003	91.25
491.221	62.25
491.439	96.25
491.657	101.25
491.874	75.25
492.092	104.25
492.31	95.25
492.527	99.25
492.745	86.25
492.963	86.25
493.18	93.25
493.398	100.25
493.615	100.25
493.833	94.25
494.05	94.25
494.268	94.25
494.485	91.25
494.703	78.25
494.92	98.25
495.138	96.25
495.355	76.25
495.573	98.25
495.79	105.25
496.008	85.25
496.225	100.25
496.442	78.25
496.66	92.25
496.877	95.25
497.094	110.25
497.312	89.25
497.529	96.25
497.746	90.25
497.963	89.25
498.181	85.25
498.398	95.25
498.615	117.25
498.832	101.25
499.049	80.25
499.267	92.25
499.484	82.25
499.701	95.25
499.918	77.25
500.135	90.25
500.352	86.25
500.569	91.25
500.786	84.25
501.003	99.25
501.22	75.25
501.437	98.25
501.654	88.25
501.871	94.25
502.088	99.25
502.305	91.25
502.522	98.25
502.739	93.25
502.956	92.25
503.172	92.25
503.389	94.25
503.606	96.25
503.823	95.25
504.04	93.25
504.256	90.25
504.473	87.25
504.69	95.25
504.907	93.25
505.123	84.25
505.34	78.25
505.557	97.25
505.773	99.25
505.99	77.25
506.207	93.25
506.423	96.25
506.64	90.25
506.856	99.25
507.073	86.25
507.289	90.25
507.506	84.25
507.722	104.25
507.939	90.25
508.155	80.25
508.372	86.25
508.588	94.25
508.805	91.25
509.021	79.25
509.238	83.25
509.454	96.25
509.67	90.25
509.887	107.25
510.103	106.25
510.319	158.25
510.536	529.25
510.752	1564.25
510.968	455.25
511.184	136.25
511.401	101.25
511.617	95.25
511.833	84.25
512.049	95.25
512.265	89.25
512.481	97.25
512.698	96.25
512.914	84.25
513.13	84.25
513.346	96.25
513.562	103.25
513.778	93.25
513.994	87.25
514.21	96.25
514.426	107.25
514.642	126.25
514.858	112.25
515.074	112.25
515.29	315.25
515.506	940.25
515.721	357.25
515.937	112.25
516.153	98.25
516.369	98.25
516.585	99.25
