Data from Circ_1980_H10_HRD10591_00075.txt Node
Date: Wed Jan 03 12:38:13 EST 2024
User: Yrep
Spectrometer: HR+D1059
Trigger mode: 1
Integration Time (sec): 1.000000E-1
Scans to average: 1
Electric dark correction enabled: true
Nonlinearity correction enabled: false
Boxcar width: 0
XAxis mode: Wavelengths
Number of Pixels in Spectrum: 2048
>>>>>Begin Spectral Data<<<<<
223.165	-17.56
223.4	-17.56
223.635	-17.56
223.869	-13.56
224.104	-15.56
224.338	-7.56
224.573	-18.56
224.808	-6.56
225.042	-13.56
225.277	9.44
225.511	-5.56
225.746	8.44
225.98	5.44
226.215	6.44
226.449	9.44
226.683	12.44
226.918	26.44
227.152	20.44
227.387	33.44
227.621	49.44
227.856	36.44
228.09	54.44
228.324	54.44
228.559	72.44
228.793	57.44
229.027	72.44
229.262	73.44
229.496	74.44
229.73	81.44
229.964	80.44
230.199	75.44
230.433	78.44
230.667	71.44
230.901	89.44
231.136	95.44
231.37	86.44
231.604	74.44
231.838	87.44
232.072	87.44
232.306	77.44
232.541	93.44
232.775	95.44
233.009	94.44
233.243	99.44
233.477	87.44
233.711	76.44
233.945	80.44
234.179	74.44
234.413	83.44
234.647	87.44
234.881	76.44
235.115	99.44
235.349	87.44
235.583	84.44
235.817	80.44
236.051	73.44
236.285	79.44
236.519	79.44
236.753	92.44
236.987	75.44
237.221	83.44
237.455	81.44
237.689	87.44
237.922	75.44
238.156	74.44
238.39	70.44
238.624	85.44
238.858	70.44
239.091	74.44
239.325	92.44
239.559	89.44
239.793	71.44
240.027	86.44
240.26	78.44
240.494	73.44
240.728	61.44
240.961	79.44
241.195	79.44
241.429	81.44
241.662	71.44
241.896	75.44
242.13	74.44
242.363	86.44
242.597	70.44
242.83	74.44
243.064	76.44
243.298	70.44
243.531	73.44
243.765	59.44
243.998	67.44
244.232	83.44
244.465	78.44
244.699	79.44
244.932	77.44
245.166	77.44
245.399	66.44
245.633	81.44
245.866	85.44
246.099	77.44
246.333	99.44
246.566	85.44
246.8	81.44
247.033	91.44
247.266	80.44
247.5	75.44
247.733	77.44
247.966	88.44
248.2	75.44
248.433	95.44
248.666	81.44
248.899	80.44
249.133	75.44
249.366	100.44
249.599	85.44
249.832	71.44
250.066	83.44
250.299	91.44
250.532	78.44
250.765	77.44
250.998	80.44
251.231	74.44
251.465	85.44
251.698	87.44
251.931	80.44
252.164	85.44
252.397	86.44
252.63	92.44
252.863	88.44
253.096	93.44
253.329	87.44
253.562	78.44
253.795	77.44
254.028	76.44
254.261	74.44
254.494	75.44
254.727	76.44
254.96	84.44
255.193	90.44
255.426	88.44
255.659	78.44
255.892	71.44
256.124	72.44
256.357	81.44
256.59	83.44
256.823	76.44
257.056	75.44
257.289	85.44
257.521	99.44
257.754	71.44
257.987	71.44
258.22	79.44
258.452	85.44
258.685	87.44
258.918	80.44
259.151	80.44
259.383	86.44
259.616	83.44
259.849	91.44
260.081	88.44
260.314	91.44
260.547	76.44
260.779	89.44
261.012	99.44
261.244	90.44
261.477	102.44
261.71	95.44
261.942	98.44
262.175	92.44
262.407	90.44
262.64	80.44
262.872	85.44
263.105	93.44
263.337	90.44
263.57	91.44
263.802	80.44
264.035	91.44
264.267	77.44
264.499	85.44
264.732	81.44
264.964	93.44
265.197	78.44
265.429	83.44
265.661	78.44
265.894	82.44
266.126	76.44
266.358	91.44
266.591	87.44
266.823	72.44
267.055	92.44
267.287	83.44
267.52	86.44
267.752	76.44
267.984	80.44
268.216	85.44
268.448	86.44
268.681	84.44
268.913	88.44
269.145	92.44
269.377	77.44
269.609	87.44
269.841	87.44
270.073	80.44
270.306	62.44
270.538	75.44
270.77	83.44
271.002	92.44
271.234	80.44
271.466	89.44
271.698	73.44
271.93	90.44
272.162	91.44
272.394	94.44
272.626	87.44
272.858	85.44
273.09	91.44
273.322	84.44
273.553	97.44
273.785	75.44
274.017	73.44
274.249	77.44
274.481	68.44
274.713	85.44
274.945	87.44
275.176	91.44
275.408	90.44
275.64	86.44
275.872	73.44
276.104	89.44
276.335	98.44
276.567	102.44
276.799	84.44
277.031	87.44
277.262	83.44
277.494	100.44
277.726	95.44
277.957	83.44
278.189	75.44
278.421	80.44
278.652	86.44
278.884	84.44
279.115	82.44
279.347	80.44
279.579	83.44
279.81	85.44
280.042	78.44
280.273	80.44
280.505	96.44
280.736	89.44
280.968	101.44
281.199	93.44
281.431	98.44
281.662	96.44
281.894	78.44
282.125	87.44
282.356	105.44
282.588	110.44
282.819	102.44
283.051	98.44
283.282	103.44
283.513	95.44
283.745	80.44
283.976	87.44
284.207	79.44
284.439	96.44
284.67	109.44
284.901	83.44
285.132	99.44
285.364	94.44
285.595	89.44
285.826	101.44
286.057	99.44
286.288	93.44
286.52	93.44
286.751	107.44
286.982	102.44
287.213	81.44
287.444	89.44
287.675	96.44
287.906	95.44
288.138	93.44
288.369	98.44
288.6	80.44
288.831	83.44
289.062	87.44
289.293	87.44
289.524	95.44
289.755	93.44
289.986	86.44
290.217	88.44
290.448	94.44
290.679	87.44
290.91	89.44
291.141	78.44
291.371	89.44
291.602	104.44
291.833	94.44
292.064	83.44
292.295	111.44
292.526	87.44
292.757	99.44
292.987	97.44
293.218	96.44
293.449	99.44
293.68	95.44
293.91	89.44
294.141	88.44
294.372	92.44
294.603	100.44
294.833	90.44
295.064	95.44
295.295	93.44
295.525	83.44
295.756	96.44
295.987	107.44
296.217	119.44
296.448	115.44
296.679	104.44
296.909	108.44
297.14	95.44
297.37	93.44
297.601	97.44
297.831	99.44
298.062	85.44
298.292	92.44
298.523	107.44
298.753	89.44
298.984	80.44
299.214	75.44
299.445	89.44
299.675	95.44
299.905	92.44
300.136	95.44
300.366	70.44
300.597	91.44
300.827	94.44
301.057	79.44
301.288	92.44
301.518	80.44
301.748	88.44
301.979	99.44
302.209	95.44
302.439	95.44
302.669	87.44
302.9	94.44
303.13	87.44
303.36	96.44
303.59	104.44
303.82	102.44
304.051	94.44
304.281	98.44
304.511	87.44
304.741	97.44
304.971	88.44
305.201	101.44
305.431	91.44
305.661	86.44
305.891	84.44
306.121	89.44
306.352	85.44
306.582	100.44
306.812	91.44
307.042	104.44
307.272	99.44
307.502	97.44
307.731	101.44
307.961	85.44
308.191	95.44
308.421	99.44
308.651	93.44
308.881	91.44
309.111	101.44
309.341	89.44
309.571	74.44
309.8	98.44
310.03	102.44
310.26	103.44
310.49	94.44
310.72	91.44
310.949	89.44
311.179	106.44
311.409	97.44
311.639	106.44
311.868	112.44
312.098	93.44
312.328	101.44
312.557	101.44
312.787	94.44
313.017	105.44
313.246	92.44
313.476	96.44
313.706	91.44
313.935	89.44
314.165	106.44
314.394	101.44
314.624	102.44
314.853	101.44
315.083	92.44
315.312	94.44
315.542	86.44
315.771	90.44
316.001	93.44
316.23	77.44
316.46	89.44
316.689	95.44
316.919	87.44
317.148	93.44
317.377	105.44
317.607	93.44
317.836	103.44
318.065	104.44
318.295	77.44
318.524	97.44
318.753	86.44
318.983	101.44
319.212	87.44
319.441	96.44
319.67	109.44
319.9	104.44
320.129	86.44
320.358	95.44
320.587	103.44
320.816	76.44
321.046	101.44
321.275	92.44
321.504	87.44
321.733	105.44
321.962	89.44
322.191	106.44
322.42	97.44
322.649	108.44
322.878	100.44
323.108	121.44
323.337	104.44
323.566	114.44
323.795	132.44
324.024	155.44
324.253	280.44
324.482	579.44
324.71	1166.44
324.939	1548.44
325.168	595.44
325.397	201.44
325.626	120.44
325.855	115.44
326.084	117.44
326.313	128.44
326.542	128.44
326.77	196.44
326.999	349.44
327.228	661.44
327.457	1178.44
327.686	959.44
327.914	285.44
328.143	166.44
328.372	142.44
328.6	122.44
328.829	103.44
329.058	92.44
329.287	121.44
329.515	98.44
329.744	101.44
329.972	109.44
330.201	113.44
330.43	116.44
330.658	128.44
330.887	127.44
331.115	109.44
331.344	104.44
331.572	89.44
331.801	106.44
332.03	113.44
332.258	89.44
332.486	104.44
332.715	84.44
332.943	82.44
333.172	98.44
333.4	94.44
333.629	93.44
333.857	99.44
334.085	108.44
334.314	96.44
334.542	121.44
334.771	126.44
334.999	114.44
335.227	105.44
335.455	92.44
335.684	91.44
335.912	100.44
336.14	96.44
336.369	83.44
336.597	105.44
336.825	118.44
337.053	92.44
337.281	94.44
337.51	99.44
337.738	96.44
337.966	103.44
338.194	89.44
338.422	98.44
338.65	88.44
338.878	104.44
339.106	91.44
339.334	87.44
339.562	97.44
339.79	101.44
340.018	88.44
340.246	108.44
340.474	104.44
340.702	94.44
340.93	99.44
341.158	93.44
341.386	106.44
341.614	99.44
341.842	80.44
342.07	79.44
342.298	97.44
342.526	96.44
342.754	94.44
342.981	85.44
343.209	87.44
343.437	96.44
343.665	91.44
343.893	93.44
344.12	86.44
344.348	91.44
344.576	83.44
344.804	95.44
345.031	89.44
345.259	109.44
345.487	91.44
345.714	79.44
345.942	78.44
346.17	91.44
346.397	93.44
346.625	85.44
346.853	99.44
347.08	84.44
347.308	92.44
347.535	96.44
347.763	100.44
347.99	98.44
348.218	101.44
348.445	109.44
348.673	96.44
348.9	87.44
349.128	104.44
349.355	79.44
349.583	75.44
349.81	103.44
350.037	107.44
350.265	106.44
350.492	86.44
350.72	101.44
350.947	99.44
351.174	103.44
351.402	124.44
351.629	104.44
351.856	97.44
352.083	93.44
352.311	88.44
352.538	96.44
352.765	102.44
352.992	113.44
353.22	98.44
353.447	108.44
353.674	94.44
353.901	88.44
354.128	100.44
354.355	106.44
354.583	99.44
354.81	101.44
355.037	99.44
355.264	81.44
355.491	96.44
355.718	97.44
355.945	110.44
356.172	103.44
356.399	101.44
356.626	96.44
356.853	100.44
357.08	101.44
357.307	91.44
357.534	97.44
357.761	103.44
357.988	101.44
358.215	107.44
358.441	104.44
358.668	81.44
358.895	99.44
359.122	99.44
359.349	89.44
359.576	106.44
359.802	102.44
360.029	99.44
360.256	95.44
360.483	96.44
360.709	88.44
360.936	95.44
361.163	96.44
361.39	99.44
361.616	87.44
361.843	91.44
362.07	88.44
362.296	85.44
362.523	99.44
362.749	96.44
362.976	99.44
363.203	75.44
363.429	87.44
363.656	92.44
363.882	95.44
364.109	91.44
364.335	81.44
364.562	100.44
364.788	90.44
365.015	106.44
365.241	109.44
365.468	111.44
365.694	92.44
365.92	87.44
366.147	86.44
366.373	101.44
366.599	90.44
366.826	98.44
367.052	81.44
367.278	97.44
367.505	92.44
367.731	95.44
367.957	92.44
368.184	77.44
368.41	81.44
368.636	101.44
368.862	111.44
369.089	101.44
369.315	91.44
369.541	87.44
369.767	78.44
369.993	95.44
370.219	107.44
370.445	89.44
370.672	94.44
370.898	74.44
371.124	95.44
371.35	84.44
371.576	74.44
371.802	86.44
372.028	94.44
372.254	89.44
372.48	70.44
372.706	101.44
372.932	98.44
373.158	89.44
373.384	100.44
373.61	97.44
373.835	94.44
374.061	91.44
374.287	87.44
374.513	88.44
374.739	100.44
374.965	93.44
375.191	95.44
375.416	93.44
375.642	89.44
375.868	87.44
376.094	81.44
376.319	88.44
376.545	87.44
376.771	98.44
376.997	87.44
377.222	92.44
377.448	85.44
377.674	93.44
377.899	87.44
378.125	93.44
378.35	101.44
378.576	94.44
378.802	93.44
379.027	94.44
379.253	98.44
379.478	101.44
379.704	94.44
379.929	104.44
380.155	102.44
380.38	107.44
380.606	112.44
380.831	103.44
381.057	102.44
381.282	91.44
381.507	77.44
381.733	94.44
381.958	86.44
382.184	98.44
382.409	113.44
382.634	99.44
382.86	94.44
383.085	102.44
383.31	100.44
383.535	92.44
383.761	102.44
383.986	104.44
384.211	113.44
384.436	99.44
384.662	86.44
384.887	116.44
385.112	100.44
385.337	108.44
385.562	99.44
385.787	110.44
386.013	111.44
386.238	127.44
386.463	103.44
386.688	109.44
386.913	110.44
387.138	104.44
387.363	97.44
387.588	103.44
387.813	94.44
388.038	103.44
388.263	121.44
388.488	102.44
388.713	113.44
388.938	107.44
389.163	99.44
389.387	99.44
389.612	86.44
389.837	85.44
390.062	104.44
390.287	90.44
390.512	101.44
390.736	101.44
390.961	89.44
391.186	98.44
391.411	91.44
391.636	97.44
391.86	91.44
392.085	80.44
392.31	93.44
392.534	86.44
392.759	85.44
392.984	92.44
393.208	76.44
393.433	94.44
393.658	87.44
393.882	88.44
394.107	89.44
394.331	101.44
394.556	93.44
394.78	95.44
395.005	91.44
395.229	87.44
395.454	86.44
395.678	92.44
395.903	96.44
396.127	87.44
396.352	87.44
396.576	89.44
396.801	81.44
397.025	83.44
397.249	87.44
397.474	92.44
397.698	86.44
397.922	84.44
398.147	94.44
398.371	91.44
398.595	91.44
398.82	85.44
399.044	85.44
399.268	88.44
399.492	84.44
399.717	84.44
399.941	97.44
400.165	88.44
400.389	109.44
400.613	94.44
400.837	93.44
401.062	83.44
401.286	89.44
401.51	97.44
401.734	79.44
401.958	91.44
402.182	113.44
402.406	119.44
402.63	89.44
402.854	93.44
403.078	91.44
403.302	85.44
403.526	94.44
403.75	89.44
403.974	79.44
404.198	88.44
404.422	94.44
404.645	76.44
404.869	95.44
405.093	101.44
405.317	99.44
405.541	83.44
405.765	96.44
405.988	113.44
406.212	140.44
406.436	174.44
406.66	114.44
406.883	106.44
407.107	88.44
407.331	92.44
407.555	87.44
407.778	93.44
408.002	97.44
408.226	96.44
408.449	87.44
408.673	92.44
408.896	83.44
409.12	96.44
409.344	84.44
409.567	94.44
409.791	98.44
410.014	88.44
410.238	95.44
410.461	102.44
410.685	93.44
410.908	78.44
411.132	101.44
411.355	96.44
411.578	100.44
411.802	84.44
412.025	100.44
412.249	72.44
412.472	80.44
412.695	99.44
412.919	84.44
413.142	89.44
413.365	96.44
413.589	88.44
413.812	94.44
414.035	112.44
414.258	86.44
414.482	92.44
414.705	99.44
414.928	101.44
415.151	91.44
415.374	113.44
415.597	73.44
415.821	94.44
416.044	85.44
416.267	88.44
416.49	71.44
416.713	80.44
416.936	85.44
417.159	89.44
417.382	89.44
417.605	103.44
417.828	89.44
418.051	80.44
418.274	87.44
418.497	97.44
418.72	102.44
418.943	89.44
419.166	80.44
419.389	95.44
419.611	88.44
419.834	81.44
420.057	107.44
420.28	96.44
420.503	88.44
420.726	80.44
420.948	93.44
421.171	85.44
421.394	73.44
421.617	90.44
421.839	87.44
422.062	91.44
422.285	107.44
422.507	106.44
422.73	91.44
422.953	90.44
423.175	96.44
423.398	91.44
423.621	83.44
423.843	100.44
424.066	85.44
424.288	90.44
424.511	83.44
424.733	92.44
424.956	93.44
425.178	96.44
425.401	76.44
425.623	102.44
425.846	83.44
426.068	90.44
426.291	96.44
426.513	89.44
426.735	99.44
426.958	91.44
427.18	108.44
427.402	113.44
427.625	136.44
427.847	121.44
428.069	117.44
428.292	86.44
428.514	89.44
428.736	87.44
428.958	87.44
429.181	87.44
429.403	76.44
429.625	82.44
429.847	76.44
430.069	106.44
430.292	91.44
430.514	93.44
430.736	88.44
430.958	96.44
431.18	94.44
431.402	76.44
431.624	67.44
431.846	92.44
432.068	81.44
432.29	79.44
432.512	71.44
432.734	99.44
432.956	92.44
433.178	91.44
433.4	104.44
433.622	97.44
433.844	94.44
434.066	95.44
434.287	106.44
434.509	93.44
434.731	88.44
434.953	87.44
435.175	77.44
435.397	96.44
435.618	105.44
435.84	105.44
436.062	119.44
436.284	103.44
436.505	89.44
436.727	95.44
436.949	100.44
437.17	87.44
437.392	82.44
437.614	94.44
437.835	110.44
438.057	95.44
438.278	77.44
438.5	95.44
438.721	99.44
438.943	100.44
439.165	85.44
439.386	83.44
439.608	107.44
439.829	93.44
440.05	108.44
440.272	112.44
440.493	85.44
440.715	87.44
440.936	80.44
441.158	92.44
441.379	85.44
441.6	87.44
441.822	111.44
442.043	97.44
442.264	100.44
442.486	92.44
442.707	93.44
442.928	99.44
443.149	106.44
443.371	112.44
443.592	109.44
443.813	98.44
444.034	96.44
444.255	95.44
444.476	93.44
444.698	79.44
444.919	79.44
445.14	133.44
445.361	118.44
445.582	114.44
445.803	105.44
446.024	123.44
446.245	124.44
446.466	98.44
446.687	97.44
446.908	86.44
447.129	81.44
447.35	99.44
447.571	99.44
447.792	89.44
448.013	92.44
448.234	104.44
448.455	90.44
448.675	86.44
448.896	118.44
449.117	85.44
449.338	99.44
449.559	126.44
449.779	111.44
450	89.44
450.221	74.44
450.442	91.44
450.662	97.44
450.883	107.44
451.104	107.44
451.324	85.44
451.545	88.44
451.766	89.44
451.986	85.44
452.207	80.44
452.428	81.44
452.648	91.44
452.869	100.44
453.089	96.44
453.31	97.44
453.53	97.44
453.751	99.44
453.971	84.44
454.192	102.44
454.412	90.44
454.633	76.44
454.853	81.44
455.073	86.44
455.294	76.44
455.514	105.44
455.734	96.44
455.955	82.44
456.175	81.44
456.395	84.44
456.616	84.44
456.836	80.44
457.056	84.44
457.276	92.44
457.497	84.44
457.717	97.44
457.937	80.44
458.157	70.44
458.377	88.44
458.598	86.44
458.818	123.44
459.038	124.44
459.258	99.44
459.478	92.44
459.698	99.44
459.918	75.44
460.138	91.44
460.358	87.44
460.578	79.44
460.798	91.44
461.018	91.44
461.238	110.44
461.458	91.44
461.678	91.44
461.898	103.44
462.118	96.44
462.338	77.44
462.558	72.44
462.777	92.44
462.997	89.44
463.217	99.44
463.437	78.44
463.657	75.44
463.876	91.44
464.096	79.44
464.316	105.44
464.536	83.44
464.755	97.44
464.975	102.44
465.195	120.44
465.414	121.44
465.634	89.44
465.854	78.44
466.073	77.44
466.293	82.44
466.512	95.44
466.732	87.44
466.951	90.44
467.171	96.44
467.391	110.44
467.61	107.44
467.829	87.44
468.049	101.44
468.268	101.44
468.488	91.44
468.707	85.44
468.927	91.44
469.146	97.44
469.365	86.44
469.585	81.44
469.804	76.44
470.023	68.44
470.243	83.44
470.462	83.44
470.681	94.44
470.901	100.44
471.12	83.44
471.339	99.44
471.558	71.44
471.777	88.44
471.997	83.44
472.216	104.44
472.435	142.44
472.654	101.44
472.873	89.44
473.092	94.44
473.311	85.44
473.53	91.44
473.749	88.44
473.968	90.44
474.187	80.44
474.406	87.44
474.625	80.44
474.844	89.44
475.063	71.44
475.282	84.44
475.501	81.44
475.72	93.44
475.939	93.44
476.158	84.44
476.377	92.44
476.596	79.44
476.814	77.44
477.033	87.44
477.252	93.44
477.471	83.44
477.69	70.44
477.908	87.44
478.127	89.44
478.346	99.44
478.564	101.44
478.783	94.44
479.002	88.44
479.22	92.44
479.439	92.44
479.658	91.44
479.876	92.44
480.095	92.44
480.313	95.44
480.532	95.44
480.751	84.44
480.969	119.44
481.188	169.44
481.406	133.44
481.624	103.44
481.843	81.44
482.061	98.44
482.28	96.44
482.498	83.44
482.717	84.44
482.935	89.44
483.153	90.44
483.372	85.44
483.59	75.44
483.808	80.44
484.027	100.44
484.245	88.44
484.463	103.44
484.681	93.44
484.9	92.44
485.118	102.44
485.336	96.44
485.554	100.44
485.772	111.44
485.99	104.44
486.209	125.44
486.427	109.44
486.645	99.44
486.863	124.44
487.081	95.44
487.299	90.44
487.517	93.44
487.735	80.44
487.953	78.44
488.171	92.44
488.389	94.44
488.607	99.44
488.825	86.44
489.043	78.44
489.261	77.44
489.479	86.44
489.696	93.44
489.914	101.44
490.132	76.44
490.35	95.44
490.568	91.44
490.786	84.44
491.003	86.44
491.221	104.44
491.439	95.44
491.657	95.44
491.874	101.44
492.092	91.44
492.31	81.44
492.527	78.44
492.745	85.44
492.963	95.44
493.18	84.44
493.398	89.44
493.615	94.44
493.833	101.44
494.05	97.44
494.268	93.44
494.485	87.44
494.703	101.44
494.92	90.44
495.138	77.44
495.355	83.44
495.573	98.44
495.79	90.44
496.008	99.44
496.225	90.44
496.442	98.44
496.66	102.44
496.877	92.44
497.094	76.44
497.312	91.44
497.529	81.44
497.746	93.44
497.963	91.44
498.181	85.44
498.398	96.44
498.615	88.44
498.832	83.44
499.049	88.44
499.267	92.44
499.484	91.44
499.701	100.44
499.918	97.44
500.135	97.44
500.352	75.44
500.569	90.44
500.786	83.44
501.003	80.44
501.22	96.44
501.437	87.44
501.654	81.44
501.871	95.44
502.088	88.44
502.305	78.44
502.522	90.44
502.739	89.44
502.956	99.44
503.172	79.44
503.389	91.44
503.606	93.44
503.823	101.44
504.04	97.44
504.256	78.44
504.473	83.44
504.69	87.44
504.907	102.44
505.123	94.44
505.34	85.44
505.557	96.44
505.773	87.44
505.99	78.44
506.207	75.44
506.423	91.44
506.64	92.44
506.856	90.44
507.073	85.44
507.289	97.44
507.506	98.44
507.722	121.44
507.939	102.44
508.155	93.44
508.372	85.44
508.588	87.44
508.805	91.44
509.021	100.44
509.238	86.44
509.454	78.44
509.67	95.44
509.887	110.44
510.103	112.44
510.319	178.44
510.536	551.44
510.752	1611.44
510.968	468.44
511.184	140.44
511.401	95.44
511.617	91.44
511.833	91.44
512.049	83.44
512.265	100.44
512.481	90.44
512.698	98.44
512.914	87.44
513.13	85.44
513.346	93.44
513.562	92.44
513.778	89.44
513.994	94.44
514.21	89.44
514.426	112.44
514.642	103.44
514.858	107.44
515.074	125.44
515.29	322.44
515.506	949.44
515.721	378.44
515.937	127.44
