Data from Circ_1980_H10_HRD10591_00042.txt Node
Date: Wed Jan 03 12:38:06 EST 2024
User: Yrep
Spectrometer: HR+D1059
Trigger mode: 1
Integration Time (sec): 1.000000E-1
Scans to average: 1
Electric dark correction enabled: true
Nonlinearity correction enabled: false
Boxcar width: 0
XAxis mode: Wavelengths
Number of Pixels in Spectrum: 2048
>>>>>Begin Spectral Data<<<<<
223.165	-20.25
223.4	-20.25
223.635	-20.25
223.869	-29.25
224.104	-22.25
224.338	-28.25
224.573	-18.25
224.808	-19.25
225.042	-6.25
225.277	-9.25
225.511	-5.25
225.746	-7.25
225.98	16.75
226.215	24.75
226.449	24.75
226.683	30.75
226.918	35.75
227.152	32.75
227.387	36.75
227.621	41.75
227.856	52.75
228.09	42.75
228.324	44.75
228.559	60.75
228.793	62.75
229.027	55.75
229.262	73.75
229.496	66.75
229.73	73.75
229.964	81.75
230.199	72.75
230.433	88.75
230.667	77.75
230.901	73.75
231.136	67.75
231.37	83.75
231.604	72.75
231.838	88.75
232.072	84.75
232.306	83.75
232.541	88.75
232.775	77.75
233.009	74.75
233.243	72.75
233.477	68.75
233.711	69.75
233.945	86.75
234.179	78.75
234.413	88.75
234.647	81.75
234.881	84.75
235.115	71.75
235.349	62.75
235.583	84.75
235.817	71.75
236.051	77.75
236.285	73.75
236.519	67.75
236.753	84.75
236.987	70.75
237.221	84.75
237.455	96.75
237.689	75.75
237.922	81.75
238.156	74.75
238.39	77.75
238.624	74.75
238.858	70.75
239.091	78.75
239.325	76.75
239.559	71.75
239.793	76.75
240.027	66.75
240.26	63.75
240.494	87.75
240.728	79.75
240.961	94.75
241.195	80.75
241.429	64.75
241.662	73.75
241.896	56.75
242.13	56.75
242.363	72.75
242.597	72.75
242.83	92.75
243.064	80.75
243.298	75.75
243.531	82.75
243.765	74.75
243.998	72.75
244.232	80.75
244.465	86.75
244.699	81.75
244.932	70.75
245.166	68.75
245.399	88.75
245.633	70.75
245.866	77.75
246.099	88.75
246.333	76.75
246.566	68.75
246.8	74.75
247.033	85.75
247.266	77.75
247.5	82.75
247.733	83.75
247.966	70.75
248.2	72.75
248.433	78.75
248.666	85.75
248.899	66.75
249.133	76.75
249.366	102.75
249.599	83.75
249.832	68.75
250.066	72.75
250.299	89.75
250.532	87.75
250.765	60.75
250.998	83.75
251.231	85.75
251.465	75.75
251.698	77.75
251.931	66.75
252.164	94.75
252.397	75.75
252.63	88.75
252.863	86.75
253.096	77.75
253.329	69.75
253.562	60.75
253.795	80.75
254.028	75.75
254.261	86.75
254.494	82.75
254.727	88.75
254.96	68.75
255.193	86.75
255.426	88.75
255.659	57.75
255.892	83.75
256.124	90.75
256.357	77.75
256.59	74.75
256.823	71.75
257.056	96.75
257.289	74.75
257.521	63.75
257.754	68.75
257.987	73.75
258.22	86.75
258.452	84.75
258.685	69.75
258.918	73.75
259.151	74.75
259.383	92.75
259.616	95.75
259.849	83.75
260.081	86.75
260.314	86.75
260.547	74.75
260.779	78.75
261.012	82.75
261.244	76.75
261.477	84.75
261.71	91.75
261.942	95.75
262.175	106.75
262.407	82.75
262.64	91.75
262.872	88.75
263.105	82.75
263.337	92.75
263.57	64.75
263.802	76.75
264.035	85.75
264.267	90.75
264.499	89.75
264.732	85.75
264.964	85.75
265.197	72.75
265.429	80.75
265.661	89.75
265.894	77.75
266.126	74.75
266.358	78.75
266.591	98.75
266.823	91.75
267.055	91.75
267.287	89.75
267.52	81.75
267.752	75.75
267.984	80.75
268.216	60.75
268.448	91.75
268.681	77.75
268.913	82.75
269.145	92.75
269.377	74.75
269.609	76.75
269.841	100.75
270.073	82.75
270.306	91.75
270.538	84.75
270.77	82.75
271.002	73.75
271.234	99.75
271.466	80.75
271.698	86.75
271.93	85.75
272.162	93.75
272.394	85.75
272.626	84.75
272.858	80.75
273.09	93.75
273.322	86.75
273.553	73.75
273.785	87.75
274.017	84.75
274.249	85.75
274.481	82.75
274.713	98.75
274.945	76.75
275.176	90.75
275.408	77.75
275.64	103.75
275.872	89.75
276.104	82.75
276.335	94.75
276.567	96.75
276.799	95.75
277.031	88.75
277.262	96.75
277.494	88.75
277.726	93.75
277.957	101.75
278.189	76.75
278.421	82.75
278.652	84.75
278.884	85.75
279.115	86.75
279.347	86.75
279.579	72.75
279.81	82.75
280.042	78.75
280.273	92.75
280.505	83.75
280.736	83.75
280.968	82.75
281.199	83.75
281.431	82.75
281.662	83.75
281.894	92.75
282.125	89.75
282.356	108.75
282.588	118.75
282.819	104.75
283.051	80.75
283.282	82.75
283.513	87.75
283.745	100.75
283.976	80.75
284.207	85.75
284.439	77.75
284.67	81.75
284.901	100.75
285.132	97.75
285.364	91.75
285.595	77.75
285.826	96.75
286.057	94.75
286.288	82.75
286.52	92.75
286.751	86.75
286.982	89.75
287.213	84.75
287.444	85.75
287.675	88.75
287.906	82.75
288.138	90.75
288.369	74.75
288.6	88.75
288.831	83.75
289.062	90.75
289.293	65.75
289.524	89.75
289.755	86.75
289.986	98.75
290.217	84.75
290.448	85.75
290.679	80.75
290.91	75.75
291.141	84.75
291.371	82.75
291.602	96.75
291.833	93.75
292.064	89.75
292.295	91.75
292.526	81.75
292.757	94.75
292.987	83.75
293.218	92.75
293.449	93.75
293.68	86.75
293.91	77.75
294.141	90.75
294.372	94.75
294.603	72.75
294.833	85.75
295.064	84.75
295.295	91.75
295.525	94.75
295.756	93.75
295.987	95.75
296.217	113.75
296.448	108.75
296.679	88.75
296.909	92.75
297.14	76.75
297.37	93.75
297.601	87.75
297.831	93.75
298.062	77.75
298.292	86.75
298.523	84.75
298.753	80.75
298.984	90.75
299.214	81.75
299.445	88.75
299.675	91.75
299.905	84.75
300.136	82.75
300.366	76.75
300.597	98.75
300.827	88.75
301.057	86.75
301.288	94.75
301.518	91.75
301.748	91.75
301.979	96.75
302.209	84.75
302.439	81.75
302.669	86.75
302.9	92.75
303.13	76.75
303.36	90.75
303.59	86.75
303.82	88.75
304.051	86.75
304.281	98.75
304.511	93.75
304.741	88.75
304.971	84.75
305.201	78.75
305.431	91.75
305.661	88.75
305.891	86.75
306.121	81.75
306.352	110.75
306.582	100.75
306.812	90.75
307.042	84.75
307.272	89.75
307.502	86.75
307.731	93.75
307.961	81.75
308.191	105.75
308.421	95.75
308.651	80.75
308.881	81.75
309.111	87.75
309.341	102.75
309.571	98.75
309.8	97.75
310.03	92.75
310.26	97.75
310.49	112.75
310.72	93.75
310.949	86.75
311.179	86.75
311.409	92.75
311.639	91.75
311.868	78.75
312.098	92.75
312.328	110.75
312.557	99.75
312.787	103.75
313.017	94.75
313.246	89.75
313.476	89.75
313.706	94.75
313.935	92.75
314.165	96.75
314.394	113.75
314.624	102.75
314.853	91.75
315.083	101.75
315.312	87.75
315.542	85.75
315.771	96.75
316.001	93.75
316.23	93.75
316.46	88.75
316.689	95.75
316.919	91.75
317.148	91.75
317.377	90.75
317.607	98.75
317.836	92.75
318.065	84.75
318.295	64.75
318.524	99.75
318.753	97.75
318.983	74.75
319.212	88.75
319.441	99.75
319.67	92.75
319.9	96.75
320.129	90.75
320.358	91.75
320.587	106.75
320.816	94.75
321.046	100.75
321.275	90.75
321.504	107.75
321.733	85.75
321.962	88.75
322.191	93.75
322.42	105.75
322.649	88.75
322.878	101.75
323.108	104.75
323.337	107.75
323.566	110.75
323.795	127.75
324.024	185.75
324.253	284.75
324.482	601.75
324.71	1176.75
324.939	1546.75
325.168	570.75
325.397	197.75
325.626	116.75
325.855	124.75
326.084	116.75
326.313	114.75
326.542	124.75
326.77	176.75
326.999	347.75
327.228	681.75
327.457	1216.75
327.686	982.75
327.914	288.75
328.143	162.75
328.372	137.75
328.6	117.75
328.829	110.75
329.058	92.75
329.287	87.75
329.515	99.75
329.744	96.75
329.972	98.75
330.201	116.75
330.43	117.75
330.658	108.75
330.887	115.75
331.115	110.75
331.344	98.75
331.572	93.75
331.801	99.75
332.03	105.75
332.258	99.75
332.486	100.75
332.715	93.75
332.943	95.75
333.172	99.75
333.4	81.75
333.629	101.75
333.857	97.75
334.085	99.75
334.314	103.75
334.542	108.75
334.771	105.75
334.999	91.75
335.227	87.75
335.455	88.75
335.684	98.75
335.912	100.75
336.14	105.75
336.369	109.75
336.597	104.75
336.825	93.75
337.053	75.75
337.281	84.75
337.51	88.75
337.738	100.75
337.966	88.75
338.194	92.75
338.422	109.75
338.65	104.75
338.878	94.75
339.106	90.75
339.334	89.75
339.562	94.75
339.79	94.75
340.018	102.75
340.246	93.75
340.474	82.75
340.702	84.75
340.93	92.75
341.158	92.75
341.386	85.75
341.614	92.75
341.842	85.75
342.07	81.75
342.298	102.75
342.526	91.75
342.754	89.75
342.981	92.75
343.209	77.75
343.437	102.75
343.665	90.75
343.893	92.75
344.12	107.75
344.348	80.75
344.576	84.75
344.804	85.75
345.031	92.75
345.259	94.75
345.487	88.75
345.714	88.75
345.942	102.75
346.17	78.75
346.397	85.75
346.625	98.75
346.853	91.75
347.08	90.75
347.308	84.75
347.535	86.75
347.763	86.75
347.99	102.75
348.218	86.75
348.445	92.75
348.673	86.75
348.9	94.75
349.128	76.75
349.355	100.75
349.583	92.75
349.81	84.75
350.037	88.75
350.265	98.75
350.492	95.75
350.72	91.75
350.947	113.75
351.174	96.75
351.402	102.75
351.629	104.75
351.856	95.75
352.083	105.75
352.311	107.75
352.538	94.75
352.765	97.75
352.992	113.75
353.22	105.75
353.447	103.75
353.674	105.75
353.901	101.75
354.128	92.75
354.355	106.75
354.583	86.75
354.81	93.75
355.037	90.75
355.264	94.75
355.491	85.75
355.718	100.75
355.945	99.75
356.172	92.75
356.399	86.75
356.626	95.75
356.853	92.75
357.08	91.75
357.307	95.75
357.534	93.75
357.761	108.75
357.988	117.75
358.215	97.75
358.441	81.75
358.668	107.75
358.895	93.75
359.122	88.75
359.349	84.75
359.576	66.75
359.802	93.75
360.029	86.75
360.256	90.75
360.483	106.75
360.709	105.75
360.936	100.75
361.163	91.75
361.39	97.75
361.616	85.75
361.843	89.75
362.07	82.75
362.296	103.75
362.523	90.75
362.749	108.75
362.976	88.75
363.203	90.75
363.429	101.75
363.656	86.75
363.882	95.75
364.109	86.75
364.335	94.75
364.562	95.75
364.788	86.75
365.015	92.75
365.241	109.75
365.468	113.75
365.694	102.75
365.92	100.75
366.147	104.75
366.373	70.75
366.599	77.75
366.826	79.75
367.052	92.75
367.278	84.75
367.505	96.75
367.731	83.75
367.957	78.75
368.184	88.75
368.41	94.75
368.636	104.75
368.862	120.75
369.089	91.75
369.315	88.75
369.541	75.75
369.767	96.75
369.993	75.75
370.219	94.75
370.445	91.75
370.672	81.75
370.898	84.75
371.124	83.75
371.35	93.75
371.576	100.75
371.802	93.75
372.028	85.75
372.254	82.75
372.48	100.75
372.706	86.75
372.932	90.75
373.158	90.75
373.384	94.75
373.61	86.75
373.835	92.75
374.061	91.75
374.287	101.75
374.513	111.75
374.739	78.75
374.965	82.75
375.191	81.75
375.416	91.75
375.642	77.75
375.868	90.75
376.094	87.75
376.319	91.75
376.545	78.75
376.771	86.75
376.997	96.75
377.222	101.75
377.448	92.75
377.674	80.75
377.899	93.75
378.125	90.75
378.35	78.75
378.576	95.75
378.802	91.75
379.027	104.75
379.253	98.75
379.478	84.75
379.704	97.75
379.929	91.75
380.155	102.75
380.38	88.75
380.606	90.75
380.831	95.75
381.057	108.75
381.282	97.75
381.507	96.75
381.733	85.75
381.958	101.75
382.184	98.75
382.409	91.75
382.634	97.75
382.86	104.75
383.085	98.75
383.31	91.75
383.535	88.75
383.761	88.75
383.986	89.75
384.211	92.75
384.436	103.75
384.662	110.75
384.887	109.75
385.112	105.75
385.337	106.75
385.562	89.75
385.787	100.75
386.013	115.75
386.238	112.75
386.463	101.75
386.688	102.75
386.913	102.75
387.138	110.75
387.363	115.75
387.588	107.75
387.813	107.75
388.038	96.75
388.263	113.75
388.488	101.75
388.713	88.75
388.938	97.75
389.163	104.75
389.387	99.75
389.612	78.75
389.837	87.75
390.062	90.75
390.287	92.75
390.512	100.75
390.736	93.75
390.961	77.75
391.186	99.75
391.411	78.75
391.636	98.75
391.86	87.75
392.085	93.75
392.31	90.75
392.534	93.75
392.759	78.75
392.984	91.75
393.208	104.75
393.433	98.75
393.658	88.75
393.882	88.75
394.107	76.75
394.331	99.75
394.556	96.75
394.78	92.75
395.005	86.75
395.229	86.75
395.454	95.75
395.678	83.75
395.903	96.75
396.127	80.75
396.352	74.75
396.576	85.75
396.801	92.75
397.025	73.75
397.249	91.75
397.474	90.75
397.698	83.75
397.922	72.75
398.147	75.75
398.371	93.75
398.595	97.75
398.82	87.75
399.044	92.75
399.268	93.75
399.492	92.75
399.717	86.75
399.941	81.75
400.165	94.75
400.389	94.75
400.613	75.75
400.837	64.75
401.062	88.75
401.286	95.75
401.51	83.75
401.734	84.75
401.958	76.75
402.182	120.75
402.406	126.75
402.63	102.75
402.854	77.75
403.078	82.75
403.302	84.75
403.526	78.75
403.75	80.75
403.974	103.75
404.198	98.75
404.422	76.75
404.645	86.75
404.869	84.75
405.093	96.75
405.317	91.75
405.541	97.75
405.765	91.75
405.988	97.75
406.212	136.75
406.436	178.75
406.66	133.75
406.883	101.75
407.107	102.75
407.331	89.75
407.555	94.75
407.778	91.75
408.002	87.75
408.226	90.75
408.449	72.75
408.673	79.75
408.896	82.75
409.12	93.75
409.344	77.75
409.567	84.75
409.791	80.75
410.014	80.75
410.238	86.75
410.461	93.75
410.685	88.75
410.908	101.75
411.132	98.75
411.355	93.75
411.578	77.75
411.802	83.75
412.025	87.75
412.249	103.75
412.472	91.75
412.695	92.75
412.919	99.75
413.142	88.75
413.365	91.75
413.589	86.75
413.812	84.75
414.035	78.75
414.258	80.75
414.482	98.75
414.705	89.75
414.928	96.75
415.151	88.75
415.374	92.75
415.597	75.75
415.821	92.75
416.044	85.75
416.267	80.75
416.49	86.75
416.713	87.75
416.936	96.75
417.159	80.75
417.382	93.75
417.605	91.75
417.828	103.75
418.051	83.75
418.274	82.75
418.497	82.75
418.72	74.75
418.943	85.75
419.166	92.75
419.389	81.75
419.611	76.75
419.834	83.75
420.057	78.75
420.28	72.75
420.503	80.75
420.726	84.75
420.948	85.75
421.171	91.75
421.394	98.75
421.617	86.75
421.839	83.75
422.062	88.75
422.285	82.75
422.507	94.75
422.73	109.75
422.953	94.75
423.175	90.75
423.398	89.75
423.621	82.75
423.843	69.75
424.066	88.75
424.288	94.75
424.511	91.75
424.733	92.75
424.956	89.75
425.178	88.75
425.401	98.75
425.623	91.75
425.846	82.75
426.068	85.75
426.291	94.75
426.513	96.75
426.735	85.75
426.958	103.75
427.18	89.75
427.402	100.75
427.625	130.75
427.847	110.75
428.069	102.75
428.292	99.75
428.514	86.75
428.736	87.75
428.958	81.75
429.181	66.75
429.403	88.75
429.625	84.75
429.847	84.75
430.069	89.75
430.292	82.75
430.514	81.75
430.736	90.75
430.958	98.75
431.18	86.75
431.402	77.75
431.624	82.75
431.846	90.75
432.068	72.75
432.29	78.75
432.512	88.75
432.734	80.75
432.956	94.75
433.178	96.75
433.4	99.75
433.622	95.75
433.844	97.75
434.066	85.75
434.287	88.75
434.509	86.75
434.731	76.75
434.953	80.75
435.175	89.75
435.397	79.75
435.618	82.75
435.84	85.75
436.062	98.75
436.284	92.75
436.505	108.75
436.727	98.75
436.949	91.75
437.17	82.75
437.392	90.75
437.614	90.75
437.835	92.75
438.057	100.75
438.278	99.75
438.5	73.75
438.721	106.75
438.943	89.75
439.165	100.75
439.386	96.75
439.608	91.75
439.829	90.75
440.05	105.75
440.272	122.75
440.493	101.75
440.715	72.75
440.936	77.75
441.158	85.75
441.379	88.75
441.6	85.75
441.822	90.75
442.043	88.75
442.264	87.75
442.486	90.75
442.707	95.75
442.928	92.75
443.149	109.75
443.371	96.75
443.592	73.75
443.813	94.75
444.034	83.75
444.255	89.75
444.476	82.75
444.698	69.75
444.919	83.75
445.14	110.75
445.361	109.75
445.582	96.75
445.803	104.75
446.024	116.75
446.245	90.75
446.466	89.75
446.687	73.75
446.908	75.75
447.129	87.75
447.35	90.75
447.571	80.75
447.792	76.75
448.013	98.75
448.234	97.75
448.455	81.75
448.675	89.75
448.896	109.75
449.117	96.75
449.338	96.75
449.559	104.75
449.779	113.75
450	86.75
450.221	79.75
450.442	75.75
450.662	78.75
450.883	95.75
451.104	105.75
451.324	97.75
451.545	88.75
451.766	84.75
451.986	89.75
452.207	76.75
452.428	84.75
452.648	108.75
452.869	104.75
453.089	105.75
453.31	114.75
453.53	84.75
453.751	99.75
453.971	91.75
454.192	96.75
454.412	93.75
454.633	88.75
454.853	93.75
455.073	88.75
455.294	99.75
455.514	88.75
455.734	96.75
455.955	93.75
456.175	84.75
456.395	90.75
456.616	90.75
456.836	96.75
457.056	62.75
457.276	79.75
457.497	76.75
457.717	78.75
457.937	92.75
458.157	88.75
458.377	80.75
458.598	111.75
458.818	118.75
459.038	119.75
459.258	94.75
459.478	74.75
459.698	84.75
459.918	80.75
460.138	70.75
460.358	83.75
460.578	89.75
460.798	100.75
461.018	87.75
461.238	75.75
461.458	84.75
461.678	76.75
461.898	86.75
462.118	76.75
462.338	77.75
462.558	84.75
462.777	81.75
462.997	84.75
463.217	80.75
463.437	76.75
463.657	73.75
463.876	78.75
464.096	84.75
464.316	95.75
464.536	83.75
464.755	75.75
464.975	97.75
465.195	130.75
465.414	117.75
465.634	92.75
465.854	93.75
466.073	88.75
466.293	57.75
466.512	78.75
466.732	82.75
466.951	84.75
467.171	95.75
467.391	98.75
467.61	94.75
467.829	90.75
468.049	103.75
468.268	91.75
468.488	83.75
468.707	93.75
468.927	90.75
469.146	80.75
469.365	76.75
469.585	92.75
469.804	89.75
470.023	85.75
470.243	77.75
470.462	90.75
470.681	99.75
470.901	97.75
471.12	80.75
471.339	86.75
471.558	86.75
471.777	88.75
471.997	97.75
472.216	96.75
472.435	117.75
472.654	88.75
472.873	90.75
473.092	90.75
473.311	85.75
473.53	79.75
473.749	68.75
473.968	99.75
474.187	84.75
474.406	98.75
474.625	95.75
474.844	90.75
475.063	98.75
475.282	91.75
475.501	89.75
475.72	82.75
475.939	77.75
476.158	76.75
476.377	72.75
476.596	87.75
476.814	86.75
477.033	91.75
477.252	82.75
477.471	81.75
477.69	82.75
477.908	85.75
478.127	73.75
478.346	82.75
478.564	82.75
478.783	78.75
479.002	90.75
479.22	94.75
479.439	82.75
479.658	86.75
479.876	87.75
480.095	88.75
480.313	91.75
480.532	77.75
480.751	89.75
480.969	98.75
481.188	166.75
481.406	114.75
481.624	92.75
481.843	61.75
482.061	90.75
482.28	101.75
482.498	102.75
482.717	93.75
482.935	96.75
483.153	81.75
483.372	73.75
483.59	84.75
483.808	96.75
484.027	86.75
484.245	100.75
484.463	90.75
484.681	99.75
484.9	77.75
485.118	88.75
485.336	98.75
485.554	108.75
485.772	88.75
485.99	102.75
486.209	93.75
486.427	93.75
486.645	119.75
486.863	104.75
487.081	114.75
487.299	103.75
487.517	95.75
487.735	94.75
487.953	90.75
488.171	91.75
488.389	84.75
488.607	89.75
488.825	100.75
489.043	100.75
489.261	74.75
489.479	76.75
489.696	85.75
489.914	90.75
490.132	83.75
490.35	75.75
490.568	91.75
490.786	88.75
491.003	98.75
491.221	90.75
491.439	83.75
491.657	81.75
491.874	98.75
492.092	91.75
492.31	102.75
492.527	101.75
492.745	88.75
492.963	84.75
493.18	90.75
493.398	93.75
493.615	102.75
493.833	81.75
494.05	84.75
494.268	90.75
494.485	86.75
494.703	84.75
494.92	92.75
495.138	85.75
495.355	97.75
495.573	86.75
495.79	75.75
496.008	82.75
496.225	91.75
496.442	84.75
496.66	92.75
496.877	78.75
497.094	100.75
497.312	66.75
497.529	81.75
497.746	84.75
497.963	80.75
498.181	77.75
498.398	88.75
498.615	100.75
498.832	96.75
499.049	89.75
499.267	100.75
499.484	91.75
499.701	100.75
499.918	96.75
500.135	74.75
500.352	96.75
500.569	94.75
500.786	75.75
501.003	86.75
501.22	90.75
501.437	100.75
501.654	71.75
501.871	84.75
502.088	92.75
502.305	94.75
502.522	105.75
502.739	78.75
502.956	81.75
503.172	93.75
503.389	94.75
503.606	94.75
503.823	101.75
504.04	82.75
504.256	85.75
504.473	92.75
504.69	77.75
504.907	96.75
505.123	91.75
505.34	95.75
505.557	93.75
505.773	87.75
505.99	95.75
506.207	88.75
506.423	90.75
506.64	72.75
506.856	89.75
507.073	93.75
507.289	76.75
507.506	98.75
507.722	109.75
507.939	109.75
508.155	92.75
508.372	88.75
508.588	78.75
508.805	82.75
509.021	83.75
509.238	103.75
509.454	102.75
509.67	97.75
509.887	101.75
510.103	118.75
510.319	180.75
510.536	536.75
510.752	1641.75
510.968	489.75
511.184	130.75
511.401	107.75
511.617	88.75
511.833	100.75
512.049	82.75
512.265	93.75
512.481	87.75
512.698	99.75
512.914	89.75
513.13	100.75
513.346	69.75
513.562	92.75
513.778	90.75
513.994	92.75
514.21	88.75
514.426	116.75
514.642	114.75
514.858	98.75
515.074	142.75
515.29	313.75
515.506	955.75
515.721	370.75
515.937	129.75
516.153	92.75
516.369	94.75
516.585	86.75
516.801	91.75
