Data from Circ_1980_H10_HRD10591_00069.txt Node
Date: Wed Jan 03 12:38:12 EST 2024
User: Yrep
Spectrometer: HR+D1059
Trigger mode: 1
Integration Time (sec): 1.000000E-1
Scans to average: 1
Electric dark correction enabled: true
Nonlinearity correction enabled: false
Boxcar width: 0
XAxis mode: Wavelengths
Number of Pixels in Spectrum: 2048
>>>>>Begin Spectral Data<<<<<
223.165	-7.69
223.4	-7.69
223.635	-7.69
223.869	-14.69
224.104	-34.69
224.338	-14.69
224.573	-4.69
224.808	-15.69
225.042	-15.69
225.277	-4.69
225.511	-7.69
225.746	-7.69
225.98	4.31
226.215	10.31
226.449	15.31
226.683	26.31
226.918	39.31
227.152	32.31
227.387	31.31
227.621	35.31
227.856	49.31
228.09	45.31
228.324	46.31
228.559	55.31
228.793	53.31
229.027	71.31
229.262	72.31
229.496	68.31
229.73	70.31
229.964	77.31
230.199	65.31
230.433	83.31
230.667	85.31
230.901	73.31
231.136	76.31
231.37	82.31
231.604	71.31
231.838	78.31
232.072	77.31
232.306	91.31
232.541	78.31
232.775	91.31
233.009	82.31
233.243	86.31
233.477	79.31
233.711	71.31
233.945	80.31
234.179	79.31
234.413	72.31
234.647	73.31
234.881	95.31
235.115	71.31
235.349	76.31
235.583	72.31
235.817	61.31
236.051	83.31
236.285	89.31
236.519	75.31
236.753	85.31
236.987	86.31
237.221	84.31
237.455	88.31
237.689	78.31
237.922	77.31
238.156	75.31
238.39	71.31
238.624	66.31
238.858	65.31
239.091	78.31
239.325	73.31
239.559	89.31
239.793	79.31
240.027	88.31
240.26	72.31
240.494	72.31
240.728	82.31
240.961	66.31
241.195	66.31
241.429	77.31
241.662	80.31
241.896	84.31
242.13	74.31
242.363	86.31
242.597	73.31
242.83	70.31
243.064	85.31
243.298	85.31
243.531	69.31
243.765	80.31
243.998	88.31
244.232	83.31
244.465	100.31
244.699	87.31
244.932	83.31
245.166	67.31
245.399	73.31
245.633	89.31
245.866	70.31
246.099	88.31
246.333	81.31
246.566	77.31
246.8	99.31
247.033	75.31
247.266	71.31
247.5	90.31
247.733	81.31
247.966	69.31
248.2	79.31
248.433	72.31
248.666	71.31
248.899	78.31
249.133	91.31
249.366	96.31
249.599	86.31
249.832	73.31
250.066	77.31
250.299	78.31
250.532	73.31
250.765	85.31
250.998	93.31
251.231	71.31
251.465	67.31
251.698	84.31
251.931	83.31
252.164	84.31
252.397	78.31
252.63	79.31
252.863	65.31
253.096	80.31
253.329	81.31
253.562	78.31
253.795	81.31
254.028	76.31
254.261	76.31
254.494	86.31
254.727	85.31
254.96	74.31
255.193	87.31
255.426	89.31
255.659	79.31
255.892	85.31
256.124	73.31
256.357	91.31
256.59	88.31
256.823	87.31
257.056	84.31
257.289	77.31
257.521	91.31
257.754	89.31
257.987	78.31
258.22	63.31
258.452	90.31
258.685	81.31
258.918	92.31
259.151	87.31
259.383	89.31
259.616	89.31
259.849	85.31
260.081	91.31
260.314	74.31
260.547	80.31
260.779	97.31
261.012	87.31
261.244	95.31
261.477	94.31
261.71	89.31
261.942	108.31
262.175	105.31
262.407	105.31
262.64	83.31
262.872	78.31
263.105	80.31
263.337	92.31
263.57	81.31
263.802	77.31
264.035	88.31
264.267	74.31
264.499	89.31
264.732	87.31
264.964	87.31
265.197	96.31
265.429	99.31
265.661	84.31
265.894	99.31
266.126	95.31
266.358	94.31
266.591	88.31
266.823	97.31
267.055	72.31
267.287	78.31
267.52	71.31
267.752	86.31
267.984	91.31
268.216	88.31
268.448	89.31
268.681	93.31
268.913	85.31
269.145	82.31
269.377	91.31
269.609	89.31
269.841	89.31
270.073	82.31
270.306	80.31
270.538	100.31
270.77	67.31
271.002	65.31
271.234	71.31
271.466	84.31
271.698	80.31
271.93	83.31
272.162	91.31
272.394	79.31
272.626	83.31
272.858	89.31
273.09	76.31
273.322	79.31
273.553	84.31
273.785	78.31
274.017	95.31
274.249	83.31
274.481	97.31
274.713	85.31
274.945	93.31
275.176	78.31
275.408	75.31
275.64	84.31
275.872	93.31
276.104	95.31
276.335	88.31
276.567	99.31
276.799	116.31
277.031	89.31
277.262	100.31
277.494	89.31
277.726	71.31
277.957	91.31
278.189	78.31
278.421	85.31
278.652	95.31
278.884	87.31
279.115	101.31
279.347	84.31
279.579	84.31
279.81	78.31
280.042	93.31
280.273	85.31
280.505	97.31
280.736	93.31
280.968	92.31
281.199	84.31
281.431	89.31
281.662	83.31
281.894	84.31
282.125	87.31
282.356	119.31
282.588	124.31
282.819	103.31
283.051	91.31
283.282	76.31
283.513	88.31
283.745	85.31
283.976	73.31
284.207	94.31
284.439	83.31
284.67	99.31
284.901	74.31
285.132	91.31
285.364	96.31
285.595	96.31
285.826	80.31
286.057	88.31
286.288	78.31
286.52	81.31
286.751	90.31
286.982	84.31
287.213	89.31
287.444	94.31
287.675	78.31
287.906	98.31
288.138	87.31
288.369	94.31
288.6	84.31
288.831	100.31
289.062	86.31
289.293	85.31
289.524	85.31
289.755	102.31
289.986	89.31
290.217	85.31
290.448	93.31
290.679	80.31
290.91	77.31
291.141	93.31
291.371	96.31
291.602	78.31
291.833	99.31
292.064	93.31
292.295	91.31
292.526	99.31
292.757	89.31
292.987	90.31
293.218	92.31
293.449	90.31
293.68	92.31
293.91	89.31
294.141	110.31
294.372	86.31
294.603	88.31
294.833	100.31
295.064	93.31
295.295	99.31
295.525	83.31
295.756	95.31
295.987	109.31
296.217	107.31
296.448	114.31
296.679	95.31
296.909	105.31
297.14	100.31
297.37	100.31
297.601	95.31
297.831	92.31
298.062	75.31
298.292	87.31
298.523	81.31
298.753	100.31
298.984	72.31
299.214	107.31
299.445	94.31
299.675	92.31
299.905	102.31
300.136	102.31
300.366	84.31
300.597	108.31
300.827	104.31
301.057	89.31
301.288	97.31
301.518	96.31
301.748	80.31
301.979	89.31
302.209	89.31
302.439	97.31
302.669	92.31
302.9	97.31
303.13	91.31
303.36	100.31
303.59	92.31
303.82	102.31
304.051	101.31
304.281	101.31
304.511	84.31
304.741	88.31
304.971	98.31
305.201	88.31
305.431	94.31
305.661	85.31
305.891	78.31
306.121	95.31
306.352	90.31
306.582	109.31
306.812	94.31
307.042	87.31
307.272	91.31
307.502	95.31
307.731	98.31
307.961	92.31
308.191	95.31
308.421	98.31
308.651	87.31
308.881	80.31
309.111	94.31
309.341	95.31
309.571	106.31
309.8	92.31
310.03	93.31
310.26	98.31
310.49	103.31
310.72	99.31
310.949	95.31
311.179	89.31
311.409	90.31
311.639	93.31
311.868	80.31
312.098	90.31
312.328	105.31
312.557	99.31
312.787	108.31
313.017	91.31
313.246	90.31
313.476	106.31
313.706	93.31
313.935	96.31
314.165	88.31
314.394	79.31
314.624	91.31
314.853	90.31
315.083	94.31
315.312	93.31
315.542	88.31
315.771	100.31
316.001	87.31
316.23	90.31
316.46	87.31
316.689	88.31
316.919	89.31
317.148	90.31
317.377	94.31
317.607	93.31
317.836	90.31
318.065	81.31
318.295	76.31
318.524	94.31
318.753	99.31
318.983	96.31
319.212	80.31
319.441	97.31
319.67	119.31
319.9	94.31
320.129	91.31
320.358	78.31
320.587	95.31
320.816	100.31
321.046	97.31
321.275	103.31
321.504	98.31
321.733	102.31
321.962	90.31
322.191	101.31
322.42	110.31
322.649	107.31
322.878	100.31
323.108	109.31
323.337	112.31
323.566	115.31
323.795	134.31
324.024	158.31
324.253	310.31
324.482	612.31
324.71	1201.31
324.939	1607.31
325.168	597.31
325.397	193.31
325.626	141.31
325.855	132.31
326.084	121.31
326.313	121.31
326.542	149.31
326.77	197.31
326.999	353.31
327.228	685.31
327.457	1251.31
327.686	991.31
327.914	276.31
328.143	163.31
328.372	125.31
328.6	121.31
328.829	124.31
329.058	103.31
329.287	110.31
329.515	118.31
329.744	100.31
329.972	116.31
330.201	108.31
330.43	123.31
330.658	114.31
330.887	113.31
331.115	113.31
331.344	97.31
331.572	107.31
331.801	95.31
332.03	112.31
332.258	100.31
332.486	85.31
332.715	88.31
332.943	102.31
333.172	91.31
333.4	102.31
333.629	104.31
333.857	109.31
334.085	118.31
334.314	101.31
334.542	136.31
334.771	133.31
334.999	99.31
335.227	103.31
335.455	99.31
335.684	103.31
335.912	105.31
336.14	107.31
336.369	112.31
336.597	95.31
336.825	99.31
337.053	95.31
337.281	100.31
337.51	88.31
337.738	97.31
337.966	90.31
338.194	81.31
338.422	94.31
338.65	92.31
338.878	98.31
339.106	84.31
339.334	90.31
339.562	105.31
339.79	94.31
340.018	83.31
340.246	96.31
340.474	95.31
340.702	96.31
340.93	101.31
341.158	98.31
341.386	99.31
341.614	100.31
341.842	84.31
342.07	104.31
342.298	79.31
342.526	93.31
342.754	91.31
342.981	89.31
343.209	79.31
343.437	88.31
343.665	101.31
343.893	93.31
344.12	93.31
344.348	89.31
344.576	76.31
344.804	99.31
345.031	101.31
345.259	107.31
345.487	113.31
345.714	105.31
345.942	96.31
346.17	94.31
346.397	101.31
346.625	93.31
346.853	90.31
347.08	105.31
347.308	98.31
347.535	93.31
347.763	97.31
347.99	108.31
348.218	103.31
348.445	100.31
348.673	112.31
348.9	79.31
349.128	91.31
349.355	99.31
349.583	89.31
349.81	101.31
350.037	91.31
350.265	89.31
350.492	89.31
350.72	88.31
350.947	92.31
351.174	108.31
351.402	102.31
351.629	97.31
351.856	102.31
352.083	90.31
352.311	98.31
352.538	113.31
352.765	97.31
352.992	107.31
353.22	100.31
353.447	105.31
353.674	100.31
353.901	97.31
354.128	99.31
354.355	91.31
354.583	105.31
354.81	89.31
355.037	94.31
355.264	91.31
355.491	94.31
355.718	87.31
355.945	94.31
356.172	91.31
356.399	104.31
356.626	107.31
356.853	88.31
357.08	88.31
357.307	90.31
357.534	98.31
357.761	101.31
357.988	96.31
358.215	95.31
358.441	103.31
358.668	93.31
358.895	86.31
359.122	78.31
359.349	88.31
359.576	87.31
359.802	94.31
360.029	100.31
360.256	107.31
360.483	92.31
360.709	99.31
360.936	100.31
361.163	97.31
361.39	106.31
361.616	96.31
361.843	101.31
362.07	116.31
362.296	87.31
362.523	94.31
362.749	86.31
362.976	86.31
363.203	84.31
363.429	90.31
363.656	87.31
363.882	102.31
364.109	90.31
364.335	107.31
364.562	95.31
364.788	96.31
365.015	91.31
365.241	95.31
365.468	99.31
365.694	102.31
365.92	103.31
366.147	108.31
366.373	84.31
366.599	87.31
366.826	95.31
367.052	87.31
367.278	93.31
367.505	83.31
367.731	109.31
367.957	87.31
368.184	94.31
368.41	93.31
368.636	98.31
368.862	116.31
369.089	93.31
369.315	105.31
369.541	80.31
369.767	88.31
369.993	94.31
370.219	92.31
370.445	76.31
370.672	88.31
370.898	75.31
371.124	100.31
371.35	97.31
371.576	96.31
371.802	90.31
372.028	95.31
372.254	79.31
372.48	79.31
372.706	77.31
372.932	99.31
373.158	94.31
373.384	91.31
373.61	93.31
373.835	109.31
374.061	79.31
374.287	92.31
374.513	76.31
374.739	94.31
374.965	74.31
375.191	81.31
375.416	101.31
375.642	96.31
375.868	84.31
376.094	110.31
376.319	82.31
376.545	96.31
376.771	72.31
376.997	93.31
377.222	72.31
377.448	93.31
377.674	107.31
377.899	96.31
378.125	95.31
378.35	90.31
378.576	89.31
378.802	99.31
379.027	91.31
379.253	104.31
379.478	87.31
379.704	91.31
379.929	86.31
380.155	91.31
380.38	80.31
380.606	91.31
380.831	94.31
381.057	88.31
381.282	90.31
381.507	101.31
381.733	104.31
381.958	96.31
382.184	101.31
382.409	100.31
382.634	104.31
382.86	100.31
383.085	119.31
383.31	107.31
383.535	99.31
383.761	97.31
383.986	106.31
384.211	95.31
384.436	94.31
384.662	88.31
384.887	109.31
385.112	119.31
385.337	99.31
385.562	108.31
385.787	100.31
386.013	125.31
386.238	126.31
386.463	112.31
386.688	108.31
386.913	101.31
387.138	122.31
387.363	109.31
387.588	101.31
387.813	103.31
388.038	110.31
388.263	130.31
388.488	94.31
388.713	93.31
388.938	101.31
389.163	105.31
389.387	102.31
389.612	101.31
389.837	85.31
390.062	92.31
390.287	82.31
390.512	92.31
390.736	88.31
390.961	77.31
391.186	105.31
391.411	89.31
391.636	97.31
391.86	84.31
392.085	87.31
392.31	107.31
392.534	88.31
392.759	87.31
392.984	102.31
393.208	90.31
393.433	89.31
393.658	96.31
393.882	90.31
394.107	70.31
394.331	85.31
394.556	91.31
394.78	101.31
395.005	92.31
395.229	96.31
395.454	88.31
395.678	96.31
395.903	104.31
396.127	90.31
396.352	91.31
396.576	91.31
396.801	77.31
397.025	88.31
397.249	93.31
397.474	102.31
397.698	85.31
397.922	77.31
398.147	72.31
398.371	79.31
398.595	86.31
398.82	95.31
399.044	76.31
399.268	86.31
399.492	96.31
399.717	86.31
399.941	97.31
400.165	88.31
400.389	109.31
400.613	97.31
400.837	91.31
401.062	85.31
401.286	90.31
401.51	86.31
401.734	88.31
401.958	94.31
402.182	104.31
402.406	135.31
402.63	108.31
402.854	97.31
403.078	100.31
403.302	87.31
403.526	87.31
403.75	85.31
403.974	94.31
404.198	87.31
404.422	79.31
404.645	103.31
404.869	95.31
405.093	98.31
405.317	103.31
405.541	87.31
405.765	80.31
405.988	108.31
406.212	144.31
406.436	175.31
406.66	124.31
406.883	98.31
407.107	99.31
407.331	74.31
407.555	102.31
407.778	87.31
408.002	96.31
408.226	78.31
408.449	98.31
408.673	92.31
408.896	83.31
409.12	76.31
409.344	87.31
409.567	86.31
409.791	96.31
410.014	110.31
410.238	94.31
410.461	97.31
410.685	91.31
410.908	90.31
411.132	109.31
411.355	92.31
411.578	105.31
411.802	106.31
412.025	90.31
412.249	85.31
412.472	91.31
412.695	85.31
412.919	86.31
413.142	76.31
413.365	88.31
413.589	91.31
413.812	77.31
414.035	102.31
414.258	101.31
414.482	83.31
414.705	92.31
414.928	88.31
415.151	100.31
415.374	100.31
415.597	73.31
415.821	78.31
416.044	99.31
416.267	87.31
416.49	74.31
416.713	88.31
416.936	97.31
417.159	84.31
417.382	88.31
417.605	80.31
417.828	102.31
418.051	87.31
418.274	92.31
418.497	79.31
418.72	101.31
418.943	90.31
419.166	86.31
419.389	95.31
419.611	72.31
419.834	79.31
420.057	87.31
420.28	77.31
420.503	80.31
420.726	99.31
420.948	95.31
421.171	77.31
421.394	87.31
421.617	104.31
421.839	97.31
422.062	93.31
422.285	93.31
422.507	95.31
422.73	103.31
422.953	95.31
423.175	85.31
423.398	84.31
423.621	86.31
423.843	90.31
424.066	88.31
424.288	76.31
424.511	94.31
424.733	106.31
424.956	111.31
425.178	101.31
425.401	112.31
425.623	88.31
425.846	99.31
426.068	92.31
426.291	76.31
426.513	96.31
426.735	84.31
426.958	94.31
427.18	101.31
427.402	123.31
427.625	158.31
427.847	121.31
428.069	118.31
428.292	102.31
428.514	99.31
428.736	80.31
428.958	88.31
429.181	74.31
429.403	79.31
429.625	102.31
429.847	99.31
430.069	91.31
430.292	96.31
430.514	92.31
430.736	93.31
430.958	91.31
431.18	84.31
431.402	80.31
431.624	88.31
431.846	80.31
432.068	96.31
432.29	73.31
432.512	99.31
432.734	102.31
432.956	103.31
433.178	95.31
433.4	95.31
433.622	85.31
433.844	83.31
434.066	101.31
434.287	102.31
434.509	95.31
434.731	97.31
434.953	86.31
435.175	92.31
435.397	90.31
435.618	92.31
435.84	93.31
436.062	111.31
436.284	95.31
436.505	95.31
436.727	101.31
436.949	96.31
437.17	88.31
437.392	86.31
437.614	91.31
437.835	98.31
438.057	105.31
438.278	96.31
438.5	95.31
438.721	113.31
438.943	112.31
439.165	86.31
439.386	79.31
439.608	84.31
439.829	89.31
440.05	109.31
440.272	119.31
440.493	84.31
440.715	106.31
440.936	91.31
441.158	103.31
441.379	83.31
441.6	85.31
441.822	92.31
442.043	94.31
442.264	112.31
442.486	110.31
442.707	78.31
442.928	103.31
443.149	113.31
443.371	125.31
443.592	101.31
443.813	85.31
444.034	109.31
444.255	101.31
444.476	96.31
444.698	83.31
444.919	85.31
445.14	125.31
445.361	102.31
445.582	98.31
445.803	115.31
446.024	119.31
446.245	132.31
446.466	99.31
446.687	91.31
446.908	92.31
447.129	78.31
447.35	94.31
447.571	99.31
447.792	82.31
448.013	85.31
448.234	95.31
448.455	99.31
448.675	101.31
448.896	101.31
449.117	109.31
449.338	94.31
449.559	125.31
449.779	111.31
450	87.31
450.221	88.31
450.442	89.31
450.662	92.31
450.883	93.31
451.104	91.31
451.324	101.31
451.545	85.31
451.766	94.31
451.986	75.31
452.207	92.31
452.428	99.31
452.648	87.31
452.869	96.31
453.089	97.31
453.31	94.31
453.53	88.31
453.751	96.31
453.971	95.31
454.192	99.31
454.412	89.31
454.633	86.31
454.853	89.31
455.073	94.31
455.294	95.31
455.514	91.31
455.734	97.31
455.955	88.31
456.175	85.31
456.395	88.31
456.616	83.31
456.836	75.31
457.056	95.31
457.276	86.31
457.497	91.31
457.717	83.31
457.937	94.31
458.157	93.31
458.377	85.31
458.598	95.31
458.818	119.31
459.038	135.31
459.258	100.31
459.478	87.31
459.698	83.31
459.918	93.31
460.138	72.31
460.358	77.31
460.578	90.31
460.798	97.31
461.018	73.31
461.238	87.31
461.458	91.31
461.678	80.31
461.898	87.31
462.118	85.31
462.338	73.31
462.558	72.31
462.777	83.31
462.997	89.31
463.217	91.31
463.437	90.31
463.657	100.31
463.876	85.31
464.096	81.31
464.316	91.31
464.536	93.31
464.755	100.31
464.975	84.31
465.195	136.31
465.414	127.31
465.634	103.31
465.854	89.31
466.073	92.31
466.293	95.31
466.512	86.31
466.732	90.31
466.951	86.31
467.171	93.31
467.391	87.31
467.61	100.31
467.829	104.31
468.049	97.31
468.268	96.31
468.488	89.31
468.707	80.31
468.927	92.31
469.146	79.31
469.365	84.31
469.585	94.31
469.804	105.31
470.023	86.31
470.243	78.31
470.462	84.31
470.681	100.31
470.901	81.31
471.12	89.31
471.339	84.31
471.558	85.31
471.777	79.31
471.997	104.31
472.216	101.31
472.435	136.31
472.654	91.31
472.873	88.31
473.092	83.31
473.311	76.31
473.53	100.31
473.749	90.31
473.968	99.31
474.187	118.31
474.406	89.31
474.625	80.31
474.844	74.31
475.063	96.31
475.282	102.31
475.501	81.31
475.72	105.31
475.939	95.31
476.158	94.31
476.377	93.31
476.596	96.31
476.814	81.31
477.033	105.31
477.252	80.31
477.471	93.31
477.69	91.31
477.908	84.31
478.127	88.31
478.346	94.31
478.564	83.31
478.783	95.31
479.002	90.31
479.22	99.31
479.439	95.31
479.658	105.31
479.876	93.31
480.095	90.31
480.313	89.31
480.532	102.31
480.751	97.31
480.969	101.31
481.188	185.31
481.406	141.31
481.624	87.31
481.843	93.31
482.061	74.31
482.28	93.31
482.498	95.31
482.717	93.31
482.935	80.31
483.153	97.31
483.372	104.31
483.59	99.31
483.808	86.31
484.027	100.31
484.245	95.31
484.463	99.31
484.681	118.31
484.9	101.31
485.118	96.31
485.336	98.31
485.554	117.31
485.772	107.31
485.99	104.31
486.209	107.31
486.427	110.31
486.645	119.31
486.863	104.31
487.081	92.31
487.299	100.31
487.517	101.31
487.735	95.31
487.953	105.31
488.171	87.31
488.389	99.31
488.607	79.31
488.825	86.31
489.043	82.31
489.261	83.31
489.479	98.31
489.696	77.31
489.914	97.31
490.132	101.31
490.35	92.31
490.568	100.31
490.786	96.31
491.003	95.31
491.221	96.31
491.439	104.31
491.657	91.31
491.874	95.31
492.092	86.31
492.31	79.31
492.527	96.31
492.745	97.31
492.963	95.31
493.18	92.31
493.398	92.31
493.615	92.31
493.833	85.31
494.05	87.31
494.268	81.31
494.485	88.31
494.703	96.31
494.92	98.31
495.138	90.31
495.355	95.31
495.573	93.31
495.79	83.31
496.008	87.31
496.225	104.31
496.442	95.31
496.66	102.31
496.877	88.31
497.094	111.31
497.312	93.31
497.529	99.31
497.746	98.31
497.963	83.31
498.181	91.31
498.398	91.31
498.615	104.31
498.832	102.31
499.049	103.31
499.267	77.31
499.484	93.31
499.701	82.31
499.918	80.31
500.135	101.31
500.352	85.31
500.569	99.31
500.786	97.31
501.003	87.31
501.22	97.31
501.437	84.31
501.654	88.31
501.871	93.31
502.088	91.31
502.305	78.31
502.522	85.31
502.739	94.31
502.956	92.31
503.172	105.31
503.389	103.31
503.606	102.31
503.823	87.31
504.04	83.31
504.256	85.31
504.473	89.31
504.69	109.31
504.907	73.31
505.123	85.31
505.34	91.31
505.557	87.31
505.773	89.31
505.99	92.31
506.207	94.31
506.423	96.31
506.64	95.31
506.856	85.31
507.073	91.31
507.289	79.31
507.506	87.31
507.722	103.31
507.939	115.31
508.155	103.31
508.372	102.31
508.588	95.31
508.805	108.31
509.021	97.31
509.238	83.31
509.454	83.31
509.67	105.31
509.887	107.31
510.103	138.31
510.319	176.31
510.536	577.31
510.752	1719.31
510.968	497.31
511.184	135.31
511.401	101.31
511.617	92.31
511.833	91.31
512.049	73.31
512.265	83.31
512.481	97.31
512.698	102.31
512.914	78.31
513.13	88.31
513.346	94.31
513.562	106.31
513.778	93.31
513.994	97.31
514.21	113.31
514.426	114.31
514.642	126.31
514.858	117.31
515.074	151.31
515.29	331.31
515.506	979.31
