Data from Circ_1980_H10_HRD10591_00085.txt Node
Date: Wed Jan 03 12:38:15 EST 2024
User: Yrep
Spectrometer: HR+D1059
Trigger mode: 1
Integration Time (sec): 1.000000E-1
Scans to average: 1
Electric dark correction enabled: true
Nonlinearity correction enabled: false
Boxcar width: 0
XAxis mode: Wavelengths
Number of Pixels in Spectrum: 2048
>>>>>Begin Spectral Data<<<<<
223.165	-21.94
223.4	-21.94
223.635	-21.94
223.869	-22.94
224.104	-20.94
224.338	-3.94
224.573	-13.94
224.808	-15.94
225.042	-2.94
225.277	-9.94
225.511	-2.94
225.746	-1.94
225.98	18.06
226.215	12.06
226.449	18.06
226.683	14.06
226.918	30.06
227.152	25.06
227.387	42.06
227.621	39.06
227.856	44.06
228.09	57.06
228.324	52.06
228.559	67.06
228.793	60.06
229.027	54.06
229.262	62.06
229.496	67.06
229.73	87.06
229.964	78.06
230.199	69.06
230.433	85.06
230.667	91.06
230.901	80.06
231.136	77.06
231.37	64.06
231.604	83.06
231.838	88.06
232.072	87.06
232.306	92.06
232.541	77.06
232.775	76.06
233.009	76.06
233.243	73.06
233.477	84.06
233.711	80.06
233.945	75.06
234.179	74.06
234.413	80.06
234.647	88.06
234.881	77.06
235.115	81.06
235.349	79.06
235.583	91.06
235.817	82.06
236.051	84.06
236.285	81.06
236.519	77.06
236.753	78.06
236.987	94.06
237.221	81.06
237.455	88.06
237.689	78.06
237.922	84.06
238.156	74.06
238.39	71.06
238.624	79.06
238.858	65.06
239.091	82.06
239.325	64.06
239.559	87.06
239.793	91.06
240.027	84.06
240.26	86.06
240.494	72.06
240.728	67.06
240.961	70.06
241.195	77.06
241.429	74.06
241.662	93.06
241.896	56.06
242.13	84.06
242.363	68.06
242.597	74.06
242.83	74.06
243.064	65.06
243.298	77.06
243.531	77.06
243.765	75.06
243.998	84.06
244.232	86.06
244.465	88.06
244.699	89.06
244.932	78.06
245.166	73.06
245.399	69.06
245.633	73.06
245.866	68.06
246.099	68.06
246.333	69.06
246.566	82.06
246.8	80.06
247.033	76.06
247.266	74.06
247.5	82.06
247.733	80.06
247.966	82.06
248.2	74.06
248.433	84.06
248.666	92.06
248.899	79.06
249.133	92.06
249.366	91.06
249.599	105.06
249.832	95.06
250.066	82.06
250.299	88.06
250.532	86.06
250.765	75.06
250.998	72.06
251.231	59.06
251.465	64.06
251.698	59.06
251.931	77.06
252.164	76.06
252.397	75.06
252.63	86.06
252.863	88.06
253.096	71.06
253.329	84.06
253.562	67.06
253.795	78.06
254.028	86.06
254.261	86.06
254.494	76.06
254.727	86.06
254.96	81.06
255.193	80.06
255.426	82.06
255.659	70.06
255.892	82.06
256.124	90.06
256.357	87.06
256.59	73.06
256.823	84.06
257.056	83.06
257.289	85.06
257.521	88.06
257.754	69.06
257.987	82.06
258.22	88.06
258.452	74.06
258.685	71.06
258.918	93.06
259.151	73.06
259.383	64.06
259.616	74.06
259.849	89.06
260.081	81.06
260.314	96.06
260.547	81.06
260.779	100.06
261.012	81.06
261.244	85.06
261.477	91.06
261.71	88.06
261.942	104.06
262.175	101.06
262.407	82.06
262.64	91.06
262.872	83.06
263.105	92.06
263.337	80.06
263.57	93.06
263.802	79.06
264.035	86.06
264.267	80.06
264.499	82.06
264.732	78.06
264.964	77.06
265.197	74.06
265.429	76.06
265.661	91.06
265.894	82.06
266.126	76.06
266.358	68.06
266.591	74.06
266.823	88.06
267.055	78.06
267.287	74.06
267.52	83.06
267.752	80.06
267.984	87.06
268.216	92.06
268.448	96.06
268.681	80.06
268.913	90.06
269.145	78.06
269.377	90.06
269.609	89.06
269.841	75.06
270.073	81.06
270.306	89.06
270.538	93.06
270.77	78.06
271.002	91.06
271.234	76.06
271.466	68.06
271.698	83.06
271.93	66.06
272.162	91.06
272.394	69.06
272.626	88.06
272.858	80.06
273.09	84.06
273.322	90.06
273.553	73.06
273.785	86.06
274.017	80.06
274.249	85.06
274.481	82.06
274.713	84.06
274.945	78.06
275.176	88.06
275.408	91.06
275.64	100.06
275.872	77.06
276.104	80.06
276.335	67.06
276.567	84.06
276.799	98.06
277.031	86.06
277.262	77.06
277.494	84.06
277.726	86.06
277.957	82.06
278.189	79.06
278.421	78.06
278.652	64.06
278.884	75.06
279.115	81.06
279.347	93.06
279.579	88.06
279.81	97.06
280.042	93.06
280.273	83.06
280.505	87.06
280.736	83.06
280.968	93.06
281.199	80.06
281.431	82.06
281.662	92.06
281.894	85.06
282.125	85.06
282.356	86.06
282.588	116.06
282.819	99.06
283.051	107.06
283.282	73.06
283.513	96.06
283.745	93.06
283.976	67.06
284.207	92.06
284.439	84.06
284.67	94.06
284.901	86.06
285.132	75.06
285.364	86.06
285.595	88.06
285.826	94.06
286.057	82.06
286.288	84.06
286.52	75.06
286.751	88.06
286.982	91.06
287.213	92.06
287.444	67.06
287.675	74.06
287.906	78.06
288.138	92.06
288.369	93.06
288.6	84.06
288.831	86.06
289.062	75.06
289.293	89.06
289.524	77.06
289.755	89.06
289.986	95.06
290.217	88.06
290.448	81.06
290.679	86.06
290.91	92.06
291.141	100.06
291.371	91.06
291.602	90.06
291.833	78.06
292.064	77.06
292.295	80.06
292.526	93.06
292.757	88.06
292.987	87.06
293.218	95.06
293.449	101.06
293.68	91.06
293.91	79.06
294.141	87.06
294.372	87.06
294.603	85.06
294.833	85.06
295.064	95.06
295.295	90.06
295.525	94.06
295.756	102.06
295.987	101.06
296.217	133.06
296.448	120.06
296.679	112.06
296.909	73.06
297.14	79.06
297.37	96.06
297.601	99.06
297.831	93.06
298.062	83.06
298.292	84.06
298.523	77.06
298.753	85.06
298.984	94.06
299.214	89.06
299.445	95.06
299.675	99.06
299.905	88.06
300.136	84.06
300.366	68.06
300.597	85.06
300.827	106.06
301.057	92.06
301.288	104.06
301.518	94.06
301.748	85.06
301.979	105.06
302.209	95.06
302.439	74.06
302.669	70.06
302.9	102.06
303.13	85.06
303.36	91.06
303.59	91.06
303.82	103.06
304.051	80.06
304.281	87.06
304.511	89.06
304.741	86.06
304.971	81.06
305.201	94.06
305.431	89.06
305.661	80.06
305.891	77.06
306.121	75.06
306.352	86.06
306.582	90.06
306.812	90.06
307.042	79.06
307.272	93.06
307.502	97.06
307.731	106.06
307.961	98.06
308.191	85.06
308.421	86.06
308.651	92.06
308.881	77.06
309.111	92.06
309.341	88.06
309.571	85.06
309.8	92.06
310.03	77.06
310.26	78.06
310.49	89.06
310.72	99.06
310.949	94.06
311.179	100.06
311.409	93.06
311.639	97.06
311.868	93.06
312.098	92.06
312.328	95.06
312.557	88.06
312.787	92.06
313.017	92.06
313.246	81.06
313.476	87.06
313.706	84.06
313.935	84.06
314.165	94.06
314.394	85.06
314.624	82.06
314.853	107.06
315.083	91.06
315.312	90.06
315.542	93.06
315.771	80.06
316.001	92.06
316.23	87.06
316.46	90.06
316.689	91.06
316.919	102.06
317.148	94.06
317.377	91.06
317.607	95.06
317.836	81.06
318.065	77.06
318.295	82.06
318.524	86.06
318.753	98.06
318.983	90.06
319.212	106.06
319.441	109.06
319.67	97.06
319.9	97.06
320.129	88.06
320.358	86.06
320.587	88.06
320.816	89.06
321.046	90.06
321.275	94.06
321.504	87.06
321.733	85.06
321.962	89.06
322.191	98.06
322.42	101.06
322.649	102.06
322.878	87.06
323.108	110.06
323.337	97.06
323.566	102.06
323.795	116.06
324.024	165.06
324.253	291.06
324.482	596.06
324.71	1180.06
324.939	1542.06
325.168	564.06
325.397	186.06
325.626	135.06
325.855	108.06
326.084	114.06
326.313	111.06
326.542	106.06
326.77	173.06
326.999	338.06
327.228	699.06
327.457	1224.06
327.686	945.06
327.914	279.06
328.143	171.06
328.372	126.06
328.6	105.06
328.829	102.06
329.058	119.06
329.287	106.06
329.515	108.06
329.744	98.06
329.972	97.06
330.201	102.06
330.43	117.06
330.658	107.06
330.887	112.06
331.115	113.06
331.344	99.06
331.572	103.06
331.801	101.06
332.03	85.06
332.258	69.06
332.486	92.06
332.715	72.06
332.943	94.06
333.172	88.06
333.4	92.06
333.629	91.06
333.857	95.06
334.085	114.06
334.314	118.06
334.542	121.06
334.771	122.06
334.999	91.06
335.227	84.06
335.455	98.06
335.684	112.06
335.912	90.06
336.14	97.06
336.369	98.06
336.597	85.06
336.825	86.06
337.053	91.06
337.281	93.06
337.51	96.06
337.738	85.06
337.966	90.06
338.194	88.06
338.422	70.06
338.65	96.06
338.878	89.06
339.106	80.06
339.334	90.06
339.562	87.06
339.79	99.06
340.018	88.06
340.246	86.06
340.474	95.06
340.702	90.06
340.93	77.06
341.158	79.06
341.386	94.06
341.614	95.06
341.842	100.06
342.07	92.06
342.298	101.06
342.526	83.06
342.754	86.06
342.981	85.06
343.209	98.06
343.437	96.06
343.665	94.06
343.893	85.06
344.12	89.06
344.348	85.06
344.576	82.06
344.804	77.06
345.031	82.06
345.259	96.06
345.487	91.06
345.714	93.06
345.942	95.06
346.17	90.06
346.397	98.06
346.625	91.06
346.853	78.06
347.08	91.06
347.308	91.06
347.535	100.06
347.763	86.06
347.99	89.06
348.218	89.06
348.445	98.06
348.673	93.06
348.9	94.06
349.128	89.06
349.355	93.06
349.583	91.06
349.81	86.06
350.037	88.06
350.265	73.06
350.492	100.06
350.72	78.06
350.947	84.06
351.174	94.06
351.402	100.06
351.629	106.06
351.856	104.06
352.083	92.06
352.311	97.06
352.538	88.06
352.765	81.06
352.992	116.06
353.22	99.06
353.447	98.06
353.674	84.06
353.901	97.06
354.128	87.06
354.355	78.06
354.583	92.06
354.81	89.06
355.037	96.06
355.264	85.06
355.491	84.06
355.718	97.06
355.945	89.06
356.172	100.06
356.399	93.06
356.626	88.06
356.853	101.06
357.08	92.06
357.307	86.06
357.534	83.06
357.761	94.06
357.988	100.06
358.215	102.06
358.441	92.06
358.668	99.06
358.895	92.06
359.122	101.06
359.349	102.06
359.576	74.06
359.802	90.06
360.029	109.06
360.256	95.06
360.483	90.06
360.709	92.06
360.936	74.06
361.163	88.06
361.39	98.06
361.616	82.06
361.843	85.06
362.07	102.06
362.296	88.06
362.523	80.06
362.749	90.06
362.976	90.06
363.203	82.06
363.429	81.06
363.656	91.06
363.882	97.06
364.109	74.06
364.335	74.06
364.562	84.06
364.788	76.06
365.015	79.06
365.241	88.06
365.468	101.06
365.694	102.06
365.92	100.06
366.147	81.06
366.373	107.06
366.599	93.06
366.826	81.06
367.052	101.06
367.278	86.06
367.505	93.06
367.731	93.06
367.957	80.06
368.184	83.06
368.41	98.06
368.636	109.06
368.862	113.06
369.089	94.06
369.315	75.06
369.541	86.06
369.767	87.06
369.993	102.06
370.219	99.06
370.445	91.06
370.672	94.06
370.898	90.06
371.124	74.06
371.35	64.06
371.576	92.06
371.802	89.06
372.028	93.06
372.254	97.06
372.48	92.06
372.706	80.06
372.932	87.06
373.158	89.06
373.384	90.06
373.61	86.06
373.835	88.06
374.061	95.06
374.287	94.06
374.513	84.06
374.739	83.06
374.965	93.06
375.191	87.06
375.416	77.06
375.642	83.06
375.868	96.06
376.094	93.06
376.319	85.06
376.545	80.06
376.771	73.06
376.997	84.06
377.222	88.06
377.448	94.06
377.674	91.06
377.899	89.06
378.125	96.06
378.35	86.06
378.576	97.06
378.802	81.06
379.027	89.06
379.253	82.06
379.478	77.06
379.704	90.06
379.929	86.06
380.155	85.06
380.38	80.06
380.606	90.06
380.831	93.06
381.057	93.06
381.282	108.06
381.507	101.06
381.733	86.06
381.958	94.06
382.184	86.06
382.409	98.06
382.634	86.06
382.86	82.06
383.085	91.06
383.31	94.06
383.535	92.06
383.761	104.06
383.986	88.06
384.211	91.06
384.436	92.06
384.662	101.06
384.887	86.06
385.112	102.06
385.337	103.06
385.562	89.06
385.787	94.06
386.013	106.06
386.238	106.06
386.463	101.06
386.688	97.06
386.913	89.06
387.138	112.06
387.363	92.06
387.588	103.06
387.813	99.06
388.038	92.06
388.263	100.06
388.488	106.06
388.713	81.06
388.938	98.06
389.163	89.06
389.387	100.06
389.612	72.06
389.837	98.06
390.062	88.06
390.287	87.06
390.512	93.06
390.736	87.06
390.961	90.06
391.186	86.06
391.411	80.06
391.636	91.06
391.86	94.06
392.085	87.06
392.31	76.06
392.534	92.06
392.759	88.06
392.984	82.06
393.208	76.06
393.433	82.06
393.658	89.06
393.882	77.06
394.107	88.06
394.331	86.06
394.556	91.06
394.78	80.06
395.005	96.06
395.229	84.06
395.454	80.06
395.678	83.06
395.903	90.06
396.127	99.06
396.352	80.06
396.576	76.06
396.801	98.06
397.025	85.06
397.249	82.06
397.474	86.06
397.698	78.06
397.922	81.06
398.147	86.06
398.371	77.06
398.595	90.06
398.82	84.06
399.044	86.06
399.268	80.06
399.492	73.06
399.717	93.06
399.941	83.06
400.165	87.06
400.389	98.06
400.613	76.06
400.837	97.06
401.062	84.06
401.286	89.06
401.51	74.06
401.734	103.06
401.958	86.06
402.182	120.06
402.406	131.06
402.63	87.06
402.854	99.06
403.078	85.06
403.302	84.06
403.526	82.06
403.75	81.06
403.974	74.06
404.198	80.06
404.422	83.06
404.645	88.06
404.869	91.06
405.093	87.06
405.317	105.06
405.541	102.06
405.765	83.06
405.988	109.06
406.212	128.06
406.436	160.06
406.66	114.06
406.883	88.06
407.107	101.06
407.331	86.06
407.555	97.06
407.778	87.06
408.002	87.06
408.226	89.06
408.449	83.06
408.673	100.06
408.896	93.06
409.12	88.06
409.344	71.06
409.567	82.06
409.791	81.06
410.014	77.06
410.238	96.06
410.461	93.06
410.685	90.06
410.908	83.06
411.132	102.06
411.355	92.06
411.578	80.06
411.802	98.06
412.025	82.06
412.249	82.06
412.472	81.06
412.695	89.06
412.919	89.06
413.142	85.06
413.365	80.06
413.589	81.06
413.812	91.06
414.035	93.06
414.258	98.06
414.482	90.06
414.705	91.06
414.928	89.06
415.151	85.06
415.374	88.06
415.597	86.06
415.821	97.06
416.044	103.06
416.267	86.06
416.49	88.06
416.713	85.06
416.936	80.06
417.159	73.06
417.382	76.06
417.605	83.06
417.828	101.06
418.051	90.06
418.274	99.06
418.497	76.06
418.72	75.06
418.943	79.06
419.166	92.06
419.389	85.06
419.611	93.06
419.834	82.06
420.057	81.06
420.28	84.06
420.503	75.06
420.726	77.06
420.948	84.06
421.171	72.06
421.394	91.06
421.617	86.06
421.839	91.06
422.062	89.06
422.285	92.06
422.507	93.06
422.73	82.06
422.953	90.06
423.175	88.06
423.398	91.06
423.621	93.06
423.843	83.06
424.066	87.06
424.288	82.06
424.511	93.06
424.733	86.06
424.956	90.06
425.178	89.06
425.401	102.06
425.623	82.06
425.846	83.06
426.068	94.06
426.291	87.06
426.513	81.06
426.735	78.06
426.958	81.06
427.18	96.06
427.402	110.06
427.625	128.06
427.847	108.06
428.069	101.06
428.292	98.06
428.514	91.06
428.736	84.06
428.958	74.06
429.181	73.06
429.403	77.06
429.625	86.06
429.847	90.06
430.069	103.06
430.292	85.06
430.514	82.06
430.736	83.06
430.958	86.06
431.18	82.06
431.402	82.06
431.624	83.06
431.846	76.06
432.068	86.06
432.29	75.06
432.512	82.06
432.734	96.06
432.956	80.06
433.178	94.06
433.4	93.06
433.622	97.06
433.844	81.06
434.066	97.06
434.287	101.06
434.509	81.06
434.731	84.06
434.953	75.06
435.175	84.06
435.397	86.06
435.618	94.06
435.84	84.06
436.062	94.06
436.284	93.06
436.505	102.06
436.727	98.06
436.949	89.06
437.17	77.06
437.392	91.06
437.614	84.06
437.835	88.06
438.057	102.06
438.278	101.06
438.5	93.06
438.721	90.06
438.943	95.06
439.165	92.06
439.386	99.06
439.608	101.06
439.829	84.06
440.05	103.06
440.272	117.06
440.493	101.06
440.715	80.06
440.936	91.06
441.158	91.06
441.379	103.06
441.6	91.06
441.822	81.06
442.043	77.06
442.264	82.06
442.486	86.06
442.707	77.06
442.928	109.06
443.149	117.06
443.371	103.06
443.592	113.06
443.813	97.06
444.034	105.06
444.255	97.06
444.476	87.06
444.698	86.06
444.919	72.06
445.14	125.06
445.361	105.06
445.582	105.06
445.803	117.06
446.024	115.06
446.245	114.06
446.466	105.06
446.687	84.06
446.908	86.06
447.129	90.06
447.35	85.06
447.571	88.06
447.792	95.06
448.013	105.06
448.234	84.06
448.455	90.06
448.675	102.06
448.896	107.06
449.117	88.06
449.338	92.06
449.559	115.06
449.779	92.06
450	77.06
450.221	82.06
450.442	86.06
450.662	85.06
450.883	95.06
451.104	88.06
451.324	93.06
451.545	85.06
451.766	80.06
451.986	77.06
452.207	73.06
452.428	86.06
452.648	102.06
452.869	92.06
453.089	95.06
453.31	111.06
453.53	91.06
453.751	91.06
453.971	91.06
454.192	100.06
454.412	91.06
454.633	104.06
454.853	85.06
455.073	90.06
455.294	84.06
455.514	89.06
455.734	77.06
455.955	93.06
456.175	82.06
456.395	88.06
456.616	80.06
456.836	73.06
457.056	80.06
457.276	90.06
457.497	84.06
457.717	80.06
457.937	79.06
458.157	87.06
458.377	85.06
458.598	87.06
458.818	108.06
459.038	133.06
459.258	98.06
459.478	97.06
459.698	81.06
459.918	81.06
460.138	86.06
460.358	83.06
460.578	94.06
460.798	100.06
461.018	86.06
461.238	72.06
461.458	80.06
461.678	85.06
461.898	87.06
462.118	91.06
462.338	87.06
462.558	89.06
462.777	84.06
462.997	84.06
463.217	96.06
463.437	82.06
463.657	70.06
463.876	93.06
464.096	82.06
464.316	87.06
464.536	90.06
464.755	92.06
464.975	94.06
465.195	141.06
465.414	138.06
465.634	83.06
465.854	80.06
466.073	102.06
466.293	78.06
466.512	81.06
466.732	97.06
466.951	88.06
467.171	101.06
467.391	105.06
467.61	84.06
467.829	92.06
468.049	101.06
468.268	107.06
468.488	89.06
468.707	93.06
468.927	91.06
469.146	73.06
469.365	93.06
469.585	83.06
469.804	95.06
470.023	85.06
470.243	94.06
470.462	82.06
470.681	82.06
470.901	77.06
471.12	88.06
471.339	84.06
471.558	80.06
471.777	72.06
471.997	102.06
472.216	104.06
472.435	123.06
472.654	96.06
472.873	95.06
473.092	87.06
473.311	86.06
473.53	75.06
473.749	87.06
473.968	100.06
474.187	84.06
474.406	81.06
474.625	77.06
474.844	92.06
475.063	100.06
475.282	88.06
475.501	85.06
475.72	89.06
475.939	93.06
476.158	93.06
476.377	100.06
476.596	83.06
476.814	93.06
477.033	96.06
477.252	78.06
477.471	85.06
477.69	94.06
477.908	100.06
478.127	95.06
478.346	81.06
478.564	87.06
478.783	101.06
479.002	79.06
479.22	89.06
479.439	84.06
479.658	89.06
479.876	80.06
480.095	80.06
480.313	90.06
480.532	87.06
480.751	98.06
480.969	93.06
481.188	197.06
481.406	152.06
481.624	98.06
481.843	84.06
482.061	86.06
482.28	82.06
482.498	84.06
482.717	87.06
482.935	87.06
483.153	106.06
483.372	92.06
483.59	87.06
483.808	92.06
484.027	92.06
484.245	87.06
484.463	98.06
484.681	89.06
484.9	96.06
485.118	90.06
485.336	89.06
485.554	87.06
485.772	106.06
485.99	98.06
486.209	99.06
486.427	88.06
486.645	106.06
486.863	109.06
487.081	88.06
487.299	97.06
487.517	93.06
487.735	73.06
487.953	80.06
488.171	102.06
488.389	89.06
488.607	101.06
488.825	98.06
489.043	102.06
489.261	87.06
489.479	85.06
489.696	89.06
489.914	101.06
490.132	94.06
490.35	96.06
490.568	73.06
490.786	86.06
491.003	71.06
491.221	91.06
491.439	102.06
491.657	89.06
491.874	93.06
492.092	92.06
492.31	94.06
492.527	104.06
492.745	95.06
492.963	87.06
493.18	82.06
493.398	92.06
493.615	90.06
493.833	81.06
494.05	89.06
494.268	75.06
494.485	100.06
494.703	89.06
494.92	99.06
495.138	77.06
495.355	88.06
495.573	88.06
495.79	94.06
496.008	87.06
496.225	75.06
496.442	77.06
496.66	99.06
496.877	86.06
497.094	104.06
497.312	97.06
497.529	101.06
497.746	88.06
497.963	86.06
498.181	87.06
498.398	70.06
498.615	105.06
498.832	94.06
499.049	96.06
499.267	94.06
499.484	87.06
499.701	83.06
499.918	95.06
500.135	101.06
500.352	91.06
500.569	96.06
500.786	86.06
501.003	89.06
501.22	74.06
501.437	86.06
501.654	85.06
501.871	98.06
502.088	76.06
502.305	89.06
502.522	97.06
502.739	89.06
502.956	102.06
503.172	105.06
503.389	77.06
503.606	116.06
503.823	84.06
504.04	80.06
504.256	91.06
504.473	96.06
504.69	100.06
504.907	103.06
505.123	88.06
505.34	76.06
505.557	94.06
505.773	89.06
505.99	82.06
506.207	85.06
506.423	83.06
506.64	90.06
506.856	86.06
507.073	97.06
507.289	84.06
507.506	86.06
507.722	97.06
507.939	104.06
508.155	98.06
508.372	84.06
508.588	84.06
508.805	73.06
509.021	96.06
509.238	89.06
509.454	106.06
509.67	92.06
509.887	105.06
510.103	114.06
510.319	170.06
510.536	564.06
510.752	1652.06
510.968	488.06
511.184	128.06
511.401	112.06
511.617	105.06
511.833	105.06
512.049	93.06
512.265	93.06
512.481	94.06
512.698	81.06
512.914	88.06
513.13	83.06
513.346	85.06
513.562	87.06
513.778	75.06
513.994	96.06
514.21	98.06
514.426	93.06
514.642	119.06
514.858	118.06
515.074	125.06
515.29	290.06
515.506	959.06
515.721	354.06
515.937	133.06
516.153	88.06
516.369	89.06
516.585	84.06
516.801	102.06
517.016	96.06
