Data from Circ_1980_H10_HRD10591_00054.txt Node
Date: Wed Jan 03 12:38:09 EST 2024
User: Yrep
Spectrometer: HR+D1059
Trigger mode: 1
Integration Time (sec): 1.000000E-1
Scans to average: 1
Electric dark correction enabled: true
Nonlinearity correction enabled: false
Boxcar width: 0
XAxis mode: Wavelengths
Number of Pixels in Spectrum: 2048
>>>>>Begin Spectral Data<<<<<
223.165	-20.88
223.4	-20.88
223.635	-20.88
223.869	-26.88
224.104	-16.88
224.338	-3.88
224.573	-15.88
224.808	-23.88
225.042	-8.88
225.277	-10.88
225.511	3.12
225.746	1.12
225.98	18.12
226.215	21.12
226.449	12.12
226.683	19.12
226.918	33.12
227.152	20.12
227.387	34.12
227.621	32.12
227.856	35.12
228.09	37.12
228.324	58.12
228.559	62.12
228.793	50.12
229.027	66.12
229.262	72.12
229.496	68.12
229.73	69.12
229.964	72.12
230.199	66.12
230.433	76.12
230.667	80.12
230.901	87.12
231.136	87.12
231.37	66.12
231.604	65.12
231.838	67.12
232.072	62.12
232.306	86.12
232.541	76.12
232.775	82.12
233.009	73.12
233.243	72.12
233.477	64.12
233.711	69.12
233.945	87.12
234.179	83.12
234.413	84.12
234.647	68.12
234.881	79.12
235.115	83.12
235.349	62.12
235.583	61.12
235.817	74.12
236.051	91.12
236.285	72.12
236.519	69.12
236.753	81.12
236.987	81.12
237.221	78.12
237.455	75.12
237.689	73.12
237.922	74.12
238.156	67.12
238.39	70.12
238.624	82.12
238.858	63.12
239.091	67.12
239.325	60.12
239.559	77.12
239.793	74.12
240.027	81.12
240.26	70.12
240.494	76.12
240.728	81.12
240.961	76.12
241.195	80.12
241.429	74.12
241.662	76.12
241.896	73.12
242.13	76.12
242.363	70.12
242.597	85.12
242.83	74.12
243.064	68.12
243.298	80.12
243.531	74.12
243.765	73.12
243.998	71.12
244.232	75.12
244.465	92.12
244.699	69.12
244.932	65.12
245.166	76.12
245.399	69.12
245.633	69.12
245.866	76.12
246.099	71.12
246.333	74.12
246.566	79.12
246.8	83.12
247.033	84.12
247.266	67.12
247.5	82.12
247.733	71.12
247.966	75.12
248.2	71.12
248.433	74.12
248.666	69.12
248.899	84.12
249.133	81.12
249.366	84.12
249.599	87.12
249.832	80.12
250.066	83.12
250.299	69.12
250.532	86.12
250.765	75.12
250.998	79.12
251.231	80.12
251.465	87.12
251.698	85.12
251.931	54.12
252.164	81.12
252.397	73.12
252.63	89.12
252.863	81.12
253.096	80.12
253.329	86.12
253.562	66.12
253.795	87.12
254.028	84.12
254.261	68.12
254.494	78.12
254.727	91.12
254.96	66.12
255.193	90.12
255.426	78.12
255.659	73.12
255.892	86.12
256.124	79.12
256.357	70.12
256.59	79.12
256.823	87.12
257.056	81.12
257.289	85.12
257.521	75.12
257.754	71.12
257.987	74.12
258.22	80.12
258.452	83.12
258.685	77.12
258.918	84.12
259.151	75.12
259.383	81.12
259.616	83.12
259.849	74.12
260.081	85.12
260.314	86.12
260.547	79.12
260.779	67.12
261.012	93.12
261.244	70.12
261.477	87.12
261.71	81.12
261.942	95.12
262.175	86.12
262.407	74.12
262.64	65.12
262.872	93.12
263.105	79.12
263.337	89.12
263.57	101.12
263.802	79.12
264.035	72.12
264.267	89.12
264.499	82.12
264.732	81.12
264.964	73.12
265.197	74.12
265.429	79.12
265.661	87.12
265.894	82.12
266.126	78.12
266.358	87.12
266.591	83.12
266.823	69.12
267.055	76.12
267.287	86.12
267.52	73.12
267.752	86.12
267.984	77.12
268.216	81.12
268.448	87.12
268.681	95.12
268.913	87.12
269.145	71.12
269.377	80.12
269.609	93.12
269.841	74.12
270.073	92.12
270.306	85.12
270.538	83.12
270.77	84.12
271.002	96.12
271.234	70.12
271.466	91.12
271.698	86.12
271.93	84.12
272.162	97.12
272.394	87.12
272.626	79.12
272.858	80.12
273.09	77.12
273.322	73.12
273.553	73.12
273.785	78.12
274.017	80.12
274.249	75.12
274.481	76.12
274.713	85.12
274.945	79.12
275.176	88.12
275.408	74.12
275.64	81.12
275.872	87.12
276.104	81.12
276.335	90.12
276.567	92.12
276.799	85.12
277.031	88.12
277.262	76.12
277.494	83.12
277.726	85.12
277.957	82.12
278.189	81.12
278.421	88.12
278.652	85.12
278.884	65.12
279.115	81.12
279.347	92.12
279.579	74.12
279.81	81.12
280.042	85.12
280.273	84.12
280.505	77.12
280.736	67.12
280.968	87.12
281.199	70.12
281.431	75.12
281.662	95.12
281.894	87.12
282.125	89.12
282.356	106.12
282.588	124.12
282.819	97.12
283.051	89.12
283.282	99.12
283.513	69.12
283.745	92.12
283.976	96.12
284.207	98.12
284.439	80.12
284.67	80.12
284.901	86.12
285.132	87.12
285.364	89.12
285.595	92.12
285.826	85.12
286.057	88.12
286.288	91.12
286.52	78.12
286.751	80.12
286.982	91.12
287.213	74.12
287.444	82.12
287.675	82.12
287.906	85.12
288.138	89.12
288.369	96.12
288.6	68.12
288.831	83.12
289.062	76.12
289.293	80.12
289.524	76.12
289.755	93.12
289.986	79.12
290.217	87.12
290.448	79.12
290.679	75.12
290.91	95.12
291.141	87.12
291.371	93.12
291.602	75.12
291.833	74.12
292.064	87.12
292.295	95.12
292.526	86.12
292.757	68.12
292.987	77.12
293.218	79.12
293.449	82.12
293.68	92.12
293.91	81.12
294.141	83.12
294.372	95.12
294.603	83.12
294.833	77.12
295.064	88.12
295.295	78.12
295.525	89.12
295.756	89.12
295.987	104.12
296.217	115.12
296.448	108.12
296.679	91.12
296.909	84.12
297.14	98.12
297.37	90.12
297.601	92.12
297.831	95.12
298.062	89.12
298.292	75.12
298.523	87.12
298.753	79.12
298.984	77.12
299.214	83.12
299.445	90.12
299.675	93.12
299.905	78.12
300.136	90.12
300.366	83.12
300.597	93.12
300.827	95.12
301.057	98.12
301.288	100.12
301.518	92.12
301.748	94.12
301.979	98.12
302.209	83.12
302.439	86.12
302.669	71.12
302.9	87.12
303.13	84.12
303.36	91.12
303.59	103.12
303.82	105.12
304.051	96.12
304.281	92.12
304.511	85.12
304.741	84.12
304.971	88.12
305.201	86.12
305.431	77.12
305.661	81.12
305.891	98.12
306.121	79.12
306.352	84.12
306.582	91.12
306.812	83.12
307.042	84.12
307.272	79.12
307.502	90.12
307.731	89.12
307.961	75.12
308.191	87.12
308.421	92.12
308.651	90.12
308.881	95.12
309.111	111.12
309.341	83.12
309.571	92.12
309.8	100.12
310.03	90.12
310.26	94.12
310.49	91.12
310.72	87.12
310.949	93.12
311.179	87.12
311.409	99.12
311.639	84.12
311.868	97.12
312.098	87.12
312.328	70.12
312.557	95.12
312.787	96.12
313.017	93.12
313.246	93.12
313.476	86.12
313.706	73.12
313.935	104.12
314.165	95.12
314.394	92.12
314.624	93.12
314.853	101.12
315.083	85.12
315.312	111.12
315.542	90.12
315.771	99.12
316.001	88.12
316.23	90.12
316.46	83.12
316.689	85.12
316.919	80.12
317.148	91.12
317.377	101.12
317.607	91.12
317.836	71.12
318.065	91.12
318.295	89.12
318.524	74.12
318.753	76.12
318.983	99.12
319.212	98.12
319.441	84.12
319.67	95.12
319.9	86.12
320.129	83.12
320.358	90.12
320.587	95.12
320.816	89.12
321.046	89.12
321.275	88.12
321.504	82.12
321.733	95.12
321.962	85.12
322.191	90.12
322.42	100.12
322.649	97.12
322.878	95.12
323.108	77.12
323.337	88.12
323.566	100.12
323.795	120.12
324.024	167.12
324.253	281.12
324.482	579.12
324.71	1203.12
324.939	1570.12
325.168	582.12
325.397	187.12
325.626	129.12
325.855	107.12
326.084	115.12
326.313	118.12
326.542	131.12
326.77	186.12
326.999	360.12
327.228	689.12
327.457	1243.12
327.686	976.12
327.914	291.12
328.143	149.12
328.372	124.12
328.6	117.12
328.829	106.12
329.058	112.12
329.287	114.12
329.515	104.12
329.744	103.12
329.972	108.12
330.201	105.12
330.43	115.12
330.658	110.12
330.887	122.12
331.115	112.12
331.344	93.12
331.572	87.12
331.801	82.12
332.03	97.12
332.258	103.12
332.486	81.12
332.715	106.12
332.943	83.12
333.172	80.12
333.4	103.12
333.629	87.12
333.857	92.12
334.085	101.12
334.314	102.12
334.542	104.12
334.771	119.12
334.999	87.12
335.227	91.12
335.455	96.12
335.684	87.12
335.912	88.12
336.14	95.12
336.369	105.12
336.597	100.12
336.825	87.12
337.053	84.12
337.281	77.12
337.51	87.12
337.738	94.12
337.966	91.12
338.194	89.12
338.422	84.12
338.65	115.12
338.878	97.12
339.106	87.12
339.334	77.12
339.562	97.12
339.79	73.12
340.018	83.12
340.246	100.12
340.474	89.12
340.702	105.12
340.93	101.12
341.158	89.12
341.386	91.12
341.614	89.12
341.842	87.12
342.07	78.12
342.298	87.12
342.526	83.12
342.754	83.12
342.981	84.12
343.209	86.12
343.437	90.12
343.665	90.12
343.893	99.12
344.12	88.12
344.348	101.12
344.576	91.12
344.804	81.12
345.031	91.12
345.259	103.12
345.487	72.12
345.714	87.12
345.942	90.12
346.17	80.12
346.397	84.12
346.625	93.12
346.853	80.12
347.08	70.12
347.308	90.12
347.535	76.12
347.763	93.12
347.99	80.12
348.218	92.12
348.445	90.12
348.673	91.12
348.9	86.12
349.128	93.12
349.355	82.12
349.583	87.12
349.81	98.12
350.037	98.12
350.265	92.12
350.492	95.12
350.72	99.12
350.947	100.12
351.174	86.12
351.402	93.12
351.629	105.12
351.856	97.12
352.083	85.12
352.311	111.12
352.538	87.12
352.765	91.12
352.992	101.12
353.22	93.12
353.447	84.12
353.674	108.12
353.901	91.12
354.128	77.12
354.355	95.12
354.583	95.12
354.81	97.12
355.037	94.12
355.264	83.12
355.491	87.12
355.718	80.12
355.945	93.12
356.172	99.12
356.399	92.12
356.626	83.12
356.853	87.12
357.08	95.12
357.307	81.12
357.534	78.12
357.761	89.12
357.988	86.12
358.215	103.12
358.441	93.12
358.668	81.12
358.895	92.12
359.122	85.12
359.349	73.12
359.576	97.12
359.802	85.12
360.029	84.12
360.256	100.12
360.483	92.12
360.709	78.12
360.936	111.12
361.163	92.12
361.39	87.12
361.616	88.12
361.843	86.12
362.07	83.12
362.296	87.12
362.523	81.12
362.749	80.12
362.976	96.12
363.203	84.12
363.429	67.12
363.656	83.12
363.882	93.12
364.109	91.12
364.335	96.12
364.562	76.12
364.788	100.12
365.015	89.12
365.241	97.12
365.468	93.12
365.694	111.12
365.92	103.12
366.147	76.12
366.373	72.12
366.599	91.12
366.826	81.12
367.052	93.12
367.278	95.12
367.505	67.12
367.731	76.12
367.957	83.12
368.184	89.12
368.41	90.12
368.636	94.12
368.862	95.12
369.089	101.12
369.315	92.12
369.541	88.12
369.767	91.12
369.993	90.12
370.219	86.12
370.445	68.12
370.672	81.12
370.898	84.12
371.124	68.12
371.35	76.12
371.576	72.12
371.802	86.12
372.028	86.12
372.254	88.12
372.48	83.12
372.706	85.12
372.932	71.12
373.158	84.12
373.384	94.12
373.61	80.12
373.835	72.12
374.061	86.12
374.287	82.12
374.513	93.12
374.739	85.12
374.965	79.12
375.191	83.12
375.416	77.12
375.642	83.12
375.868	73.12
376.094	81.12
376.319	95.12
376.545	81.12
376.771	89.12
376.997	91.12
377.222	90.12
377.448	86.12
377.674	71.12
377.899	90.12
378.125	94.12
378.35	83.12
378.576	82.12
378.802	88.12
379.027	90.12
379.253	86.12
379.478	98.12
379.704	84.12
379.929	99.12
380.155	90.12
380.38	96.12
380.606	100.12
380.831	98.12
381.057	88.12
381.282	99.12
381.507	105.12
381.733	95.12
381.958	78.12
382.184	101.12
382.409	83.12
382.634	97.12
382.86	102.12
383.085	96.12
383.31	87.12
383.535	100.12
383.761	84.12
383.986	104.12
384.211	100.12
384.436	101.12
384.662	106.12
384.887	112.12
385.112	113.12
385.337	104.12
385.562	98.12
385.787	105.12
386.013	102.12
386.238	105.12
386.463	99.12
386.688	99.12
386.913	91.12
387.138	113.12
387.363	102.12
387.588	100.12
387.813	100.12
388.038	99.12
388.263	110.12
388.488	106.12
388.713	79.12
388.938	104.12
389.163	90.12
389.387	83.12
389.612	89.12
389.837	86.12
390.062	95.12
390.287	90.12
390.512	89.12
390.736	73.12
390.961	82.12
391.186	94.12
391.411	95.12
391.636	99.12
391.86	83.12
392.085	84.12
392.31	87.12
392.534	88.12
392.759	75.12
392.984	96.12
393.208	88.12
393.433	68.12
393.658	85.12
393.882	76.12
394.107	88.12
394.331	83.12
394.556	85.12
394.78	99.12
395.005	87.12
395.229	70.12
395.454	85.12
395.678	81.12
395.903	80.12
396.127	82.12
396.352	69.12
396.576	91.12
396.801	104.12
397.025	90.12
397.249	85.12
397.474	82.12
397.698	84.12
397.922	80.12
398.147	83.12
398.371	90.12
398.595	83.12
398.82	70.12
399.044	84.12
399.268	94.12
399.492	84.12
399.717	97.12
399.941	81.12
400.165	105.12
400.389	79.12
400.613	80.12
400.837	79.12
401.062	95.12
401.286	76.12
401.51	77.12
401.734	87.12
401.958	80.12
402.182	113.12
402.406	119.12
402.63	95.12
402.854	88.12
403.078	72.12
403.302	83.12
403.526	87.12
403.75	86.12
403.974	105.12
404.198	89.12
404.422	80.12
404.645	96.12
404.869	89.12
405.093	96.12
405.317	87.12
405.541	94.12
405.765	81.12
405.988	95.12
406.212	144.12
406.436	180.12
406.66	113.12
406.883	87.12
407.107	105.12
407.331	89.12
407.555	83.12
407.778	84.12
408.002	81.12
408.226	85.12
408.449	78.12
408.673	84.12
408.896	82.12
409.12	73.12
409.344	91.12
409.567	79.12
409.791	79.12
410.014	102.12
410.238	95.12
410.461	81.12
410.685	103.12
410.908	87.12
411.132	87.12
411.355	89.12
411.578	80.12
411.802	80.12
412.025	94.12
412.249	93.12
412.472	97.12
412.695	88.12
412.919	86.12
413.142	76.12
413.365	82.12
413.589	83.12
413.812	66.12
414.035	89.12
414.258	97.12
414.482	88.12
414.705	84.12
414.928	85.12
415.151	87.12
415.374	92.12
415.597	103.12
415.821	102.12
416.044	87.12
416.267	82.12
416.49	91.12
416.713	101.12
416.936	76.12
417.159	83.12
417.382	89.12
417.605	74.12
417.828	85.12
418.051	81.12
418.274	99.12
418.497	81.12
418.72	92.12
418.943	100.12
419.166	82.12
419.389	82.12
419.611	75.12
419.834	92.12
420.057	83.12
420.28	92.12
420.503	71.12
420.726	79.12
420.948	90.12
421.171	81.12
421.394	87.12
421.617	84.12
421.839	89.12
422.062	83.12
422.285	81.12
422.507	92.12
422.73	91.12
422.953	83.12
423.175	88.12
423.398	92.12
423.621	96.12
423.843	80.12
424.066	99.12
424.288	93.12
424.511	65.12
424.733	80.12
424.956	104.12
425.178	100.12
425.401	101.12
425.623	88.12
425.846	83.12
426.068	82.12
426.291	93.12
426.513	82.12
426.735	89.12
426.958	80.12
427.18	88.12
427.402	128.12
427.625	118.12
427.847	113.12
428.069	87.12
428.292	89.12
428.514	80.12
428.736	73.12
428.958	71.12
429.181	79.12
429.403	80.12
429.625	90.12
429.847	77.12
430.069	91.12
430.292	84.12
430.514	91.12
430.736	93.12
430.958	88.12
431.18	83.12
431.402	95.12
431.624	81.12
431.846	89.12
432.068	71.12
432.29	76.12
432.512	85.12
432.734	87.12
432.956	78.12
433.178	94.12
433.4	87.12
433.622	88.12
433.844	83.12
434.066	97.12
434.287	89.12
434.509	85.12
434.731	91.12
434.953	76.12
435.175	83.12
435.397	82.12
435.618	97.12
435.84	81.12
436.062	105.12
436.284	101.12
436.505	85.12
436.727	94.12
436.949	96.12
437.17	76.12
437.392	82.12
437.614	81.12
437.835	94.12
438.057	103.12
438.278	106.12
438.5	80.12
438.721	107.12
438.943	90.12
439.165	93.12
439.386	93.12
439.608	82.12
439.829	80.12
440.05	115.12
440.272	109.12
440.493	97.12
440.715	81.12
440.936	87.12
441.158	91.12
441.379	95.12
441.6	95.12
441.822	92.12
442.043	85.12
442.264	79.12
442.486	87.12
442.707	76.12
442.928	87.12
443.149	113.12
443.371	91.12
443.592	103.12
443.813	92.12
444.034	91.12
444.255	88.12
444.476	85.12
444.698	79.12
444.919	74.12
445.14	130.12
445.361	116.12
445.582	112.12
445.803	115.12
446.024	124.12
446.245	115.12
446.466	99.12
446.687	76.12
446.908	90.12
447.129	81.12
447.35	84.12
447.571	94.12
447.792	99.12
448.013	72.12
448.234	83.12
448.455	95.12
448.675	99.12
448.896	95.12
449.117	85.12
449.338	81.12
449.559	104.12
449.779	112.12
450	91.12
450.221	84.12
450.442	82.12
450.662	94.12
450.883	89.12
451.104	106.12
451.324	81.12
451.545	71.12
451.766	83.12
451.986	81.12
452.207	81.12
452.428	82.12
452.648	74.12
452.869	87.12
453.089	105.12
453.31	94.12
453.53	97.12
453.751	86.12
453.971	83.12
454.192	83.12
454.412	80.12
454.633	89.12
454.853	93.12
455.073	73.12
455.294	75.12
455.514	81.12
455.734	84.12
455.955	70.12
456.175	63.12
456.395	81.12
456.616	83.12
456.836	83.12
457.056	72.12
457.276	96.12
457.497	79.12
457.717	87.12
457.937	68.12
458.157	81.12
458.377	79.12
458.598	81.12
458.818	133.12
459.038	119.12
459.258	91.12
459.478	81.12
459.698	88.12
459.918	60.12
460.138	89.12
460.358	92.12
460.578	94.12
460.798	87.12
461.018	100.12
461.238	89.12
461.458	83.12
461.678	65.12
461.898	70.12
462.118	64.12
462.338	77.12
462.558	89.12
462.777	75.12
462.997	80.12
463.217	91.12
463.437	80.12
463.657	95.12
463.876	81.12
464.096	85.12
464.316	100.12
464.536	105.12
464.755	95.12
464.975	105.12
465.195	126.12
465.414	125.12
465.634	93.12
465.854	87.12
466.073	77.12
466.293	73.12
466.512	86.12
466.732	87.12
466.951	76.12
467.171	85.12
467.391	88.12
467.61	107.12
467.829	106.12
468.049	84.12
468.268	91.12
468.488	85.12
468.707	75.12
468.927	72.12
469.146	83.12
469.365	96.12
469.585	96.12
469.804	89.12
470.023	87.12
470.243	91.12
470.462	84.12
470.681	75.12
470.901	81.12
471.12	85.12
471.339	69.12
471.558	89.12
471.777	79.12
471.997	83.12
472.216	98.12
472.435	135.12
472.654	78.12
472.873	83.12
473.092	94.12
473.311	90.12
473.53	77.12
473.749	87.12
473.968	89.12
474.187	107.12
474.406	81.12
474.625	84.12
474.844	82.12
475.063	87.12
475.282	89.12
475.501	97.12
475.72	95.12
475.939	73.12
476.158	77.12
476.377	100.12
476.596	85.12
476.814	88.12
477.033	92.12
477.252	101.12
477.471	88.12
477.69	98.12
477.908	89.12
478.127	93.12
478.346	99.12
478.564	91.12
478.783	85.12
479.002	102.12
479.22	90.12
479.439	97.12
479.658	86.12
479.876	89.12
480.095	73.12
480.313	98.12
480.532	85.12
480.751	91.12
480.969	97.12
481.188	159.12
481.406	141.12
481.624	91.12
481.843	85.12
482.061	93.12
482.28	82.12
482.498	76.12
482.717	74.12
482.935	86.12
483.153	92.12
483.372	68.12
483.59	85.12
483.808	83.12
484.027	95.12
484.245	89.12
484.463	77.12
484.681	93.12
484.9	92.12
485.118	82.12
485.336	80.12
485.554	87.12
485.772	106.12
485.99	91.12
486.209	106.12
486.427	98.12
486.645	99.12
486.863	114.12
487.081	97.12
487.299	83.12
487.517	108.12
487.735	99.12
487.953	101.12
488.171	101.12
488.389	89.12
488.607	85.12
488.825	86.12
489.043	99.12
489.261	92.12
489.479	65.12
489.696	101.12
489.914	89.12
490.132	90.12
490.35	81.12
490.568	70.12
490.786	91.12
491.003	89.12
491.221	92.12
491.439	80.12
491.657	82.12
491.874	90.12
492.092	88.12
492.31	85.12
492.527	86.12
492.745	86.12
492.963	99.12
493.18	85.12
493.398	91.12
493.615	98.12
493.833	93.12
494.05	73.12
494.268	94.12
494.485	83.12
494.703	76.12
494.92	76.12
495.138	82.12
495.355	76.12
495.573	82.12
495.79	85.12
496.008	91.12
496.225	85.12
496.442	91.12
496.66	86.12
496.877	91.12
497.094	81.12
497.312	103.12
497.529	98.12
497.746	78.12
497.963	89.12
498.181	83.12
498.398	113.12
498.615	112.12
498.832	87.12
499.049	84.12
499.267	90.12
499.484	93.12
499.701	88.12
499.918	92.12
500.135	88.12
500.352	82.12
500.569	86.12
500.786	98.12
501.003	84.12
501.22	96.12
501.437	89.12
501.654	89.12
501.871	99.12
502.088	104.12
502.305	84.12
502.522	87.12
502.739	91.12
502.956	81.12
503.172	73.12
503.389	87.12
503.606	90.12
503.823	98.12
504.04	87.12
504.256	80.12
504.473	74.12
504.69	65.12
504.907	93.12
505.123	86.12
505.34	88.12
505.557	91.12
505.773	83.12
505.99	58.12
506.207	87.12
506.423	89.12
506.64	81.12
506.856	89.12
507.073	85.12
507.289	90.12
507.506	86.12
507.722	84.12
507.939	85.12
508.155	87.12
508.372	68.12
508.588	89.12
508.805	72.12
509.021	86.12
509.238	91.12
509.454	98.12
509.67	105.12
509.887	102.12
510.103	107.12
510.319	147.12
510.536	518.12
510.752	1561.12
510.968	448.12
511.184	131.12
511.401	109.12
511.617	91.12
511.833	86.12
512.049	88.12
512.265	85.12
512.481	91.12
512.698	77.12
512.914	106.12
513.13	85.12
513.346	99.12
513.562	87.12
513.778	101.12
513.994	87.12
514.21	82.12
514.426	95.12
514.642	107.12
514.858	95.12
515.074	130.12
515.29	311.12
515.506	871.12
515.721	337.12
515.937	113.12
516.153	103.12
516.369	91.12
516.585	80.12
516.801	97.12
517.016	101.12
517.232	87.12
517.448	94.12
