Data from Circ_1980_H10_HRD10591_00045.txt Node
Date: Wed Jan 03 12:38:07 EST 2024
User: Yrep
Spectrometer: HR+D1059
Trigger mode: 1
Integration Time (sec): 1.000000E-1
Scans to average: 1
Electric dark correction enabled: true
Nonlinearity correction enabled: false
Boxcar width: 0
XAxis mode: Wavelengths
Number of Pixels in Spectrum: 2048
>>>>>Begin Spectral Data<<<<<
223.165	-20.81
223.4	-20.81
223.635	-20.81
223.869	-8.81
224.104	-12.81
224.338	-15.81
224.573	-10.81
224.808	-11.81
225.042	-9.81
225.277	-11.81
225.511	-10.81
225.746	10.19
225.98	4.19
226.215	3.19
226.449	23.19
226.683	24.19
226.918	15.19
227.152	33.19
227.387	48.19
227.621	35.19
227.856	58.19
228.09	46.19
228.324	61.19
228.559	52.19
228.793	49.19
229.027	75.19
229.262	61.19
229.496	76.19
229.73	78.19
229.964	79.19
230.199	86.19
230.433	78.19
230.667	67.19
230.901	66.19
231.136	85.19
231.37	83.19
231.604	87.19
231.838	84.19
232.072	70.19
232.306	68.19
232.541	69.19
232.775	79.19
233.009	79.19
233.243	79.19
233.477	83.19
233.711	79.19
233.945	90.19
234.179	84.19
234.413	77.19
234.647	91.19
234.881	84.19
235.115	71.19
235.349	80.19
235.583	69.19
235.817	90.19
236.051	81.19
236.285	71.19
236.519	78.19
236.753	73.19
236.987	87.19
237.221	89.19
237.455	86.19
237.689	83.19
237.922	79.19
238.156	67.19
238.39	69.19
238.624	64.19
238.858	79.19
239.091	74.19
239.325	74.19
239.559	94.19
239.793	75.19
240.027	81.19
240.26	85.19
240.494	89.19
240.728	89.19
240.961	80.19
241.195	89.19
241.429	85.19
241.662	72.19
241.896	67.19
242.13	85.19
242.363	65.19
242.597	68.19
242.83	65.19
243.064	72.19
243.298	85.19
243.531	80.19
243.765	78.19
243.998	87.19
244.232	88.19
244.465	85.19
244.699	76.19
244.932	94.19
245.166	87.19
245.399	84.19
245.633	81.19
245.866	73.19
246.099	87.19
246.333	83.19
246.566	88.19
246.8	86.19
247.033	79.19
247.266	73.19
247.5	86.19
247.733	90.19
247.966	68.19
248.2	85.19
248.433	81.19
248.666	74.19
248.899	54.19
249.133	92.19
249.366	80.19
249.599	98.19
249.832	85.19
250.066	95.19
250.299	78.19
250.532	57.19
250.765	73.19
250.998	81.19
251.231	88.19
251.465	88.19
251.698	69.19
251.931	79.19
252.164	89.19
252.397	79.19
252.63	85.19
252.863	72.19
253.096	77.19
253.329	74.19
253.562	95.19
253.795	78.19
254.028	81.19
254.261	93.19
254.494	73.19
254.727	90.19
254.96	83.19
255.193	80.19
255.426	77.19
255.659	87.19
255.892	93.19
256.124	83.19
256.357	76.19
256.59	85.19
256.823	61.19
257.056	75.19
257.289	75.19
257.521	84.19
257.754	78.19
257.987	81.19
258.22	80.19
258.452	96.19
258.685	69.19
258.918	89.19
259.151	77.19
259.383	92.19
259.616	86.19
259.849	100.19
260.081	91.19
260.314	83.19
260.547	83.19
260.779	78.19
261.012	87.19
261.244	82.19
261.477	93.19
261.71	90.19
261.942	85.19
262.175	95.19
262.407	88.19
262.64	85.19
262.872	87.19
263.105	68.19
263.337	100.19
263.57	90.19
263.802	74.19
264.035	89.19
264.267	97.19
264.499	78.19
264.732	86.19
264.964	91.19
265.197	76.19
265.429	80.19
265.661	85.19
265.894	85.19
266.126	70.19
266.358	90.19
266.591	83.19
266.823	92.19
267.055	87.19
267.287	84.19
267.52	85.19
267.752	75.19
267.984	75.19
268.216	89.19
268.448	103.19
268.681	87.19
268.913	82.19
269.145	84.19
269.377	85.19
269.609	86.19
269.841	86.19
270.073	95.19
270.306	100.19
270.538	76.19
270.77	68.19
271.002	85.19
271.234	88.19
271.466	87.19
271.698	87.19
271.93	94.19
272.162	103.19
272.394	88.19
272.626	67.19
272.858	89.19
273.09	91.19
273.322	91.19
273.553	88.19
273.785	98.19
274.017	74.19
274.249	92.19
274.481	88.19
274.713	94.19
274.945	98.19
275.176	87.19
275.408	87.19
275.64	87.19
275.872	98.19
276.104	97.19
276.335	83.19
276.567	87.19
276.799	94.19
277.031	94.19
277.262	92.19
277.494	90.19
277.726	87.19
277.957	89.19
278.189	99.19
278.421	74.19
278.652	80.19
278.884	87.19
279.115	87.19
279.347	90.19
279.579	96.19
279.81	89.19
280.042	80.19
280.273	94.19
280.505	79.19
280.736	95.19
280.968	74.19
281.199	87.19
281.431	81.19
281.662	87.19
281.894	81.19
282.125	89.19
282.356	116.19
282.588	118.19
282.819	105.19
283.051	94.19
283.282	86.19
283.513	90.19
283.745	80.19
283.976	84.19
284.207	103.19
284.439	89.19
284.67	92.19
284.901	87.19
285.132	83.19
285.364	96.19
285.595	99.19
285.826	83.19
286.057	94.19
286.288	87.19
286.52	92.19
286.751	76.19
286.982	89.19
287.213	93.19
287.444	97.19
287.675	77.19
287.906	80.19
288.138	93.19
288.369	103.19
288.6	101.19
288.831	84.19
289.062	86.19
289.293	91.19
289.524	78.19
289.755	75.19
289.986	91.19
290.217	80.19
290.448	90.19
290.679	84.19
290.91	95.19
291.141	90.19
291.371	97.19
291.602	95.19
291.833	99.19
292.064	83.19
292.295	79.19
292.526	89.19
292.757	91.19
292.987	86.19
293.218	97.19
293.449	74.19
293.68	89.19
293.91	103.19
294.141	78.19
294.372	85.19
294.603	80.19
294.833	93.19
295.064	85.19
295.295	84.19
295.525	90.19
295.756	97.19
295.987	100.19
296.217	131.19
296.448	111.19
296.679	98.19
296.909	94.19
297.14	92.19
297.37	95.19
297.601	80.19
297.831	92.19
298.062	93.19
298.292	90.19
298.523	79.19
298.753	93.19
298.984	99.19
299.214	107.19
299.445	92.19
299.675	98.19
299.905	97.19
300.136	91.19
300.366	107.19
300.597	92.19
300.827	80.19
301.057	92.19
301.288	93.19
301.518	94.19
301.748	96.19
301.979	96.19
302.209	76.19
302.439	88.19
302.669	97.19
302.9	99.19
303.13	77.19
303.36	88.19
303.59	92.19
303.82	99.19
304.051	90.19
304.281	85.19
304.511	86.19
304.741	87.19
304.971	93.19
305.201	77.19
305.431	87.19
305.661	107.19
305.891	85.19
306.121	84.19
306.352	95.19
306.582	103.19
306.812	97.19
307.042	95.19
307.272	86.19
307.502	104.19
307.731	95.19
307.961	90.19
308.191	88.19
308.421	80.19
308.651	91.19
308.881	86.19
309.111	95.19
309.341	98.19
309.571	99.19
309.8	95.19
310.03	90.19
310.26	88.19
310.49	92.19
310.72	92.19
310.949	84.19
311.179	84.19
311.409	102.19
311.639	91.19
311.868	79.19
312.098	91.19
312.328	84.19
312.557	94.19
312.787	101.19
313.017	101.19
313.246	97.19
313.476	91.19
313.706	98.19
313.935	84.19
314.165	92.19
314.394	101.19
314.624	88.19
314.853	92.19
315.083	99.19
315.312	88.19
315.542	92.19
315.771	87.19
316.001	85.19
316.23	91.19
316.46	95.19
316.689	92.19
316.919	87.19
317.148	92.19
317.377	90.19
317.607	83.19
317.836	91.19
318.065	94.19
318.295	107.19
318.524	86.19
318.753	99.19
318.983	89.19
319.212	103.19
319.441	104.19
319.67	101.19
319.9	108.19
320.129	97.19
320.358	90.19
320.587	97.19
320.816	99.19
321.046	103.19
321.275	77.19
321.504	94.19
321.733	89.19
321.962	79.19
322.191	87.19
322.42	94.19
322.649	107.19
322.878	112.19
323.108	120.19
323.337	124.19
323.566	120.19
323.795	133.19
324.024	164.19
324.253	299.19
324.482	602.19
324.71	1163.19
324.939	1493.19
325.168	576.19
325.397	203.19
325.626	132.19
325.855	115.19
326.084	110.19
326.313	126.19
326.542	132.19
326.77	193.19
326.999	355.19
327.228	638.19
327.457	1178.19
327.686	969.19
327.914	286.19
328.143	155.19
328.372	139.19
328.6	101.19
328.829	103.19
329.058	120.19
329.287	114.19
329.515	98.19
329.744	103.19
329.972	106.19
330.201	117.19
330.43	106.19
330.658	113.19
330.887	118.19
331.115	113.19
331.344	109.19
331.572	108.19
331.801	107.19
332.03	108.19
332.258	90.19
332.486	84.19
332.715	100.19
332.943	91.19
333.172	95.19
333.4	108.19
333.629	100.19
333.857	96.19
334.085	97.19
334.314	103.19
334.542	129.19
334.771	121.19
334.999	110.19
335.227	94.19
335.455	113.19
335.684	103.19
335.912	92.19
336.14	102.19
336.369	83.19
336.597	88.19
336.825	89.19
337.053	101.19
337.281	104.19
337.51	101.19
337.738	95.19
337.966	91.19
338.194	102.19
338.422	97.19
338.65	94.19
338.878	94.19
339.106	90.19
339.334	97.19
339.562	84.19
339.79	83.19
340.018	88.19
340.246	102.19
340.474	108.19
340.702	96.19
340.93	76.19
341.158	102.19
341.386	95.19
341.614	87.19
341.842	93.19
342.07	101.19
342.298	97.19
342.526	86.19
342.754	83.19
342.981	79.19
343.209	92.19
343.437	104.19
343.665	86.19
343.893	105.19
344.12	88.19
344.348	74.19
344.576	88.19
344.804	95.19
345.031	94.19
345.259	89.19
345.487	93.19
345.714	87.19
345.942	102.19
346.17	99.19
346.397	94.19
346.625	78.19
346.853	100.19
347.08	83.19
347.308	102.19
347.535	97.19
347.763	93.19
347.99	88.19
348.218	101.19
348.445	99.19
348.673	94.19
348.9	89.19
349.128	112.19
349.355	95.19
349.583	93.19
349.81	83.19
350.037	105.19
350.265	98.19
350.492	89.19
350.72	102.19
350.947	102.19
351.174	93.19
351.402	118.19
351.629	103.19
351.856	111.19
352.083	87.19
352.311	101.19
352.538	101.19
352.765	107.19
352.992	95.19
353.22	100.19
353.447	101.19
353.674	101.19
353.901	113.19
354.128	102.19
354.355	119.19
354.583	98.19
354.81	92.19
355.037	105.19
355.264	95.19
355.491	93.19
355.718	89.19
355.945	104.19
356.172	84.19
356.399	71.19
356.626	93.19
356.853	88.19
357.08	94.19
357.307	94.19
357.534	87.19
357.761	87.19
357.988	110.19
358.215	106.19
358.441	92.19
358.668	93.19
358.895	96.19
359.122	89.19
359.349	83.19
359.576	101.19
359.802	81.19
360.029	99.19
360.256	93.19
360.483	93.19
360.709	91.19
360.936	101.19
361.163	91.19
361.39	90.19
361.616	91.19
361.843	80.19
362.07	101.19
362.296	79.19
362.523	98.19
362.749	87.19
362.976	80.19
363.203	91.19
363.429	105.19
363.656	85.19
363.882	87.19
364.109	89.19
364.335	93.19
364.562	105.19
364.788	94.19
365.015	83.19
365.241	93.19
365.468	98.19
365.694	96.19
365.92	99.19
366.147	94.19
366.373	83.19
366.599	96.19
366.826	92.19
367.052	93.19
367.278	84.19
367.505	92.19
367.731	100.19
367.957	88.19
368.184	100.19
368.41	93.19
368.636	105.19
368.862	92.19
369.089	89.19
369.315	88.19
369.541	84.19
369.767	87.19
369.993	92.19
370.219	102.19
370.445	99.19
370.672	88.19
370.898	93.19
371.124	100.19
371.35	80.19
371.576	100.19
371.802	91.19
372.028	88.19
372.254	77.19
372.48	73.19
372.706	78.19
372.932	105.19
373.158	92.19
373.384	90.19
373.61	99.19
373.835	92.19
374.061	69.19
374.287	97.19
374.513	103.19
374.739	94.19
374.965	87.19
375.191	87.19
375.416	87.19
375.642	108.19
375.868	92.19
376.094	88.19
376.319	99.19
376.545	101.19
376.771	75.19
376.997	96.19
377.222	99.19
377.448	103.19
377.674	106.19
377.899	100.19
378.125	101.19
378.35	86.19
378.576	84.19
378.802	92.19
379.027	90.19
379.253	92.19
379.478	102.19
379.704	103.19
379.929	91.19
380.155	98.19
380.38	93.19
380.606	93.19
380.831	72.19
381.057	104.19
381.282	80.19
381.507	101.19
381.733	108.19
381.958	92.19
382.184	105.19
382.409	112.19
382.634	104.19
382.86	92.19
383.085	103.19
383.31	99.19
383.535	115.19
383.761	112.19
383.986	100.19
384.211	100.19
384.436	93.19
384.662	92.19
384.887	107.19
385.112	104.19
385.337	106.19
385.562	99.19
385.787	107.19
386.013	112.19
386.238	104.19
386.463	113.19
386.688	114.19
386.913	107.19
387.138	108.19
387.363	113.19
387.588	93.19
387.813	107.19
388.038	113.19
388.263	110.19
388.488	117.19
388.713	105.19
388.938	107.19
389.163	96.19
389.387	97.19
389.612	104.19
389.837	87.19
390.062	103.19
390.287	87.19
390.512	92.19
390.736	102.19
390.961	104.19
391.186	110.19
391.411	97.19
391.636	94.19
391.86	105.19
392.085	101.19
392.31	95.19
392.534	77.19
392.759	80.19
392.984	96.19
393.208	97.19
393.433	78.19
393.658	89.19
393.882	91.19
394.107	100.19
394.331	91.19
394.556	78.19
394.78	89.19
395.005	101.19
395.229	87.19
395.454	77.19
395.678	95.19
395.903	88.19
396.127	81.19
396.352	107.19
396.576	89.19
396.801	85.19
397.025	92.19
397.249	91.19
397.474	95.19
397.698	79.19
397.922	96.19
398.147	91.19
398.371	86.19
398.595	80.19
398.82	95.19
399.044	94.19
399.268	81.19
399.492	93.19
399.717	94.19
399.941	97.19
400.165	101.19
400.389	96.19
400.613	98.19
400.837	96.19
401.062	87.19
401.286	89.19
401.51	80.19
401.734	86.19
401.958	90.19
402.182	113.19
402.406	128.19
402.63	101.19
402.854	108.19
403.078	83.19
403.302	91.19
403.526	92.19
403.75	92.19
403.974	92.19
404.198	77.19
404.422	94.19
404.645	92.19
404.869	88.19
405.093	105.19
405.317	94.19
405.541	112.19
405.765	88.19
405.988	112.19
406.212	136.19
406.436	181.19
406.66	115.19
406.883	106.19
407.107	99.19
407.331	101.19
407.555	101.19
407.778	95.19
408.002	68.19
408.226	93.19
408.449	100.19
408.673	96.19
408.896	97.19
409.12	91.19
409.344	77.19
409.567	90.19
409.791	101.19
410.014	104.19
410.238	88.19
410.461	90.19
410.685	96.19
410.908	92.19
411.132	112.19
411.355	110.19
411.578	101.19
411.802	89.19
412.025	108.19
412.249	91.19
412.472	84.19
412.695	102.19
412.919	91.19
413.142	102.19
413.365	89.19
413.589	91.19
413.812	83.19
414.035	104.19
414.258	86.19
414.482	101.19
414.705	97.19
414.928	87.19
415.151	99.19
415.374	89.19
415.597	102.19
415.821	95.19
416.044	77.19
416.267	72.19
416.49	92.19
416.713	88.19
416.936	85.19
417.159	89.19
417.382	90.19
417.605	86.19
417.828	93.19
418.051	95.19
418.274	87.19
418.497	100.19
418.72	102.19
418.943	88.19
419.166	80.19
419.389	89.19
419.611	77.19
419.834	105.19
420.057	93.19
420.28	81.19
420.503	91.19
420.726	79.19
420.948	94.19
421.171	95.19
421.394	86.19
421.617	91.19
421.839	83.19
422.062	100.19
422.285	83.19
422.507	77.19
422.73	89.19
422.953	85.19
423.175	103.19
423.398	87.19
423.621	91.19
423.843	85.19
424.066	107.19
424.288	77.19
424.511	96.19
424.733	100.19
424.956	105.19
425.178	98.19
425.401	108.19
425.623	86.19
425.846	90.19
426.068	86.19
426.291	93.19
426.513	93.19
426.735	100.19
426.958	85.19
427.18	96.19
427.402	126.19
427.625	151.19
427.847	126.19
428.069	108.19
428.292	93.19
428.514	90.19
428.736	89.19
428.958	89.19
429.181	97.19
429.403	95.19
429.625	91.19
429.847	96.19
430.069	99.19
430.292	95.19
430.514	69.19
430.736	89.19
430.958	95.19
431.18	84.19
431.402	106.19
431.624	101.19
431.846	76.19
432.068	89.19
432.29	96.19
432.512	93.19
432.734	99.19
432.956	90.19
433.178	92.19
433.4	94.19
433.622	92.19
433.844	90.19
434.066	95.19
434.287	86.19
434.509	94.19
434.731	91.19
434.953	91.19
435.175	107.19
435.397	94.19
435.618	89.19
435.84	90.19
436.062	119.19
436.284	99.19
436.505	91.19
436.727	80.19
436.949	99.19
437.17	87.19
437.392	89.19
437.614	90.19
437.835	96.19
438.057	111.19
438.278	111.19
438.5	93.19
438.721	110.19
438.943	108.19
439.165	94.19
439.386	91.19
439.608	99.19
439.829	77.19
440.05	121.19
440.272	111.19
440.493	91.19
440.715	86.19
440.936	80.19
441.158	89.19
441.379	99.19
441.6	100.19
441.822	96.19
442.043	103.19
442.264	107.19
442.486	97.19
442.707	91.19
442.928	100.19
443.149	117.19
443.371	108.19
443.592	92.19
443.813	110.19
444.034	106.19
444.255	88.19
444.476	95.19
444.698	93.19
444.919	85.19
445.14	112.19
445.361	106.19
445.582	103.19
445.803	105.19
446.024	108.19
446.245	103.19
446.466	89.19
446.687	96.19
446.908	91.19
447.129	92.19
447.35	94.19
447.571	93.19
447.792	89.19
448.013	87.19
448.234	96.19
448.455	114.19
448.675	108.19
448.896	120.19
449.117	97.19
449.338	108.19
449.559	115.19
449.779	109.19
450	89.19
450.221	92.19
450.442	91.19
450.662	80.19
450.883	97.19
451.104	95.19
451.324	125.19
451.545	94.19
451.766	79.19
451.986	81.19
452.207	91.19
452.428	95.19
452.648	91.19
452.869	104.19
453.089	105.19
453.31	101.19
453.53	95.19
453.751	82.19
453.971	93.19
454.192	89.19
454.412	87.19
454.633	96.19
454.853	80.19
455.073	83.19
455.294	87.19
455.514	103.19
455.734	87.19
455.955	96.19
456.175	86.19
456.395	90.19
456.616	101.19
456.836	96.19
457.056	93.19
457.276	75.19
457.497	101.19
457.717	85.19
457.937	83.19
458.157	83.19
458.377	91.19
458.598	104.19
458.818	135.19
459.038	125.19
459.258	115.19
459.478	100.19
459.698	101.19
459.918	86.19
460.138	90.19
460.358	76.19
460.578	85.19
460.798	84.19
461.018	97.19
461.238	86.19
461.458	76.19
461.678	90.19
461.898	89.19
462.118	80.19
462.338	77.19
462.558	89.19
462.777	85.19
462.997	83.19
463.217	74.19
463.437	76.19
463.657	101.19
463.876	101.19
464.096	89.19
464.316	102.19
464.536	81.19
464.755	89.19
464.975	98.19
465.195	139.19
465.414	137.19
465.634	87.19
465.854	79.19
466.073	81.19
466.293	93.19
466.512	87.19
466.732	88.19
466.951	92.19
467.171	105.19
467.391	88.19
467.61	100.19
467.829	87.19
468.049	110.19
468.268	107.19
468.488	94.19
468.707	83.19
468.927	85.19
469.146	89.19
469.365	84.19
469.585	86.19
469.804	97.19
470.023	87.19
470.243	87.19
470.462	107.19
470.681	93.19
470.901	92.19
471.12	91.19
471.339	87.19
471.558	80.19
471.777	96.19
471.997	100.19
472.216	124.19
472.435	145.19
472.654	101.19
472.873	90.19
473.092	96.19
473.311	93.19
473.53	85.19
473.749	93.19
473.968	92.19
474.187	93.19
474.406	103.19
474.625	89.19
474.844	100.19
475.063	90.19
475.282	91.19
475.501	86.19
475.72	95.19
475.939	84.19
476.158	91.19
476.377	90.19
476.596	92.19
476.814	90.19
477.033	78.19
477.252	83.19
477.471	91.19
477.69	86.19
477.908	88.19
478.127	97.19
478.346	96.19
478.564	90.19
478.783	81.19
479.002	76.19
479.22	99.19
479.439	96.19
479.658	100.19
479.876	96.19
480.095	88.19
480.313	94.19
480.532	83.19
480.751	95.19
480.969	125.19
481.188	169.19
481.406	140.19
481.624	103.19
481.843	92.19
482.061	101.19
482.28	85.19
482.498	95.19
482.717	88.19
482.935	100.19
483.153	89.19
483.372	88.19
483.59	86.19
483.808	92.19
484.027	86.19
484.245	88.19
484.463	88.19
484.681	105.19
484.9	105.19
485.118	96.19
485.336	102.19
485.554	100.19
485.772	94.19
485.99	95.19
486.209	119.19
486.427	116.19
486.645	128.19
486.863	105.19
487.081	104.19
487.299	100.19
487.517	99.19
487.735	103.19
487.953	97.19
488.171	88.19
488.389	104.19
488.607	87.19
488.825	80.19
489.043	96.19
489.261	87.19
489.479	101.19
489.696	89.19
489.914	109.19
490.132	90.19
490.35	89.19
490.568	101.19
490.786	76.19
491.003	89.19
491.221	86.19
491.439	83.19
491.657	83.19
491.874	90.19
492.092	78.19
492.31	82.19
492.527	75.19
492.745	97.19
492.963	88.19
493.18	93.19
493.398	94.19
493.615	96.19
493.833	102.19
494.05	92.19
494.268	73.19
494.485	93.19
494.703	84.19
494.92	84.19
495.138	91.19
495.355	82.19
495.573	74.19
495.79	79.19
496.008	84.19
496.225	89.19
496.442	91.19
496.66	95.19
496.877	92.19
497.094	95.19
497.312	72.19
497.529	102.19
497.746	87.19
497.963	76.19
498.181	90.19
498.398	105.19
498.615	99.19
498.832	91.19
499.049	89.19
499.267	88.19
499.484	95.19
499.701	86.19
499.918	95.19
500.135	81.19
500.352	85.19
500.569	84.19
500.786	101.19
501.003	87.19
501.22	80.19
501.437	91.19
501.654	94.19
501.871	105.19
502.088	88.19
502.305	102.19
502.522	95.19
502.739	99.19
502.956	102.19
503.172	89.19
503.389	87.19
503.606	106.19
503.823	87.19
504.04	95.19
504.256	88.19
504.473	85.19
504.69	94.19
504.907	93.19
505.123	100.19
505.34	84.19
505.557	85.19
505.773	81.19
505.99	91.19
506.207	83.19
506.423	92.19
506.64	87.19
506.856	93.19
507.073	91.19
507.289	94.19
507.506	90.19
507.722	98.19
507.939	97.19
508.155	107.19
508.372	93.19
508.588	91.19
508.805	89.19
509.021	88.19
509.238	102.19
509.454	90.19
509.67	109.19
509.887	97.19
510.103	124.19
510.319	172.19
510.536	544.19
510.752	1648.19
510.968	487.19
511.184	128.19
511.401	96.19
511.617	97.19
511.833	94.19
512.049	100.19
512.265	95.19
512.481	98.19
512.698	91.19
512.914	100.19
513.13	98.19
513.346	93.19
513.562	91.19
513.778	97.19
513.994	107.19
514.21	93.19
514.426	104.19
514.642	110.19
514.858	105.19
515.074	141.19
515.29	322.19
515.506	971.19
