Data from Circ_1980_H10_HRD10591_00097.txt Node
Date: Wed Jan 03 12:38:17 EST 2024
User: Yrep
Spectrometer: HR+D1059
Trigger mode: 1
Integration Time (sec): 1.000000E-1
Scans to average: 1
Electric dark correction enabled: true
Nonlinearity correction enabled: false
Boxcar width: 0
XAxis mode: Wavelengths
Number of Pixels in Spectrum: 2048
>>>>>Begin Spectral Data<<<<<
223.165	-11.56
223.4	-11.56
223.635	-11.56
223.869	-14.56
224.104	-15.56
224.338	-10.56
224.573	-13.56
224.808	-25.56
225.042	0.44
225.277	-18.56
225.511	-10.56
225.746	13.44
225.98	4.44
226.215	9.44
226.449	11.44
226.683	11.44
226.918	34.44
227.152	35.44
227.387	37.44
227.621	35.44
227.856	42.44
228.09	47.44
228.324	54.44
228.559	58.44
228.793	66.44
229.027	55.44
229.262	73.44
229.496	68.44
229.73	75.44
229.964	79.44
230.199	73.44
230.433	75.44
230.667	67.44
230.901	67.44
231.136	54.44
231.37	78.44
231.604	75.44
231.838	85.44
232.072	88.44
232.306	75.44
232.541	75.44
232.775	89.44
233.009	89.44
233.243	86.44
233.477	87.44
233.711	74.44
233.945	83.44
234.179	86.44
234.413	87.44
234.647	105.44
234.881	83.44
235.115	82.44
235.349	77.44
235.583	74.44
235.817	87.44
236.051	81.44
236.285	58.44
236.519	73.44
236.753	81.44
236.987	89.44
237.221	82.44
237.455	98.44
237.689	82.44
237.922	67.44
238.156	65.44
238.39	68.44
238.624	67.44
238.858	82.44
239.091	81.44
239.325	84.44
239.559	75.44
239.793	75.44
240.027	88.44
240.26	76.44
240.494	81.44
240.728	75.44
240.961	67.44
241.195	75.44
241.429	85.44
241.662	74.44
241.896	70.44
242.13	79.44
242.363	81.44
242.597	103.44
242.83	81.44
243.064	81.44
243.298	73.44
243.531	78.44
243.765	78.44
243.998	75.44
244.232	83.44
244.465	84.44
244.699	83.44
244.932	72.44
245.166	75.44
245.399	70.44
245.633	81.44
245.866	78.44
246.099	76.44
246.333	70.44
246.566	84.44
246.8	79.44
247.033	76.44
247.266	70.44
247.5	81.44
247.733	87.44
247.966	74.44
248.2	70.44
248.433	81.44
248.666	65.44
248.899	84.44
249.133	97.44
249.366	90.44
249.599	86.44
249.832	89.44
250.066	83.44
250.299	95.44
250.532	79.44
250.765	72.44
250.998	85.44
251.231	85.44
251.465	71.44
251.698	70.44
251.931	71.44
252.164	85.44
252.397	83.44
252.63	85.44
252.863	81.44
253.096	81.44
253.329	82.44
253.562	78.44
253.795	81.44
254.028	87.44
254.261	70.44
254.494	75.44
254.727	78.44
254.96	77.44
255.193	85.44
255.426	84.44
255.659	78.44
255.892	73.44
256.124	78.44
256.357	73.44
256.59	89.44
256.823	70.44
257.056	85.44
257.289	78.44
257.521	85.44
257.754	77.44
257.987	91.44
258.22	82.44
258.452	79.44
258.685	73.44
258.918	72.44
259.151	78.44
259.383	87.44
259.616	79.44
259.849	74.44
260.081	78.44
260.314	74.44
260.547	82.44
260.779	89.44
261.012	91.44
261.244	93.44
261.477	84.44
261.71	84.44
261.942	93.44
262.175	100.44
262.407	96.44
262.64	85.44
262.872	92.44
263.105	81.44
263.337	83.44
263.57	74.44
263.802	76.44
264.035	86.44
264.267	90.44
264.499	79.44
264.732	65.44
264.964	85.44
265.197	80.44
265.429	86.44
265.661	92.44
265.894	87.44
266.126	88.44
266.358	79.44
266.591	92.44
266.823	90.44
267.055	84.44
267.287	81.44
267.52	75.44
267.752	87.44
267.984	88.44
268.216	85.44
268.448	91.44
268.681	87.44
268.913	71.44
269.145	69.44
269.377	86.44
269.609	76.44
269.841	85.44
270.073	82.44
270.306	83.44
270.538	62.44
270.77	88.44
271.002	74.44
271.234	81.44
271.466	97.44
271.698	73.44
271.93	82.44
272.162	94.44
272.394	86.44
272.626	87.44
272.858	93.44
273.09	95.44
273.322	79.44
273.553	68.44
273.785	87.44
274.017	75.44
274.249	87.44
274.481	81.44
274.713	73.44
274.945	84.44
275.176	84.44
275.408	86.44
275.64	91.44
275.872	79.44
276.104	76.44
276.335	79.44
276.567	94.44
276.799	93.44
277.031	94.44
277.262	98.44
277.494	96.44
277.726	86.44
277.957	93.44
278.189	85.44
278.421	81.44
278.652	93.44
278.884	81.44
279.115	68.44
279.347	71.44
279.579	82.44
279.81	83.44
280.042	84.44
280.273	90.44
280.505	93.44
280.736	85.44
280.968	81.44
281.199	78.44
281.431	94.44
281.662	94.44
281.894	89.44
282.125	89.44
282.356	103.44
282.588	120.44
282.819	100.44
283.051	91.44
283.282	82.44
283.513	85.44
283.745	79.44
283.976	76.44
284.207	88.44
284.439	83.44
284.67	81.44
284.901	86.44
285.132	97.44
285.364	89.44
285.595	82.44
285.826	97.44
286.057	86.44
286.288	91.44
286.52	72.44
286.751	85.44
286.982	91.44
287.213	78.44
287.444	94.44
287.675	87.44
287.906	71.44
288.138	86.44
288.369	101.44
288.6	91.44
288.831	92.44
289.062	94.44
289.293	84.44
289.524	90.44
289.755	91.44
289.986	87.44
290.217	83.44
290.448	89.44
290.679	100.44
290.91	93.44
291.141	74.44
291.371	74.44
291.602	85.44
291.833	82.44
292.064	77.44
292.295	74.44
292.526	82.44
292.757	85.44
292.987	75.44
293.218	78.44
293.449	75.44
293.68	78.44
293.91	93.44
294.141	93.44
294.372	75.44
294.603	84.44
294.833	86.44
295.064	88.44
295.295	94.44
295.525	95.44
295.756	100.44
295.987	100.44
296.217	111.44
296.448	111.44
296.679	102.44
296.909	100.44
297.14	78.44
297.37	84.44
297.601	78.44
297.831	103.44
298.062	78.44
298.292	101.44
298.523	89.44
298.753	103.44
298.984	74.44
299.214	83.44
299.445	98.44
299.675	82.44
299.905	85.44
300.136	94.44
300.366	81.44
300.597	78.44
300.827	85.44
301.057	100.44
301.288	91.44
301.518	81.44
301.748	77.44
301.979	86.44
302.209	101.44
302.439	89.44
302.669	77.44
302.9	91.44
303.13	103.44
303.36	101.44
303.59	95.44
303.82	93.44
304.051	86.44
304.281	83.44
304.511	101.44
304.741	83.44
304.971	84.44
305.201	96.44
305.431	94.44
305.661	98.44
305.891	87.44
306.121	84.44
306.352	105.44
306.582	107.44
306.812	95.44
307.042	95.44
307.272	96.44
307.502	103.44
307.731	90.44
307.961	91.44
308.191	90.44
308.421	94.44
308.651	84.44
308.881	105.44
309.111	84.44
309.341	93.44
309.571	85.44
309.8	100.44
310.03	89.44
310.26	79.44
310.49	90.44
310.72	98.44
310.949	91.44
311.179	94.44
311.409	95.44
311.639	108.44
311.868	93.44
312.098	106.44
312.328	89.44
312.557	95.44
312.787	109.44
313.017	101.44
313.246	100.44
313.476	102.44
313.706	62.44
313.935	91.44
314.165	103.44
314.394	103.44
314.624	84.44
314.853	101.44
315.083	85.44
315.312	93.44
315.542	94.44
315.771	99.44
316.001	90.44
316.23	83.44
316.46	89.44
316.689	77.44
316.919	94.44
317.148	102.44
317.377	99.44
317.607	76.44
317.836	81.44
318.065	83.44
318.295	98.44
318.524	90.44
318.753	93.44
318.983	92.44
319.212	86.44
319.441	102.44
319.67	90.44
319.9	95.44
320.129	94.44
320.358	97.44
320.587	83.44
320.816	100.44
321.046	100.44
321.275	98.44
321.504	81.44
321.733	90.44
321.962	98.44
322.191	103.44
322.42	102.44
322.649	98.44
322.878	102.44
323.108	114.44
323.337	107.44
323.566	123.44
323.795	126.44
324.024	181.44
324.253	299.44
324.482	638.44
324.71	1275.44
324.939	1690.44
325.168	639.44
325.397	205.44
325.626	125.44
325.855	116.44
326.084	110.44
326.313	117.44
326.542	129.44
326.77	197.44
326.999	374.44
327.228	727.44
327.457	1355.44
327.686	1052.44
327.914	301.44
328.143	181.44
328.372	154.44
328.6	112.44
328.829	117.44
329.058	114.44
329.287	114.44
329.515	87.44
329.744	104.44
329.972	117.44
330.201	110.44
330.43	113.44
330.658	115.44
330.887	126.44
331.115	100.44
331.344	93.44
331.572	103.44
331.801	102.44
332.03	103.44
332.258	99.44
332.486	93.44
332.715	77.44
332.943	95.44
333.172	91.44
333.4	106.44
333.629	90.44
333.857	94.44
334.085	104.44
334.314	113.44
334.542	134.44
334.771	116.44
334.999	103.44
335.227	112.44
335.455	98.44
335.684	86.44
335.912	85.44
336.14	107.44
336.369	101.44
336.597	81.44
336.825	79.44
337.053	90.44
337.281	107.44
337.51	93.44
337.738	109.44
337.966	94.44
338.194	90.44
338.422	98.44
338.65	98.44
338.878	84.44
339.106	86.44
339.334	102.44
339.562	93.44
339.79	90.44
340.018	86.44
340.246	107.44
340.474	89.44
340.702	76.44
340.93	86.44
341.158	95.44
341.386	87.44
341.614	85.44
341.842	78.44
342.07	103.44
342.298	97.44
342.526	93.44
342.754	87.44
342.981	97.44
343.209	85.44
343.437	103.44
343.665	91.44
343.893	82.44
344.12	97.44
344.348	71.44
344.576	85.44
344.804	78.44
345.031	86.44
345.259	94.44
345.487	94.44
345.714	89.44
345.942	91.44
346.17	91.44
346.397	79.44
346.625	86.44
346.853	76.44
347.08	83.44
347.308	99.44
347.535	91.44
347.763	87.44
347.99	91.44
348.218	99.44
348.445	90.44
348.673	90.44
348.9	104.44
349.128	82.44
349.355	94.44
349.583	105.44
349.81	58.44
350.037	97.44
350.265	86.44
350.492	89.44
350.72	78.44
350.947	101.44
351.174	91.44
351.402	109.44
351.629	101.44
351.856	91.44
352.083	102.44
352.311	87.44
352.538	99.44
352.765	117.44
352.992	102.44
353.22	131.44
353.447	89.44
353.674	99.44
353.901	85.44
354.128	101.44
354.355	91.44
354.583	94.44
354.81	92.44
355.037	102.44
355.264	86.44
355.491	93.44
355.718	90.44
355.945	104.44
356.172	95.44
356.399	94.44
356.626	90.44
356.853	95.44
357.08	108.44
357.307	93.44
357.534	82.44
357.761	106.44
357.988	88.44
358.215	101.44
358.441	94.44
358.668	98.44
358.895	100.44
359.122	101.44
359.349	92.44
359.576	89.44
359.802	94.44
360.029	95.44
360.256	104.44
360.483	77.44
360.709	87.44
360.936	100.44
361.163	103.44
361.39	102.44
361.616	84.44
361.843	94.44
362.07	82.44
362.296	100.44
362.523	93.44
362.749	101.44
362.976	92.44
363.203	107.44
363.429	81.44
363.656	92.44
363.882	102.44
364.109	87.44
364.335	93.44
364.562	107.44
364.788	100.44
365.015	88.44
365.241	82.44
365.468	104.44
365.694	109.44
365.92	92.44
366.147	100.44
366.373	100.44
366.599	87.44
366.826	84.44
367.052	93.44
367.278	98.44
367.505	88.44
367.731	84.44
367.957	99.44
368.184	92.44
368.41	98.44
368.636	99.44
368.862	109.44
369.089	101.44
369.315	85.44
369.541	93.44
369.767	71.44
369.993	92.44
370.219	89.44
370.445	81.44
370.672	95.44
370.898	102.44
371.124	82.44
371.35	92.44
371.576	87.44
371.802	89.44
372.028	81.44
372.254	67.44
372.48	80.44
372.706	88.44
372.932	75.44
373.158	90.44
373.384	97.44
373.61	86.44
373.835	97.44
374.061	77.44
374.287	93.44
374.513	82.44
374.739	102.44
374.965	95.44
375.191	91.44
375.416	96.44
375.642	79.44
375.868	77.44
376.094	102.44
376.319	96.44
376.545	86.44
376.771	94.44
376.997	102.44
377.222	73.44
377.448	81.44
377.674	83.44
377.899	88.44
378.125	81.44
378.35	78.44
378.576	99.44
378.802	93.44
379.027	96.44
379.253	92.44
379.478	97.44
379.704	102.44
379.929	85.44
380.155	94.44
380.38	105.44
380.606	91.44
380.831	99.44
381.057	92.44
381.282	92.44
381.507	86.44
381.733	92.44
381.958	99.44
382.184	87.44
382.409	104.44
382.634	100.44
382.86	109.44
383.085	116.44
383.31	99.44
383.535	98.44
383.761	106.44
383.986	99.44
384.211	85.44
384.436	99.44
384.662	114.44
384.887	95.44
385.112	95.44
385.337	99.44
385.562	87.44
385.787	112.44
386.013	107.44
386.238	106.44
386.463	97.44
386.688	106.44
386.913	115.44
387.138	94.44
387.363	94.44
387.588	85.44
387.813	114.44
388.038	101.44
388.263	125.44
388.488	106.44
388.713	112.44
388.938	90.44
389.163	86.44
389.387	102.44
389.612	98.44
389.837	99.44
390.062	100.44
390.287	92.44
390.512	94.44
390.736	91.44
390.961	89.44
391.186	111.44
391.411	115.44
391.636	82.44
391.86	96.44
392.085	72.44
392.31	81.44
392.534	87.44
392.759	94.44
392.984	86.44
393.208	98.44
393.433	89.44
393.658	69.44
393.882	91.44
394.107	82.44
394.331	83.44
394.556	81.44
394.78	91.44
395.005	87.44
395.229	89.44
395.454	80.44
395.678	74.44
395.903	83.44
396.127	86.44
396.352	94.44
396.576	82.44
396.801	89.44
397.025	78.44
397.249	89.44
397.474	81.44
397.698	77.44
397.922	89.44
398.147	93.44
398.371	93.44
398.595	76.44
398.82	76.44
399.044	88.44
399.268	91.44
399.492	84.44
399.717	84.44
399.941	73.44
400.165	98.44
400.389	85.44
400.613	85.44
400.837	81.44
401.062	87.44
401.286	95.44
401.51	93.44
401.734	81.44
401.958	93.44
402.182	95.44
402.406	140.44
402.63	105.44
402.854	87.44
403.078	94.44
403.302	76.44
403.526	76.44
403.75	94.44
403.974	79.44
404.198	83.44
404.422	86.44
404.645	88.44
404.869	83.44
405.093	90.44
405.317	97.44
405.541	102.44
405.765	91.44
405.988	110.44
406.212	135.44
406.436	195.44
406.66	131.44
406.883	104.44
407.107	90.44
407.331	97.44
407.555	91.44
407.778	90.44
408.002	90.44
408.226	85.44
408.449	89.44
408.673	79.44
408.896	92.44
409.12	102.44
409.344	104.44
409.567	83.44
409.791	96.44
410.014	90.44
410.238	96.44
410.461	86.44
410.685	84.44
410.908	103.44
411.132	95.44
411.355	85.44
411.578	82.44
411.802	83.44
412.025	90.44
412.249	85.44
412.472	103.44
412.695	89.44
412.919	98.44
413.142	75.44
413.365	85.44
413.589	86.44
413.812	89.44
414.035	78.44
414.258	77.44
414.482	87.44
414.705	89.44
414.928	90.44
415.151	93.44
415.374	79.44
415.597	91.44
415.821	86.44
416.044	78.44
416.267	84.44
416.49	88.44
416.713	88.44
416.936	98.44
417.159	93.44
417.382	93.44
417.605	93.44
417.828	87.44
418.051	97.44
418.274	74.44
418.497	89.44
418.72	94.44
418.943	100.44
419.166	78.44
419.389	72.44
419.611	83.44
419.834	88.44
420.057	93.44
420.28	75.44
420.503	89.44
420.726	92.44
420.948	84.44
421.171	85.44
421.394	86.44
421.617	89.44
421.839	86.44
422.062	101.44
422.285	99.44
422.507	90.44
422.73	97.44
422.953	99.44
423.175	95.44
423.398	96.44
423.621	74.44
423.843	78.44
424.066	72.44
424.288	87.44
424.511	89.44
424.733	86.44
424.956	94.44
425.178	97.44
425.401	101.44
425.623	90.44
425.846	101.44
426.068	101.44
426.291	91.44
426.513	97.44
426.735	85.44
426.958	100.44
427.18	92.44
427.402	117.44
427.625	134.44
427.847	107.44
428.069	96.44
428.292	82.44
428.514	86.44
428.736	74.44
428.958	83.44
429.181	77.44
429.403	84.44
429.625	90.44
429.847	78.44
430.069	86.44
430.292	87.44
430.514	75.44
430.736	77.44
430.958	82.44
431.18	80.44
431.402	93.44
431.624	82.44
431.846	89.44
432.068	85.44
432.29	95.44
432.512	83.44
432.734	93.44
432.956	101.44
433.178	102.44
433.4	95.44
433.622	89.44
433.844	98.44
434.066	90.44
434.287	95.44
434.509	104.44
434.731	85.44
434.953	89.44
435.175	88.44
435.397	93.44
435.618	90.44
435.84	106.44
436.062	116.44
436.284	91.44
436.505	108.44
436.727	104.44
436.949	93.44
437.17	97.44
437.392	85.44
437.614	103.44
437.835	87.44
438.057	110.44
438.278	97.44
438.5	100.44
438.721	113.44
438.943	94.44
439.165	82.44
439.386	84.44
439.608	96.44
439.829	92.44
440.05	108.44
440.272	115.44
440.493	99.44
440.715	90.44
440.936	78.44
441.158	83.44
441.379	89.44
441.6	82.44
441.822	88.44
442.043	91.44
442.264	97.44
442.486	91.44
442.707	100.44
442.928	94.44
443.149	119.44
443.371	119.44
443.592	103.44
443.813	108.44
444.034	83.44
444.255	96.44
444.476	91.44
444.698	82.44
444.919	78.44
445.14	121.44
445.361	113.44
445.582	116.44
445.803	113.44
446.024	117.44
446.245	130.44
446.466	108.44
446.687	93.44
446.908	93.44
447.129	93.44
447.35	72.44
447.571	94.44
447.792	85.44
448.013	81.44
448.234	78.44
448.455	92.44
448.675	92.44
448.896	104.44
449.117	102.44
449.338	94.44
449.559	118.44
449.779	116.44
450	85.44
450.221	79.44
450.442	103.44
450.662	96.44
450.883	89.44
451.104	92.44
451.324	100.44
451.545	86.44
451.766	100.44
451.986	94.44
452.207	97.44
452.428	92.44
452.648	86.44
452.869	91.44
453.089	108.44
453.31	112.44
453.53	93.44
453.751	91.44
453.971	92.44
454.192	95.44
454.412	90.44
454.633	98.44
454.853	76.44
455.073	85.44
455.294	81.44
455.514	89.44
455.734	94.44
455.955	83.44
456.175	80.44
456.395	87.44
456.616	77.44
456.836	81.44
457.056	87.44
457.276	80.44
457.497	87.44
457.717	93.44
457.937	90.44
458.157	75.44
458.377	78.44
458.598	93.44
458.818	126.44
459.038	125.44
459.258	96.44
459.478	94.44
459.698	88.44
459.918	76.44
460.138	82.44
460.358	84.44
460.578	85.44
460.798	94.44
461.018	83.44
461.238	82.44
461.458	94.44
461.678	93.44
461.898	88.44
462.118	91.44
462.338	87.44
462.558	79.44
462.777	93.44
462.997	99.44
463.217	94.44
463.437	83.44
463.657	73.44
463.876	93.44
464.096	101.44
464.316	85.44
464.536	95.44
464.755	105.44
464.975	99.44
465.195	133.44
465.414	127.44
465.634	95.44
465.854	102.44
466.073	85.44
466.293	85.44
466.512	75.44
466.732	85.44
466.951	85.44
467.171	96.44
467.391	83.44
467.61	99.44
467.829	99.44
468.049	98.44
468.268	95.44
468.488	78.44
468.707	85.44
468.927	75.44
469.146	74.44
469.365	86.44
469.585	84.44
469.804	110.44
470.023	86.44
470.243	71.44
470.462	94.44
470.681	101.44
470.901	102.44
471.12	93.44
471.339	81.44
471.558	78.44
471.777	89.44
471.997	92.44
472.216	118.44
472.435	142.44
472.654	107.44
472.873	82.44
473.092	88.44
473.311	95.44
473.53	94.44
473.749	95.44
473.968	88.44
474.187	75.44
474.406	83.44
474.625	94.44
474.844	90.44
475.063	93.44
475.282	75.44
475.501	85.44
475.72	101.44
475.939	85.44
476.158	78.44
476.377	101.44
476.596	73.44
476.814	100.44
477.033	97.44
477.252	89.44
477.471	92.44
477.69	94.44
477.908	88.44
478.127	83.44
478.346	85.44
478.564	79.44
478.783	86.44
479.002	90.44
479.22	77.44
479.439	89.44
479.658	90.44
479.876	90.44
480.095	84.44
480.313	86.44
480.532	81.44
480.751	109.44
480.969	99.44
481.188	199.44
481.406	130.44
481.624	98.44
481.843	92.44
482.061	77.44
482.28	87.44
482.498	89.44
482.717	95.44
482.935	91.44
483.153	79.44
483.372	98.44
483.59	88.44
483.808	88.44
484.027	75.44
484.245	100.44
484.463	87.44
484.681	103.44
484.9	100.44
485.118	102.44
485.336	79.44
485.554	83.44
485.772	100.44
485.99	113.44
486.209	107.44
486.427	102.44
486.645	101.44
486.863	103.44
487.081	99.44
487.299	100.44
487.517	97.44
487.735	102.44
487.953	87.44
488.171	99.44
488.389	108.44
488.607	105.44
488.825	74.44
489.043	88.44
489.261	83.44
489.479	76.44
489.696	83.44
489.914	77.44
490.132	93.44
490.35	85.44
490.568	87.44
490.786	84.44
491.003	81.44
491.221	94.44
491.439	88.44
491.657	104.44
491.874	83.44
492.092	90.44
492.31	92.44
492.527	85.44
492.745	82.44
492.963	94.44
493.18	92.44
493.398	91.44
493.615	107.44
493.833	94.44
494.05	86.44
494.268	89.44
494.485	87.44
494.703	91.44
494.92	92.44
495.138	85.44
495.355	81.44
495.573	97.44
495.79	77.44
496.008	92.44
496.225	83.44
496.442	92.44
496.66	85.44
496.877	87.44
497.094	93.44
497.312	87.44
497.529	90.44
497.746	104.44
497.963	89.44
498.181	100.44
498.398	95.44
498.615	95.44
498.832	93.44
499.049	90.44
499.267	84.44
499.484	94.44
499.701	77.44
499.918	89.44
500.135	80.44
500.352	85.44
500.569	80.44
500.786	81.44
501.003	77.44
501.22	78.44
501.437	95.44
501.654	97.44
501.871	92.44
502.088	97.44
502.305	83.44
502.522	94.44
502.739	97.44
502.956	90.44
503.172	88.44
503.389	94.44
503.606	96.44
503.823	85.44
504.04	91.44
504.256	83.44
504.473	80.44
504.69	86.44
504.907	90.44
505.123	85.44
505.34	104.44
505.557	95.44
505.773	81.44
505.99	90.44
506.207	97.44
506.423	103.44
506.64	85.44
506.856	91.44
507.073	90.44
507.289	90.44
507.506	98.44
507.722	95.44
507.939	106.44
508.155	103.44
508.372	99.44
508.588	103.44
508.805	97.44
509.021	98.44
509.238	108.44
509.454	100.44
509.67	107.44
509.887	103.44
510.103	125.44
510.319	174.44
510.536	609.44
510.752	1804.44
510.968	517.44
511.184	136.44
511.401	109.44
511.617	107.44
511.833	92.44
512.049	89.44
512.265	97.44
512.481	86.44
512.698	97.44
512.914	79.44
513.13	92.44
513.346	76.44
513.562	90.44
513.778	105.44
513.994	106.44
514.21	86.44
514.426	104.44
514.642	119.44
514.858	115.44
515.074	147.44
515.29	353.44
515.506	1084.44
515.721	380.44
515.937	129.44
516.153	111.44
