Data from Circ_1980_H10_HRD10591_00005.txt Node
Date: Wed Jan 03 12:37:59 EST 2024
User: Yrep
Spectrometer: HR+D1059
Trigger mode: 1
Integration Time (sec): 1.000000E-1
Scans to average: 1
Electric dark correction enabled: true
Nonlinearity correction enabled: false
Boxcar width: 0
XAxis mode: Wavelengths
Number of Pixels in Spectrum: 2048
>>>>>Begin Spectral Data<<<<<
223.165	-25.25
223.4	-25.25
223.635	-25.25
223.869	-16.25
224.104	-11.25
224.338	-18.25
224.573	-9.25
224.808	-7.25
225.042	-7.25
225.277	-7.25
225.511	0.75
225.746	2.75
225.98	3.75
226.215	15.75
226.449	1.75
226.683	24.75
226.918	21.75
227.152	30.75
227.387	36.75
227.621	42.75
227.856	38.75
228.09	41.75
228.324	51.75
228.559	60.75
228.793	48.75
229.027	52.75
229.262	82.75
229.496	71.75
229.73	68.75
229.964	78.75
230.199	66.75
230.433	82.75
230.667	79.75
230.901	78.75
231.136	70.75
231.37	86.75
231.604	95.75
231.838	70.75
232.072	86.75
232.306	78.75
232.541	68.75
232.775	77.75
233.009	77.75
233.243	79.75
233.477	79.75
233.711	85.75
233.945	77.75
234.179	90.75
234.413	80.75
234.647	84.75
234.881	86.75
235.115	91.75
235.349	63.75
235.583	84.75
235.817	83.75
236.051	94.75
236.285	83.75
236.519	55.75
236.753	77.75
236.987	86.75
237.221	84.75
237.455	64.75
237.689	72.75
237.922	90.75
238.156	76.75
238.39	86.75
238.624	75.75
238.858	73.75
239.091	82.75
239.325	65.75
239.559	82.75
239.793	84.75
240.027	89.75
240.26	77.75
240.494	76.75
240.728	70.75
240.961	60.75
241.195	68.75
241.429	85.75
241.662	82.75
241.896	82.75
242.13	82.75
242.363	70.75
242.597	72.75
242.83	90.75
243.064	94.75
243.298	73.75
243.531	83.75
243.765	87.75
243.998	90.75
244.232	86.75
244.465	94.75
244.699	84.75
244.932	83.75
245.166	83.75
245.399	89.75
245.633	82.75
245.866	77.75
246.099	73.75
246.333	87.75
246.566	66.75
246.8	76.75
247.033	78.75
247.266	80.75
247.5	75.75
247.733	74.75
247.966	83.75
248.2	86.75
248.433	79.75
248.666	86.75
248.899	76.75
249.133	88.75
249.366	86.75
249.599	103.75
249.832	85.75
250.066	90.75
250.299	86.75
250.532	78.75
250.765	90.75
250.998	84.75
251.231	78.75
251.465	86.75
251.698	80.75
251.931	84.75
252.164	74.75
252.397	84.75
252.63	74.75
252.863	82.75
253.096	66.75
253.329	75.75
253.562	95.75
253.795	87.75
254.028	82.75
254.261	90.75
254.494	77.75
254.727	68.75
254.96	70.75
255.193	73.75
255.426	99.75
255.659	82.75
255.892	92.75
256.124	93.75
256.357	67.75
256.59	89.75
256.823	76.75
257.056	80.75
257.289	79.75
257.521	85.75
257.754	93.75
257.987	77.75
258.22	82.75
258.452	97.75
258.685	88.75
258.918	72.75
259.151	77.75
259.383	86.75
259.616	79.75
259.849	85.75
260.081	85.75
260.314	79.75
260.547	77.75
260.779	71.75
261.012	82.75
261.244	80.75
261.477	107.75
261.71	89.75
261.942	98.75
262.175	102.75
262.407	83.75
262.64	75.75
262.872	77.75
263.105	81.75
263.337	79.75
263.57	80.75
263.802	83.75
264.035	82.75
264.267	78.75
264.499	94.75
264.732	84.75
264.964	72.75
265.197	90.75
265.429	92.75
265.661	70.75
265.894	86.75
266.126	80.75
266.358	94.75
266.591	86.75
266.823	87.75
267.055	76.75
267.287	79.75
267.52	84.75
267.752	88.75
267.984	95.75
268.216	97.75
268.448	86.75
268.681	77.75
268.913	88.75
269.145	87.75
269.377	89.75
269.609	98.75
269.841	88.75
270.073	91.75
270.306	91.75
270.538	83.75
270.77	78.75
271.002	78.75
271.234	75.75
271.466	83.75
271.698	98.75
271.93	83.75
272.162	105.75
272.394	86.75
272.626	74.75
272.858	78.75
273.09	93.75
273.322	85.75
273.553	79.75
273.785	75.75
274.017	78.75
274.249	83.75
274.481	84.75
274.713	92.75
274.945	96.75
275.176	86.75
275.408	90.75
275.64	87.75
275.872	78.75
276.104	94.75
276.335	89.75
276.567	86.75
276.799	100.75
277.031	90.75
277.262	86.75
277.494	95.75
277.726	83.75
277.957	80.75
278.189	79.75
278.421	88.75
278.652	79.75
278.884	89.75
279.115	93.75
279.347	75.75
279.579	104.75
279.81	106.75
280.042	90.75
280.273	95.75
280.505	96.75
280.736	99.75
280.968	97.75
281.199	95.75
281.431	89.75
281.662	92.75
281.894	93.75
282.125	91.75
282.356	110.75
282.588	109.75
282.819	115.75
283.051	92.75
283.282	79.75
283.513	82.75
283.745	92.75
283.976	97.75
284.207	98.75
284.439	78.75
284.67	88.75
284.901	92.75
285.132	69.75
285.364	76.75
285.595	72.75
285.826	79.75
286.057	99.75
286.288	79.75
286.52	86.75
286.751	76.75
286.982	70.75
287.213	91.75
287.444	101.75
287.675	95.75
287.906	87.75
288.138	84.75
288.369	100.75
288.6	87.75
288.831	80.75
289.062	83.75
289.293	94.75
289.524	86.75
289.755	85.75
289.986	94.75
290.217	92.75
290.448	73.75
290.679	90.75
290.91	97.75
291.141	79.75
291.371	78.75
291.602	87.75
291.833	98.75
292.064	95.75
292.295	91.75
292.526	84.75
292.757	90.75
292.987	98.75
293.218	87.75
293.449	95.75
293.68	80.75
293.91	90.75
294.141	99.75
294.372	86.75
294.603	88.75
294.833	88.75
295.064	96.75
295.295	92.75
295.525	94.75
295.756	91.75
295.987	108.75
296.217	128.75
296.448	109.75
296.679	85.75
296.909	93.75
297.14	91.75
297.37	85.75
297.601	91.75
297.831	97.75
298.062	94.75
298.292	92.75
298.523	95.75
298.753	87.75
298.984	81.75
299.214	92.75
299.445	86.75
299.675	105.75
299.905	84.75
300.136	101.75
300.366	101.75
300.597	75.75
300.827	82.75
301.057	84.75
301.288	98.75
301.518	85.75
301.748	83.75
301.979	87.75
302.209	86.75
302.439	80.75
302.669	94.75
302.9	88.75
303.13	91.75
303.36	99.75
303.59	104.75
303.82	103.75
304.051	81.75
304.281	90.75
304.511	98.75
304.741	97.75
304.971	91.75
305.201	88.75
305.431	75.75
305.661	84.75
305.891	100.75
306.121	107.75
306.352	90.75
306.582	88.75
306.812	94.75
307.042	93.75
307.272	96.75
307.502	99.75
307.731	99.75
307.961	80.75
308.191	97.75
308.421	77.75
308.651	85.75
308.881	97.75
309.111	86.75
309.341	98.75
309.571	96.75
309.8	96.75
310.03	84.75
310.26	99.75
310.49	85.75
310.72	103.75
310.949	104.75
311.179	87.75
311.409	88.75
311.639	92.75
311.868	101.75
312.098	80.75
312.328	87.75
312.557	84.75
312.787	93.75
313.017	112.75
313.246	91.75
313.476	102.75
313.706	76.75
313.935	91.75
314.165	92.75
314.394	119.75
314.624	101.75
314.853	96.75
315.083	96.75
315.312	93.75
315.542	85.75
315.771	85.75
316.001	90.75
316.23	93.75
316.46	89.75
316.689	96.75
316.919	93.75
317.148	111.75
317.377	99.75
317.607	92.75
317.836	93.75
318.065	93.75
318.295	70.75
318.524	87.75
318.753	84.75
318.983	94.75
319.212	92.75
319.441	104.75
319.67	99.75
319.9	96.75
320.129	102.75
320.358	95.75
320.587	107.75
320.816	90.75
321.046	83.75
321.275	87.75
321.504	91.75
321.733	92.75
321.962	95.75
322.191	107.75
322.42	91.75
322.649	108.75
322.878	93.75
323.108	102.75
323.337	107.75
323.566	127.75
323.795	132.75
324.024	162.75
324.253	279.75
324.482	567.75
324.71	1188.75
324.939	1567.75
325.168	598.75
325.397	193.75
325.626	119.75
325.855	123.75
326.084	110.75
326.313	116.75
326.542	127.75
326.77	200.75
326.999	333.75
327.228	690.75
327.457	1261.75
327.686	1012.75
327.914	284.75
328.143	164.75
328.372	135.75
328.6	109.75
328.829	111.75
329.058	117.75
329.287	122.75
329.515	96.75
329.744	103.75
329.972	93.75
330.201	106.75
330.43	104.75
330.658	117.75
330.887	118.75
331.115	103.75
331.344	90.75
331.572	107.75
331.801	104.75
332.03	94.75
332.258	79.75
332.486	96.75
332.715	88.75
332.943	94.75
333.172	87.75
333.4	104.75
333.629	106.75
333.857	101.75
334.085	82.75
334.314	96.75
334.542	111.75
334.771	105.75
334.999	105.75
335.227	93.75
335.455	100.75
335.684	104.75
335.912	108.75
336.14	96.75
336.369	97.75
336.597	111.75
336.825	100.75
337.053	81.75
337.281	95.75
337.51	82.75
337.738	120.75
337.966	93.75
338.194	95.75
338.422	91.75
338.65	72.75
338.878	89.75
339.106	98.75
339.334	92.75
339.562	94.75
339.79	99.75
340.018	86.75
340.246	86.75
340.474	87.75
340.702	89.75
340.93	75.75
341.158	80.75
341.386	94.75
341.614	85.75
341.842	99.75
342.07	78.75
342.298	95.75
342.526	80.75
342.754	80.75
342.981	92.75
343.209	87.75
343.437	94.75
343.665	93.75
343.893	88.75
344.12	84.75
344.348	98.75
344.576	98.75
344.804	98.75
345.031	95.75
345.259	97.75
345.487	102.75
345.714	75.75
345.942	81.75
346.17	87.75
346.397	94.75
346.625	98.75
346.853	100.75
347.08	85.75
347.308	90.75
347.535	94.75
347.763	95.75
347.99	79.75
348.218	95.75
348.445	95.75
348.673	96.75
348.9	100.75
349.128	96.75
349.355	90.75
349.583	99.75
349.81	80.75
350.037	92.75
350.265	99.75
350.492	86.75
350.72	90.75
350.947	89.75
351.174	102.75
351.402	103.75
351.629	95.75
351.856	92.75
352.083	103.75
352.311	101.75
352.538	91.75
352.765	96.75
352.992	118.75
353.22	106.75
353.447	98.75
353.674	88.75
353.901	104.75
354.128	85.75
354.355	113.75
354.583	104.75
354.81	101.75
355.037	99.75
355.264	103.75
355.491	102.75
355.718	89.75
355.945	103.75
356.172	101.75
356.399	90.75
356.626	96.75
356.853	97.75
357.08	96.75
357.307	91.75
357.534	110.75
357.761	102.75
357.988	114.75
358.215	91.75
358.441	102.75
358.668	98.75
358.895	102.75
359.122	80.75
359.349	83.75
359.576	95.75
359.802	95.75
360.029	92.75
360.256	95.75
360.483	85.75
360.709	88.75
360.936	85.75
361.163	85.75
361.39	93.75
361.616	99.75
361.843	85.75
362.07	92.75
362.296	83.75
362.523	93.75
362.749	81.75
362.976	92.75
363.203	93.75
363.429	105.75
363.656	86.75
363.882	86.75
364.109	102.75
364.335	82.75
364.562	98.75
364.788	93.75
365.015	87.75
365.241	105.75
365.468	110.75
365.694	103.75
365.92	94.75
366.147	84.75
366.373	101.75
366.599	97.75
366.826	86.75
367.052	91.75
367.278	90.75
367.505	102.75
367.731	92.75
367.957	94.75
368.184	105.75
368.41	100.75
368.636	89.75
368.862	113.75
369.089	91.75
369.315	96.75
369.541	99.75
369.767	91.75
369.993	73.75
370.219	92.75
370.445	74.75
370.672	92.75
370.898	94.75
371.124	101.75
371.35	108.75
371.576	103.75
371.802	99.75
372.028	92.75
372.254	83.75
372.48	79.75
372.706	102.75
372.932	91.75
373.158	92.75
373.384	99.75
373.61	100.75
373.835	91.75
374.061	106.75
374.287	86.75
374.513	89.75
374.739	85.75
374.965	90.75
375.191	86.75
375.416	69.75
375.642	89.75
375.868	104.75
376.094	90.75
376.319	85.75
376.545	87.75
376.771	88.75
376.997	91.75
377.222	103.75
377.448	94.75
377.674	92.75
377.899	90.75
378.125	86.75
378.35	88.75
378.576	87.75
378.802	97.75
379.027	99.75
379.253	90.75
379.478	92.75
379.704	90.75
379.929	95.75
380.155	98.75
380.38	84.75
380.606	111.75
380.831	94.75
381.057	117.75
381.282	98.75
381.507	100.75
381.733	120.75
381.958	100.75
382.184	115.75
382.409	111.75
382.634	103.75
382.86	99.75
383.085	111.75
383.31	125.75
383.535	123.75
383.761	107.75
383.986	119.75
384.211	118.75
384.436	125.75
384.662	119.75
384.887	111.75
385.112	134.75
385.337	116.75
385.562	127.75
385.787	120.75
386.013	128.75
386.238	125.75
386.463	119.75
386.688	127.75
386.913	127.75
387.138	131.75
387.363	120.75
387.588	113.75
387.813	116.75
388.038	126.75
388.263	129.75
388.488	129.75
388.713	116.75
388.938	104.75
389.163	108.75
389.387	97.75
389.612	85.75
389.837	95.75
390.062	102.75
390.287	94.75
390.512	96.75
390.736	96.75
390.961	71.75
391.186	87.75
391.411	99.75
391.636	95.75
391.86	102.75
392.085	89.75
392.31	92.75
392.534	89.75
392.759	93.75
392.984	78.75
393.208	94.75
393.433	109.75
393.658	100.75
393.882	90.75
394.107	98.75
394.331	90.75
394.556	87.75
394.78	99.75
395.005	87.75
395.229	76.75
395.454	86.75
395.678	89.75
395.903	69.75
396.127	81.75
396.352	87.75
396.576	88.75
396.801	102.75
397.025	98.75
397.249	96.75
397.474	105.75
397.698	83.75
397.922	97.75
398.147	93.75
398.371	83.75
398.595	88.75
398.82	86.75
399.044	91.75
399.268	75.75
399.492	86.75
399.717	87.75
399.941	96.75
400.165	92.75
400.389	83.75
400.613	78.75
400.837	98.75
401.062	94.75
401.286	85.75
401.51	90.75
401.734	96.75
401.958	92.75
402.182	116.75
402.406	118.75
402.63	117.75
402.854	99.75
403.078	96.75
403.302	89.75
403.526	81.75
403.75	79.75
403.974	94.75
404.198	94.75
404.422	79.75
404.645	96.75
404.869	95.75
405.093	86.75
405.317	104.75
405.541	91.75
405.765	100.75
405.988	109.75
406.212	140.75
406.436	167.75
406.66	115.75
406.883	88.75
407.107	87.75
407.331	106.75
407.555	95.75
407.778	93.75
408.002	103.75
408.226	93.75
408.449	102.75
408.673	86.75
408.896	92.75
409.12	90.75
409.344	86.75
409.567	87.75
409.791	93.75
410.014	107.75
410.238	92.75
410.461	95.75
410.685	85.75
410.908	92.75
411.132	102.75
411.355	89.75
411.578	102.75
411.802	96.75
412.025	96.75
412.249	89.75
412.472	90.75
412.695	93.75
412.919	93.75
413.142	90.75
413.365	90.75
413.589	85.75
413.812	98.75
414.035	96.75
414.258	101.75
414.482	89.75
414.705	98.75
414.928	77.75
415.151	91.75
415.374	87.75
415.597	94.75
415.821	90.75
416.044	78.75
416.267	90.75
416.49	79.75
416.713	90.75
416.936	83.75
417.159	86.75
417.382	95.75
417.605	84.75
417.828	78.75
418.051	96.75
418.274	86.75
418.497	90.75
418.72	87.75
418.943	86.75
419.166	98.75
419.389	99.75
419.611	79.75
419.834	86.75
420.057	92.75
420.28	102.75
420.503	87.75
420.726	94.75
420.948	94.75
421.171	79.75
421.394	95.75
421.617	92.75
421.839	85.75
422.062	104.75
422.285	88.75
422.507	94.75
422.73	84.75
422.953	95.75
423.175	102.75
423.398	94.75
423.621	91.75
423.843	96.75
424.066	91.75
424.288	67.75
424.511	92.75
424.733	87.75
424.956	102.75
425.178	83.75
425.401	106.75
425.623	91.75
425.846	97.75
426.068	91.75
426.291	92.75
426.513	104.75
426.735	102.75
426.958	84.75
427.18	96.75
427.402	122.75
427.625	119.75
427.847	112.75
428.069	107.75
428.292	92.75
428.514	82.75
428.736	84.75
428.958	85.75
429.181	72.75
429.403	76.75
429.625	89.75
429.847	85.75
430.069	88.75
430.292	86.75
430.514	84.75
430.736	77.75
430.958	81.75
431.18	95.75
431.402	80.75
431.624	86.75
431.846	86.75
432.068	94.75
432.29	88.75
432.512	91.75
432.734	88.75
432.956	103.75
433.178	104.75
433.4	100.75
433.622	98.75
433.844	104.75
434.066	88.75
434.287	101.75
434.509	85.75
434.731	93.75
434.953	93.75
435.175	75.75
435.397	86.75
435.618	87.75
435.84	91.75
436.062	122.75
436.284	108.75
436.505	86.75
436.727	97.75
436.949	105.75
437.17	87.75
437.392	92.75
437.614	83.75
437.835	82.75
438.057	103.75
438.278	95.75
438.5	94.75
438.721	114.75
438.943	74.75
439.165	82.75
439.386	87.75
439.608	100.75
439.829	82.75
440.05	100.75
440.272	102.75
440.493	92.75
440.715	107.75
440.936	93.75
441.158	92.75
441.379	91.75
441.6	92.75
441.822	81.75
442.043	87.75
442.264	96.75
442.486	86.75
442.707	90.75
442.928	107.75
443.149	104.75
443.371	106.75
443.592	94.75
443.813	97.75
444.034	86.75
444.255	99.75
444.476	81.75
444.698	83.75
444.919	82.75
445.14	131.75
445.361	113.75
445.582	105.75
445.803	114.75
446.024	108.75
446.245	113.75
446.466	103.75
446.687	102.75
446.908	82.75
447.129	68.75
447.35	95.75
447.571	84.75
447.792	93.75
448.013	96.75
448.234	103.75
448.455	105.75
448.675	98.75
448.896	104.75
449.117	99.75
449.338	97.75
449.559	118.75
449.779	119.75
450	95.75
450.221	79.75
450.442	98.75
450.662	98.75
450.883	91.75
451.104	98.75
451.324	86.75
451.545	85.75
451.766	86.75
451.986	95.75
452.207	94.75
452.428	87.75
452.648	104.75
452.869	104.75
453.089	107.75
453.31	100.75
453.53	89.75
453.751	82.75
453.971	88.75
454.192	86.75
454.412	91.75
454.633	78.75
454.853	90.75
455.073	82.75
455.294	88.75
455.514	107.75
455.734	86.75
455.955	74.75
456.175	77.75
456.395	88.75
456.616	86.75
456.836	90.75
457.056	77.75
457.276	83.75
457.497	70.75
457.717	81.75
457.937	86.75
458.157	95.75
458.377	98.75
458.598	93.75
458.818	110.75
459.038	123.75
459.258	106.75
459.478	84.75
459.698	70.75
459.918	77.75
460.138	96.75
460.358	94.75
460.578	87.75
460.798	79.75
461.018	97.75
461.238	77.75
461.458	84.75
461.678	77.75
461.898	89.75
462.118	104.75
462.338	85.75
462.558	76.75
462.777	86.75
462.997	87.75
463.217	74.75
463.437	75.75
463.657	90.75
463.876	95.75
464.096	80.75
464.316	80.75
464.536	89.75
464.755	88.75
464.975	99.75
465.195	139.75
465.414	119.75
465.634	89.75
465.854	77.75
466.073	90.75
466.293	78.75
466.512	84.75
466.732	91.75
466.951	95.75
467.171	99.75
467.391	91.75
467.61	82.75
467.829	88.75
468.049	95.75
468.268	111.75
468.488	102.75
468.707	94.75
468.927	71.75
469.146	86.75
469.365	71.75
469.585	95.75
469.804	92.75
470.023	90.75
470.243	90.75
470.462	85.75
470.681	85.75
470.901	83.75
471.12	101.75
471.339	101.75
471.558	90.75
471.777	82.75
471.997	99.75
472.216	105.75
472.435	111.75
472.654	89.75
472.873	89.75
473.092	92.75
473.311	70.75
473.53	76.75
473.749	82.75
473.968	105.75
474.187	97.75
474.406	97.75
474.625	97.75
474.844	86.75
475.063	72.75
475.282	80.75
475.501	90.75
475.72	88.75
475.939	72.75
476.158	84.75
476.377	101.75
476.596	78.75
476.814	96.75
477.033	95.75
477.252	90.75
477.471	78.75
477.69	88.75
477.908	83.75
478.127	86.75
478.346	100.75
478.564	86.75
478.783	69.75
479.002	93.75
479.22	96.75
479.439	92.75
479.658	97.75
479.876	89.75
480.095	98.75
480.313	95.75
480.532	99.75
480.751	91.75
480.969	114.75
481.188	170.75
481.406	132.75
481.624	88.75
481.843	96.75
482.061	91.75
482.28	83.75
482.498	77.75
482.717	89.75
482.935	85.75
483.153	86.75
483.372	92.75
483.59	85.75
483.808	87.75
484.027	87.75
484.245	90.75
484.463	90.75
484.681	101.75
484.9	86.75
485.118	87.75
485.336	101.75
485.554	103.75
485.772	116.75
485.99	106.75
486.209	90.75
486.427	109.75
486.645	100.75
486.863	108.75
487.081	115.75
487.299	118.75
487.517	93.75
487.735	98.75
487.953	99.75
488.171	102.75
488.389	93.75
488.607	98.75
488.825	92.75
489.043	99.75
489.261	95.75
489.479	86.75
489.696	93.75
489.914	94.75
490.132	93.75
490.35	73.75
490.568	87.75
490.786	95.75
491.003	92.75
491.221	83.75
491.439	94.75
491.657	106.75
491.874	84.75
492.092	100.75
492.31	92.75
492.527	111.75
492.745	100.75
492.963	95.75
493.18	94.75
493.398	109.75
493.615	102.75
493.833	81.75
494.05	84.75
494.268	94.75
494.485	90.75
494.703	100.75
494.92	101.75
495.138	81.75
495.355	84.75
495.573	86.75
495.79	100.75
496.008	101.75
496.225	82.75
496.442	82.75
496.66	90.75
496.877	86.75
497.094	96.75
497.312	94.75
497.529	93.75
497.746	80.75
497.963	90.75
498.181	93.75
498.398	87.75
498.615	106.75
498.832	84.75
499.049	94.75
499.267	80.75
499.484	97.75
499.701	96.75
499.918	102.75
500.135	78.75
500.352	91.75
500.569	94.75
500.786	90.75
501.003	94.75
501.22	104.75
501.437	84.75
501.654	98.75
501.871	102.75
502.088	98.75
502.305	86.75
502.522	88.75
502.739	89.75
502.956	92.75
503.172	91.75
503.389	77.75
503.606	88.75
503.823	89.75
504.04	90.75
504.256	94.75
504.473	97.75
504.69	96.75
504.907	93.75
505.123	94.75
505.34	79.75
505.557	99.75
505.773	85.75
505.99	76.75
506.207	94.75
506.423	98.75
506.64	90.75
506.856	79.75
507.073	95.75
507.289	93.75
507.506	79.75
507.722	96.75
507.939	96.75
508.155	79.75
508.372	89.75
508.588	97.75
508.805	95.75
509.021	88.75
509.238	96.75
509.454	103.75
509.67	86.75
509.887	115.75
510.103	113.75
510.319	177.75
510.536	496.75
510.752	1509.75
510.968	445.75
511.184	144.75
511.401	100.75
511.617	94.75
511.833	85.75
512.049	87.75
512.265	89.75
512.481	91.75
512.698	88.75
512.914	87.75
513.13	92.75
513.346	95.75
513.562	98.75
513.778	91.75
513.994	95.75
514.21	90.75
514.426	102.75
514.642	106.75
514.858	102.75
515.074	134.75
515.29	304.75
515.506	914.75
515.721	353.75
515.937	121.75
516.153	105.75
