Data from Circ_1980_H10_HRD10591_00071.txt Node
Date: Wed Jan 03 12:38:12 EST 2024
User: Yrep
Spectrometer: HR+D1059
Trigger mode: 1
Integration Time (sec): 1.000000E-1
Scans to average: 1
Electric dark correction enabled: true
Nonlinearity correction enabled: false
Boxcar width: 0
XAxis mode: Wavelengths
Number of Pixels in Spectrum: 2048
>>>>>Begin Spectral Data<<<<<
223.165	-20.38
223.4	-20.38
223.635	-20.38
223.869	-6.38
224.104	-27.38
224.338	-8.38
224.573	-6.38
224.808	-16.38
225.042	-14.38
225.277	-17.38
225.511	-6.38
225.746	11.62
225.98	14.62
226.215	7.62
226.449	9.62
226.683	29.62
226.918	29.62
227.152	20.62
227.387	36.62
227.621	46.62
227.856	51.62
228.09	48.62
228.324	63.62
228.559	48.62
228.793	54.62
229.027	58.62
229.262	62.62
229.496	62.62
229.73	66.62
229.964	86.62
230.199	61.62
230.433	77.62
230.667	85.62
230.901	76.62
231.136	81.62
231.37	77.62
231.604	83.62
231.838	76.62
232.072	78.62
232.306	71.62
232.541	77.62
232.775	82.62
233.009	83.62
233.243	91.62
233.477	78.62
233.711	93.62
233.945	87.62
234.179	91.62
234.413	90.62
234.647	70.62
234.881	77.62
235.115	81.62
235.349	82.62
235.583	77.62
235.817	82.62
236.051	71.62
236.285	85.62
236.519	89.62
236.753	76.62
236.987	85.62
237.221	78.62
237.455	90.62
237.689	88.62
237.922	70.62
238.156	77.62
238.39	77.62
238.624	60.62
238.858	77.62
239.091	70.62
239.325	75.62
239.559	86.62
239.793	73.62
240.027	73.62
240.26	79.62
240.494	83.62
240.728	69.62
240.961	51.62
241.195	86.62
241.429	76.62
241.662	83.62
241.896	82.62
242.13	78.62
242.363	77.62
242.597	82.62
242.83	73.62
243.064	75.62
243.298	81.62
243.531	80.62
243.765	65.62
243.998	79.62
244.232	72.62
244.465	67.62
244.699	84.62
244.932	61.62
245.166	84.62
245.399	73.62
245.633	72.62
245.866	75.62
246.099	88.62
246.333	67.62
246.566	67.62
246.8	74.62
247.033	69.62
247.266	69.62
247.5	82.62
247.733	76.62
247.966	71.62
248.2	91.62
248.433	105.62
248.666	83.62
248.899	73.62
249.133	83.62
249.366	94.62
249.599	98.62
249.832	78.62
250.066	65.62
250.299	81.62
250.532	68.62
250.765	91.62
250.998	65.62
251.231	81.62
251.465	73.62
251.698	78.62
251.931	76.62
252.164	72.62
252.397	78.62
252.63	89.62
252.863	65.62
253.096	74.62
253.329	74.62
253.562	81.62
253.795	81.62
254.028	78.62
254.261	73.62
254.494	82.62
254.727	83.62
254.96	82.62
255.193	70.62
255.426	85.62
255.659	61.62
255.892	97.62
256.124	83.62
256.357	85.62
256.59	73.62
256.823	66.62
257.056	67.62
257.289	90.62
257.521	97.62
257.754	72.62
257.987	81.62
258.22	89.62
258.452	77.62
258.685	73.62
258.918	85.62
259.151	67.62
259.383	76.62
259.616	85.62
259.849	85.62
260.081	90.62
260.314	88.62
260.547	82.62
260.779	82.62
261.012	75.62
261.244	84.62
261.477	92.62
261.71	82.62
261.942	102.62
262.175	116.62
262.407	89.62
262.64	83.62
262.872	92.62
263.105	81.62
263.337	85.62
263.57	74.62
263.802	83.62
264.035	84.62
264.267	89.62
264.499	79.62
264.732	69.62
264.964	98.62
265.197	80.62
265.429	83.62
265.661	104.62
265.894	88.62
266.126	78.62
266.358	62.62
266.591	83.62
266.823	104.62
267.055	85.62
267.287	73.62
267.52	88.62
267.752	83.62
267.984	93.62
268.216	96.62
268.448	95.62
268.681	76.62
268.913	81.62
269.145	79.62
269.377	94.62
269.609	90.62
269.841	77.62
270.073	85.62
270.306	94.62
270.538	89.62
270.77	86.62
271.002	84.62
271.234	90.62
271.466	89.62
271.698	89.62
271.93	83.62
272.162	87.62
272.394	90.62
272.626	97.62
272.858	94.62
273.09	76.62
273.322	83.62
273.553	81.62
273.785	70.62
274.017	75.62
274.249	91.62
274.481	64.62
274.713	84.62
274.945	78.62
275.176	75.62
275.408	88.62
275.64	86.62
275.872	84.62
276.104	98.62
276.335	91.62
276.567	86.62
276.799	100.62
277.031	100.62
277.262	76.62
277.494	73.62
277.726	85.62
277.957	75.62
278.189	92.62
278.421	92.62
278.652	81.62
278.884	79.62
279.115	87.62
279.347	72.62
279.579	86.62
279.81	84.62
280.042	78.62
280.273	95.62
280.505	82.62
280.736	96.62
280.968	93.62
281.199	88.62
281.431	88.62
281.662	93.62
281.894	94.62
282.125	89.62
282.356	100.62
282.588	129.62
282.819	116.62
283.051	99.62
283.282	93.62
283.513	94.62
283.745	71.62
283.976	82.62
284.207	70.62
284.439	91.62
284.67	73.62
284.901	89.62
285.132	79.62
285.364	89.62
285.595	85.62
285.826	89.62
286.057	93.62
286.288	97.62
286.52	87.62
286.751	79.62
286.982	94.62
287.213	73.62
287.444	98.62
287.675	79.62
287.906	91.62
288.138	90.62
288.369	77.62
288.6	89.62
288.831	73.62
289.062	97.62
289.293	83.62
289.524	94.62
289.755	74.62
289.986	84.62
290.217	87.62
290.448	93.62
290.679	88.62
290.91	97.62
291.141	86.62
291.371	82.62
291.602	91.62
291.833	75.62
292.064	86.62
292.295	90.62
292.526	84.62
292.757	102.62
292.987	89.62
293.218	82.62
293.449	83.62
293.68	82.62
293.91	97.62
294.141	80.62
294.372	86.62
294.603	82.62
294.833	89.62
295.064	93.62
295.295	86.62
295.525	81.62
295.756	89.62
295.987	118.62
296.217	137.62
296.448	101.62
296.679	97.62
296.909	87.62
297.14	94.62
297.37	95.62
297.601	98.62
297.831	105.62
298.062	85.62
298.292	89.62
298.523	89.62
298.753	82.62
298.984	83.62
299.214	93.62
299.445	94.62
299.675	92.62
299.905	86.62
300.136	86.62
300.366	90.62
300.597	76.62
300.827	98.62
301.057	97.62
301.288	105.62
301.518	98.62
301.748	98.62
301.979	102.62
302.209	82.62
302.439	76.62
302.669	78.62
302.9	90.62
303.13	86.62
303.36	92.62
303.59	106.62
303.82	76.62
304.051	88.62
304.281	102.62
304.511	92.62
304.741	101.62
304.971	81.62
305.201	92.62
305.431	91.62
305.661	78.62
305.891	84.62
306.121	90.62
306.352	103.62
306.582	104.62
306.812	92.62
307.042	91.62
307.272	78.62
307.502	93.62
307.731	105.62
307.961	86.62
308.191	78.62
308.421	93.62
308.651	87.62
308.881	83.62
309.111	93.62
309.341	89.62
309.571	82.62
309.8	86.62
310.03	95.62
310.26	82.62
310.49	98.62
310.72	90.62
310.949	91.62
311.179	96.62
311.409	94.62
311.639	107.62
311.868	98.62
312.098	85.62
312.328	83.62
312.557	84.62
312.787	88.62
313.017	99.62
313.246	95.62
313.476	87.62
313.706	100.62
313.935	93.62
314.165	90.62
314.394	94.62
314.624	99.62
314.853	91.62
315.083	85.62
315.312	94.62
315.542	79.62
315.771	81.62
316.001	87.62
316.23	88.62
316.46	72.62
316.689	99.62
316.919	92.62
317.148	92.62
317.377	78.62
317.607	87.62
317.836	93.62
318.065	88.62
318.295	77.62
318.524	93.62
318.753	94.62
318.983	83.62
319.212	110.62
319.441	99.62
319.67	95.62
319.9	80.62
320.129	93.62
320.358	82.62
320.587	85.62
320.816	106.62
321.046	106.62
321.275	111.62
321.504	88.62
321.733	85.62
321.962	95.62
322.191	92.62
322.42	89.62
322.649	106.62
322.878	109.62
323.108	120.62
323.337	121.62
323.566	125.62
323.795	140.62
324.024	160.62
324.253	314.62
324.482	632.62
324.71	1236.62
324.939	1643.62
325.168	626.62
325.397	193.62
325.626	131.62
325.855	126.62
326.084	108.62
326.313	106.62
326.542	137.62
326.77	197.62
326.999	371.62
327.228	732.62
327.457	1285.62
327.686	1044.62
327.914	291.62
328.143	154.62
328.372	134.62
328.6	118.62
328.829	90.62
329.058	108.62
329.287	116.62
329.515	110.62
329.744	97.62
329.972	97.62
330.201	102.62
330.43	135.62
330.658	118.62
330.887	130.62
331.115	97.62
331.344	95.62
331.572	91.62
331.801	92.62
332.03	94.62
332.258	74.62
332.486	87.62
332.715	97.62
332.943	103.62
333.172	82.62
333.4	110.62
333.629	91.62
333.857	97.62
334.085	85.62
334.314	111.62
334.542	134.62
334.771	121.62
334.999	97.62
335.227	103.62
335.455	101.62
335.684	97.62
335.912	89.62
336.14	90.62
336.369	100.62
336.597	89.62
336.825	86.62
337.053	97.62
337.281	101.62
337.51	89.62
337.738	91.62
337.966	71.62
338.194	95.62
338.422	103.62
338.65	105.62
338.878	98.62
339.106	90.62
339.334	109.62
339.562	85.62
339.79	91.62
340.018	92.62
340.246	89.62
340.474	94.62
340.702	69.62
340.93	87.62
341.158	86.62
341.386	101.62
341.614	85.62
341.842	92.62
342.07	80.62
342.298	86.62
342.526	95.62
342.754	82.62
342.981	114.62
343.209	92.62
343.437	101.62
343.665	98.62
343.893	85.62
344.12	97.62
344.348	98.62
344.576	82.62
344.804	85.62
345.031	92.62
345.259	97.62
345.487	84.62
345.714	84.62
345.942	94.62
346.17	89.62
346.397	85.62
346.625	99.62
346.853	82.62
347.08	88.62
347.308	95.62
347.535	104.62
347.763	95.62
347.99	94.62
348.218	99.62
348.445	89.62
348.673	93.62
348.9	104.62
349.128	105.62
349.355	98.62
349.583	104.62
349.81	79.62
350.037	104.62
350.265	95.62
350.492	98.62
350.72	93.62
350.947	93.62
351.174	97.62
351.402	103.62
351.629	91.62
351.856	106.62
352.083	89.62
352.311	93.62
352.538	110.62
352.765	102.62
352.992	107.62
353.22	110.62
353.447	98.62
353.674	109.62
353.901	106.62
354.128	102.62
354.355	81.62
354.583	100.62
354.81	94.62
355.037	94.62
355.264	108.62
355.491	98.62
355.718	98.62
355.945	101.62
356.172	97.62
356.399	90.62
356.626	106.62
356.853	93.62
357.08	97.62
357.307	85.62
357.534	101.62
357.761	98.62
357.988	90.62
358.215	92.62
358.441	89.62
358.668	89.62
358.895	100.62
359.122	90.62
359.349	102.62
359.576	89.62
359.802	115.62
360.029	120.62
360.256	106.62
360.483	77.62
360.709	90.62
360.936	78.62
361.163	104.62
361.39	89.62
361.616	101.62
361.843	94.62
362.07	91.62
362.296	89.62
362.523	84.62
362.749	91.62
362.976	95.62
363.203	76.62
363.429	84.62
363.656	90.62
363.882	95.62
364.109	93.62
364.335	104.62
364.562	78.62
364.788	86.62
365.015	90.62
365.241	98.62
365.468	100.62
365.694	101.62
365.92	76.62
366.147	84.62
366.373	85.62
366.599	86.62
366.826	84.62
367.052	90.62
367.278	87.62
367.505	92.62
367.731	95.62
367.957	100.62
368.184	77.62
368.41	92.62
368.636	109.62
368.862	123.62
369.089	126.62
369.315	101.62
369.541	101.62
369.767	102.62
369.993	101.62
370.219	89.62
370.445	84.62
370.672	88.62
370.898	96.62
371.124	87.62
371.35	94.62
371.576	78.62
371.802	100.62
372.028	87.62
372.254	82.62
372.48	104.62
372.706	101.62
372.932	87.62
373.158	82.62
373.384	89.62
373.61	94.62
373.835	85.62
374.061	100.62
374.287	58.62
374.513	79.62
374.739	89.62
374.965	94.62
375.191	88.62
375.416	85.62
375.642	86.62
375.868	99.62
376.094	87.62
376.319	86.62
376.545	82.62
376.771	88.62
376.997	99.62
377.222	91.62
377.448	105.62
377.674	92.62
377.899	83.62
378.125	80.62
378.35	85.62
378.576	100.62
378.802	93.62
379.027	88.62
379.253	107.62
379.478	79.62
379.704	87.62
379.929	90.62
380.155	89.62
380.38	75.62
380.606	93.62
380.831	89.62
381.057	94.62
381.282	93.62
381.507	85.62
381.733	91.62
381.958	96.62
382.184	86.62
382.409	90.62
382.634	81.62
382.86	102.62
383.085	102.62
383.31	78.62
383.535	101.62
383.761	101.62
383.986	93.62
384.211	99.62
384.436	89.62
384.662	105.62
384.887	102.62
385.112	94.62
385.337	107.62
385.562	111.62
385.787	107.62
386.013	89.62
386.238	104.62
386.463	105.62
386.688	116.62
386.913	102.62
387.138	111.62
387.363	108.62
387.588	111.62
387.813	109.62
388.038	103.62
388.263	117.62
388.488	101.62
388.713	90.62
388.938	85.62
389.163	91.62
389.387	95.62
389.612	99.62
389.837	75.62
390.062	98.62
390.287	97.62
390.512	104.62
390.736	77.62
390.961	69.62
391.186	106.62
391.411	83.62
391.636	81.62
391.86	79.62
392.085	72.62
392.31	85.62
392.534	91.62
392.759	92.62
392.984	94.62
393.208	76.62
393.433	82.62
393.658	86.62
393.882	90.62
394.107	74.62
394.331	84.62
394.556	92.62
394.78	85.62
395.005	83.62
395.229	99.62
395.454	86.62
395.678	98.62
395.903	87.62
396.127	80.62
396.352	96.62
396.576	82.62
396.801	91.62
397.025	86.62
397.249	92.62
397.474	73.62
397.698	69.62
397.922	91.62
398.147	81.62
398.371	85.62
398.595	83.62
398.82	92.62
399.044	90.62
399.268	97.62
399.492	89.62
399.717	87.62
399.941	91.62
400.165	84.62
400.389	92.62
400.613	92.62
400.837	66.62
401.062	105.62
401.286	90.62
401.51	87.62
401.734	106.62
401.958	91.62
402.182	118.62
402.406	135.62
402.63	118.62
402.854	78.62
403.078	105.62
403.302	92.62
403.526	89.62
403.75	77.62
403.974	86.62
404.198	67.62
404.422	106.62
404.645	92.62
404.869	85.62
405.093	86.62
405.317	100.62
405.541	94.62
405.765	97.62
405.988	100.62
406.212	141.62
406.436	176.62
406.66	141.62
406.883	101.62
407.107	101.62
407.331	99.62
407.555	101.62
407.778	75.62
408.002	80.62
408.226	100.62
408.449	91.62
408.673	68.62
408.896	76.62
409.12	91.62
409.344	88.62
409.567	83.62
409.791	84.62
410.014	86.62
410.238	89.62
410.461	106.62
410.685	93.62
410.908	98.62
411.132	101.62
411.355	98.62
411.578	81.62
411.802	99.62
412.025	94.62
412.249	76.62
412.472	94.62
412.695	94.62
412.919	101.62
413.142	81.62
413.365	86.62
413.589	79.62
413.812	79.62
414.035	94.62
414.258	94.62
414.482	85.62
414.705	85.62
414.928	90.62
415.151	87.62
415.374	85.62
415.597	93.62
415.821	98.62
416.044	75.62
416.267	98.62
416.49	82.62
416.713	92.62
416.936	89.62
417.159	79.62
417.382	87.62
417.605	89.62
417.828	67.62
418.051	95.62
418.274	75.62
418.497	83.62
418.72	99.62
418.943	76.62
419.166	92.62
419.389	78.62
419.611	87.62
419.834	89.62
420.057	98.62
420.28	102.62
420.503	82.62
420.726	84.62
420.948	86.62
421.171	96.62
421.394	90.62
421.617	89.62
421.839	94.62
422.062	91.62
422.285	79.62
422.507	106.62
422.73	105.62
422.953	101.62
423.175	92.62
423.398	91.62
423.621	85.62
423.843	85.62
424.066	65.62
424.288	82.62
424.511	81.62
424.733	100.62
424.956	106.62
425.178	95.62
425.401	94.62
425.623	89.62
425.846	89.62
426.068	86.62
426.291	87.62
426.513	69.62
426.735	85.62
426.958	81.62
427.18	97.62
427.402	114.62
427.625	136.62
427.847	107.62
428.069	88.62
428.292	91.62
428.514	79.62
428.736	94.62
428.958	91.62
429.181	101.62
429.403	79.62
429.625	81.62
429.847	88.62
430.069	99.62
430.292	99.62
430.514	81.62
430.736	68.62
430.958	84.62
431.18	87.62
431.402	88.62
431.624	91.62
431.846	85.62
432.068	81.62
432.29	78.62
432.512	65.62
432.734	72.62
432.956	90.62
433.178	103.62
433.4	97.62
433.622	99.62
433.844	91.62
434.066	90.62
434.287	85.62
434.509	90.62
434.731	104.62
434.953	82.62
435.175	75.62
435.397	77.62
435.618	79.62
435.84	98.62
436.062	105.62
436.284	103.62
436.505	94.62
436.727	78.62
436.949	83.62
437.17	75.62
437.392	87.62
437.614	82.62
437.835	94.62
438.057	98.62
438.278	99.62
438.5	93.62
438.721	114.62
438.943	95.62
439.165	95.62
439.386	88.62
439.608	94.62
439.829	98.62
440.05	90.62
440.272	123.62
440.493	83.62
440.715	96.62
440.936	88.62
441.158	80.62
441.379	75.62
441.6	80.62
441.822	77.62
442.043	91.62
442.264	99.62
442.486	91.62
442.707	85.62
442.928	79.62
443.149	95.62
443.371	106.62
443.592	101.62
443.813	95.62
444.034	95.62
444.255	98.62
444.476	93.62
444.698	91.62
444.919	85.62
445.14	108.62
445.361	116.62
445.582	95.62
445.803	117.62
446.024	119.62
446.245	115.62
446.466	118.62
446.687	95.62
446.908	89.62
447.129	72.62
447.35	75.62
447.571	95.62
447.792	86.62
448.013	90.62
448.234	91.62
448.455	102.62
448.675	83.62
448.896	111.62
449.117	90.62
449.338	107.62
449.559	131.62
449.779	115.62
450	97.62
450.221	85.62
450.442	91.62
450.662	78.62
450.883	104.62
451.104	116.62
451.324	98.62
451.545	82.62
451.766	79.62
451.986	87.62
452.207	87.62
452.428	83.62
452.648	85.62
452.869	102.62
453.089	109.62
453.31	117.62
453.53	101.62
453.751	88.62
453.971	83.62
454.192	105.62
454.412	84.62
454.633	101.62
454.853	95.62
455.073	83.62
455.294	80.62
455.514	92.62
455.734	84.62
455.955	86.62
456.175	78.62
456.395	75.62
456.616	76.62
456.836	81.62
457.056	69.62
457.276	91.62
457.497	101.62
457.717	81.62
457.937	83.62
458.157	90.62
458.377	77.62
458.598	81.62
458.818	114.62
459.038	138.62
459.258	101.62
459.478	91.62
459.698	89.62
459.918	71.62
460.138	89.62
460.358	87.62
460.578	92.62
460.798	90.62
461.018	97.62
461.238	95.62
461.458	79.62
461.678	92.62
461.898	100.62
462.118	84.62
462.338	79.62
462.558	76.62
462.777	79.62
462.997	91.62
463.217	87.62
463.437	96.62
463.657	97.62
463.876	73.62
464.096	88.62
464.316	93.62
464.536	72.62
464.755	85.62
464.975	93.62
465.195	127.62
465.414	125.62
465.634	93.62
465.854	85.62
466.073	71.62
466.293	95.62
466.512	93.62
466.732	85.62
466.951	84.62
467.171	86.62
467.391	94.62
467.61	96.62
467.829	97.62
468.049	96.62
468.268	105.62
468.488	91.62
468.707	91.62
468.927	78.62
469.146	88.62
469.365	92.62
469.585	92.62
469.804	102.62
470.023	79.62
470.243	92.62
470.462	99.62
470.681	111.62
470.901	79.62
471.12	93.62
471.339	89.62
471.558	81.62
471.777	84.62
471.997	88.62
472.216	111.62
472.435	132.62
472.654	97.62
472.873	77.62
473.092	85.62
473.311	81.62
473.53	84.62
473.749	94.62
473.968	72.62
474.187	81.62
474.406	105.62
474.625	79.62
474.844	89.62
475.063	96.62
475.282	89.62
475.501	83.62
475.72	88.62
475.939	98.62
476.158	89.62
476.377	81.62
476.596	78.62
476.814	78.62
477.033	92.62
477.252	90.62
477.471	91.62
477.69	85.62
477.908	99.62
478.127	81.62
478.346	88.62
478.564	75.62
478.783	81.62
479.002	88.62
479.22	97.62
479.439	93.62
479.658	85.62
479.876	89.62
480.095	89.62
480.313	86.62
480.532	84.62
480.751	85.62
480.969	115.62
481.188	190.62
481.406	140.62
481.624	90.62
481.843	80.62
482.061	98.62
482.28	94.62
482.498	78.62
482.717	85.62
482.935	85.62
483.153	85.62
483.372	94.62
483.59	94.62
483.808	92.62
484.027	91.62
484.245	90.62
484.463	77.62
484.681	103.62
484.9	84.62
485.118	100.62
485.336	97.62
485.554	93.62
485.772	91.62
485.99	85.62
486.209	113.62
486.427	113.62
486.645	102.62
486.863	110.62
487.081	95.62
487.299	84.62
487.517	92.62
487.735	102.62
487.953	97.62
488.171	111.62
488.389	85.62
488.607	96.62
488.825	93.62
489.043	84.62
489.261	83.62
489.479	99.62
489.696	97.62
489.914	82.62
490.132	100.62
490.35	74.62
490.568	85.62
490.786	92.62
491.003	91.62
491.221	86.62
491.439	88.62
491.657	109.62
491.874	83.62
492.092	81.62
492.31	91.62
492.527	76.62
492.745	105.62
492.963	102.62
493.18	94.62
493.398	85.62
493.615	87.62
493.833	82.62
494.05	88.62
494.268	93.62
494.485	87.62
494.703	75.62
494.92	81.62
495.138	90.62
495.355	77.62
495.573	86.62
495.79	78.62
496.008	92.62
496.225	101.62
496.442	78.62
496.66	88.62
496.877	82.62
497.094	87.62
497.312	86.62
497.529	91.62
497.746	81.62
497.963	85.62
498.181	84.62
498.398	103.62
498.615	114.62
498.832	93.62
499.049	103.62
499.267	89.62
499.484	92.62
499.701	94.62
499.918	88.62
500.135	101.62
500.352	81.62
500.569	90.62
500.786	89.62
501.003	86.62
501.22	103.62
501.437	97.62
501.654	95.62
501.871	97.62
502.088	90.62
502.305	104.62
502.522	94.62
502.739	86.62
502.956	101.62
503.172	98.62
503.389	90.62
503.606	109.62
503.823	92.62
504.04	103.62
504.256	88.62
504.473	78.62
504.69	82.62
504.907	99.62
505.123	97.62
505.34	97.62
505.557	75.62
505.773	91.62
505.99	82.62
506.207	95.62
506.423	91.62
506.64	86.62
506.856	90.62
507.073	87.62
507.289	86.62
507.506	91.62
507.722	101.62
507.939	105.62
508.155	93.62
508.372	89.62
508.588	98.62
508.805	85.62
509.021	87.62
509.238	102.62
509.454	84.62
509.67	109.62
509.887	100.62
510.103	119.62
510.319	179.62
510.536	623.62
510.752	1823.62
510.968	518.62
511.184	139.62
511.401	78.62
511.617	100.62
511.833	105.62
512.049	101.62
512.265	90.62
512.481	91.62
512.698	83.62
512.914	90.62
513.13	86.62
513.346	83.62
513.562	97.62
513.778	98.62
513.994	103.62
514.21	89.62
514.426	103.62
514.642	108.62
514.858	121.62
515.074	143.62
515.29	347.62
515.506	1130.62
515.721	435.62
515.937	134.62
516.153	100.62
516.369	90.62
