Data from Circ_1980_H10_HRD10591_00073.txt Node
Date: Wed Jan 03 12:38:12 EST 2024
User: Yrep
Spectrometer: HR+D1059
Trigger mode: 1
Integration Time (sec): 1.000000E-1
Scans to average: 1
Electric dark correction enabled: true
Nonlinearity correction enabled: false
Boxcar width: 0
XAxis mode: Wavelengths
Number of Pixels in Spectrum: 2048
>>>>>Begin Spectral Data<<<<<
223.165	-15.62
223.4	-15.62
223.635	-15.62
223.869	-15.62
224.104	-9.62
224.338	-20.62
224.573	-13.62
224.808	-27.62
225.042	-1.62
225.277	2.38
225.511	6.38
225.746	-0.62
225.98	-0.62
226.215	12.38
226.449	11.38
226.683	14.38
226.918	28.38
227.152	30.38
227.387	28.38
227.621	33.38
227.856	49.38
228.09	50.38
228.324	53.38
228.559	67.38
228.793	64.38
229.027	55.38
229.262	62.38
229.496	79.38
229.73	50.38
229.964	70.38
230.199	59.38
230.433	82.38
230.667	86.38
230.901	90.38
231.136	82.38
231.37	81.38
231.604	80.38
231.838	86.38
232.072	93.38
232.306	75.38
232.541	85.38
232.775	63.38
233.009	80.38
233.243	81.38
233.477	73.38
233.711	69.38
233.945	74.38
234.179	88.38
234.413	83.38
234.647	89.38
234.881	75.38
235.115	87.38
235.349	66.38
235.583	79.38
235.817	88.38
236.051	77.38
236.285	86.38
236.519	75.38
236.753	68.38
236.987	74.38
237.221	86.38
237.455	87.38
237.689	77.38
237.922	79.38
238.156	86.38
238.39	74.38
238.624	63.38
238.858	59.38
239.091	79.38
239.325	66.38
239.559	76.38
239.793	80.38
240.027	74.38
240.26	72.38
240.494	68.38
240.728	84.38
240.961	67.38
241.195	82.38
241.429	92.38
241.662	72.38
241.896	68.38
242.13	83.38
242.363	64.38
242.597	70.38
242.83	84.38
243.064	77.38
243.298	72.38
243.531	66.38
243.765	82.38
243.998	89.38
244.232	75.38
244.465	69.38
244.699	77.38
244.932	76.38
245.166	76.38
245.399	74.38
245.633	74.38
245.866	82.38
246.099	89.38
246.333	82.38
246.566	70.38
246.8	80.38
247.033	92.38
247.266	65.38
247.5	69.38
247.733	80.38
247.966	92.38
248.2	65.38
248.433	83.38
248.666	89.38
248.899	75.38
249.133	76.38
249.366	88.38
249.599	90.38
249.832	91.38
250.066	76.38
250.299	102.38
250.532	80.38
250.765	82.38
250.998	80.38
251.231	94.38
251.465	68.38
251.698	79.38
251.931	78.38
252.164	84.38
252.397	78.38
252.63	60.38
252.863	89.38
253.096	75.38
253.329	83.38
253.562	85.38
253.795	71.38
254.028	83.38
254.261	89.38
254.494	71.38
254.727	84.38
254.96	78.38
255.193	73.38
255.426	68.38
255.659	66.38
255.892	73.38
256.124	91.38
256.357	74.38
256.59	89.38
256.823	76.38
257.056	76.38
257.289	66.38
257.521	81.38
257.754	86.38
257.987	71.38
258.22	80.38
258.452	87.38
258.685	93.38
258.918	98.38
259.151	84.38
259.383	76.38
259.616	80.38
259.849	86.38
260.081	78.38
260.314	77.38
260.547	93.38
260.779	88.38
261.012	86.38
261.244	69.38
261.477	88.38
261.71	78.38
261.942	94.38
262.175	109.38
262.407	97.38
262.64	79.38
262.872	76.38
263.105	83.38
263.337	69.38
263.57	71.38
263.802	78.38
264.035	86.38
264.267	91.38
264.499	87.38
264.732	88.38
264.964	74.38
265.197	84.38
265.429	76.38
265.661	84.38
265.894	75.38
266.126	77.38
266.358	81.38
266.591	74.38
266.823	76.38
267.055	82.38
267.287	82.38
267.52	82.38
267.752	83.38
267.984	75.38
268.216	77.38
268.448	75.38
268.681	76.38
268.913	94.38
269.145	82.38
269.377	76.38
269.609	81.38
269.841	85.38
270.073	90.38
270.306	76.38
270.538	91.38
270.77	69.38
271.002	82.38
271.234	83.38
271.466	92.38
271.698	74.38
271.93	84.38
272.162	85.38
272.394	89.38
272.626	90.38
272.858	75.38
273.09	91.38
273.322	97.38
273.553	86.38
273.785	78.38
274.017	90.38
274.249	83.38
274.481	86.38
274.713	86.38
274.945	95.38
275.176	79.38
275.408	93.38
275.64	89.38
275.872	77.38
276.104	112.38
276.335	96.38
276.567	91.38
276.799	99.38
277.031	92.38
277.262	90.38
277.494	85.38
277.726	78.38
277.957	76.38
278.189	82.38
278.421	85.38
278.652	90.38
278.884	88.38
279.115	80.38
279.347	74.38
279.579	87.38
279.81	83.38
280.042	82.38
280.273	83.38
280.505	96.38
280.736	79.38
280.968	92.38
281.199	73.38
281.431	86.38
281.662	79.38
281.894	98.38
282.125	87.38
282.356	92.38
282.588	126.38
282.819	100.38
283.051	85.38
283.282	80.38
283.513	91.38
283.745	96.38
283.976	85.38
284.207	86.38
284.439	77.38
284.67	80.38
284.901	91.38
285.132	74.38
285.364	84.38
285.595	87.38
285.826	72.38
286.057	97.38
286.288	79.38
286.52	95.38
286.751	98.38
286.982	79.38
287.213	95.38
287.444	82.38
287.675	78.38
287.906	95.38
288.138	85.38
288.369	100.38
288.6	80.38
288.831	77.38
289.062	85.38
289.293	89.38
289.524	105.38
289.755	90.38
289.986	104.38
290.217	88.38
290.448	88.38
290.679	79.38
290.91	91.38
291.141	72.38
291.371	99.38
291.602	100.38
291.833	74.38
292.064	96.38
292.295	89.38
292.526	84.38
292.757	62.38
292.987	98.38
293.218	91.38
293.449	83.38
293.68	85.38
293.91	83.38
294.141	93.38
294.372	72.38
294.603	76.38
294.833	94.38
295.064	86.38
295.295	74.38
295.525	94.38
295.756	104.38
295.987	106.38
296.217	105.38
296.448	104.38
296.679	95.38
296.909	86.38
297.14	79.38
297.37	86.38
297.601	79.38
297.831	78.38
298.062	83.38
298.292	91.38
298.523	75.38
298.753	82.38
298.984	80.38
299.214	92.38
299.445	92.38
299.675	97.38
299.905	98.38
300.136	80.38
300.366	91.38
300.597	97.38
300.827	92.38
301.057	97.38
301.288	86.38
301.518	101.38
301.748	83.38
301.979	105.38
302.209	82.38
302.439	94.38
302.669	90.38
302.9	71.38
303.13	78.38
303.36	84.38
303.59	89.38
303.82	92.38
304.051	85.38
304.281	81.38
304.511	80.38
304.741	78.38
304.971	73.38
305.201	85.38
305.431	95.38
305.661	90.38
305.891	86.38
306.121	88.38
306.352	100.38
306.582	111.38
306.812	96.38
307.042	88.38
307.272	91.38
307.502	98.38
307.731	85.38
307.961	95.38
308.191	85.38
308.421	87.38
308.651	100.38
308.881	109.38
309.111	91.38
309.341	97.38
309.571	93.38
309.8	90.38
310.03	89.38
310.26	92.38
310.49	104.38
310.72	87.38
310.949	91.38
311.179	89.38
311.409	84.38
311.639	101.38
311.868	94.38
312.098	91.38
312.328	98.38
312.557	103.38
312.787	80.38
313.017	86.38
313.246	104.38
313.476	87.38
313.706	94.38
313.935	106.38
314.165	93.38
314.394	107.38
314.624	71.38
314.853	92.38
315.083	84.38
315.312	85.38
315.542	84.38
315.771	93.38
316.001	80.38
316.23	90.38
316.46	90.38
316.689	82.38
316.919	74.38
317.148	90.38
317.377	82.38
317.607	71.38
317.836	96.38
318.065	97.38
318.295	90.38
318.524	78.38
318.753	93.38
318.983	79.38
319.212	84.38
319.441	98.38
319.67	96.38
319.9	90.38
320.129	85.38
320.358	100.38
320.587	84.38
320.816	100.38
321.046	102.38
321.275	93.38
321.504	93.38
321.733	91.38
321.962	94.38
322.191	94.38
322.42	99.38
322.649	103.38
322.878	102.38
323.108	98.38
323.337	110.38
323.566	124.38
323.795	131.38
324.024	154.38
324.253	293.38
324.482	606.38
324.71	1180.38
324.939	1556.38
325.168	592.38
325.397	201.38
325.626	134.38
325.855	124.38
326.084	124.38
326.313	119.38
326.542	120.38
326.77	179.38
326.999	345.38
327.228	687.38
327.457	1221.38
327.686	984.38
327.914	280.38
328.143	142.38
328.372	142.38
328.6	116.38
328.829	117.38
329.058	108.38
329.287	111.38
329.515	104.38
329.744	96.38
329.972	91.38
330.201	120.38
330.43	117.38
330.658	116.38
330.887	114.38
331.115	94.38
331.344	93.38
331.572	89.38
331.801	103.38
332.03	91.38
332.258	96.38
332.486	101.38
332.715	90.38
332.943	89.38
333.172	86.38
333.4	91.38
333.629	98.38
333.857	117.38
334.085	112.38
334.314	108.38
334.542	111.38
334.771	115.38
334.999	94.38
335.227	80.38
335.455	91.38
335.684	87.38
335.912	79.38
336.14	89.38
336.369	106.38
336.597	89.38
336.825	96.38
337.053	93.38
337.281	95.38
337.51	86.38
337.738	91.38
337.966	99.38
338.194	100.38
338.422	100.38
338.65	83.38
338.878	87.38
339.106	90.38
339.334	90.38
339.562	92.38
339.79	101.38
340.018	94.38
340.246	79.38
340.474	94.38
340.702	97.38
340.93	89.38
341.158	93.38
341.386	85.38
341.614	84.38
341.842	94.38
342.07	98.38
342.298	98.38
342.526	78.38
342.754	79.38
342.981	91.38
343.209	93.38
343.437	83.38
343.665	86.38
343.893	74.38
344.12	86.38
344.348	89.38
344.576	83.38
344.804	79.38
345.031	94.38
345.259	94.38
345.487	84.38
345.714	90.38
345.942	98.38
346.17	91.38
346.397	87.38
346.625	90.38
346.853	89.38
347.08	79.38
347.308	79.38
347.535	92.38
347.763	100.38
347.99	105.38
348.218	99.38
348.445	97.38
348.673	86.38
348.9	102.38
349.128	98.38
349.355	96.38
349.583	96.38
349.81	84.38
350.037	106.38
350.265	83.38
350.492	92.38
350.72	97.38
350.947	97.38
351.174	111.38
351.402	102.38
351.629	92.38
351.856	90.38
352.083	100.38
352.311	110.38
352.538	102.38
352.765	94.38
352.992	121.38
353.22	98.38
353.447	93.38
353.674	98.38
353.901	105.38
354.128	106.38
354.355	88.38
354.583	101.38
354.81	92.38
355.037	99.38
355.264	100.38
355.491	87.38
355.718	96.38
355.945	96.38
356.172	95.38
356.399	105.38
356.626	88.38
356.853	93.38
357.08	93.38
357.307	92.38
357.534	107.38
357.761	74.38
357.988	100.38
358.215	86.38
358.441	105.38
358.668	99.38
358.895	90.38
359.122	100.38
359.349	94.38
359.576	88.38
359.802	85.38
360.029	109.38
360.256	93.38
360.483	100.38
360.709	92.38
360.936	78.38
361.163	88.38
361.39	98.38
361.616	96.38
361.843	79.38
362.07	101.38
362.296	91.38
362.523	87.38
362.749	100.38
362.976	72.38
363.203	88.38
363.429	99.38
363.656	97.38
363.882	88.38
364.109	94.38
364.335	90.38
364.562	82.38
364.788	99.38
365.015	84.38
365.241	86.38
365.468	90.38
365.694	105.38
365.92	93.38
366.147	78.38
366.373	82.38
366.599	86.38
366.826	89.38
367.052	94.38
367.278	70.38
367.505	103.38
367.731	104.38
367.957	85.38
368.184	85.38
368.41	98.38
368.636	96.38
368.862	102.38
369.089	107.38
369.315	82.38
369.541	92.38
369.767	85.38
369.993	88.38
370.219	95.38
370.445	82.38
370.672	91.38
370.898	92.38
371.124	94.38
371.35	90.38
371.576	85.38
371.802	87.38
372.028	95.38
372.254	94.38
372.48	95.38
372.706	78.38
372.932	86.38
373.158	65.38
373.384	94.38
373.61	97.38
373.835	75.38
374.061	103.38
374.287	94.38
374.513	98.38
374.739	86.38
374.965	83.38
375.191	97.38
375.416	104.38
375.642	86.38
375.868	97.38
376.094	93.38
376.319	89.38
376.545	84.38
376.771	99.38
376.997	93.38
377.222	78.38
377.448	84.38
377.674	98.38
377.899	86.38
378.125	89.38
378.35	89.38
378.576	93.38
378.802	78.38
379.027	85.38
379.253	79.38
379.478	77.38
379.704	76.38
379.929	106.38
380.155	95.38
380.38	79.38
380.606	87.38
380.831	91.38
381.057	104.38
381.282	88.38
381.507	101.38
381.733	91.38
381.958	99.38
382.184	87.38
382.409	103.38
382.634	114.38
382.86	100.38
383.085	84.38
383.31	104.38
383.535	111.38
383.761	99.38
383.986	96.38
384.211	97.38
384.436	107.38
384.662	90.38
384.887	97.38
385.112	104.38
385.337	113.38
385.562	92.38
385.787	85.38
386.013	107.38
386.238	110.38
386.463	119.38
386.688	114.38
386.913	109.38
387.138	102.38
387.363	101.38
387.588	97.38
387.813	114.38
388.038	117.38
388.263	109.38
388.488	105.38
388.713	98.38
388.938	89.38
389.163	91.38
389.387	93.38
389.612	98.38
389.837	90.38
390.062	88.38
390.287	93.38
390.512	103.38
390.736	94.38
390.961	103.38
391.186	73.38
391.411	82.38
391.636	97.38
391.86	96.38
392.085	92.38
392.31	97.38
392.534	85.38
392.759	79.38
392.984	92.38
393.208	98.38
393.433	92.38
393.658	90.38
393.882	92.38
394.107	86.38
394.331	104.38
394.556	74.38
394.78	95.38
395.005	92.38
395.229	88.38
395.454	79.38
395.678	75.38
395.903	79.38
396.127	87.38
396.352	99.38
396.576	84.38
396.801	75.38
397.025	88.38
397.249	94.38
397.474	90.38
397.698	93.38
397.922	90.38
398.147	94.38
398.371	107.38
398.595	84.38
398.82	87.38
399.044	105.38
399.268	91.38
399.492	76.38
399.717	93.38
399.941	102.38
400.165	98.38
400.389	93.38
400.613	92.38
400.837	88.38
401.062	87.38
401.286	74.38
401.51	94.38
401.734	83.38
401.958	76.38
402.182	107.38
402.406	138.38
402.63	98.38
402.854	90.38
403.078	83.38
403.302	89.38
403.526	93.38
403.75	89.38
403.974	95.38
404.198	86.38
404.422	83.38
404.645	94.38
404.869	78.38
405.093	89.38
405.317	91.38
405.541	93.38
405.765	89.38
405.988	100.38
406.212	146.38
406.436	177.38
406.66	122.38
406.883	95.38
407.107	88.38
407.331	70.38
407.555	87.38
407.778	95.38
408.002	95.38
408.226	101.38
408.449	98.38
408.673	77.38
408.896	90.38
409.12	88.38
409.344	87.38
409.567	89.38
409.791	107.38
410.014	87.38
410.238	94.38
410.461	87.38
410.685	95.38
410.908	90.38
411.132	102.38
411.355	110.38
411.578	100.38
411.802	95.38
412.025	92.38
412.249	86.38
412.472	82.38
412.695	78.38
412.919	83.38
413.142	82.38
413.365	102.38
413.589	95.38
413.812	101.38
414.035	86.38
414.258	94.38
414.482	90.38
414.705	94.38
414.928	67.38
415.151	98.38
415.374	88.38
415.597	85.38
415.821	103.38
416.044	97.38
416.267	82.38
416.49	87.38
416.713	76.38
416.936	89.38
417.159	82.38
417.382	69.38
417.605	78.38
417.828	90.38
418.051	85.38
418.274	86.38
418.497	88.38
418.72	110.38
418.943	95.38
419.166	101.38
419.389	82.38
419.611	78.38
419.834	88.38
420.057	80.38
420.28	86.38
420.503	84.38
420.726	78.38
420.948	87.38
421.171	98.38
421.394	89.38
421.617	98.38
421.839	73.38
422.062	94.38
422.285	89.38
422.507	88.38
422.73	97.38
422.953	99.38
423.175	88.38
423.398	78.38
423.621	104.38
423.843	85.38
424.066	91.38
424.288	71.38
424.511	86.38
424.733	74.38
424.956	101.38
425.178	109.38
425.401	109.38
425.623	88.38
425.846	82.38
426.068	98.38
426.291	94.38
426.513	95.38
426.735	82.38
426.958	105.38
427.18	86.38
427.402	118.38
427.625	139.38
427.847	119.38
428.069	109.38
428.292	87.38
428.514	92.38
428.736	87.38
428.958	87.38
429.181	76.38
429.403	93.38
429.625	88.38
429.847	100.38
430.069	98.38
430.292	92.38
430.514	84.38
430.736	91.38
430.958	88.38
431.18	95.38
431.402	99.38
431.624	84.38
431.846	76.38
432.068	102.38
432.29	93.38
432.512	95.38
432.734	98.38
432.956	92.38
433.178	103.38
433.4	99.38
433.622	103.38
433.844	95.38
434.066	92.38
434.287	93.38
434.509	77.38
434.731	78.38
434.953	87.38
435.175	93.38
435.397	72.38
435.618	100.38
435.84	95.38
436.062	106.38
436.284	104.38
436.505	89.38
436.727	98.38
436.949	95.38
437.17	85.38
437.392	79.38
437.614	83.38
437.835	95.38
438.057	113.38
438.278	98.38
438.5	83.38
438.721	108.38
438.943	106.38
439.165	87.38
439.386	90.38
439.608	78.38
439.829	95.38
440.05	98.38
440.272	119.38
440.493	85.38
440.715	100.38
440.936	97.38
441.158	86.38
441.379	101.38
441.6	91.38
441.822	86.38
442.043	96.38
442.264	91.38
442.486	90.38
442.707	86.38
442.928	95.38
443.149	122.38
443.371	112.38
443.592	102.38
443.813	99.38
444.034	97.38
444.255	83.38
444.476	86.38
444.698	91.38
444.919	90.38
445.14	115.38
445.361	112.38
445.582	109.38
445.803	124.38
446.024	112.38
446.245	112.38
446.466	99.38
446.687	94.38
446.908	101.38
447.129	78.38
447.35	94.38
447.571	89.38
447.792	96.38
448.013	88.38
448.234	101.38
448.455	88.38
448.675	101.38
448.896	100.38
449.117	78.38
449.338	99.38
449.559	114.38
449.779	114.38
450	94.38
450.221	84.38
450.442	90.38
450.662	96.38
450.883	110.38
451.104	95.38
451.324	96.38
451.545	99.38
451.766	90.38
451.986	100.38
452.207	90.38
452.428	100.38
452.648	108.38
452.869	101.38
453.089	91.38
453.31	97.38
453.53	69.38
453.751	86.38
453.971	94.38
454.192	97.38
454.412	88.38
454.633	92.38
454.853	99.38
455.073	76.38
455.294	82.38
455.514	103.38
455.734	78.38
455.955	94.38
456.175	93.38
456.395	95.38
456.616	89.38
456.836	87.38
457.056	79.38
457.276	86.38
457.497	101.38
457.717	92.38
457.937	93.38
458.157	90.38
458.377	95.38
458.598	98.38
458.818	122.38
459.038	138.38
459.258	103.38
459.478	102.38
459.698	98.38
459.918	96.38
460.138	93.38
460.358	85.38
460.578	92.38
460.798	90.38
461.018	85.38
461.238	91.38
461.458	106.38
461.678	74.38
461.898	95.38
462.118	88.38
462.338	86.38
462.558	81.38
462.777	73.38
462.997	78.38
463.217	83.38
463.437	85.38
463.657	83.38
463.876	85.38
464.096	87.38
464.316	91.38
464.536	106.38
464.755	77.38
464.975	93.38
465.195	126.38
465.414	130.38
465.634	96.38
465.854	90.38
466.073	93.38
466.293	82.38
466.512	84.38
466.732	68.38
466.951	78.38
467.171	86.38
467.391	86.38
467.61	99.38
467.829	91.38
468.049	102.38
468.268	91.38
468.488	82.38
468.707	74.38
468.927	84.38
469.146	94.38
469.365	88.38
469.585	77.38
469.804	94.38
470.023	84.38
470.243	100.38
470.462	103.38
470.681	100.38
470.901	94.38
471.12	90.38
471.339	61.38
471.558	76.38
471.777	82.38
471.997	87.38
472.216	98.38
472.435	120.38
472.654	94.38
472.873	88.38
473.092	80.38
473.311	88.38
473.53	82.38
473.749	84.38
473.968	92.38
474.187	102.38
474.406	90.38
474.625	96.38
474.844	94.38
475.063	95.38
475.282	80.38
475.501	79.38
475.72	87.38
475.939	80.38
476.158	80.38
476.377	99.38
476.596	96.38
476.814	79.38
477.033	87.38
477.252	76.38
477.471	86.38
477.69	83.38
477.908	86.38
478.127	110.38
478.346	94.38
478.564	84.38
478.783	100.38
479.002	85.38
479.22	100.38
479.439	94.38
479.658	112.38
479.876	72.38
480.095	84.38
480.313	100.38
480.532	98.38
480.751	109.38
480.969	101.38
481.188	169.38
481.406	136.38
481.624	92.38
481.843	96.38
482.061	96.38
482.28	95.38
482.498	86.38
482.717	82.38
482.935	99.38
483.153	80.38
483.372	95.38
483.59	88.38
483.808	94.38
484.027	108.38
484.245	95.38
484.463	91.38
484.681	101.38
484.9	83.38
485.118	92.38
485.336	92.38
485.554	93.38
485.772	101.38
485.99	113.38
486.209	116.38
486.427	101.38
486.645	98.38
486.863	108.38
487.081	103.38
487.299	78.38
487.517	76.38
487.735	87.38
487.953	92.38
488.171	93.38
488.389	107.38
488.607	98.38
488.825	99.38
489.043	79.38
489.261	92.38
489.479	91.38
489.696	87.38
489.914	102.38
490.132	86.38
490.35	86.38
490.568	85.38
490.786	92.38
491.003	94.38
491.221	80.38
491.439	93.38
491.657	100.38
491.874	101.38
492.092	99.38
492.31	89.38
492.527	94.38
492.745	93.38
492.963	88.38
493.18	66.38
493.398	110.38
493.615	102.38
493.833	92.38
494.05	107.38
494.268	91.38
494.485	88.38
494.703	87.38
494.92	107.38
495.138	85.38
495.355	95.38
495.573	91.38
495.79	78.38
496.008	85.38
496.225	92.38
496.442	85.38
496.66	94.38
496.877	77.38
497.094	83.38
497.312	87.38
497.529	94.38
497.746	73.38
497.963	85.38
498.181	92.38
498.398	106.38
498.615	98.38
498.832	98.38
499.049	88.38
499.267	98.38
499.484	83.38
499.701	86.38
499.918	90.38
500.135	88.38
500.352	92.38
500.569	85.38
500.786	96.38
501.003	93.38
501.22	92.38
501.437	92.38
501.654	91.38
501.871	106.38
502.088	96.38
502.305	103.38
502.522	89.38
502.739	85.38
502.956	83.38
503.172	93.38
503.389	81.38
503.606	87.38
503.823	85.38
504.04	97.38
504.256	89.38
504.473	94.38
504.69	88.38
504.907	91.38
505.123	89.38
505.34	105.38
505.557	89.38
505.773	95.38
505.99	78.38
506.207	95.38
506.423	84.38
506.64	95.38
506.856	93.38
507.073	90.38
507.289	106.38
507.506	98.38
507.722	92.38
507.939	101.38
508.155	93.38
508.372	90.38
508.588	90.38
508.805	84.38
509.021	100.38
509.238	105.38
509.454	104.38
509.67	90.38
509.887	98.38
510.103	120.38
510.319	175.38
510.536	534.38
510.752	1634.38
510.968	487.38
511.184	130.38
511.401	116.38
511.617	87.38
511.833	95.38
512.049	83.38
512.265	90.38
512.481	97.38
512.698	79.38
512.914	99.38
513.13	92.38
513.346	105.38
513.562	89.38
513.778	95.38
513.994	99.38
514.21	94.38
514.426	92.38
514.642	110.38
514.858	123.38
515.074	134.38
515.29	304.38
515.506	954.38
515.721	350.38
515.937	117.38
516.153	109.38
516.369	91.38
516.585	91.38
