Data from Circ_1980_H10_HRD10591_00099.txt Node
Date: Wed Jan 03 12:38:18 EST 2024
User: Yrep
Spectrometer: HR+D1059
Trigger mode: 1
Integration Time (sec): 1.000000E-1
Scans to average: 1
Electric dark correction enabled: true
Nonlinearity correction enabled: false
Boxcar width: 0
XAxis mode: Wavelengths
Number of Pixels in Spectrum: 2048
>>>>>Begin Spectral Data<<<<<
223.165	-20.94
223.4	-20.94
223.635	-20.94
223.869	-10.94
224.104	-15.94
224.338	-18.94
224.573	-20.94
224.808	-2.94
225.042	-16.94
225.277	-10.94
225.511	7.06
225.746	13.06
225.98	14.06
226.215	10.06
226.449	16.06
226.683	11.06
226.918	22.06
227.152	25.06
227.387	38.06
227.621	39.06
227.856	44.06
228.09	61.06
228.324	48.06
228.559	67.06
228.793	64.06
229.027	56.06
229.262	59.06
229.496	69.06
229.73	71.06
229.964	80.06
230.199	89.06
230.433	75.06
230.667	72.06
230.901	67.06
231.136	80.06
231.37	85.06
231.604	99.06
231.838	87.06
232.072	94.06
232.306	82.06
232.541	79.06
232.775	68.06
233.009	78.06
233.243	95.06
233.477	91.06
233.711	87.06
233.945	78.06
234.179	80.06
234.413	77.06
234.647	70.06
234.881	82.06
235.115	83.06
235.349	77.06
235.583	78.06
235.817	91.06
236.051	85.06
236.285	83.06
236.519	78.06
236.753	72.06
236.987	92.06
237.221	91.06
237.455	83.06
237.689	72.06
237.922	62.06
238.156	76.06
238.39	88.06
238.624	73.06
238.858	87.06
239.091	77.06
239.325	78.06
239.559	83.06
239.793	83.06
240.027	82.06
240.26	70.06
240.494	61.06
240.728	72.06
240.961	85.06
241.195	91.06
241.429	75.06
241.662	77.06
241.896	93.06
242.13	86.06
242.363	76.06
242.597	69.06
242.83	75.06
243.064	79.06
243.298	76.06
243.531	73.06
243.765	75.06
243.998	73.06
244.232	82.06
244.465	89.06
244.699	79.06
244.932	77.06
245.166	85.06
245.399	75.06
245.633	75.06
245.866	60.06
246.099	67.06
246.333	75.06
246.566	78.06
246.8	76.06
247.033	77.06
247.266	83.06
247.5	81.06
247.733	84.06
247.966	84.06
248.2	80.06
248.433	92.06
248.666	102.06
248.899	84.06
249.133	80.06
249.366	86.06
249.599	96.06
249.832	78.06
250.066	93.06
250.299	74.06
250.532	89.06
250.765	93.06
250.998	75.06
251.231	93.06
251.465	84.06
251.698	77.06
251.931	77.06
252.164	80.06
252.397	88.06
252.63	73.06
252.863	84.06
253.096	70.06
253.329	79.06
253.562	95.06
253.795	70.06
254.028	91.06
254.261	81.06
254.494	83.06
254.727	87.06
254.96	86.06
255.193	69.06
255.426	76.06
255.659	77.06
255.892	80.06
256.124	84.06
256.357	87.06
256.59	77.06
256.823	85.06
257.056	81.06
257.289	72.06
257.521	84.06
257.754	76.06
257.987	75.06
258.22	79.06
258.452	80.06
258.685	80.06
258.918	83.06
259.151	85.06
259.383	93.06
259.616	84.06
259.849	97.06
260.081	92.06
260.314	73.06
260.547	78.06
260.779	99.06
261.012	87.06
261.244	89.06
261.477	96.06
261.71	87.06
261.942	91.06
262.175	105.06
262.407	87.06
262.64	93.06
262.872	84.06
263.105	87.06
263.337	79.06
263.57	75.06
263.802	89.06
264.035	75.06
264.267	80.06
264.499	84.06
264.732	83.06
264.964	84.06
265.197	101.06
265.429	89.06
265.661	91.06
265.894	94.06
266.126	88.06
266.358	88.06
266.591	92.06
266.823	82.06
267.055	85.06
267.287	88.06
267.52	83.06
267.752	94.06
267.984	91.06
268.216	72.06
268.448	95.06
268.681	85.06
268.913	80.06
269.145	85.06
269.377	89.06
269.609	88.06
269.841	88.06
270.073	86.06
270.306	87.06
270.538	73.06
270.77	80.06
271.002	78.06
271.234	88.06
271.466	79.06
271.698	85.06
271.93	87.06
272.162	87.06
272.394	94.06
272.626	85.06
272.858	73.06
273.09	64.06
273.322	89.06
273.553	93.06
273.785	91.06
274.017	96.06
274.249	87.06
274.481	96.06
274.713	80.06
274.945	100.06
275.176	91.06
275.408	108.06
275.64	81.06
275.872	89.06
276.104	102.06
276.335	97.06
276.567	97.06
276.799	110.06
277.031	101.06
277.262	95.06
277.494	90.06
277.726	102.06
277.957	78.06
278.189	93.06
278.421	80.06
278.652	86.06
278.884	80.06
279.115	97.06
279.347	98.06
279.579	99.06
279.81	86.06
280.042	90.06
280.273	75.06
280.505	77.06
280.736	91.06
280.968	87.06
281.199	89.06
281.431	79.06
281.662	80.06
281.894	87.06
282.125	97.06
282.356	112.06
282.588	128.06
282.819	84.06
283.051	96.06
283.282	77.06
283.513	73.06
283.745	92.06
283.976	97.06
284.207	76.06
284.439	80.06
284.67	83.06
284.901	91.06
285.132	84.06
285.364	93.06
285.595	94.06
285.826	89.06
286.057	87.06
286.288	80.06
286.52	98.06
286.751	87.06
286.982	71.06
287.213	90.06
287.444	91.06
287.675	85.06
287.906	80.06
288.138	89.06
288.369	91.06
288.6	72.06
288.831	91.06
289.062	95.06
289.293	101.06
289.524	89.06
289.755	78.06
289.986	89.06
290.217	78.06
290.448	82.06
290.679	78.06
290.91	84.06
291.141	97.06
291.371	86.06
291.602	86.06
291.833	96.06
292.064	84.06
292.295	100.06
292.526	91.06
292.757	86.06
292.987	91.06
293.218	99.06
293.449	93.06
293.68	80.06
293.91	81.06
294.141	85.06
294.372	95.06
294.603	87.06
294.833	97.06
295.064	96.06
295.295	98.06
295.525	87.06
295.756	85.06
295.987	116.06
296.217	124.06
296.448	115.06
296.679	103.06
296.909	96.06
297.14	72.06
297.37	93.06
297.601	87.06
297.831	80.06
298.062	94.06
298.292	90.06
298.523	99.06
298.753	92.06
298.984	69.06
299.214	101.06
299.445	92.06
299.675	109.06
299.905	103.06
300.136	72.06
300.366	95.06
300.597	96.06
300.827	111.06
301.057	91.06
301.288	111.06
301.518	87.06
301.748	92.06
301.979	102.06
302.209	89.06
302.439	88.06
302.669	90.06
302.9	95.06
303.13	105.06
303.36	96.06
303.59	80.06
303.82	101.06
304.051	92.06
304.281	90.06
304.511	103.06
304.741	88.06
304.971	83.06
305.201	85.06
305.431	74.06
305.661	96.06
305.891	79.06
306.121	95.06
306.352	104.06
306.582	105.06
306.812	93.06
307.042	89.06
307.272	104.06
307.502	95.06
307.731	81.06
307.961	90.06
308.191	93.06
308.421	104.06
308.651	92.06
308.881	97.06
309.111	98.06
309.341	88.06
309.571	101.06
309.8	81.06
310.03	96.06
310.26	99.06
310.49	80.06
310.72	103.06
310.949	96.06
311.179	102.06
311.409	90.06
311.639	105.06
311.868	90.06
312.098	100.06
312.328	89.06
312.557	94.06
312.787	80.06
313.017	91.06
313.246	91.06
313.476	79.06
313.706	93.06
313.935	88.06
314.165	87.06
314.394	92.06
314.624	101.06
314.853	95.06
315.083	84.06
315.312	98.06
315.542	84.06
315.771	81.06
316.001	94.06
316.23	91.06
316.46	92.06
316.689	96.06
316.919	88.06
317.148	74.06
317.377	84.06
317.607	103.06
317.836	92.06
318.065	93.06
318.295	84.06
318.524	99.06
318.753	96.06
318.983	95.06
319.212	93.06
319.441	94.06
319.67	119.06
319.9	97.06
320.129	94.06
320.358	94.06
320.587	108.06
320.816	113.06
321.046	79.06
321.275	85.06
321.504	101.06
321.733	89.06
321.962	94.06
322.191	94.06
322.42	96.06
322.649	105.06
322.878	104.06
323.108	107.06
323.337	121.06
323.566	128.06
323.795	126.06
324.024	167.06
324.253	325.06
324.482	642.06
324.71	1280.06
324.939	1704.06
325.168	642.06
325.397	202.06
325.626	137.06
325.855	130.06
326.084	128.06
326.313	115.06
326.542	128.06
326.77	177.06
326.999	357.06
327.228	727.06
327.457	1348.06
327.686	1072.06
327.914	303.06
328.143	180.06
328.372	125.06
328.6	126.06
328.829	116.06
329.058	113.06
329.287	122.06
329.515	108.06
329.744	106.06
329.972	104.06
330.201	113.06
330.43	131.06
330.658	104.06
330.887	136.06
331.115	95.06
331.344	103.06
331.572	89.06
331.801	119.06
332.03	99.06
332.258	91.06
332.486	104.06
332.715	99.06
332.943	92.06
333.172	94.06
333.4	89.06
333.629	106.06
333.857	95.06
334.085	99.06
334.314	125.06
334.542	125.06
334.771	127.06
334.999	87.06
335.227	97.06
335.455	90.06
335.684	91.06
335.912	107.06
336.14	99.06
336.369	114.06
336.597	106.06
336.825	100.06
337.053	93.06
337.281	92.06
337.51	83.06
337.738	75.06
337.966	97.06
338.194	101.06
338.422	95.06
338.65	91.06
338.878	94.06
339.106	97.06
339.334	80.06
339.562	94.06
339.79	95.06
340.018	100.06
340.246	86.06
340.474	83.06
340.702	88.06
340.93	84.06
341.158	76.06
341.386	76.06
341.614	99.06
341.842	97.06
342.07	99.06
342.298	98.06
342.526	103.06
342.754	93.06
342.981	93.06
343.209	93.06
343.437	83.06
343.665	92.06
343.893	91.06
344.12	94.06
344.348	77.06
344.576	86.06
344.804	94.06
345.031	92.06
345.259	89.06
345.487	89.06
345.714	87.06
345.942	88.06
346.17	89.06
346.397	96.06
346.625	75.06
346.853	100.06
347.08	88.06
347.308	100.06
347.535	104.06
347.763	91.06
347.99	88.06
348.218	95.06
348.445	93.06
348.673	106.06
348.9	98.06
349.128	86.06
349.355	100.06
349.583	92.06
349.81	104.06
350.037	91.06
350.265	88.06
350.492	86.06
350.72	94.06
350.947	101.06
351.174	110.06
351.402	94.06
351.629	100.06
351.856	101.06
352.083	99.06
352.311	103.06
352.538	97.06
352.765	103.06
352.992	135.06
353.22	111.06
353.447	95.06
353.674	92.06
353.901	95.06
354.128	96.06
354.355	97.06
354.583	91.06
354.81	109.06
355.037	88.06
355.264	97.06
355.491	94.06
355.718	92.06
355.945	117.06
356.172	86.06
356.399	96.06
356.626	107.06
356.853	97.06
357.08	93.06
357.307	107.06
357.534	86.06
357.761	95.06
357.988	92.06
358.215	90.06
358.441	101.06
358.668	109.06
358.895	107.06
359.122	94.06
359.349	93.06
359.576	110.06
359.802	98.06
360.029	99.06
360.256	103.06
360.483	108.06
360.709	92.06
360.936	97.06
361.163	79.06
361.39	87.06
361.616	79.06
361.843	86.06
362.07	90.06
362.296	91.06
362.523	77.06
362.749	99.06
362.976	94.06
363.203	98.06
363.429	96.06
363.656	104.06
363.882	82.06
364.109	91.06
364.335	75.06
364.562	80.06
364.788	97.06
365.015	92.06
365.241	92.06
365.468	104.06
365.694	105.06
365.92	88.06
366.147	101.06
366.373	94.06
366.599	87.06
366.826	98.06
367.052	91.06
367.278	91.06
367.505	97.06
367.731	92.06
367.957	86.06
368.184	99.06
368.41	95.06
368.636	94.06
368.862	103.06
369.089	106.06
369.315	99.06
369.541	93.06
369.767	100.06
369.993	86.06
370.219	93.06
370.445	85.06
370.672	87.06
370.898	80.06
371.124	101.06
371.35	80.06
371.576	95.06
371.802	91.06
372.028	85.06
372.254	99.06
372.48	68.06
372.706	84.06
372.932	90.06
373.158	108.06
373.384	101.06
373.61	89.06
373.835	91.06
374.061	93.06
374.287	95.06
374.513	96.06
374.739	89.06
374.965	85.06
375.191	94.06
375.416	100.06
375.642	84.06
375.868	99.06
376.094	84.06
376.319	89.06
376.545	91.06
376.771	85.06
376.997	85.06
377.222	91.06
377.448	77.06
377.674	81.06
377.899	91.06
378.125	103.06
378.35	93.06
378.576	87.06
378.802	89.06
379.027	87.06
379.253	101.06
379.478	97.06
379.704	87.06
379.929	89.06
380.155	92.06
380.38	93.06
380.606	96.06
380.831	97.06
381.057	78.06
381.282	90.06
381.507	83.06
381.733	90.06
381.958	89.06
382.184	102.06
382.409	95.06
382.634	101.06
382.86	102.06
383.085	101.06
383.31	101.06
383.535	100.06
383.761	95.06
383.986	106.06
384.211	101.06
384.436	95.06
384.662	103.06
384.887	112.06
385.112	101.06
385.337	111.06
385.562	118.06
385.787	103.06
386.013	97.06
386.238	105.06
386.463	107.06
386.688	106.06
386.913	103.06
387.138	111.06
387.363	100.06
387.588	94.06
387.813	98.06
388.038	85.06
388.263	112.06
388.488	101.06
388.713	102.06
388.938	99.06
389.163	93.06
389.387	109.06
389.612	85.06
389.837	97.06
390.062	93.06
390.287	104.06
390.512	99.06
390.736	99.06
390.961	78.06
391.186	105.06
391.411	93.06
391.636	90.06
391.86	109.06
392.085	90.06
392.31	83.06
392.534	92.06
392.759	77.06
392.984	98.06
393.208	93.06
393.433	77.06
393.658	81.06
393.882	83.06
394.107	89.06
394.331	78.06
394.556	97.06
394.78	90.06
395.005	101.06
395.229	94.06
395.454	91.06
395.678	99.06
395.903	104.06
396.127	88.06
396.352	78.06
396.576	97.06
396.801	87.06
397.025	99.06
397.249	80.06
397.474	94.06
397.698	79.06
397.922	93.06
398.147	92.06
398.371	107.06
398.595	102.06
398.82	87.06
399.044	97.06
399.268	97.06
399.492	101.06
399.717	92.06
399.941	93.06
400.165	102.06
400.389	89.06
400.613	86.06
400.837	95.06
401.062	95.06
401.286	87.06
401.51	94.06
401.734	102.06
401.958	92.06
402.182	110.06
402.406	127.06
402.63	109.06
402.854	93.06
403.078	96.06
403.302	79.06
403.526	98.06
403.75	75.06
403.974	84.06
404.198	78.06
404.422	97.06
404.645	94.06
404.869	92.06
405.093	100.06
405.317	84.06
405.541	90.06
405.765	91.06
405.988	106.06
406.212	154.06
406.436	196.06
406.66	124.06
406.883	92.06
407.107	110.06
407.331	97.06
407.555	85.06
407.778	94.06
408.002	87.06
408.226	87.06
408.449	75.06
408.673	102.06
408.896	85.06
409.12	96.06
409.344	102.06
409.567	90.06
409.791	104.06
410.014	96.06
410.238	95.06
410.461	99.06
410.685	104.06
410.908	108.06
411.132	107.06
411.355	106.06
411.578	92.06
411.802	84.06
412.025	88.06
412.249	90.06
412.472	86.06
412.695	99.06
412.919	89.06
413.142	71.06
413.365	86.06
413.589	78.06
413.812	94.06
414.035	99.06
414.258	90.06
414.482	95.06
414.705	104.06
414.928	100.06
415.151	98.06
415.374	102.06
415.597	90.06
415.821	87.06
416.044	90.06
416.267	93.06
416.49	93.06
416.713	106.06
416.936	95.06
417.159	75.06
417.382	96.06
417.605	83.06
417.828	91.06
418.051	99.06
418.274	83.06
418.497	89.06
418.72	90.06
418.943	81.06
419.166	96.06
419.389	95.06
419.611	85.06
419.834	98.06
420.057	96.06
420.28	85.06
420.503	79.06
420.726	93.06
420.948	83.06
421.171	97.06
421.394	110.06
421.617	77.06
421.839	89.06
422.062	87.06
422.285	95.06
422.507	97.06
422.73	106.06
422.953	83.06
423.175	89.06
423.398	84.06
423.621	72.06
423.843	79.06
424.066	90.06
424.288	85.06
424.511	93.06
424.733	116.06
424.956	95.06
425.178	95.06
425.401	102.06
425.623	105.06
425.846	97.06
426.068	91.06
426.291	85.06
426.513	83.06
426.735	97.06
426.958	87.06
427.18	100.06
427.402	122.06
427.625	133.06
427.847	119.06
428.069	109.06
428.292	97.06
428.514	75.06
428.736	83.06
428.958	99.06
429.181	76.06
429.403	89.06
429.625	80.06
429.847	81.06
430.069	106.06
430.292	93.06
430.514	79.06
430.736	79.06
430.958	92.06
431.18	95.06
431.402	91.06
431.624	73.06
431.846	90.06
432.068	93.06
432.29	84.06
432.512	89.06
432.734	87.06
432.956	81.06
433.178	93.06
433.4	93.06
433.622	94.06
433.844	90.06
434.066	98.06
434.287	95.06
434.509	83.06
434.731	87.06
434.953	94.06
435.175	78.06
435.397	94.06
435.618	100.06
435.84	111.06
436.062	110.06
436.284	109.06
436.505	93.06
436.727	119.06
436.949	93.06
437.17	76.06
437.392	92.06
437.614	93.06
437.835	118.06
438.057	113.06
438.278	100.06
438.5	94.06
438.721	108.06
438.943	100.06
439.165	78.06
439.386	83.06
439.608	91.06
439.829	106.06
440.05	95.06
440.272	129.06
440.493	92.06
440.715	92.06
440.936	87.06
441.158	92.06
441.379	80.06
441.6	100.06
441.822	104.06
442.043	86.06
442.264	100.06
442.486	85.06
442.707	92.06
442.928	109.06
443.149	119.06
443.371	120.06
443.592	88.06
443.813	121.06
444.034	101.06
444.255	96.06
444.476	94.06
444.698	91.06
444.919	88.06
445.14	125.06
445.361	121.06
445.582	95.06
445.803	112.06
446.024	120.06
446.245	133.06
446.466	99.06
446.687	95.06
446.908	102.06
447.129	70.06
447.35	89.06
447.571	70.06
447.792	86.06
448.013	90.06
448.234	105.06
448.455	99.06
448.675	110.06
448.896	124.06
449.117	92.06
449.338	95.06
449.559	111.06
449.779	131.06
450	91.06
450.221	90.06
450.442	84.06
450.662	84.06
450.883	94.06
451.104	93.06
451.324	94.06
451.545	101.06
451.766	103.06
451.986	95.06
452.207	96.06
452.428	89.06
452.648	93.06
452.869	110.06
453.089	108.06
453.31	107.06
453.53	89.06
453.751	68.06
453.971	101.06
454.192	109.06
454.412	87.06
454.633	87.06
454.853	89.06
455.073	86.06
455.294	87.06
455.514	105.06
455.734	92.06
455.955	97.06
456.175	103.06
456.395	91.06
456.616	79.06
456.836	95.06
457.056	80.06
457.276	93.06
457.497	91.06
457.717	95.06
457.937	85.06
458.157	79.06
458.377	94.06
458.598	104.06
458.818	131.06
459.038	137.06
459.258	92.06
459.478	90.06
459.698	92.06
459.918	94.06
460.138	81.06
460.358	87.06
460.578	83.06
460.798	99.06
461.018	87.06
461.238	86.06
461.458	88.06
461.678	79.06
461.898	94.06
462.118	92.06
462.338	74.06
462.558	87.06
462.777	89.06
462.997	87.06
463.217	94.06
463.437	93.06
463.657	103.06
463.876	90.06
464.096	81.06
464.316	84.06
464.536	81.06
464.755	102.06
464.975	97.06
465.195	147.06
465.414	143.06
465.634	95.06
465.854	85.06
466.073	94.06
466.293	88.06
466.512	81.06
466.732	84.06
466.951	80.06
467.171	91.06
467.391	97.06
467.61	92.06
467.829	102.06
468.049	97.06
468.268	106.06
468.488	71.06
468.707	91.06
468.927	79.06
469.146	85.06
469.365	87.06
469.585	96.06
469.804	90.06
470.023	111.06
470.243	90.06
470.462	95.06
470.681	107.06
470.901	95.06
471.12	80.06
471.339	93.06
471.558	101.06
471.777	75.06
471.997	109.06
472.216	122.06
472.435	132.06
472.654	102.06
472.873	86.06
473.092	92.06
473.311	80.06
473.53	94.06
473.749	92.06
473.968	101.06
474.187	109.06
474.406	96.06
474.625	79.06
474.844	96.06
475.063	87.06
475.282	88.06
475.501	71.06
475.72	87.06
475.939	97.06
476.158	86.06
476.377	83.06
476.596	83.06
476.814	92.06
477.033	98.06
477.252	96.06
477.471	77.06
477.69	90.06
477.908	86.06
478.127	86.06
478.346	81.06
478.564	93.06
478.783	100.06
479.002	88.06
479.22	81.06
479.439	111.06
479.658	100.06
479.876	81.06
480.095	103.06
480.313	87.06
480.532	97.06
480.751	103.06
480.969	121.06
481.188	189.06
481.406	142.06
481.624	87.06
481.843	97.06
482.061	73.06
482.28	101.06
482.498	97.06
482.717	76.06
482.935	93.06
483.153	89.06
483.372	86.06
483.59	86.06
483.808	90.06
484.027	91.06
484.245	76.06
484.463	91.06
484.681	86.06
484.9	96.06
485.118	93.06
485.336	92.06
485.554	86.06
485.772	90.06
485.99	104.06
486.209	119.06
486.427	102.06
486.645	123.06
486.863	108.06
487.081	92.06
487.299	89.06
487.517	108.06
487.735	105.06
487.953	91.06
488.171	93.06
488.389	98.06
488.607	99.06
488.825	102.06
489.043	104.06
489.261	92.06
489.479	85.06
489.696	90.06
489.914	86.06
490.132	93.06
490.35	93.06
490.568	88.06
490.786	83.06
491.003	79.06
491.221	91.06
491.439	85.06
491.657	94.06
491.874	80.06
492.092	79.06
492.31	94.06
492.527	83.06
492.745	80.06
492.963	101.06
493.18	95.06
493.398	83.06
493.615	95.06
493.833	95.06
494.05	90.06
494.268	90.06
494.485	86.06
494.703	90.06
494.92	80.06
495.138	88.06
495.355	87.06
495.573	75.06
495.79	93.06
496.008	85.06
496.225	103.06
496.442	98.06
496.66	78.06
496.877	78.06
497.094	92.06
497.312	90.06
497.529	84.06
497.746	102.06
497.963	95.06
498.181	100.06
498.398	101.06
498.615	117.06
498.832	93.06
499.049	93.06
499.267	72.06
499.484	81.06
499.701	95.06
499.918	83.06
500.135	101.06
500.352	99.06
500.569	92.06
500.786	84.06
501.003	85.06
501.22	90.06
501.437	87.06
501.654	95.06
501.871	93.06
502.088	91.06
502.305	75.06
502.522	90.06
502.739	102.06
502.956	82.06
503.172	95.06
503.389	89.06
503.606	112.06
503.823	97.06
504.04	91.06
504.256	85.06
504.473	96.06
504.69	103.06
504.907	94.06
505.123	90.06
505.34	93.06
505.557	93.06
505.773	100.06
505.99	73.06
506.207	98.06
506.423	92.06
506.64	93.06
506.856	92.06
507.073	91.06
507.289	108.06
507.506	92.06
507.722	110.06
507.939	114.06
508.155	89.06
508.372	99.06
508.588	101.06
508.805	90.06
509.021	96.06
509.238	100.06
509.454	103.06
509.67	87.06
509.887	101.06
510.103	142.06
510.319	178.06
510.536	602.06
510.752	1763.06
510.968	486.06
511.184	148.06
511.401	108.06
511.617	91.06
511.833	86.06
512.049	88.06
512.265	105.06
512.481	78.06
512.698	91.06
512.914	101.06
513.13	101.06
513.346	94.06
513.562	100.06
513.778	92.06
513.994	96.06
514.21	97.06
514.426	98.06
514.642	121.06
514.858	100.06
515.074	125.06
515.29	329.06
515.506	1043.06
515.721	400.06
