Data from Circ_1980_H10_HRD10591_00081.txt Node
Date: Wed Jan 03 12:38:14 EST 2024
User: Yrep
Spectrometer: HR+D1059
Trigger mode: 1
Integration Time (sec): 1.000000E-1
Scans to average: 1
Electric dark correction enabled: true
Nonlinearity correction enabled: false
Boxcar width: 0
XAxis mode: Wavelengths
Number of Pixels in Spectrum: 2048
>>>>>Begin Spectral Data<<<<<
223.165	-15.31
223.4	-15.31
223.635	-15.31
223.869	-31.31
224.104	-33.31
224.338	-10.31
224.573	-22.31
224.808	-16.31
225.042	-8.31
225.277	0.69
225.511	4.69
225.746	2.69
225.98	8.69
226.215	19.69
226.449	16.69
226.683	22.69
226.918	30.69
227.152	30.69
227.387	42.69
227.621	52.69
227.856	50.69
228.09	46.69
228.324	45.69
228.559	51.69
228.793	56.69
229.027	53.69
229.262	63.69
229.496	63.69
229.73	85.69
229.964	76.69
230.199	62.69
230.433	64.69
230.667	71.69
230.901	83.69
231.136	89.69
231.37	72.69
231.604	88.69
231.838	79.69
232.072	90.69
232.306	77.69
232.541	85.69
232.775	77.69
233.009	80.69
233.243	84.69
233.477	75.69
233.711	79.69
233.945	83.69
234.179	76.69
234.413	64.69
234.647	67.69
234.881	82.69
235.115	84.69
235.349	80.69
235.583	82.69
235.817	66.69
236.051	75.69
236.285	87.69
236.519	80.69
236.753	67.69
236.987	86.69
237.221	84.69
237.455	73.69
237.689	73.69
237.922	72.69
238.156	72.69
238.39	79.69
238.624	72.69
238.858	75.69
239.091	75.69
239.325	87.69
239.559	76.69
239.793	70.69
240.027	72.69
240.26	79.69
240.494	74.69
240.728	79.69
240.961	79.69
241.195	83.69
241.429	76.69
241.662	78.69
241.896	66.69
242.13	59.69
242.363	67.69
242.597	60.69
242.83	82.69
243.064	79.69
243.298	77.69
243.531	77.69
243.765	72.69
243.998	82.69
244.232	78.69
244.465	77.69
244.699	87.69
244.932	83.69
245.166	85.69
245.399	67.69
245.633	78.69
245.866	68.69
246.099	75.69
246.333	72.69
246.566	77.69
246.8	73.69
247.033	80.69
247.266	73.69
247.5	73.69
247.733	84.69
247.966	82.69
248.2	91.69
248.433	74.69
248.666	69.69
248.899	83.69
249.133	78.69
249.366	88.69
249.599	92.69
249.832	73.69
250.066	84.69
250.299	63.69
250.532	93.69
250.765	79.69
250.998	73.69
251.231	86.69
251.465	84.69
251.698	75.69
251.931	82.69
252.164	79.69
252.397	69.69
252.63	94.69
252.863	72.69
253.096	92.69
253.329	77.69
253.562	82.69
253.795	88.69
254.028	83.69
254.261	63.69
254.494	65.69
254.727	64.69
254.96	70.69
255.193	73.69
255.426	78.69
255.659	72.69
255.892	95.69
256.124	78.69
256.357	85.69
256.59	86.69
256.823	87.69
257.056	58.69
257.289	80.69
257.521	71.69
257.754	77.69
257.987	77.69
258.22	89.69
258.452	82.69
258.685	88.69
258.918	85.69
259.151	74.69
259.383	86.69
259.616	93.69
259.849	76.69
260.081	82.69
260.314	80.69
260.547	84.69
260.779	82.69
261.012	86.69
261.244	86.69
261.477	85.69
261.71	102.69
261.942	86.69
262.175	102.69
262.407	92.69
262.64	79.69
262.872	70.69
263.105	64.69
263.337	84.69
263.57	82.69
263.802	87.69
264.035	88.69
264.267	99.69
264.499	79.69
264.732	81.69
264.964	80.69
265.197	86.69
265.429	71.69
265.661	86.69
265.894	81.69
266.126	78.69
266.358	88.69
266.591	84.69
266.823	84.69
267.055	61.69
267.287	90.69
267.52	90.69
267.752	86.69
267.984	85.69
268.216	80.69
268.448	78.69
268.681	74.69
268.913	71.69
269.145	89.69
269.377	86.69
269.609	85.69
269.841	92.69
270.073	80.69
270.306	91.69
270.538	75.69
270.77	74.69
271.002	86.69
271.234	81.69
271.466	88.69
271.698	87.69
271.93	74.69
272.162	79.69
272.394	76.69
272.626	85.69
272.858	81.69
273.09	84.69
273.322	82.69
273.553	78.69
273.785	70.69
274.017	88.69
274.249	102.69
274.481	92.69
274.713	84.69
274.945	85.69
275.176	101.69
275.408	90.69
275.64	98.69
275.872	82.69
276.104	90.69
276.335	94.69
276.567	96.69
276.799	94.69
277.031	91.69
277.262	86.69
277.494	96.69
277.726	72.69
277.957	88.69
278.189	82.69
278.421	84.69
278.652	74.69
278.884	72.69
279.115	83.69
279.347	92.69
279.579	83.69
279.81	70.69
280.042	91.69
280.273	77.69
280.505	84.69
280.736	98.69
280.968	89.69
281.199	82.69
281.431	75.69
281.662	66.69
281.894	91.69
282.125	103.69
282.356	84.69
282.588	112.69
282.819	103.69
283.051	95.69
283.282	93.69
283.513	80.69
283.745	76.69
283.976	92.69
284.207	104.69
284.439	78.69
284.67	90.69
284.901	83.69
285.132	88.69
285.364	95.69
285.595	81.69
285.826	96.69
286.057	98.69
286.288	90.69
286.52	87.69
286.751	90.69
286.982	93.69
287.213	79.69
287.444	85.69
287.675	84.69
287.906	84.69
288.138	87.69
288.369	86.69
288.6	76.69
288.831	83.69
289.062	85.69
289.293	91.69
289.524	98.69
289.755	76.69
289.986	90.69
290.217	83.69
290.448	88.69
290.679	86.69
290.91	76.69
291.141	72.69
291.371	91.69
291.602	89.69
291.833	86.69
292.064	91.69
292.295	82.69
292.526	92.69
292.757	78.69
292.987	85.69
293.218	90.69
293.449	78.69
293.68	94.69
293.91	87.69
294.141	87.69
294.372	79.69
294.603	82.69
294.833	98.69
295.064	78.69
295.295	100.69
295.525	80.69
295.756	101.69
295.987	110.69
296.217	116.69
296.448	111.69
296.679	98.69
296.909	84.69
297.14	93.69
297.37	74.69
297.601	100.69
297.831	78.69
298.062	85.69
298.292	96.69
298.523	94.69
298.753	92.69
298.984	89.69
299.214	84.69
299.445	89.69
299.675	82.69
299.905	73.69
300.136	89.69
300.366	94.69
300.597	82.69
300.827	84.69
301.057	101.69
301.288	115.69
301.518	92.69
301.748	89.69
301.979	87.69
302.209	76.69
302.439	90.69
302.669	100.69
302.9	95.69
303.13	88.69
303.36	87.69
303.59	87.69
303.82	88.69
304.051	98.69
304.281	91.69
304.511	94.69
304.741	78.69
304.971	101.69
305.201	84.69
305.431	96.69
305.661	93.69
305.891	92.69
306.121	76.69
306.352	91.69
306.582	104.69
306.812	100.69
307.042	102.69
307.272	95.69
307.502	87.69
307.731	95.69
307.961	98.69
308.191	87.69
308.421	81.69
308.651	92.69
308.881	91.69
309.111	104.69
309.341	82.69
309.571	93.69
309.8	94.69
310.03	108.69
310.26	96.69
310.49	104.69
310.72	90.69
310.949	102.69
311.179	103.69
311.409	94.69
311.639	86.69
311.868	93.69
312.098	98.69
312.328	93.69
312.557	102.69
312.787	93.69
313.017	108.69
313.246	94.69
313.476	98.69
313.706	91.69
313.935	89.69
314.165	103.69
314.394	99.69
314.624	101.69
314.853	102.69
315.083	87.69
315.312	96.69
315.542	87.69
315.771	87.69
316.001	88.69
316.23	94.69
316.46	94.69
316.689	72.69
316.919	86.69
317.148	110.69
317.377	82.69
317.607	88.69
317.836	98.69
318.065	98.69
318.295	90.69
318.524	84.69
318.753	87.69
318.983	91.69
319.212	99.69
319.441	95.69
319.67	103.69
319.9	90.69
320.129	82.69
320.358	101.69
320.587	92.69
320.816	111.69
321.046	98.69
321.275	98.69
321.504	83.69
321.733	98.69
321.962	93.69
322.191	87.69
322.42	105.69
322.649	110.69
322.878	108.69
323.108	100.69
323.337	119.69
323.566	121.69
323.795	105.69
324.024	175.69
324.253	286.69
324.482	542.69
324.71	1148.69
324.939	1495.69
325.168	568.69
325.397	183.69
325.626	113.69
325.855	117.69
326.084	112.69
326.313	111.69
326.542	123.69
326.77	174.69
326.999	332.69
327.228	677.69
327.457	1198.69
327.686	956.69
327.914	282.69
328.143	156.69
328.372	131.69
328.6	111.69
328.829	86.69
329.058	104.69
329.287	110.69
329.515	99.69
329.744	111.69
329.972	116.69
330.201	114.69
330.43	123.69
330.658	123.69
330.887	127.69
331.115	109.69
331.344	105.69
331.572	92.69
331.801	109.69
332.03	94.69
332.258	95.69
332.486	80.69
332.715	92.69
332.943	92.69
333.172	96.69
333.4	99.69
333.629	100.69
333.857	94.69
334.085	111.69
334.314	96.69
334.542	127.69
334.771	124.69
334.999	105.69
335.227	96.69
335.455	103.69
335.684	85.69
335.912	95.69
336.14	105.69
336.369	94.69
336.597	93.69
336.825	88.69
337.053	87.69
337.281	97.69
337.51	99.69
337.738	93.69
337.966	86.69
338.194	91.69
338.422	94.69
338.65	82.69
338.878	93.69
339.106	98.69
339.334	98.69
339.562	86.69
339.79	102.69
340.018	92.69
340.246	96.69
340.474	83.69
340.702	82.69
340.93	83.69
341.158	88.69
341.386	92.69
341.614	90.69
341.842	87.69
342.07	85.69
342.298	104.69
342.526	96.69
342.754	76.69
342.981	88.69
343.209	98.69
343.437	106.69
343.665	95.69
343.893	88.69
344.12	95.69
344.348	90.69
344.576	93.69
344.804	83.69
345.031	82.69
345.259	94.69
345.487	96.69
345.714	89.69
345.942	85.69
346.17	90.69
346.397	93.69
346.625	89.69
346.853	89.69
347.08	88.69
347.308	96.69
347.535	84.69
347.763	102.69
347.99	96.69
348.218	97.69
348.445	107.69
348.673	95.69
348.9	99.69
349.128	93.69
349.355	93.69
349.583	101.69
349.81	88.69
350.037	93.69
350.265	100.69
350.492	93.69
350.72	85.69
350.947	89.69
351.174	95.69
351.402	103.69
351.629	104.69
351.856	106.69
352.083	110.69
352.311	110.69
352.538	92.69
352.765	114.69
352.992	117.69
353.22	123.69
353.447	120.69
353.674	102.69
353.901	99.69
354.128	98.69
354.355	94.69
354.583	100.69
354.81	98.69
355.037	89.69
355.264	86.69
355.491	101.69
355.718	103.69
355.945	110.69
356.172	100.69
356.399	96.69
356.626	98.69
356.853	91.69
357.08	98.69
357.307	95.69
357.534	92.69
357.761	87.69
357.988	98.69
358.215	98.69
358.441	88.69
358.668	82.69
358.895	103.69
359.122	85.69
359.349	82.69
359.576	76.69
359.802	86.69
360.029	104.69
360.256	103.69
360.483	76.69
360.709	86.69
360.936	101.69
361.163	86.69
361.39	102.69
361.616	87.69
361.843	93.69
362.07	87.69
362.296	82.69
362.523	84.69
362.749	104.69
362.976	98.69
363.203	93.69
363.429	86.69
363.656	93.69
363.882	94.69
364.109	88.69
364.335	106.69
364.562	97.69
364.788	93.69
365.015	94.69
365.241	95.69
365.468	98.69
365.694	96.69
365.92	98.69
366.147	88.69
366.373	80.69
366.599	89.69
366.826	84.69
367.052	83.69
367.278	92.69
367.505	92.69
367.731	90.69
367.957	92.69
368.184	102.69
368.41	96.69
368.636	108.69
368.862	107.69
369.089	114.69
369.315	89.69
369.541	94.69
369.767	92.69
369.993	99.69
370.219	85.69
370.445	87.69
370.672	95.69
370.898	99.69
371.124	77.69
371.35	88.69
371.576	87.69
371.802	90.69
372.028	98.69
372.254	79.69
372.48	75.69
372.706	73.69
372.932	89.69
373.158	96.69
373.384	94.69
373.61	92.69
373.835	105.69
374.061	88.69
374.287	96.69
374.513	87.69
374.739	71.69
374.965	96.69
375.191	91.69
375.416	95.69
375.642	82.69
375.868	94.69
376.094	87.69
376.319	91.69
376.545	100.69
376.771	100.69
376.997	91.69
377.222	92.69
377.448	99.69
377.674	92.69
377.899	69.69
378.125	103.69
378.35	91.69
378.576	79.69
378.802	91.69
379.027	95.69
379.253	83.69
379.478	100.69
379.704	106.69
379.929	97.69
380.155	90.69
380.38	87.69
380.606	92.69
380.831	84.69
381.057	91.69
381.282	90.69
381.507	93.69
381.733	104.69
381.958	94.69
382.184	106.69
382.409	92.69
382.634	105.69
382.86	103.69
383.085	101.69
383.31	82.69
383.535	100.69
383.761	88.69
383.986	99.69
384.211	88.69
384.436	101.69
384.662	91.69
384.887	101.69
385.112	106.69
385.337	115.69
385.562	106.69
385.787	98.69
386.013	105.69
386.238	110.69
386.463	97.69
386.688	115.69
386.913	105.69
387.138	102.69
387.363	107.69
387.588	94.69
387.813	100.69
388.038	97.69
388.263	111.69
388.488	125.69
388.713	100.69
388.938	87.69
389.163	98.69
389.387	91.69
389.612	100.69
389.837	91.69
390.062	84.69
390.287	93.69
390.512	100.69
390.736	90.69
390.961	90.69
391.186	92.69
391.411	94.69
391.636	88.69
391.86	89.69
392.085	93.69
392.31	91.69
392.534	90.69
392.759	87.69
392.984	94.69
393.208	91.69
393.433	72.69
393.658	84.69
393.882	94.69
394.107	93.69
394.331	94.69
394.556	90.69
394.78	89.69
395.005	86.69
395.229	75.69
395.454	79.69
395.678	85.69
395.903	85.69
396.127	95.69
396.352	87.69
396.576	84.69
396.801	85.69
397.025	88.69
397.249	102.69
397.474	84.69
397.698	80.69
397.922	91.69
398.147	84.69
398.371	85.69
398.595	100.69
398.82	93.69
399.044	84.69
399.268	90.69
399.492	79.69
399.717	88.69
399.941	86.69
400.165	84.69
400.389	99.69
400.613	82.69
400.837	90.69
401.062	82.69
401.286	98.69
401.51	82.69
401.734	82.69
401.958	93.69
402.182	103.69
402.406	126.69
402.63	82.69
402.854	105.69
403.078	89.69
403.302	96.69
403.526	79.69
403.75	91.69
403.974	100.69
404.198	88.69
404.422	83.69
404.645	88.69
404.869	85.69
405.093	85.69
405.317	100.69
405.541	86.69
405.765	98.69
405.988	114.69
406.212	131.69
406.436	194.69
406.66	130.69
406.883	98.69
407.107	90.69
407.331	101.69
407.555	91.69
407.778	87.69
408.002	95.69
408.226	88.69
408.449	81.69
408.673	76.69
408.896	87.69
409.12	99.69
409.344	85.69
409.567	86.69
409.791	97.69
410.014	100.69
410.238	95.69
410.461	88.69
410.685	96.69
410.908	88.69
411.132	111.69
411.355	111.69
411.578	106.69
411.802	85.69
412.025	88.69
412.249	87.69
412.472	101.69
412.695	88.69
412.919	83.69
413.142	84.69
413.365	91.69
413.589	95.69
413.812	87.69
414.035	83.69
414.258	87.69
414.482	102.69
414.705	78.69
414.928	62.69
415.151	96.69
415.374	89.69
415.597	84.69
415.821	85.69
416.044	92.69
416.267	83.69
416.49	86.69
416.713	91.69
416.936	92.69
417.159	87.69
417.382	87.69
417.605	86.69
417.828	83.69
418.051	88.69
418.274	92.69
418.497	89.69
418.72	81.69
418.943	86.69
419.166	82.69
419.389	98.69
419.611	109.69
419.834	88.69
420.057	103.69
420.28	81.69
420.503	98.69
420.726	88.69
420.948	94.69
421.171	92.69
421.394	88.69
421.617	84.69
421.839	77.69
422.062	78.69
422.285	94.69
422.507	77.69
422.73	79.69
422.953	87.69
423.175	90.69
423.398	96.69
423.621	90.69
423.843	82.69
424.066	97.69
424.288	88.69
424.511	96.69
424.733	100.69
424.956	73.69
425.178	88.69
425.401	100.69
425.623	97.69
425.846	72.69
426.068	91.69
426.291	100.69
426.513	84.69
426.735	90.69
426.958	79.69
427.18	103.69
427.402	112.69
427.625	123.69
427.847	121.69
428.069	106.69
428.292	88.69
428.514	79.69
428.736	91.69
428.958	92.69
429.181	78.69
429.403	90.69
429.625	91.69
429.847	83.69
430.069	94.69
430.292	88.69
430.514	85.69
430.736	78.69
430.958	80.69
431.18	93.69
431.402	86.69
431.624	67.69
431.846	80.69
432.068	89.69
432.29	82.69
432.512	94.69
432.734	86.69
432.956	87.69
433.178	110.69
433.4	92.69
433.622	86.69
433.844	92.69
434.066	102.69
434.287	109.69
434.509	85.69
434.731	77.69
434.953	77.69
435.175	84.69
435.397	103.69
435.618	81.69
435.84	87.69
436.062	107.69
436.284	112.69
436.505	85.69
436.727	86.69
436.949	89.69
437.17	93.69
437.392	87.69
437.614	104.69
437.835	95.69
438.057	108.69
438.278	109.69
438.5	94.69
438.721	108.69
438.943	87.69
439.165	90.69
439.386	76.69
439.608	80.69
439.829	89.69
440.05	103.69
440.272	111.69
440.493	98.69
440.715	85.69
440.936	82.69
441.158	76.69
441.379	84.69
441.6	77.69
441.822	85.69
442.043	80.69
442.264	96.69
442.486	84.69
442.707	100.69
442.928	107.69
443.149	131.69
443.371	106.69
443.592	90.69
443.813	102.69
444.034	90.69
444.255	88.69
444.476	87.69
444.698	88.69
444.919	77.69
445.14	134.69
445.361	116.69
445.582	92.69
445.803	120.69
446.024	115.69
446.245	118.69
446.466	98.69
446.687	101.69
446.908	79.69
447.129	79.69
447.35	90.69
447.571	90.69
447.792	99.69
448.013	91.69
448.234	90.69
448.455	106.69
448.675	110.69
448.896	110.69
449.117	94.69
449.338	101.69
449.559	113.69
449.779	95.69
450	83.69
450.221	86.69
450.442	94.69
450.662	82.69
450.883	82.69
451.104	103.69
451.324	97.69
451.545	93.69
451.766	88.69
451.986	96.69
452.207	98.69
452.428	93.69
452.648	84.69
452.869	108.69
453.089	110.69
453.31	91.69
453.53	92.69
453.751	96.69
453.971	103.69
454.192	97.69
454.412	97.69
454.633	78.69
454.853	88.69
455.073	90.69
455.294	88.69
455.514	96.69
455.734	99.69
455.955	90.69
456.175	83.69
456.395	92.69
456.616	85.69
456.836	88.69
457.056	95.69
457.276	89.69
457.497	64.69
457.717	79.69
457.937	93.69
458.157	68.69
458.377	79.69
458.598	98.69
458.818	119.69
459.038	131.69
459.258	93.69
459.478	84.69
459.698	83.69
459.918	85.69
460.138	92.69
460.358	96.69
460.578	92.69
460.798	80.69
461.018	88.69
461.238	100.69
461.458	91.69
461.678	89.69
461.898	83.69
462.118	84.69
462.338	89.69
462.558	93.69
462.777	83.69
462.997	89.69
463.217	78.69
463.437	86.69
463.657	90.69
463.876	84.69
464.096	76.69
464.316	77.69
464.536	107.69
464.755	84.69
464.975	95.69
465.195	143.69
465.414	127.69
465.634	91.69
465.854	93.69
466.073	86.69
466.293	110.69
466.512	88.69
466.732	72.69
466.951	93.69
467.171	82.69
467.391	88.69
467.61	84.69
467.829	92.69
468.049	92.69
468.268	104.69
468.488	97.69
468.707	88.69
468.927	78.69
469.146	76.69
469.365	84.69
469.585	93.69
469.804	109.69
470.023	86.69
470.243	83.69
470.462	93.69
470.681	111.69
470.901	98.69
471.12	90.69
471.339	95.69
471.558	82.69
471.777	87.69
471.997	76.69
472.216	107.69
472.435	139.69
472.654	95.69
472.873	92.69
473.092	87.69
473.311	96.69
473.53	88.69
473.749	85.69
473.968	94.69
474.187	97.69
474.406	103.69
474.625	90.69
474.844	104.69
475.063	84.69
475.282	92.69
475.501	85.69
475.72	84.69
475.939	78.69
476.158	87.69
476.377	93.69
476.596	76.69
476.814	77.69
477.033	87.69
477.252	85.69
477.471	91.69
477.69	96.69
477.908	91.69
478.127	93.69
478.346	95.69
478.564	89.69
478.783	90.69
479.002	94.69
479.22	98.69
479.439	94.69
479.658	106.69
479.876	90.69
480.095	85.69
480.313	86.69
480.532	85.69
480.751	94.69
480.969	115.69
481.188	172.69
481.406	141.69
481.624	92.69
481.843	79.69
482.061	94.69
482.28	94.69
482.498	87.69
482.717	87.69
482.935	96.69
483.153	89.69
483.372	84.69
483.59	104.69
483.808	79.69
484.027	94.69
484.245	85.69
484.463	83.69
484.681	95.69
484.9	95.69
485.118	94.69
485.336	80.69
485.554	83.69
485.772	109.69
485.99	108.69
486.209	103.69
486.427	111.69
486.645	96.69
486.863	124.69
487.081	100.69
487.299	104.69
487.517	96.69
487.735	102.69
487.953	78.69
488.171	99.69
488.389	107.69
488.607	99.69
488.825	83.69
489.043	87.69
489.261	87.69
489.479	83.69
489.696	99.69
489.914	85.69
490.132	90.69
490.35	93.69
490.568	73.69
490.786	101.69
491.003	72.69
491.221	75.69
491.439	84.69
491.657	90.69
491.874	84.69
492.092	98.69
492.31	109.69
492.527	98.69
492.745	99.69
492.963	102.69
493.18	74.69
493.398	79.69
493.615	88.69
493.833	92.69
494.05	88.69
494.268	98.69
494.485	79.69
494.703	76.69
494.92	98.69
495.138	77.69
495.355	85.69
495.573	91.69
495.79	85.69
496.008	96.69
496.225	94.69
496.442	96.69
496.66	83.69
496.877	94.69
497.094	82.69
497.312	98.69
497.529	92.69
497.746	83.69
497.963	91.69
498.181	83.69
498.398	94.69
498.615	90.69
498.832	111.69
499.049	90.69
499.267	94.69
499.484	93.69
499.701	83.69
499.918	105.69
500.135	92.69
500.352	76.69
500.569	77.69
500.786	102.69
501.003	77.69
501.22	98.69
501.437	89.69
501.654	95.69
501.871	92.69
502.088	80.69
502.305	96.69
502.522	88.69
502.739	86.69
502.956	90.69
503.172	84.69
503.389	92.69
503.606	94.69
503.823	92.69
504.04	85.69
504.256	92.69
504.473	81.69
504.69	100.69
504.907	102.69
505.123	76.69
505.34	104.69
505.557	92.69
505.773	88.69
505.99	96.69
506.207	106.69
506.423	93.69
506.64	93.69
506.856	91.69
507.073	75.69
507.289	87.69
507.506	85.69
507.722	99.69
507.939	78.69
508.155	84.69
508.372	94.69
508.588	82.69
508.805	90.69
509.021	94.69
509.238	79.69
509.454	93.69
509.67	93.69
509.887	93.69
510.103	99.69
510.319	180.69
510.536	522.69
510.752	1647.69
510.968	459.69
511.184	138.69
511.401	116.69
511.617	91.69
511.833	82.69
512.049	96.69
512.265	94.69
512.481	94.69
512.698	79.69
512.914	78.69
513.13	95.69
513.346	87.69
513.562	101.69
513.778	91.69
513.994	99.69
514.21	105.69
514.426	107.69
514.642	125.69
514.858	106.69
515.074	124.69
515.29	308.69
515.506	917.69
515.721	364.69
515.937	131.69
516.153	95.69
516.369	99.69
516.585	91.69
