Data from Circ_1980_H10_HRD10591_00072.txt Node
Date: Wed Jan 03 12:38:12 EST 2024
User: Yrep
Spectrometer: HR+D1059
Trigger mode: 1
Integration Time (sec): 1.000000E-1
Scans to average: 1
Electric dark correction enabled: true
Nonlinearity correction enabled: false
Boxcar width: 0
XAxis mode: Wavelengths
Number of Pixels in Spectrum: 2048
>>>>>Begin Spectral Data<<<<<
223.165	-6.62
223.4	-6.62
223.635	-6.62
223.869	-17.62
224.104	-31.62
224.338	-30.62
224.573	-4.62
224.808	-8.62
225.042	-7.62
225.277	-4.62
225.511	-7.62
225.746	-4.62
225.98	1.38
226.215	25.38
226.449	27.38
226.683	23.38
226.918	20.38
227.152	26.38
227.387	33.38
227.621	30.38
227.856	40.38
228.09	51.38
228.324	56.38
228.559	62.38
228.793	65.38
229.027	64.38
229.262	58.38
229.496	60.38
229.73	68.38
229.964	83.38
230.199	74.38
230.433	87.38
230.667	85.38
230.901	71.38
231.136	77.38
231.37	74.38
231.604	64.38
231.838	79.38
232.072	89.38
232.306	85.38
232.541	82.38
232.775	91.38
233.009	84.38
233.243	93.38
233.477	83.38
233.711	78.38
233.945	86.38
234.179	79.38
234.413	86.38
234.647	78.38
234.881	79.38
235.115	93.38
235.349	71.38
235.583	74.38
235.817	65.38
236.051	83.38
236.285	71.38
236.519	85.38
236.753	88.38
236.987	63.38
237.221	83.38
237.455	73.38
237.689	69.38
237.922	82.38
238.156	86.38
238.39	87.38
238.624	83.38
238.858	91.38
239.091	72.38
239.325	76.38
239.559	81.38
239.793	80.38
240.027	64.38
240.26	78.38
240.494	76.38
240.728	71.38
240.961	83.38
241.195	85.38
241.429	79.38
241.662	75.38
241.896	83.38
242.13	80.38
242.363	81.38
242.597	90.38
242.83	99.38
243.064	89.38
243.298	72.38
243.531	74.38
243.765	76.38
243.998	86.38
244.232	77.38
244.465	75.38
244.699	86.38
244.932	69.38
245.166	71.38
245.399	74.38
245.633	61.38
245.866	91.38
246.099	76.38
246.333	83.38
246.566	84.38
246.8	69.38
247.033	89.38
247.266	75.38
247.5	73.38
247.733	70.38
247.966	81.38
248.2	76.38
248.433	71.38
248.666	71.38
248.899	81.38
249.133	86.38
249.366	81.38
249.599	95.38
249.832	72.38
250.066	93.38
250.299	86.38
250.532	81.38
250.765	87.38
250.998	51.38
251.231	72.38
251.465	72.38
251.698	77.38
251.931	85.38
252.164	81.38
252.397	76.38
252.63	72.38
252.863	96.38
253.096	71.38
253.329	83.38
253.562	75.38
253.795	78.38
254.028	66.38
254.261	54.38
254.494	71.38
254.727	70.38
254.96	66.38
255.193	78.38
255.426	74.38
255.659	87.38
255.892	97.38
256.124	73.38
256.357	81.38
256.59	80.38
256.823	73.38
257.056	85.38
257.289	81.38
257.521	92.38
257.754	82.38
257.987	90.38
258.22	79.38
258.452	78.38
258.685	76.38
258.918	76.38
259.151	96.38
259.383	84.38
259.616	82.38
259.849	76.38
260.081	76.38
260.314	91.38
260.547	79.38
260.779	79.38
261.012	78.38
261.244	82.38
261.477	99.38
261.71	85.38
261.942	106.38
262.175	117.38
262.407	85.38
262.64	72.38
262.872	83.38
263.105	73.38
263.337	81.38
263.57	102.38
263.802	90.38
264.035	85.38
264.267	68.38
264.499	72.38
264.732	82.38
264.964	66.38
265.197	82.38
265.429	84.38
265.661	80.38
265.894	90.38
266.126	78.38
266.358	85.38
266.591	76.38
266.823	82.38
267.055	68.38
267.287	78.38
267.52	81.38
267.752	88.38
267.984	89.38
268.216	91.38
268.448	86.38
268.681	69.38
268.913	93.38
269.145	93.38
269.377	87.38
269.609	87.38
269.841	89.38
270.073	94.38
270.306	78.38
270.538	89.38
270.77	80.38
271.002	77.38
271.234	87.38
271.466	66.38
271.698	71.38
271.93	82.38
272.162	108.38
272.394	90.38
272.626	82.38
272.858	79.38
273.09	78.38
273.322	88.38
273.553	79.38
273.785	76.38
274.017	83.38
274.249	97.38
274.481	85.38
274.713	98.38
274.945	89.38
275.176	94.38
275.408	84.38
275.64	99.38
275.872	87.38
276.104	79.38
276.335	87.38
276.567	95.38
276.799	90.38
277.031	89.38
277.262	89.38
277.494	92.38
277.726	98.38
277.957	83.38
278.189	90.38
278.421	84.38
278.652	76.38
278.884	85.38
279.115	81.38
279.347	75.38
279.579	84.38
279.81	76.38
280.042	85.38
280.273	86.38
280.505	87.38
280.736	75.38
280.968	76.38
281.199	86.38
281.431	76.38
281.662	83.38
281.894	101.38
282.125	103.38
282.356	101.38
282.588	128.38
282.819	99.38
283.051	87.38
283.282	72.38
283.513	85.38
283.745	90.38
283.976	81.38
284.207	77.38
284.439	79.38
284.67	87.38
284.901	81.38
285.132	83.38
285.364	89.38
285.595	84.38
285.826	88.38
286.057	92.38
286.288	100.38
286.52	82.38
286.751	101.38
286.982	87.38
287.213	89.38
287.444	87.38
287.675	82.38
287.906	93.38
288.138	85.38
288.369	78.38
288.6	73.38
288.831	78.38
289.062	85.38
289.293	67.38
289.524	93.38
289.755	77.38
289.986	86.38
290.217	92.38
290.448	85.38
290.679	102.38
290.91	92.38
291.141	86.38
291.371	75.38
291.602	87.38
291.833	87.38
292.064	97.38
292.295	93.38
292.526	76.38
292.757	100.38
292.987	89.38
293.218	83.38
293.449	83.38
293.68	92.38
293.91	99.38
294.141	98.38
294.372	106.38
294.603	88.38
294.833	96.38
295.064	94.38
295.295	89.38
295.525	80.38
295.756	100.38
295.987	99.38
296.217	122.38
296.448	116.38
296.679	86.38
296.909	92.38
297.14	93.38
297.37	84.38
297.601	75.38
297.831	81.38
298.062	92.38
298.292	83.38
298.523	85.38
298.753	77.38
298.984	87.38
299.214	107.38
299.445	100.38
299.675	93.38
299.905	87.38
300.136	88.38
300.366	78.38
300.597	99.38
300.827	93.38
301.057	99.38
301.288	93.38
301.518	76.38
301.748	82.38
301.979	97.38
302.209	99.38
302.439	92.38
302.669	92.38
302.9	88.38
303.13	88.38
303.36	92.38
303.59	95.38
303.82	94.38
304.051	96.38
304.281	86.38
304.511	85.38
304.741	85.38
304.971	93.38
305.201	95.38
305.431	92.38
305.661	85.38
305.891	112.38
306.121	82.38
306.352	107.38
306.582	80.38
306.812	99.38
307.042	77.38
307.272	94.38
307.502	106.38
307.731	97.38
307.961	81.38
308.191	83.38
308.421	81.38
308.651	83.38
308.881	91.38
309.111	106.38
309.341	79.38
309.571	98.38
309.8	88.38
310.03	94.38
310.26	100.38
310.49	92.38
310.72	91.38
310.949	91.38
311.179	99.38
311.409	84.38
311.639	79.38
311.868	87.38
312.098	77.38
312.328	85.38
312.557	99.38
312.787	103.38
313.017	100.38
313.246	84.38
313.476	99.38
313.706	93.38
313.935	103.38
314.165	101.38
314.394	97.38
314.624	97.38
314.853	87.38
315.083	95.38
315.312	90.38
315.542	82.38
315.771	107.38
316.001	83.38
316.23	81.38
316.46	79.38
316.689	86.38
316.919	95.38
317.148	98.38
317.377	93.38
317.607	97.38
317.836	77.38
318.065	94.38
318.295	89.38
318.524	97.38
318.753	95.38
318.983	90.38
319.212	112.38
319.441	89.38
319.67	92.38
319.9	85.38
320.129	86.38
320.358	94.38
320.587	110.38
320.816	95.38
321.046	81.38
321.275	86.38
321.504	94.38
321.733	99.38
321.962	83.38
322.191	88.38
322.42	101.38
322.649	87.38
322.878	100.38
323.108	101.38
323.337	107.38
323.566	101.38
323.795	129.38
324.024	149.38
324.253	275.38
324.482	600.38
324.71	1208.38
324.939	1562.38
325.168	599.38
325.397	201.38
325.626	129.38
325.855	109.38
326.084	106.38
326.313	120.38
326.542	126.38
326.77	158.38
326.999	351.38
327.228	692.38
327.457	1234.38
327.686	999.38
327.914	292.38
328.143	169.38
328.372	131.38
328.6	108.38
328.829	108.38
329.058	128.38
329.287	109.38
329.515	111.38
329.744	79.38
329.972	94.38
330.201	130.38
330.43	136.38
330.658	120.38
330.887	120.38
331.115	100.38
331.344	101.38
331.572	97.38
331.801	93.38
332.03	99.38
332.258	84.38
332.486	118.38
332.715	101.38
332.943	80.38
333.172	94.38
333.4	96.38
333.629	109.38
333.857	105.38
334.085	100.38
334.314	113.38
334.542	126.38
334.771	114.38
334.999	89.38
335.227	86.38
335.455	88.38
335.684	90.38
335.912	104.38
336.14	90.38
336.369	98.38
336.597	96.38
336.825	101.38
337.053	98.38
337.281	105.38
337.51	96.38
337.738	88.38
337.966	95.38
338.194	94.38
338.422	89.38
338.65	96.38
338.878	93.38
339.106	87.38
339.334	97.38
339.562	86.38
339.79	88.38
340.018	91.38
340.246	94.38
340.474	94.38
340.702	92.38
340.93	96.38
341.158	91.38
341.386	92.38
341.614	96.38
341.842	81.38
342.07	92.38
342.298	100.38
342.526	88.38
342.754	93.38
342.981	98.38
343.209	92.38
343.437	93.38
343.665	92.38
343.893	103.38
344.12	93.38
344.348	102.38
344.576	78.38
344.804	89.38
345.031	89.38
345.259	101.38
345.487	89.38
345.714	98.38
345.942	84.38
346.17	81.38
346.397	86.38
346.625	94.38
346.853	89.38
347.08	97.38
347.308	88.38
347.535	73.38
347.763	99.38
347.99	90.38
348.218	110.38
348.445	102.38
348.673	98.38
348.9	77.38
349.128	105.38
349.355	98.38
349.583	99.38
349.81	88.38
350.037	111.38
350.265	89.38
350.492	95.38
350.72	75.38
350.947	90.38
351.174	100.38
351.402	99.38
351.629	92.38
351.856	79.38
352.083	95.38
352.311	101.38
352.538	105.38
352.765	115.38
352.992	122.38
353.22	96.38
353.447	101.38
353.674	97.38
353.901	104.38
354.128	86.38
354.355	92.38
354.583	99.38
354.81	83.38
355.037	93.38
355.264	100.38
355.491	88.38
355.718	75.38
355.945	100.38
356.172	92.38
356.399	101.38
356.626	78.38
356.853	88.38
357.08	89.38
357.307	87.38
357.534	84.38
357.761	87.38
357.988	95.38
358.215	102.38
358.441	93.38
358.668	99.38
358.895	98.38
359.122	102.38
359.349	97.38
359.576	86.38
359.802	97.38
360.029	106.38
360.256	98.38
360.483	92.38
360.709	102.38
360.936	86.38
361.163	85.38
361.39	93.38
361.616	88.38
361.843	84.38
362.07	92.38
362.296	87.38
362.523	91.38
362.749	82.38
362.976	86.38
363.203	89.38
363.429	93.38
363.656	88.38
363.882	76.38
364.109	89.38
364.335	83.38
364.562	99.38
364.788	86.38
365.015	99.38
365.241	102.38
365.468	99.38
365.694	95.38
365.92	88.38
366.147	94.38
366.373	87.38
366.599	77.38
366.826	91.38
367.052	93.38
367.278	88.38
367.505	99.38
367.731	95.38
367.957	83.38
368.184	76.38
368.41	82.38
368.636	103.38
368.862	115.38
369.089	94.38
369.315	84.38
369.541	87.38
369.767	91.38
369.993	91.38
370.219	90.38
370.445	84.38
370.672	83.38
370.898	79.38
371.124	82.38
371.35	85.38
371.576	74.38
371.802	83.38
372.028	86.38
372.254	81.38
372.48	85.38
372.706	86.38
372.932	94.38
373.158	91.38
373.384	90.38
373.61	85.38
373.835	90.38
374.061	96.38
374.287	80.38
374.513	92.38
374.739	83.38
374.965	90.38
375.191	77.38
375.416	78.38
375.642	82.38
375.868	95.38
376.094	84.38
376.319	109.38
376.545	97.38
376.771	83.38
376.997	98.38
377.222	82.38
377.448	89.38
377.674	77.38
377.899	91.38
378.125	91.38
378.35	97.38
378.576	93.38
378.802	103.38
379.027	81.38
379.253	83.38
379.478	77.38
379.704	81.38
379.929	102.38
380.155	79.38
380.38	85.38
380.606	101.38
380.831	98.38
381.057	117.38
381.282	114.38
381.507	87.38
381.733	114.38
381.958	76.38
382.184	81.38
382.409	93.38
382.634	97.38
382.86	100.38
383.085	106.38
383.31	91.38
383.535	94.38
383.761	94.38
383.986	95.38
384.211	98.38
384.436	106.38
384.662	102.38
384.887	104.38
385.112	111.38
385.337	92.38
385.562	93.38
385.787	101.38
386.013	91.38
386.238	101.38
386.463	106.38
386.688	109.38
386.913	96.38
387.138	101.38
387.363	109.38
387.588	100.38
387.813	108.38
388.038	103.38
388.263	119.38
388.488	116.38
388.713	94.38
388.938	91.38
389.163	93.38
389.387	92.38
389.612	93.38
389.837	81.38
390.062	82.38
390.287	101.38
390.512	89.38
390.736	94.38
390.961	87.38
391.186	86.38
391.411	75.38
391.636	93.38
391.86	81.38
392.085	88.38
392.31	95.38
392.534	84.38
392.759	84.38
392.984	98.38
393.208	81.38
393.433	102.38
393.658	91.38
393.882	84.38
394.107	98.38
394.331	95.38
394.556	103.38
394.78	86.38
395.005	77.38
395.229	81.38
395.454	84.38
395.678	86.38
395.903	91.38
396.127	80.38
396.352	102.38
396.576	79.38
396.801	89.38
397.025	87.38
397.249	73.38
397.474	78.38
397.698	87.38
397.922	83.38
398.147	78.38
398.371	85.38
398.595	91.38
398.82	85.38
399.044	93.38
399.268	97.38
399.492	76.38
399.717	91.38
399.941	87.38
400.165	90.38
400.389	88.38
400.613	89.38
400.837	91.38
401.062	76.38
401.286	73.38
401.51	101.38
401.734	87.38
401.958	87.38
402.182	111.38
402.406	131.38
402.63	109.38
402.854	96.38
403.078	97.38
403.302	99.38
403.526	93.38
403.75	83.38
403.974	83.38
404.198	101.38
404.422	82.38
404.645	85.38
404.869	76.38
405.093	95.38
405.317	98.38
405.541	101.38
405.765	92.38
405.988	107.38
406.212	135.38
406.436	178.38
406.66	124.38
406.883	99.38
407.107	85.38
407.331	98.38
407.555	102.38
407.778	104.38
408.002	79.38
408.226	74.38
408.449	87.38
408.673	93.38
408.896	101.38
409.12	75.38
409.344	85.38
409.567	83.38
409.791	92.38
410.014	96.38
410.238	110.38
410.461	94.38
410.685	86.38
410.908	92.38
411.132	110.38
411.355	110.38
411.578	78.38
411.802	92.38
412.025	87.38
412.249	89.38
412.472	102.38
412.695	77.38
412.919	91.38
413.142	92.38
413.365	84.38
413.589	83.38
413.812	93.38
414.035	87.38
414.258	87.38
414.482	91.38
414.705	86.38
414.928	86.38
415.151	86.38
415.374	84.38
415.597	81.38
415.821	96.38
416.044	82.38
416.267	101.38
416.49	87.38
416.713	78.38
416.936	83.38
417.159	91.38
417.382	85.38
417.605	93.38
417.828	93.38
418.051	95.38
418.274	100.38
418.497	84.38
418.72	76.38
418.943	102.38
419.166	87.38
419.389	95.38
419.611	92.38
419.834	78.38
420.057	91.38
420.28	102.38
420.503	86.38
420.726	84.38
420.948	93.38
421.171	97.38
421.394	105.38
421.617	92.38
421.839	86.38
422.062	77.38
422.285	84.38
422.507	101.38
422.73	98.38
422.953	93.38
423.175	87.38
423.398	75.38
423.621	93.38
423.843	75.38
424.066	89.38
424.288	85.38
424.511	75.38
424.733	94.38
424.956	104.38
425.178	82.38
425.401	101.38
425.623	91.38
425.846	94.38
426.068	75.38
426.291	72.38
426.513	91.38
426.735	96.38
426.958	87.38
427.18	88.38
427.402	125.38
427.625	132.38
427.847	101.38
428.069	111.38
428.292	108.38
428.514	92.38
428.736	90.38
428.958	82.38
429.181	83.38
429.403	85.38
429.625	73.38
429.847	86.38
430.069	102.38
430.292	99.38
430.514	73.38
430.736	83.38
430.958	90.38
431.18	78.38
431.402	83.38
431.624	82.38
431.846	94.38
432.068	81.38
432.29	82.38
432.512	86.38
432.734	94.38
432.956	99.38
433.178	87.38
433.4	100.38
433.622	85.38
433.844	85.38
434.066	84.38
434.287	105.38
434.509	93.38
434.731	83.38
434.953	74.38
435.175	91.38
435.397	93.38
435.618	91.38
435.84	106.38
436.062	106.38
436.284	109.38
436.505	94.38
436.727	100.38
436.949	93.38
437.17	75.38
437.392	78.38
437.614	97.38
437.835	101.38
438.057	109.38
438.278	97.38
438.5	91.38
438.721	107.38
438.943	97.38
439.165	81.38
439.386	83.38
439.608	90.38
439.829	97.38
440.05	110.38
440.272	119.38
440.493	96.38
440.715	91.38
440.936	76.38
441.158	99.38
441.379	79.38
441.6	91.38
441.822	86.38
442.043	76.38
442.264	103.38
442.486	101.38
442.707	90.38
442.928	101.38
443.149	119.38
443.371	115.38
443.592	103.38
443.813	111.38
444.034	100.38
444.255	86.38
444.476	89.38
444.698	77.38
444.919	77.38
445.14	122.38
445.361	130.38
445.582	102.38
445.803	109.38
446.024	118.38
446.245	125.38
446.466	93.38
446.687	81.38
446.908	89.38
447.129	91.38
447.35	91.38
447.571	88.38
447.792	78.38
448.013	91.38
448.234	93.38
448.455	109.38
448.675	107.38
448.896	105.38
449.117	95.38
449.338	93.38
449.559	118.38
449.779	106.38
450	89.38
450.221	102.38
450.442	84.38
450.662	93.38
450.883	90.38
451.104	99.38
451.324	89.38
451.545	94.38
451.766	89.38
451.986	78.38
452.207	88.38
452.428	78.38
452.648	94.38
452.869	97.38
453.089	97.38
453.31	94.38
453.53	90.38
453.751	83.38
453.971	104.38
454.192	110.38
454.412	81.38
454.633	85.38
454.853	81.38
455.073	85.38
455.294	94.38
455.514	92.38
455.734	76.38
455.955	90.38
456.175	84.38
456.395	94.38
456.616	82.38
456.836	85.38
457.056	93.38
457.276	83.38
457.497	77.38
457.717	85.38
457.937	86.38
458.157	94.38
458.377	97.38
458.598	97.38
458.818	124.38
459.038	129.38
459.258	103.38
459.478	87.38
459.698	81.38
459.918	87.38
460.138	68.38
460.358	72.38
460.578	80.38
460.798	83.38
461.018	86.38
461.238	87.38
461.458	92.38
461.678	83.38
461.898	81.38
462.118	97.38
462.338	87.38
462.558	87.38
462.777	87.38
462.997	76.38
463.217	62.38
463.437	71.38
463.657	84.38
463.876	106.38
464.096	91.38
464.316	77.38
464.536	75.38
464.755	95.38
464.975	91.38
465.195	122.38
465.414	137.38
465.634	95.38
465.854	86.38
466.073	91.38
466.293	79.38
466.512	81.38
466.732	75.38
466.951	83.38
467.171	93.38
467.391	81.38
467.61	100.38
467.829	92.38
468.049	93.38
468.268	97.38
468.488	69.38
468.707	85.38
468.927	90.38
469.146	86.38
469.365	93.38
469.585	101.38
469.804	94.38
470.023	103.38
470.243	85.38
470.462	85.38
470.681	106.38
470.901	75.38
471.12	93.38
471.339	83.38
471.558	91.38
471.777	85.38
471.997	90.38
472.216	107.38
472.435	138.38
472.654	86.38
472.873	86.38
473.092	82.38
473.311	87.38
473.53	76.38
473.749	97.38
473.968	95.38
474.187	100.38
474.406	83.38
474.625	83.38
474.844	96.38
475.063	87.38
475.282	83.38
475.501	101.38
475.72	95.38
475.939	72.38
476.158	83.38
476.377	85.38
476.596	102.38
476.814	91.38
477.033	92.38
477.252	104.38
477.471	99.38
477.69	88.38
477.908	79.38
478.127	90.38
478.346	83.38
478.564	83.38
478.783	85.38
479.002	102.38
479.22	96.38
479.439	93.38
479.658	107.38
479.876	85.38
480.095	85.38
480.313	93.38
480.532	87.38
480.751	87.38
480.969	117.38
481.188	171.38
481.406	134.38
481.624	88.38
481.843	88.38
482.061	90.38
482.28	84.38
482.498	79.38
482.717	98.38
482.935	84.38
483.153	85.38
483.372	78.38
483.59	89.38
483.808	98.38
484.027	85.38
484.245	97.38
484.463	95.38
484.681	93.38
484.9	109.38
485.118	101.38
485.336	90.38
485.554	97.38
485.772	97.38
485.99	115.38
486.209	117.38
486.427	91.38
486.645	101.38
486.863	117.38
487.081	96.38
487.299	97.38
487.517	93.38
487.735	103.38
487.953	89.38
488.171	98.38
488.389	92.38
488.607	109.38
488.825	101.38
489.043	87.38
489.261	100.38
489.479	86.38
489.696	94.38
489.914	98.38
490.132	86.38
490.35	70.38
490.568	95.38
490.786	103.38
491.003	95.38
491.221	87.38
491.439	91.38
491.657	97.38
491.874	91.38
492.092	75.38
492.31	76.38
492.527	97.38
492.745	88.38
492.963	94.38
493.18	85.38
493.398	83.38
493.615	98.38
493.833	87.38
494.05	96.38
494.268	94.38
494.485	90.38
494.703	93.38
494.92	92.38
495.138	83.38
495.355	93.38
495.573	96.38
495.79	101.38
496.008	100.38
496.225	105.38
496.442	110.38
496.66	104.38
496.877	88.38
497.094	88.38
497.312	92.38
497.529	82.38
497.746	92.38
497.963	85.38
498.181	107.38
498.398	98.38
498.615	101.38
498.832	105.38
499.049	106.38
499.267	93.38
499.484	77.38
499.701	90.38
499.918	78.38
500.135	93.38
500.352	87.38
500.569	78.38
500.786	103.38
501.003	89.38
501.22	87.38
501.437	111.38
501.654	85.38
501.871	100.38
502.088	98.38
502.305	87.38
502.522	92.38
502.739	100.38
502.956	85.38
503.172	95.38
503.389	101.38
503.606	97.38
503.823	93.38
504.04	101.38
504.256	96.38
504.473	103.38
504.69	94.38
504.907	91.38
505.123	88.38
505.34	91.38
505.557	91.38
505.773	97.38
505.99	93.38
506.207	90.38
506.423	101.38
506.64	91.38
506.856	97.38
507.073	83.38
507.289	98.38
507.506	91.38
507.722	113.38
507.939	93.38
508.155	91.38
508.372	93.38
508.588	95.38
508.805	85.38
509.021	96.38
509.238	86.38
509.454	100.38
509.67	97.38
509.887	109.38
510.103	120.38
510.319	179.38
510.536	569.38
510.752	1743.38
510.968	486.38
511.184	125.38
511.401	103.38
511.617	94.38
511.833	91.38
512.049	85.38
512.265	99.38
512.481	101.38
512.698	81.38
512.914	95.38
513.13	83.38
513.346	88.38
513.562	105.38
513.778	87.38
513.994	86.38
514.21	85.38
514.426	111.38
514.642	117.38
514.858	124.38
515.074	149.38
515.29	314.38
515.506	1005.38
515.721	379.38
515.937	128.38
516.153	107.38
516.369	108.38
