Data from Circ_1980_H10_HRD10591_00049.txt Node
Date: Wed Jan 03 12:38:08 EST 2024
User: Yrep
Spectrometer: HR+D1059
Trigger mode: 1
Integration Time (sec): 1.000000E-1
Scans to average: 1
Electric dark correction enabled: true
Nonlinearity correction enabled: false
Boxcar width: 0
XAxis mode: Wavelengths
Number of Pixels in Spectrum: 2048
>>>>>Begin Spectral Data<<<<<
223.165	-15.88
223.4	-15.88
223.635	-15.88
223.869	-16.88
224.104	-26.88
224.338	-7.88
224.573	-17.88
224.808	-18.88
225.042	0.12
225.277	-1.88
225.511	-15.88
225.746	-4.88
225.98	13.12
226.215	11.12
226.449	15.12
226.683	34.12
226.918	18.12
227.152	35.12
227.387	36.12
227.621	43.12
227.856	40.12
228.09	62.12
228.324	58.12
228.559	52.12
228.793	57.12
229.027	63.12
229.262	73.12
229.496	74.12
229.73	83.12
229.964	71.12
230.199	87.12
230.433	70.12
230.667	69.12
230.901	73.12
231.136	75.12
231.37	62.12
231.604	80.12
231.838	78.12
232.072	89.12
232.306	79.12
232.541	91.12
232.775	74.12
233.009	74.12
233.243	76.12
233.477	73.12
233.711	91.12
233.945	71.12
234.179	60.12
234.413	70.12
234.647	79.12
234.881	85.12
235.115	78.12
235.349	80.12
235.583	89.12
235.817	90.12
236.051	80.12
236.285	82.12
236.519	78.12
236.753	84.12
236.987	94.12
237.221	86.12
237.455	83.12
237.689	72.12
237.922	83.12
238.156	82.12
238.39	71.12
238.624	72.12
238.858	69.12
239.091	82.12
239.325	83.12
239.559	80.12
239.793	84.12
240.027	70.12
240.26	82.12
240.494	70.12
240.728	75.12
240.961	62.12
241.195	89.12
241.429	68.12
241.662	77.12
241.896	86.12
242.13	82.12
242.363	83.12
242.597	82.12
242.83	80.12
243.064	70.12
243.298	83.12
243.531	74.12
243.765	72.12
243.998	83.12
244.232	78.12
244.465	86.12
244.699	81.12
244.932	86.12
245.166	84.12
245.399	79.12
245.633	67.12
245.866	79.12
246.099	76.12
246.333	78.12
246.566	84.12
246.8	76.12
247.033	77.12
247.266	85.12
247.5	75.12
247.733	87.12
247.966	79.12
248.2	76.12
248.433	79.12
248.666	86.12
248.899	79.12
249.133	85.12
249.366	87.12
249.599	93.12
249.832	83.12
250.066	79.12
250.299	67.12
250.532	76.12
250.765	81.12
250.998	96.12
251.231	78.12
251.465	86.12
251.698	82.12
251.931	73.12
252.164	92.12
252.397	93.12
252.63	85.12
252.863	78.12
253.096	84.12
253.329	83.12
253.562	70.12
253.795	80.12
254.028	72.12
254.261	79.12
254.494	82.12
254.727	90.12
254.96	82.12
255.193	76.12
255.426	66.12
255.659	68.12
255.892	85.12
256.124	90.12
256.357	83.12
256.59	90.12
256.823	95.12
257.056	88.12
257.289	74.12
257.521	90.12
257.754	56.12
257.987	80.12
258.22	77.12
258.452	87.12
258.685	67.12
258.918	82.12
259.151	86.12
259.383	84.12
259.616	77.12
259.849	70.12
260.081	74.12
260.314	77.12
260.547	71.12
260.779	66.12
261.012	79.12
261.244	95.12
261.477	90.12
261.71	93.12
261.942	101.12
262.175	103.12
262.407	97.12
262.64	75.12
262.872	90.12
263.105	82.12
263.337	86.12
263.57	75.12
263.802	81.12
264.035	98.12
264.267	84.12
264.499	76.12
264.732	90.12
264.964	85.12
265.197	74.12
265.429	84.12
265.661	80.12
265.894	78.12
266.126	85.12
266.358	89.12
266.591	94.12
266.823	67.12
267.055	90.12
267.287	82.12
267.52	95.12
267.752	87.12
267.984	84.12
268.216	76.12
268.448	89.12
268.681	88.12
268.913	88.12
269.145	71.12
269.377	80.12
269.609	78.12
269.841	91.12
270.073	88.12
270.306	86.12
270.538	74.12
270.77	82.12
271.002	83.12
271.234	87.12
271.466	88.12
271.698	97.12
271.93	86.12
272.162	91.12
272.394	82.12
272.626	90.12
272.858	103.12
273.09	77.12
273.322	80.12
273.553	89.12
273.785	89.12
274.017	86.12
274.249	94.12
274.481	87.12
274.713	89.12
274.945	84.12
275.176	72.12
275.408	88.12
275.64	86.12
275.872	92.12
276.104	102.12
276.335	94.12
276.567	81.12
276.799	96.12
277.031	95.12
277.262	86.12
277.494	91.12
277.726	92.12
277.957	76.12
278.189	84.12
278.421	77.12
278.652	92.12
278.884	84.12
279.115	97.12
279.347	98.12
279.579	94.12
279.81	82.12
280.042	101.12
280.273	85.12
280.505	81.12
280.736	70.12
280.968	88.12
281.199	91.12
281.431	87.12
281.662	79.12
281.894	103.12
282.125	101.12
282.356	108.12
282.588	125.12
282.819	102.12
283.051	91.12
283.282	91.12
283.513	101.12
283.745	77.12
283.976	90.12
284.207	85.12
284.439	86.12
284.67	88.12
284.901	86.12
285.132	101.12
285.364	83.12
285.595	70.12
285.826	89.12
286.057	82.12
286.288	83.12
286.52	66.12
286.751	84.12
286.982	83.12
287.213	77.12
287.444	76.12
287.675	86.12
287.906	86.12
288.138	70.12
288.369	86.12
288.6	91.12
288.831	83.12
289.062	85.12
289.293	77.12
289.524	90.12
289.755	81.12
289.986	75.12
290.217	78.12
290.448	87.12
290.679	86.12
290.91	77.12
291.141	68.12
291.371	93.12
291.602	88.12
291.833	93.12
292.064	89.12
292.295	80.12
292.526	84.12
292.757	95.12
292.987	95.12
293.218	91.12
293.449	90.12
293.68	78.12
293.91	95.12
294.141	88.12
294.372	88.12
294.603	91.12
294.833	97.12
295.064	89.12
295.295	85.12
295.525	95.12
295.756	110.12
295.987	105.12
296.217	115.12
296.448	110.12
296.679	87.12
296.909	83.12
297.14	79.12
297.37	82.12
297.601	80.12
297.831	77.12
298.062	85.12
298.292	91.12
298.523	103.12
298.753	92.12
298.984	93.12
299.214	71.12
299.445	86.12
299.675	103.12
299.905	100.12
300.136	84.12
300.366	87.12
300.597	73.12
300.827	98.12
301.057	90.12
301.288	100.12
301.518	88.12
301.748	63.12
301.979	101.12
302.209	88.12
302.439	84.12
302.669	80.12
302.9	86.12
303.13	77.12
303.36	88.12
303.59	103.12
303.82	96.12
304.051	78.12
304.281	96.12
304.511	92.12
304.741	83.12
304.971	96.12
305.201	92.12
305.431	90.12
305.661	101.12
305.891	103.12
306.121	103.12
306.352	102.12
306.582	76.12
306.812	95.12
307.042	90.12
307.272	83.12
307.502	98.12
307.731	94.12
307.961	96.12
308.191	95.12
308.421	94.12
308.651	99.12
308.881	96.12
309.111	99.12
309.341	98.12
309.571	98.12
309.8	90.12
310.03	96.12
310.26	90.12
310.49	88.12
310.72	88.12
310.949	92.12
311.179	99.12
311.409	80.12
311.639	98.12
311.868	89.12
312.098	96.12
312.328	90.12
312.557	96.12
312.787	101.12
313.017	98.12
313.246	94.12
313.476	100.12
313.706	90.12
313.935	90.12
314.165	92.12
314.394	98.12
314.624	97.12
314.853	104.12
315.083	67.12
315.312	83.12
315.542	84.12
315.771	88.12
316.001	75.12
316.23	70.12
316.46	91.12
316.689	92.12
316.919	100.12
317.148	87.12
317.377	92.12
317.607	99.12
317.836	74.12
318.065	87.12
318.295	94.12
318.524	94.12
318.753	88.12
318.983	95.12
319.212	100.12
319.441	105.12
319.67	102.12
319.9	99.12
320.129	104.12
320.358	93.12
320.587	83.12
320.816	86.12
321.046	84.12
321.275	100.12
321.504	104.12
321.733	87.12
321.962	90.12
322.191	106.12
322.42	106.12
322.649	90.12
322.878	103.12
323.108	108.12
323.337	102.12
323.566	119.12
323.795	123.12
324.024	176.12
324.253	318.12
324.482	620.12
324.71	1248.12
324.939	1593.12
325.168	632.12
325.397	197.12
325.626	145.12
325.855	118.12
326.084	124.12
326.313	123.12
326.542	126.12
326.77	178.12
326.999	351.12
327.228	746.12
327.457	1288.12
327.686	1009.12
327.914	300.12
328.143	150.12
328.372	127.12
328.6	101.12
328.829	106.12
329.058	119.12
329.287	118.12
329.515	93.12
329.744	109.12
329.972	97.12
330.201	126.12
330.43	108.12
330.658	121.12
330.887	120.12
331.115	98.12
331.344	94.12
331.572	98.12
331.801	107.12
332.03	99.12
332.258	106.12
332.486	88.12
332.715	99.12
332.943	96.12
333.172	94.12
333.4	91.12
333.629	102.12
333.857	108.12
334.085	115.12
334.314	105.12
334.542	105.12
334.771	118.12
334.999	92.12
335.227	104.12
335.455	100.12
335.684	89.12
335.912	90.12
336.14	87.12
336.369	100.12
336.597	94.12
336.825	88.12
337.053	90.12
337.281	87.12
337.51	90.12
337.738	84.12
337.966	84.12
338.194	93.12
338.422	96.12
338.65	105.12
338.878	86.12
339.106	92.12
339.334	79.12
339.562	80.12
339.79	76.12
340.018	82.12
340.246	100.12
340.474	94.12
340.702	86.12
340.93	103.12
341.158	98.12
341.386	91.12
341.614	100.12
341.842	88.12
342.07	90.12
342.298	89.12
342.526	102.12
342.754	96.12
342.981	89.12
343.209	89.12
343.437	90.12
343.665	94.12
343.893	95.12
344.12	94.12
344.348	79.12
344.576	82.12
344.804	86.12
345.031	88.12
345.259	93.12
345.487	86.12
345.714	99.12
345.942	99.12
346.17	88.12
346.397	99.12
346.625	93.12
346.853	92.12
347.08	96.12
347.308	96.12
347.535	103.12
347.763	94.12
347.99	94.12
348.218	87.12
348.445	104.12
348.673	100.12
348.9	92.12
349.128	98.12
349.355	83.12
349.583	85.12
349.81	87.12
350.037	95.12
350.265	98.12
350.492	105.12
350.72	96.12
350.947	96.12
351.174	101.12
351.402	96.12
351.629	96.12
351.856	93.12
352.083	93.12
352.311	98.12
352.538	113.12
352.765	103.12
352.992	94.12
353.22	100.12
353.447	95.12
353.674	109.12
353.901	96.12
354.128	83.12
354.355	98.12
354.583	87.12
354.81	106.12
355.037	96.12
355.264	95.12
355.491	84.12
355.718	96.12
355.945	88.12
356.172	95.12
356.399	94.12
356.626	90.12
356.853	89.12
357.08	103.12
357.307	105.12
357.534	95.12
357.761	94.12
357.988	103.12
358.215	100.12
358.441	78.12
358.668	91.12
358.895	98.12
359.122	83.12
359.349	100.12
359.576	105.12
359.802	96.12
360.029	106.12
360.256	90.12
360.483	94.12
360.709	86.12
360.936	104.12
361.163	87.12
361.39	82.12
361.616	98.12
361.843	85.12
362.07	92.12
362.296	86.12
362.523	80.12
362.749	79.12
362.976	96.12
363.203	92.12
363.429	88.12
363.656	89.12
363.882	76.12
364.109	91.12
364.335	94.12
364.562	84.12
364.788	78.12
365.015	99.12
365.241	95.12
365.468	90.12
365.694	98.12
365.92	93.12
366.147	93.12
366.373	83.12
366.599	99.12
366.826	90.12
367.052	86.12
367.278	104.12
367.505	85.12
367.731	110.12
367.957	98.12
368.184	88.12
368.41	92.12
368.636	94.12
368.862	111.12
369.089	97.12
369.315	102.12
369.541	94.12
369.767	83.12
369.993	90.12
370.219	95.12
370.445	85.12
370.672	79.12
370.898	83.12
371.124	101.12
371.35	100.12
371.576	79.12
371.802	90.12
372.028	120.12
372.254	101.12
372.48	83.12
372.706	75.12
372.932	94.12
373.158	79.12
373.384	98.12
373.61	77.12
373.835	90.12
374.061	78.12
374.287	91.12
374.513	97.12
374.739	96.12
374.965	91.12
375.191	89.12
375.416	96.12
375.642	76.12
375.868	90.12
376.094	98.12
376.319	79.12
376.545	92.12
376.771	98.12
376.997	97.12
377.222	88.12
377.448	93.12
377.674	80.12
377.899	81.12
378.125	80.12
378.35	85.12
378.576	101.12
378.802	86.12
379.027	95.12
379.253	90.12
379.478	98.12
379.704	102.12
379.929	90.12
380.155	98.12
380.38	103.12
380.606	88.12
380.831	100.12
381.057	102.12
381.282	92.12
381.507	90.12
381.733	95.12
381.958	102.12
382.184	105.12
382.409	106.12
382.634	94.12
382.86	99.12
383.085	80.12
383.31	90.12
383.535	97.12
383.761	103.12
383.986	110.12
384.211	92.12
384.436	104.12
384.662	87.12
384.887	97.12
385.112	82.12
385.337	101.12
385.562	102.12
385.787	91.12
386.013	100.12
386.238	116.12
386.463	102.12
386.688	115.12
386.913	98.12
387.138	94.12
387.363	104.12
387.588	108.12
387.813	107.12
388.038	110.12
388.263	111.12
388.488	106.12
388.713	76.12
388.938	98.12
389.163	88.12
389.387	100.12
389.612	87.12
389.837	78.12
390.062	80.12
390.287	99.12
390.512	79.12
390.736	90.12
390.961	88.12
391.186	86.12
391.411	104.12
391.636	105.12
391.86	83.12
392.085	89.12
392.31	101.12
392.534	86.12
392.759	78.12
392.984	95.12
393.208	87.12
393.433	92.12
393.658	77.12
393.882	91.12
394.107	94.12
394.331	86.12
394.556	77.12
394.78	96.12
395.005	88.12
395.229	91.12
395.454	81.12
395.678	91.12
395.903	92.12
396.127	86.12
396.352	82.12
396.576	76.12
396.801	82.12
397.025	79.12
397.249	104.12
397.474	74.12
397.698	84.12
397.922	94.12
398.147	70.12
398.371	82.12
398.595	86.12
398.82	85.12
399.044	97.12
399.268	88.12
399.492	105.12
399.717	77.12
399.941	93.12
400.165	88.12
400.389	101.12
400.613	77.12
400.837	89.12
401.062	83.12
401.286	84.12
401.51	95.12
401.734	78.12
401.958	90.12
402.182	114.12
402.406	131.12
402.63	110.12
402.854	98.12
403.078	83.12
403.302	94.12
403.526	82.12
403.75	90.12
403.974	84.12
404.198	77.12
404.422	80.12
404.645	87.12
404.869	86.12
405.093	87.12
405.317	92.12
405.541	81.12
405.765	90.12
405.988	97.12
406.212	132.12
406.436	187.12
406.66	111.12
406.883	88.12
407.107	77.12
407.331	100.12
407.555	93.12
407.778	75.12
408.002	85.12
408.226	98.12
408.449	94.12
408.673	109.12
408.896	91.12
409.12	96.12
409.344	90.12
409.567	88.12
409.791	82.12
410.014	99.12
410.238	86.12
410.461	94.12
410.685	94.12
410.908	97.12
411.132	96.12
411.355	101.12
411.578	96.12
411.802	90.12
412.025	77.12
412.249	95.12
412.472	97.12
412.695	88.12
412.919	78.12
413.142	84.12
413.365	87.12
413.589	80.12
413.812	108.12
414.035	103.12
414.258	76.12
414.482	86.12
414.705	90.12
414.928	91.12
415.151	97.12
415.374	76.12
415.597	78.12
415.821	92.12
416.044	84.12
416.267	92.12
416.49	82.12
416.713	89.12
416.936	98.12
417.159	89.12
417.382	92.12
417.605	80.12
417.828	77.12
418.051	90.12
418.274	105.12
418.497	98.12
418.72	98.12
418.943	86.12
419.166	89.12
419.389	82.12
419.611	82.12
419.834	79.12
420.057	98.12
420.28	88.12
420.503	94.12
420.726	93.12
420.948	102.12
421.171	85.12
421.394	95.12
421.617	74.12
421.839	94.12
422.062	78.12
422.285	88.12
422.507	111.12
422.73	106.12
422.953	87.12
423.175	88.12
423.398	87.12
423.621	75.12
423.843	86.12
424.066	91.12
424.288	104.12
424.511	91.12
424.733	92.12
424.956	96.12
425.178	96.12
425.401	98.12
425.623	85.12
425.846	88.12
426.068	98.12
426.291	85.12
426.513	88.12
426.735	79.12
426.958	83.12
427.18	95.12
427.402	116.12
427.625	133.12
427.847	114.12
428.069	97.12
428.292	80.12
428.514	86.12
428.736	90.12
428.958	90.12
429.181	91.12
429.403	90.12
429.625	88.12
429.847	83.12
430.069	91.12
430.292	94.12
430.514	78.12
430.736	93.12
430.958	98.12
431.18	95.12
431.402	88.12
431.624	85.12
431.846	78.12
432.068	84.12
432.29	83.12
432.512	85.12
432.734	86.12
432.956	78.12
433.178	84.12
433.4	106.12
433.622	91.12
433.844	90.12
434.066	80.12
434.287	94.12
434.509	84.12
434.731	86.12
434.953	77.12
435.175	82.12
435.397	86.12
435.618	84.12
435.84	83.12
436.062	123.12
436.284	116.12
436.505	90.12
436.727	92.12
436.949	95.12
437.17	82.12
437.392	84.12
437.614	89.12
437.835	99.12
438.057	112.12
438.278	99.12
438.5	89.12
438.721	125.12
438.943	97.12
439.165	84.12
439.386	97.12
439.608	82.12
439.829	100.12
440.05	103.12
440.272	114.12
440.493	102.12
440.715	86.12
440.936	90.12
441.158	79.12
441.379	88.12
441.6	88.12
441.822	91.12
442.043	93.12
442.264	86.12
442.486	98.12
442.707	95.12
442.928	89.12
443.149	110.12
443.371	98.12
443.592	95.12
443.813	98.12
444.034	99.12
444.255	89.12
444.476	92.12
444.698	97.12
444.919	90.12
445.14	129.12
445.361	113.12
445.582	111.12
445.803	104.12
446.024	107.12
446.245	109.12
446.466	105.12
446.687	93.12
446.908	79.12
447.129	95.12
447.35	93.12
447.571	99.12
447.792	102.12
448.013	90.12
448.234	108.12
448.455	93.12
448.675	104.12
448.896	110.12
449.117	99.12
449.338	92.12
449.559	101.12
449.779	124.12
450	100.12
450.221	87.12
450.442	102.12
450.662	86.12
450.883	117.12
451.104	104.12
451.324	83.12
451.545	80.12
451.766	101.12
451.986	98.12
452.207	90.12
452.428	94.12
452.648	92.12
452.869	96.12
453.089	102.12
453.31	113.12
453.53	82.12
453.751	79.12
453.971	88.12
454.192	91.12
454.412	91.12
454.633	75.12
454.853	92.12
455.073	80.12
455.294	68.12
455.514	83.12
455.734	95.12
455.955	76.12
456.175	101.12
456.395	69.12
456.616	87.12
456.836	88.12
457.056	87.12
457.276	99.12
457.497	91.12
457.717	87.12
457.937	73.12
458.157	90.12
458.377	92.12
458.598	95.12
458.818	127.12
459.038	129.12
459.258	109.12
459.478	105.12
459.698	94.12
459.918	93.12
460.138	86.12
460.358	88.12
460.578	96.12
460.798	94.12
461.018	86.12
461.238	82.12
461.458	101.12
461.678	89.12
461.898	95.12
462.118	87.12
462.338	88.12
462.558	86.12
462.777	82.12
462.997	90.12
463.217	85.12
463.437	79.12
463.657	82.12
463.876	88.12
464.096	93.12
464.316	88.12
464.536	90.12
464.755	106.12
464.975	115.12
465.195	127.12
465.414	112.12
465.634	98.12
465.854	88.12
466.073	84.12
466.293	95.12
466.512	91.12
466.732	84.12
466.951	74.12
467.171	103.12
467.391	92.12
467.61	92.12
467.829	76.12
468.049	100.12
468.268	107.12
468.488	75.12
468.707	86.12
468.927	84.12
469.146	102.12
469.365	79.12
469.585	76.12
469.804	92.12
470.023	96.12
470.243	99.12
470.462	90.12
470.681	90.12
470.901	110.12
471.12	87.12
471.339	84.12
471.558	93.12
471.777	91.12
471.997	105.12
472.216	112.12
472.435	132.12
472.654	99.12
472.873	79.12
473.092	82.12
473.311	85.12
473.53	98.12
473.749	84.12
473.968	91.12
474.187	71.12
474.406	87.12
474.625	81.12
474.844	92.12
475.063	83.12
475.282	82.12
475.501	98.12
475.72	82.12
475.939	88.12
476.158	85.12
476.377	76.12
476.596	76.12
476.814	85.12
477.033	103.12
477.252	76.12
477.471	106.12
477.69	100.12
477.908	80.12
478.127	93.12
478.346	91.12
478.564	93.12
478.783	100.12
479.002	87.12
479.22	94.12
479.439	106.12
479.658	90.12
479.876	86.12
480.095	108.12
480.313	92.12
480.532	92.12
480.751	85.12
480.969	106.12
481.188	193.12
481.406	142.12
481.624	101.12
481.843	87.12
482.061	93.12
482.28	86.12
482.498	87.12
482.717	103.12
482.935	96.12
483.153	94.12
483.372	99.12
483.59	82.12
483.808	79.12
484.027	92.12
484.245	89.12
484.463	92.12
484.681	98.12
484.9	85.12
485.118	85.12
485.336	108.12
485.554	84.12
485.772	97.12
485.99	112.12
486.209	107.12
486.427	107.12
486.645	104.12
486.863	104.12
487.081	86.12
487.299	100.12
487.517	101.12
487.735	98.12
487.953	85.12
488.171	90.12
488.389	97.12
488.607	87.12
488.825	93.12
489.043	97.12
489.261	103.12
489.479	93.12
489.696	107.12
489.914	98.12
490.132	100.12
490.35	96.12
490.568	112.12
490.786	89.12
491.003	83.12
491.221	94.12
491.439	94.12
491.657	86.12
491.874	83.12
492.092	102.12
492.31	86.12
492.527	80.12
492.745	87.12
492.963	100.12
493.18	77.12
493.398	98.12
493.615	84.12
493.833	90.12
494.05	87.12
494.268	77.12
494.485	101.12
494.703	107.12
494.92	104.12
495.138	99.12
495.355	93.12
495.573	95.12
495.79	92.12
496.008	89.12
496.225	96.12
496.442	76.12
496.66	95.12
496.877	96.12
497.094	78.12
497.312	92.12
497.529	80.12
497.746	97.12
497.963	106.12
498.181	93.12
498.398	87.12
498.615	112.12
498.832	92.12
499.049	89.12
499.267	96.12
499.484	75.12
499.701	83.12
499.918	100.12
500.135	88.12
500.352	99.12
500.569	95.12
500.786	90.12
501.003	90.12
501.22	94.12
501.437	85.12
501.654	91.12
501.871	104.12
502.088	103.12
502.305	86.12
502.522	88.12
502.739	91.12
502.956	100.12
503.172	85.12
503.389	95.12
503.606	92.12
503.823	93.12
504.04	96.12
504.256	79.12
504.473	103.12
504.69	107.12
504.907	88.12
505.123	89.12
505.34	93.12
505.557	90.12
505.773	96.12
505.99	90.12
506.207	84.12
506.423	93.12
506.64	93.12
506.856	89.12
507.073	90.12
507.289	85.12
507.506	94.12
507.722	104.12
507.939	103.12
508.155	100.12
508.372	107.12
508.588	105.12
508.805	94.12
509.021	84.12
509.238	92.12
509.454	100.12
509.67	99.12
509.887	120.12
510.103	115.12
510.319	172.12
510.536	577.12
510.752	1723.12
510.968	472.12
511.184	146.12
511.401	91.12
511.617	88.12
511.833	104.12
512.049	90.12
512.265	108.12
512.481	91.12
512.698	88.12
512.914	94.12
513.13	84.12
513.346	99.12
513.562	87.12
513.778	101.12
513.994	94.12
514.21	91.12
514.426	109.12
514.642	122.12
514.858	122.12
515.074	138.12
515.29	342.12
515.506	1003.12
515.721	385.12
515.937	139.12
516.153	90.12
