Data from Circ_1980_H10_HRD10591_00068.txt Node
Date: Wed Jan 03 12:38:11 EST 2024
User: Yrep
Spectrometer: HR+D1059
Trigger mode: 1
Integration Time (sec): 1.000000E-1
Scans to average: 1
Electric dark correction enabled: true
Nonlinearity correction enabled: false
Boxcar width: 0
XAxis mode: Wavelengths
Number of Pixels in Spectrum: 2048
>>>>>Begin Spectral Data<<<<<
223.165	-18.56
223.4	-18.56
223.635	-18.56
223.869	-16.56
224.104	-14.56
224.338	-22.56
224.573	-8.56
224.808	-3.56
225.042	-12.56
225.277	-3.56
225.511	-2.56
225.746	-0.56
225.98	-3.56
226.215	12.44
226.449	24.44
226.683	21.44
226.918	22.44
227.152	26.44
227.387	45.44
227.621	33.44
227.856	38.44
228.09	57.44
228.324	57.44
228.559	62.44
228.793	65.44
229.027	69.44
229.262	66.44
229.496	62.44
229.73	66.44
229.964	72.44
230.199	62.44
230.433	62.44
230.667	76.44
230.901	82.44
231.136	90.44
231.37	69.44
231.604	74.44
231.838	85.44
232.072	89.44
232.306	79.44
232.541	81.44
232.775	75.44
233.009	81.44
233.243	78.44
233.477	87.44
233.711	91.44
233.945	74.44
234.179	85.44
234.413	89.44
234.647	83.44
234.881	91.44
235.115	95.44
235.349	72.44
235.583	81.44
235.817	69.44
236.051	76.44
236.285	71.44
236.519	71.44
236.753	73.44
236.987	85.44
237.221	93.44
237.455	83.44
237.689	65.44
237.922	71.44
238.156	69.44
238.39	90.44
238.624	75.44
238.858	72.44
239.091	75.44
239.325	90.44
239.559	81.44
239.793	75.44
240.027	96.44
240.26	73.44
240.494	67.44
240.728	78.44
240.961	80.44
241.195	74.44
241.429	87.44
241.662	69.44
241.896	80.44
242.13	87.44
242.363	54.44
242.597	81.44
242.83	75.44
243.064	80.44
243.298	81.44
243.531	83.44
243.765	70.44
243.998	86.44
244.232	67.44
244.465	75.44
244.699	87.44
244.932	67.44
245.166	87.44
245.399	81.44
245.633	76.44
245.866	77.44
246.099	86.44
246.333	69.44
246.566	74.44
246.8	77.44
247.033	67.44
247.266	70.44
247.5	80.44
247.733	98.44
247.966	72.44
248.2	74.44
248.433	82.44
248.666	67.44
248.899	68.44
249.133	69.44
249.366	97.44
249.599	90.44
249.832	97.44
250.066	88.44
250.299	79.44
250.532	77.44
250.765	65.44
250.998	97.44
251.231	88.44
251.465	77.44
251.698	82.44
251.931	65.44
252.164	84.44
252.397	83.44
252.63	77.44
252.863	85.44
253.096	95.44
253.329	77.44
253.562	76.44
253.795	65.44
254.028	86.44
254.261	68.44
254.494	76.44
254.727	83.44
254.96	78.44
255.193	79.44
255.426	75.44
255.659	84.44
255.892	79.44
256.124	87.44
256.357	77.44
256.59	67.44
256.823	82.44
257.056	73.44
257.289	88.44
257.521	85.44
257.754	78.44
257.987	83.44
258.22	81.44
258.452	88.44
258.685	73.44
258.918	87.44
259.151	85.44
259.383	81.44
259.616	85.44
259.849	72.44
260.081	92.44
260.314	78.44
260.547	73.44
260.779	71.44
261.012	81.44
261.244	77.44
261.477	92.44
261.71	87.44
261.942	98.44
262.175	111.44
262.407	78.44
262.64	91.44
262.872	81.44
263.105	77.44
263.337	69.44
263.57	77.44
263.802	71.44
264.035	92.44
264.267	61.44
264.499	78.44
264.732	83.44
264.964	63.44
265.197	94.44
265.429	84.44
265.661	75.44
265.894	83.44
266.126	95.44
266.358	93.44
266.591	85.44
266.823	92.44
267.055	83.44
267.287	78.44
267.52	68.44
267.752	66.44
267.984	79.44
268.216	81.44
268.448	91.44
268.681	70.44
268.913	74.44
269.145	77.44
269.377	86.44
269.609	83.44
269.841	93.44
270.073	87.44
270.306	90.44
270.538	82.44
270.77	92.44
271.002	78.44
271.234	98.44
271.466	78.44
271.698	81.44
271.93	87.44
272.162	71.44
272.394	95.44
272.626	87.44
272.858	77.44
273.09	88.44
273.322	87.44
273.553	88.44
273.785	87.44
274.017	88.44
274.249	85.44
274.481	82.44
274.713	70.44
274.945	78.44
275.176	93.44
275.408	81.44
275.64	97.44
275.872	79.44
276.104	85.44
276.335	71.44
276.567	97.44
276.799	104.44
277.031	82.44
277.262	85.44
277.494	76.44
277.726	85.44
277.957	79.44
278.189	92.44
278.421	75.44
278.652	75.44
278.884	83.44
279.115	85.44
279.347	75.44
279.579	75.44
279.81	82.44
280.042	76.44
280.273	101.44
280.505	91.44
280.736	78.44
280.968	93.44
281.199	96.44
281.431	70.44
281.662	86.44
281.894	94.44
282.125	86.44
282.356	116.44
282.588	127.44
282.819	107.44
283.051	84.44
283.282	71.44
283.513	101.44
283.745	76.44
283.976	94.44
284.207	93.44
284.439	97.44
284.67	77.44
284.901	75.44
285.132	80.44
285.364	68.44
285.595	86.44
285.826	87.44
286.057	78.44
286.288	90.44
286.52	89.44
286.751	91.44
286.982	100.44
287.213	79.44
287.444	90.44
287.675	96.44
287.906	88.44
288.138	85.44
288.369	91.44
288.6	88.44
288.831	90.44
289.062	86.44
289.293	85.44
289.524	86.44
289.755	91.44
289.986	78.44
290.217	97.44
290.448	93.44
290.679	76.44
290.91	96.44
291.141	79.44
291.371	94.44
291.602	89.44
291.833	94.44
292.064	77.44
292.295	78.44
292.526	77.44
292.757	91.44
292.987	93.44
293.218	80.44
293.449	86.44
293.68	96.44
293.91	87.44
294.141	96.44
294.372	94.44
294.603	82.44
294.833	86.44
295.064	86.44
295.295	82.44
295.525	93.44
295.756	94.44
295.987	116.44
296.217	134.44
296.448	109.44
296.679	89.44
296.909	98.44
297.14	87.44
297.37	79.44
297.601	87.44
297.831	77.44
298.062	72.44
298.292	94.44
298.523	93.44
298.753	97.44
298.984	92.44
299.214	76.44
299.445	79.44
299.675	84.44
299.905	92.44
300.136	92.44
300.366	89.44
300.597	92.44
300.827	86.44
301.057	91.44
301.288	98.44
301.518	86.44
301.748	87.44
301.979	104.44
302.209	74.44
302.439	86.44
302.669	88.44
302.9	86.44
303.13	85.44
303.36	84.44
303.59	90.44
303.82	88.44
304.051	87.44
304.281	86.44
304.511	89.44
304.741	71.44
304.971	103.44
305.201	89.44
305.431	101.44
305.661	77.44
305.891	81.44
306.121	93.44
306.352	95.44
306.582	106.44
306.812	88.44
307.042	82.44
307.272	82.44
307.502	88.44
307.731	102.44
307.961	109.44
308.191	89.44
308.421	87.44
308.651	84.44
308.881	71.44
309.111	77.44
309.341	110.44
309.571	98.44
309.8	76.44
310.03	92.44
310.26	83.44
310.49	80.44
310.72	95.44
310.949	103.44
311.179	87.44
311.409	87.44
311.639	102.44
311.868	87.44
312.098	98.44
312.328	88.44
312.557	93.44
312.787	92.44
313.017	97.44
313.246	90.44
313.476	87.44
313.706	85.44
313.935	102.44
314.165	99.44
314.394	90.44
314.624	89.44
314.853	86.44
315.083	91.44
315.312	83.44
315.542	83.44
315.771	94.44
316.001	94.44
316.23	91.44
316.46	75.44
316.689	93.44
316.919	80.44
317.148	82.44
317.377	94.44
317.607	77.44
317.836	87.44
318.065	82.44
318.295	103.44
318.524	95.44
318.753	85.44
318.983	81.44
319.212	106.44
319.441	93.44
319.67	92.44
319.9	89.44
320.129	100.44
320.358	85.44
320.587	82.44
320.816	76.44
321.046	89.44
321.275	89.44
321.504	104.44
321.733	88.44
321.962	93.44
322.191	87.44
322.42	94.44
322.649	97.44
322.878	96.44
323.108	102.44
323.337	115.44
323.566	111.44
323.795	130.44
324.024	154.44
324.253	305.44
324.482	587.44
324.71	1183.44
324.939	1589.44
325.168	610.44
325.397	193.44
325.626	128.44
325.855	124.44
326.084	117.44
326.313	118.44
326.542	115.44
326.77	176.44
326.999	363.44
327.228	681.44
327.457	1258.44
327.686	970.44
327.914	288.44
328.143	166.44
328.372	129.44
328.6	103.44
328.829	116.44
329.058	120.44
329.287	118.44
329.515	99.44
329.744	92.44
329.972	83.44
330.201	112.44
330.43	109.44
330.658	116.44
330.887	126.44
331.115	105.44
331.344	97.44
331.572	111.44
331.801	113.44
332.03	91.44
332.258	95.44
332.486	88.44
332.715	103.44
332.943	89.44
333.172	83.44
333.4	97.44
333.629	100.44
333.857	102.44
334.085	97.44
334.314	126.44
334.542	127.44
334.771	121.44
334.999	105.44
335.227	84.44
335.455	93.44
335.684	105.44
335.912	91.44
336.14	106.44
336.369	95.44
336.597	90.44
336.825	95.44
337.053	95.44
337.281	97.44
337.51	88.44
337.738	81.44
337.966	81.44
338.194	78.44
338.422	95.44
338.65	96.44
338.878	87.44
339.106	106.44
339.334	105.44
339.562	86.44
339.79	109.44
340.018	84.44
340.246	93.44
340.474	96.44
340.702	97.44
340.93	85.44
341.158	91.44
341.386	99.44
341.614	93.44
341.842	91.44
342.07	93.44
342.298	100.44
342.526	95.44
342.754	86.44
342.981	97.44
343.209	83.44
343.437	89.44
343.665	89.44
343.893	94.44
344.12	88.44
344.348	85.44
344.576	67.44
344.804	100.44
345.031	89.44
345.259	85.44
345.487	95.44
345.714	108.44
345.942	93.44
346.17	92.44
346.397	91.44
346.625	99.44
346.853	93.44
347.08	94.44
347.308	79.44
347.535	83.44
347.763	84.44
347.99	107.44
348.218	107.44
348.445	82.44
348.673	100.44
348.9	103.44
349.128	96.44
349.355	80.44
349.583	81.44
349.81	97.44
350.037	90.44
350.265	97.44
350.492	96.44
350.72	92.44
350.947	86.44
351.174	86.44
351.402	97.44
351.629	83.44
351.856	99.44
352.083	98.44
352.311	94.44
352.538	93.44
352.765	96.44
352.992	106.44
353.22	107.44
353.447	103.44
353.674	98.44
353.901	83.44
354.128	103.44
354.355	100.44
354.583	85.44
354.81	99.44
355.037	100.44
355.264	78.44
355.491	93.44
355.718	92.44
355.945	87.44
356.172	89.44
356.399	79.44
356.626	104.44
356.853	89.44
357.08	90.44
357.307	98.44
357.534	74.44
357.761	91.44
357.988	88.44
358.215	85.44
358.441	89.44
358.668	77.44
358.895	94.44
359.122	93.44
359.349	83.44
359.576	85.44
359.802	93.44
360.029	115.44
360.256	104.44
360.483	95.44
360.709	77.44
360.936	88.44
361.163	94.44
361.39	94.44
361.616	106.44
361.843	87.44
362.07	94.44
362.296	93.44
362.523	91.44
362.749	90.44
362.976	87.44
363.203	89.44
363.429	98.44
363.656	83.44
363.882	81.44
364.109	101.44
364.335	86.44
364.562	100.44
364.788	92.44
365.015	98.44
365.241	97.44
365.468	89.44
365.694	98.44
365.92	93.44
366.147	83.44
366.373	93.44
366.599	100.44
366.826	87.44
367.052	99.44
367.278	94.44
367.505	94.44
367.731	90.44
367.957	96.44
368.184	87.44
368.41	81.44
368.636	103.44
368.862	109.44
369.089	95.44
369.315	81.44
369.541	93.44
369.767	98.44
369.993	85.44
370.219	91.44
370.445	75.44
370.672	108.44
370.898	98.44
371.124	87.44
371.35	76.44
371.576	78.44
371.802	85.44
372.028	77.44
372.254	97.44
372.48	78.44
372.706	94.44
372.932	99.44
373.158	87.44
373.384	91.44
373.61	89.44
373.835	92.44
374.061	81.44
374.287	103.44
374.513	92.44
374.739	72.44
374.965	77.44
375.191	88.44
375.416	89.44
375.642	86.44
375.868	94.44
376.094	84.44
376.319	84.44
376.545	93.44
376.771	95.44
376.997	89.44
377.222	85.44
377.448	79.44
377.674	76.44
377.899	88.44
378.125	93.44
378.35	83.44
378.576	95.44
378.802	91.44
379.027	101.44
379.253	99.44
379.478	96.44
379.704	94.44
379.929	81.44
380.155	99.44
380.38	81.44
380.606	87.44
380.831	91.44
381.057	98.44
381.282	91.44
381.507	91.44
381.733	101.44
381.958	88.44
382.184	95.44
382.409	97.44
382.634	90.44
382.86	105.44
383.085	121.44
383.31	99.44
383.535	82.44
383.761	115.44
383.986	82.44
384.211	91.44
384.436	85.44
384.662	98.44
384.887	95.44
385.112	102.44
385.337	106.44
385.562	92.44
385.787	105.44
386.013	103.44
386.238	85.44
386.463	91.44
386.688	115.44
386.913	109.44
387.138	125.44
387.363	101.44
387.588	102.44
387.813	102.44
388.038	106.44
388.263	91.44
388.488	106.44
388.713	105.44
388.938	90.44
389.163	98.44
389.387	120.44
389.612	102.44
389.837	86.44
390.062	89.44
390.287	95.44
390.512	94.44
390.736	91.44
390.961	92.44
391.186	92.44
391.411	93.44
391.636	76.44
391.86	81.44
392.085	83.44
392.31	81.44
392.534	74.44
392.759	96.44
392.984	102.44
393.208	91.44
393.433	90.44
393.658	70.44
393.882	92.44
394.107	97.44
394.331	86.44
394.556	74.44
394.78	103.44
395.005	90.44
395.229	90.44
395.454	87.44
395.678	90.44
395.903	89.44
396.127	91.44
396.352	85.44
396.576	78.44
396.801	79.44
397.025	93.44
397.249	89.44
397.474	76.44
397.698	87.44
397.922	80.44
398.147	81.44
398.371	78.44
398.595	93.44
398.82	101.44
399.044	90.44
399.268	78.44
399.492	81.44
399.717	89.44
399.941	92.44
400.165	78.44
400.389	91.44
400.613	74.44
400.837	75.44
401.062	103.44
401.286	86.44
401.51	85.44
401.734	90.44
401.958	93.44
402.182	111.44
402.406	128.44
402.63	113.44
402.854	86.44
403.078	82.44
403.302	83.44
403.526	98.44
403.75	95.44
403.974	88.44
404.198	80.44
404.422	82.44
404.645	86.44
404.869	90.44
405.093	97.44
405.317	97.44
405.541	99.44
405.765	89.44
405.988	116.44
406.212	149.44
406.436	174.44
406.66	115.44
406.883	91.44
407.107	108.44
407.331	107.44
407.555	92.44
407.778	87.44
408.002	89.44
408.226	93.44
408.449	92.44
408.673	90.44
408.896	98.44
409.12	97.44
409.344	94.44
409.567	89.44
409.791	83.44
410.014	92.44
410.238	83.44
410.461	90.44
410.685	87.44
410.908	90.44
411.132	87.44
411.355	86.44
411.578	80.44
411.802	105.44
412.025	91.44
412.249	90.44
412.472	92.44
412.695	93.44
412.919	81.44
413.142	87.44
413.365	88.44
413.589	88.44
413.812	86.44
414.035	78.44
414.258	101.44
414.482	85.44
414.705	77.44
414.928	91.44
415.151	104.44
415.374	80.44
415.597	88.44
415.821	74.44
416.044	86.44
416.267	90.44
416.49	96.44
416.713	94.44
416.936	84.44
417.159	94.44
417.382	94.44
417.605	95.44
417.828	102.44
418.051	78.44
418.274	101.44
418.497	90.44
418.72	84.44
418.943	89.44
419.166	95.44
419.389	79.44
419.611	93.44
419.834	74.44
420.057	74.44
420.28	93.44
420.503	83.44
420.726	91.44
420.948	76.44
421.171	89.44
421.394	91.44
421.617	95.44
421.839	96.44
422.062	83.44
422.285	93.44
422.507	108.44
422.73	105.44
422.953	90.44
423.175	85.44
423.398	96.44
423.621	91.44
423.843	87.44
424.066	76.44
424.288	87.44
424.511	83.44
424.733	91.44
424.956	102.44
425.178	89.44
425.401	87.44
425.623	81.44
425.846	83.44
426.068	93.44
426.291	81.44
426.513	82.44
426.735	78.44
426.958	99.44
427.18	114.44
427.402	120.44
427.625	119.44
427.847	100.44
428.069	106.44
428.292	94.44
428.514	94.44
428.736	94.44
428.958	81.44
429.181	74.44
429.403	69.44
429.625	71.44
429.847	90.44
430.069	99.44
430.292	81.44
430.514	99.44
430.736	98.44
430.958	89.44
431.18	85.44
431.402	80.44
431.624	70.44
431.846	88.44
432.068	86.44
432.29	99.44
432.512	103.44
432.734	93.44
432.956	97.44
433.178	82.44
433.4	88.44
433.622	89.44
433.844	101.44
434.066	87.44
434.287	91.44
434.509	98.44
434.731	95.44
434.953	86.44
435.175	87.44
435.397	92.44
435.618	81.44
435.84	107.44
436.062	98.44
436.284	100.44
436.505	92.44
436.727	97.44
436.949	90.44
437.17	87.44
437.392	70.44
437.614	93.44
437.835	93.44
438.057	107.44
438.278	93.44
438.5	103.44
438.721	100.44
438.943	108.44
439.165	95.44
439.386	94.44
439.608	87.44
439.829	88.44
440.05	105.44
440.272	116.44
440.493	95.44
440.715	89.44
440.936	88.44
441.158	74.44
441.379	79.44
441.6	85.44
441.822	89.44
442.043	92.44
442.264	81.44
442.486	77.44
442.707	86.44
442.928	104.44
443.149	108.44
443.371	119.44
443.592	103.44
443.813	86.44
444.034	91.44
444.255	91.44
444.476	99.44
444.698	78.44
444.919	83.44
445.14	120.44
445.361	104.44
445.582	100.44
445.803	109.44
446.024	105.44
446.245	104.44
446.466	94.44
446.687	81.44
446.908	89.44
447.129	83.44
447.35	91.44
447.571	95.44
447.792	86.44
448.013	87.44
448.234	103.44
448.455	109.44
448.675	111.44
448.896	108.44
449.117	99.44
449.338	95.44
449.559	111.44
449.779	106.44
450	97.44
450.221	95.44
450.442	90.44
450.662	81.44
450.883	97.44
451.104	111.44
451.324	96.44
451.545	82.44
451.766	75.44
451.986	81.44
452.207	83.44
452.428	90.44
452.648	95.44
452.869	103.44
453.089	104.44
453.31	90.44
453.53	91.44
453.751	84.44
453.971	85.44
454.192	97.44
454.412	89.44
454.633	81.44
454.853	85.44
455.073	98.44
455.294	95.44
455.514	99.44
455.734	86.44
455.955	98.44
456.175	85.44
456.395	88.44
456.616	93.44
456.836	90.44
457.056	86.44
457.276	83.44
457.497	93.44
457.717	74.44
457.937	99.44
458.157	87.44
458.377	83.44
458.598	109.44
458.818	124.44
459.038	123.44
459.258	103.44
459.478	79.44
459.698	81.44
459.918	90.44
460.138	102.44
460.358	87.44
460.578	93.44
460.798	88.44
461.018	94.44
461.238	97.44
461.458	84.44
461.678	72.44
461.898	83.44
462.118	101.44
462.338	84.44
462.558	84.44
462.777	98.44
462.997	61.44
463.217	93.44
463.437	89.44
463.657	94.44
463.876	85.44
464.096	94.44
464.316	93.44
464.536	86.44
464.755	84.44
464.975	110.44
465.195	136.44
465.414	127.44
465.634	95.44
465.854	87.44
466.073	89.44
466.293	77.44
466.512	90.44
466.732	87.44
466.951	78.44
467.171	91.44
467.391	98.44
467.61	88.44
467.829	103.44
468.049	102.44
468.268	117.44
468.488	94.44
468.707	82.44
468.927	77.44
469.146	79.44
469.365	92.44
469.585	86.44
469.804	82.44
470.023	92.44
470.243	93.44
470.462	85.44
470.681	101.44
470.901	97.44
471.12	90.44
471.339	83.44
471.558	89.44
471.777	85.44
471.997	90.44
472.216	97.44
472.435	127.44
472.654	90.44
472.873	79.44
473.092	82.44
473.311	85.44
473.53	87.44
473.749	91.44
473.968	86.44
474.187	98.44
474.406	102.44
474.625	85.44
474.844	96.44
475.063	71.44
475.282	81.44
475.501	86.44
475.72	103.44
475.939	94.44
476.158	73.44
476.377	83.44
476.596	96.44
476.814	85.44
477.033	87.44
477.252	89.44
477.471	81.44
477.69	89.44
477.908	97.44
478.127	97.44
478.346	79.44
478.564	85.44
478.783	78.44
479.002	83.44
479.22	90.44
479.439	88.44
479.658	97.44
479.876	87.44
480.095	82.44
480.313	89.44
480.532	84.44
480.751	114.44
480.969	116.44
481.188	185.44
481.406	147.44
481.624	97.44
481.843	85.44
482.061	79.44
482.28	87.44
482.498	100.44
482.717	97.44
482.935	78.44
483.153	101.44
483.372	87.44
483.59	103.44
483.808	107.44
484.027	93.44
484.245	89.44
484.463	86.44
484.681	91.44
484.9	93.44
485.118	94.44
485.336	97.44
485.554	86.44
485.772	115.44
485.99	93.44
486.209	108.44
486.427	114.44
486.645	117.44
486.863	113.44
487.081	98.44
487.299	93.44
487.517	98.44
487.735	88.44
487.953	81.44
488.171	88.44
488.389	90.44
488.607	94.44
488.825	99.44
489.043	101.44
489.261	91.44
489.479	101.44
489.696	98.44
489.914	101.44
490.132	87.44
490.35	81.44
490.568	115.44
490.786	101.44
491.003	98.44
491.221	89.44
491.439	85.44
491.657	99.44
491.874	93.44
492.092	87.44
492.31	90.44
492.527	95.44
492.745	93.44
492.963	97.44
493.18	91.44
493.398	101.44
493.615	103.44
493.833	89.44
494.05	85.44
494.268	92.44
494.485	82.44
494.703	85.44
494.92	98.44
495.138	90.44
495.355	70.44
495.573	85.44
495.79	62.44
496.008	82.44
496.225	92.44
496.442	81.44
496.66	94.44
496.877	85.44
497.094	99.44
497.312	82.44
497.529	94.44
497.746	95.44
497.963	86.44
498.181	83.44
498.398	85.44
498.615	86.44
498.832	104.44
499.049	98.44
499.267	79.44
499.484	99.44
499.701	77.44
499.918	88.44
500.135	85.44
500.352	94.44
500.569	90.44
500.786	86.44
501.003	90.44
501.22	86.44
501.437	102.44
501.654	102.44
501.871	100.44
502.088	101.44
502.305	92.44
502.522	88.44
502.739	97.44
502.956	83.44
503.172	89.44
503.389	85.44
503.606	99.44
503.823	109.44
504.04	94.44
504.256	87.44
504.473	93.44
504.69	81.44
504.907	99.44
505.123	97.44
505.34	100.44
505.557	93.44
505.773	91.44
505.99	95.44
506.207	84.44
506.423	61.44
506.64	91.44
506.856	99.44
507.073	94.44
507.289	81.44
507.506	98.44
507.722	110.44
507.939	97.44
508.155	94.44
508.372	79.44
508.588	84.44
508.805	116.44
509.021	92.44
509.238	87.44
509.454	86.44
509.67	102.44
509.887	98.44
510.103	121.44
510.319	171.44
510.536	557.44
510.752	1708.44
510.968	493.44
511.184	130.44
511.401	100.44
511.617	94.44
511.833	97.44
512.049	97.44
512.265	96.44
512.481	96.44
512.698	77.44
512.914	92.44
513.13	87.44
513.346	102.44
513.562	78.44
513.778	96.44
513.994	89.44
514.21	91.44
514.426	98.44
514.642	108.44
514.858	117.44
515.074	131.44
515.29	332.44
515.506	1007.44
515.721	401.44
515.937	130.44
516.153	101.44
516.369	93.44
516.585	87.44
516.801	76.44
