Data from Circ_1980_H10_HRD10591_00038.txt Node
Date: Wed Jan 03 12:38:05 EST 2024
User: Yrep
Spectrometer: HR+D1059
Trigger mode: 1
Integration Time (sec): 1.000000E-1
Scans to average: 1
Electric dark correction enabled: true
Nonlinearity correction enabled: false
Boxcar width: 0
XAxis mode: Wavelengths
Number of Pixels in Spectrum: 2048
>>>>>Begin Spectral Data<<<<<
223.165	-31.38
223.4	-31.38
223.635	-31.38
223.869	-9.38
224.104	-25.38
224.338	-7.38
224.573	-11.38
224.808	-18.38
225.042	-10.38
225.277	-4.38
225.511	-6.38
225.746	11.62
225.98	15.62
226.215	13.62
226.449	3.62
226.683	17.62
226.918	23.62
227.152	38.62
227.387	28.62
227.621	47.62
227.856	36.62
228.09	51.62
228.324	48.62
228.559	72.62
228.793	62.62
229.027	58.62
229.262	63.62
229.496	78.62
229.73	86.62
229.964	84.62
230.199	71.62
230.433	75.62
230.667	72.62
230.901	65.62
231.136	87.62
231.37	81.62
231.604	81.62
231.838	87.62
232.072	71.62
232.306	85.62
232.541	95.62
232.775	87.62
233.009	77.62
233.243	92.62
233.477	77.62
233.711	90.62
233.945	82.62
234.179	87.62
234.413	77.62
234.647	72.62
234.881	85.62
235.115	91.62
235.349	77.62
235.583	98.62
235.817	84.62
236.051	87.62
236.285	92.62
236.519	85.62
236.753	83.62
236.987	72.62
237.221	73.62
237.455	101.62
237.689	72.62
237.922	80.62
238.156	91.62
238.39	81.62
238.624	66.62
238.858	80.62
239.091	91.62
239.325	74.62
239.559	92.62
239.793	91.62
240.027	77.62
240.26	77.62
240.494	81.62
240.728	85.62
240.961	63.62
241.195	54.62
241.429	90.62
241.662	78.62
241.896	79.62
242.13	77.62
242.363	82.62
242.597	87.62
242.83	78.62
243.064	73.62
243.298	70.62
243.531	77.62
243.765	84.62
243.998	76.62
244.232	84.62
244.465	78.62
244.699	83.62
244.932	91.62
245.166	72.62
245.399	72.62
245.633	67.62
245.866	72.62
246.099	72.62
246.333	84.62
246.566	85.62
246.8	67.62
247.033	80.62
247.266	83.62
247.5	87.62
247.733	89.62
247.966	87.62
248.2	59.62
248.433	78.62
248.666	74.62
248.899	71.62
249.133	87.62
249.366	85.62
249.599	100.62
249.832	80.62
250.066	91.62
250.299	78.62
250.532	83.62
250.765	80.62
250.998	83.62
251.231	72.62
251.465	71.62
251.698	89.62
251.931	97.62
252.164	80.62
252.397	84.62
252.63	93.62
252.863	87.62
253.096	79.62
253.329	86.62
253.562	95.62
253.795	79.62
254.028	72.62
254.261	82.62
254.494	77.62
254.727	99.62
254.96	90.62
255.193	86.62
255.426	74.62
255.659	85.62
255.892	78.62
256.124	75.62
256.357	91.62
256.59	73.62
256.823	98.62
257.056	97.62
257.289	77.62
257.521	70.62
257.754	82.62
257.987	83.62
258.22	94.62
258.452	92.62
258.685	80.62
258.918	85.62
259.151	77.62
259.383	79.62
259.616	75.62
259.849	84.62
260.081	87.62
260.314	88.62
260.547	85.62
260.779	99.62
261.012	90.62
261.244	77.62
261.477	82.62
261.71	95.62
261.942	96.62
262.175	100.62
262.407	87.62
262.64	85.62
262.872	84.62
263.105	86.62
263.337	87.62
263.57	86.62
263.802	69.62
264.035	80.62
264.267	93.62
264.499	77.62
264.732	93.62
264.964	91.62
265.197	75.62
265.429	90.62
265.661	94.62
265.894	83.62
266.126	104.62
266.358	88.62
266.591	80.62
266.823	92.62
267.055	74.62
267.287	79.62
267.52	96.62
267.752	89.62
267.984	69.62
268.216	83.62
268.448	86.62
268.681	83.62
268.913	76.62
269.145	88.62
269.377	87.62
269.609	90.62
269.841	93.62
270.073	76.62
270.306	87.62
270.538	84.62
270.77	92.62
271.002	94.62
271.234	91.62
271.466	89.62
271.698	81.62
271.93	81.62
272.162	80.62
272.394	83.62
272.626	86.62
272.858	81.62
273.09	85.62
273.322	93.62
273.553	92.62
273.785	88.62
274.017	91.62
274.249	79.62
274.481	80.62
274.713	87.62
274.945	90.62
275.176	85.62
275.408	70.62
275.64	80.62
275.872	94.62
276.104	72.62
276.335	69.62
276.567	87.62
276.799	92.62
277.031	95.62
277.262	90.62
277.494	88.62
277.726	78.62
277.957	95.62
278.189	97.62
278.421	78.62
278.652	88.62
278.884	94.62
279.115	99.62
279.347	78.62
279.579	80.62
279.81	100.62
280.042	92.62
280.273	89.62
280.505	83.62
280.736	87.62
280.968	76.62
281.199	83.62
281.431	86.62
281.662	89.62
281.894	77.62
282.125	82.62
282.356	93.62
282.588	125.62
282.819	103.62
283.051	91.62
283.282	87.62
283.513	88.62
283.745	90.62
283.976	99.62
284.207	88.62
284.439	92.62
284.67	79.62
284.901	78.62
285.132	94.62
285.364	85.62
285.595	102.62
285.826	73.62
286.057	101.62
286.288	87.62
286.52	90.62
286.751	93.62
286.982	93.62
287.213	87.62
287.444	84.62
287.675	85.62
287.906	99.62
288.138	81.62
288.369	89.62
288.6	89.62
288.831	79.62
289.062	89.62
289.293	96.62
289.524	77.62
289.755	91.62
289.986	96.62
290.217	78.62
290.448	86.62
290.679	86.62
290.91	89.62
291.141	92.62
291.371	84.62
291.602	75.62
291.833	83.62
292.064	87.62
292.295	91.62
292.526	87.62
292.757	87.62
292.987	93.62
293.218	105.62
293.449	87.62
293.68	88.62
293.91	89.62
294.141	102.62
294.372	87.62
294.603	75.62
294.833	83.62
295.064	74.62
295.295	95.62
295.525	96.62
295.756	102.62
295.987	111.62
296.217	127.62
296.448	101.62
296.679	98.62
296.909	94.62
297.14	93.62
297.37	78.62
297.601	91.62
297.831	79.62
298.062	80.62
298.292	81.62
298.523	85.62
298.753	79.62
298.984	89.62
299.214	83.62
299.445	92.62
299.675	94.62
299.905	95.62
300.136	87.62
300.366	84.62
300.597	91.62
300.827	95.62
301.057	107.62
301.288	102.62
301.518	85.62
301.748	86.62
301.979	99.62
302.209	96.62
302.439	85.62
302.669	99.62
302.9	87.62
303.13	81.62
303.36	86.62
303.59	103.62
303.82	97.62
304.051	92.62
304.281	86.62
304.511	102.62
304.741	85.62
304.971	78.62
305.201	86.62
305.431	108.62
305.661	90.62
305.891	95.62
306.121	92.62
306.352	111.62
306.582	103.62
306.812	99.62
307.042	89.62
307.272	91.62
307.502	97.62
307.731	100.62
307.961	89.62
308.191	97.62
308.421	88.62
308.651	93.62
308.881	77.62
309.111	94.62
309.341	101.62
309.571	94.62
309.8	84.62
310.03	98.62
310.26	90.62
310.49	106.62
310.72	98.62
310.949	96.62
311.179	98.62
311.409	101.62
311.639	88.62
311.868	101.62
312.098	92.62
312.328	102.62
312.557	112.62
312.787	83.62
313.017	97.62
313.246	105.62
313.476	90.62
313.706	92.62
313.935	93.62
314.165	91.62
314.394	100.62
314.624	87.62
314.853	88.62
315.083	86.62
315.312	84.62
315.542	96.62
315.771	109.62
316.001	92.62
316.23	90.62
316.46	95.62
316.689	96.62
316.919	77.62
317.148	100.62
317.377	91.62
317.607	86.62
317.836	110.62
318.065	99.62
318.295	96.62
318.524	97.62
318.753	87.62
318.983	85.62
319.212	109.62
319.441	116.62
319.67	102.62
319.9	102.62
320.129	84.62
320.358	106.62
320.587	109.62
320.816	99.62
321.046	84.62
321.275	79.62
321.504	101.62
321.733	115.62
321.962	93.62
322.191	102.62
322.42	112.62
322.649	95.62
322.878	103.62
323.108	97.62
323.337	117.62
323.566	107.62
323.795	151.62
324.024	173.62
324.253	289.62
324.482	590.62
324.71	1173.62
324.939	1519.62
325.168	579.62
325.397	211.62
325.626	128.62
325.855	117.62
326.084	119.62
326.313	118.62
326.542	132.62
326.77	191.62
326.999	349.62
327.228	664.62
327.457	1240.62
327.686	983.62
327.914	281.62
328.143	142.62
328.372	138.62
328.6	116.62
328.829	112.62
329.058	107.62
329.287	109.62
329.515	111.62
329.744	101.62
329.972	96.62
330.201	99.62
330.43	126.62
330.658	114.62
330.887	124.62
331.115	93.62
331.344	105.62
331.572	95.62
331.801	93.62
332.03	85.62
332.258	93.62
332.486	99.62
332.715	103.62
332.943	96.62
333.172	86.62
333.4	88.62
333.629	102.62
333.857	102.62
334.085	104.62
334.314	108.62
334.542	134.62
334.771	132.62
334.999	94.62
335.227	92.62
335.455	87.62
335.684	93.62
335.912	105.62
336.14	80.62
336.369	106.62
336.597	100.62
336.825	92.62
337.053	89.62
337.281	99.62
337.51	91.62
337.738	96.62
337.966	85.62
338.194	99.62
338.422	87.62
338.65	86.62
338.878	85.62
339.106	99.62
339.334	94.62
339.562	85.62
339.79	108.62
340.018	98.62
340.246	89.62
340.474	85.62
340.702	109.62
340.93	96.62
341.158	93.62
341.386	94.62
341.614	99.62
341.842	90.62
342.07	113.62
342.298	85.62
342.526	92.62
342.754	110.62
342.981	97.62
343.209	97.62
343.437	94.62
343.665	90.62
343.893	87.62
344.12	108.62
344.348	83.62
344.576	89.62
344.804	107.62
345.031	94.62
345.259	90.62
345.487	92.62
345.714	92.62
345.942	96.62
346.17	91.62
346.397	94.62
346.625	101.62
346.853	88.62
347.08	85.62
347.308	72.62
347.535	97.62
347.763	102.62
347.99	103.62
348.218	93.62
348.445	94.62
348.673	111.62
348.9	98.62
349.128	101.62
349.355	116.62
349.583	103.62
349.81	93.62
350.037	91.62
350.265	90.62
350.492	89.62
350.72	99.62
350.947	108.62
351.174	121.62
351.402	92.62
351.629	88.62
351.856	105.62
352.083	113.62
352.311	105.62
352.538	101.62
352.765	107.62
352.992	112.62
353.22	95.62
353.447	96.62
353.674	92.62
353.901	112.62
354.128	102.62
354.355	96.62
354.583	108.62
354.81	92.62
355.037	95.62
355.264	96.62
355.491	85.62
355.718	90.62
355.945	109.62
356.172	104.62
356.399	101.62
356.626	96.62
356.853	93.62
357.08	94.62
357.307	92.62
357.534	99.62
357.761	108.62
357.988	115.62
358.215	107.62
358.441	91.62
358.668	103.62
358.895	94.62
359.122	103.62
359.349	83.62
359.576	80.62
359.802	95.62
360.029	91.62
360.256	100.62
360.483	105.62
360.709	101.62
360.936	99.62
361.163	97.62
361.39	99.62
361.616	89.62
361.843	81.62
362.07	96.62
362.296	103.62
362.523	83.62
362.749	90.62
362.976	89.62
363.203	87.62
363.429	80.62
363.656	83.62
363.882	78.62
364.109	83.62
364.335	79.62
364.562	98.62
364.788	91.62
365.015	78.62
365.241	89.62
365.468	85.62
365.694	88.62
365.92	98.62
366.147	76.62
366.373	84.62
366.599	86.62
366.826	88.62
367.052	86.62
367.278	87.62
367.505	94.62
367.731	89.62
367.957	84.62
368.184	96.62
368.41	102.62
368.636	91.62
368.862	115.62
369.089	91.62
369.315	91.62
369.541	104.62
369.767	91.62
369.993	85.62
370.219	91.62
370.445	86.62
370.672	87.62
370.898	100.62
371.124	91.62
371.35	91.62
371.576	86.62
371.802	71.62
372.028	95.62
372.254	97.62
372.48	89.62
372.706	78.62
372.932	80.62
373.158	93.62
373.384	71.62
373.61	90.62
373.835	91.62
374.061	95.62
374.287	88.62
374.513	93.62
374.739	107.62
374.965	75.62
375.191	96.62
375.416	75.62
375.642	87.62
375.868	93.62
376.094	96.62
376.319	88.62
376.545	100.62
376.771	85.62
376.997	92.62
377.222	92.62
377.448	90.62
377.674	89.62
377.899	95.62
378.125	89.62
378.35	85.62
378.576	80.62
378.802	100.62
379.027	92.62
379.253	86.62
379.478	105.62
379.704	101.62
379.929	92.62
380.155	80.62
380.38	92.62
380.606	94.62
380.831	92.62
381.057	105.62
381.282	100.62
381.507	108.62
381.733	103.62
381.958	90.62
382.184	107.62
382.409	111.62
382.634	102.62
382.86	87.62
383.085	93.62
383.31	109.62
383.535	109.62
383.761	105.62
383.986	111.62
384.211	99.62
384.436	98.62
384.662	110.62
384.887	103.62
385.112	103.62
385.337	94.62
385.562	104.62
385.787	122.62
386.013	106.62
386.238	109.62
386.463	100.62
386.688	113.62
386.913	115.62
387.138	112.62
387.363	111.62
387.588	109.62
387.813	92.62
388.038	105.62
388.263	120.62
388.488	117.62
388.713	103.62
388.938	99.62
389.163	95.62
389.387	90.62
389.612	90.62
389.837	95.62
390.062	108.62
390.287	105.62
390.512	94.62
390.736	87.62
390.961	87.62
391.186	88.62
391.411	88.62
391.636	102.62
391.86	85.62
392.085	84.62
392.31	85.62
392.534	87.62
392.759	91.62
392.984	89.62
393.208	92.62
393.433	77.62
393.658	103.62
393.882	85.62
394.107	83.62
394.331	86.62
394.556	81.62
394.78	101.62
395.005	95.62
395.229	61.62
395.454	89.62
395.678	69.62
395.903	84.62
396.127	89.62
396.352	76.62
396.576	71.62
396.801	81.62
397.025	92.62
397.249	91.62
397.474	100.62
397.698	98.62
397.922	102.62
398.147	85.62
398.371	91.62
398.595	94.62
398.82	95.62
399.044	87.62
399.268	83.62
399.492	86.62
399.717	86.62
399.941	87.62
400.165	89.62
400.389	88.62
400.613	96.62
400.837	88.62
401.062	81.62
401.286	86.62
401.51	72.62
401.734	87.62
401.958	91.62
402.182	104.62
402.406	132.62
402.63	106.62
402.854	93.62
403.078	91.62
403.302	87.62
403.526	85.62
403.75	88.62
403.974	75.62
404.198	89.62
404.422	89.62
404.645	83.62
404.869	78.62
405.093	95.62
405.317	94.62
405.541	96.62
405.765	86.62
405.988	105.62
406.212	135.62
406.436	190.62
406.66	123.62
406.883	88.62
407.107	84.62
407.331	98.62
407.555	92.62
407.778	100.62
408.002	101.62
408.226	84.62
408.449	97.62
408.673	88.62
408.896	87.62
409.12	97.62
409.344	87.62
409.567	81.62
409.791	92.62
410.014	99.62
410.238	88.62
410.461	104.62
410.685	83.62
410.908	91.62
411.132	107.62
411.355	111.62
411.578	95.62
411.802	84.62
412.025	92.62
412.249	100.62
412.472	90.62
412.695	92.62
412.919	79.62
413.142	90.62
413.365	72.62
413.589	88.62
413.812	84.62
414.035	92.62
414.258	100.62
414.482	87.62
414.705	101.62
414.928	88.62
415.151	97.62
415.374	88.62
415.597	86.62
415.821	91.62
416.044	88.62
416.267	92.62
416.49	88.62
416.713	95.62
416.936	85.62
417.159	73.62
417.382	79.62
417.605	73.62
417.828	99.62
418.051	95.62
418.274	83.62
418.497	83.62
418.72	86.62
418.943	87.62
419.166	88.62
419.389	96.62
419.611	100.62
419.834	98.62
420.057	84.62
420.28	75.62
420.503	89.62
420.726	79.62
420.948	80.62
421.171	76.62
421.394	89.62
421.617	93.62
421.839	92.62
422.062	82.62
422.285	79.62
422.507	97.62
422.73	74.62
422.953	88.62
423.175	80.62
423.398	93.62
423.621	91.62
423.843	85.62
424.066	78.62
424.288	83.62
424.511	91.62
424.733	87.62
424.956	93.62
425.178	91.62
425.401	92.62
425.623	84.62
425.846	90.62
426.068	95.62
426.291	73.62
426.513	90.62
426.735	92.62
426.958	83.62
427.18	93.62
427.402	128.62
427.625	122.62
427.847	117.62
428.069	107.62
428.292	89.62
428.514	97.62
428.736	76.62
428.958	83.62
429.181	79.62
429.403	86.62
429.625	80.62
429.847	93.62
430.069	97.62
430.292	92.62
430.514	81.62
430.736	81.62
430.958	79.62
431.18	79.62
431.402	77.62
431.624	71.62
431.846	76.62
432.068	89.62
432.29	87.62
432.512	92.62
432.734	81.62
432.956	83.62
433.178	83.62
433.4	103.62
433.622	78.62
433.844	95.62
434.066	103.62
434.287	88.62
434.509	101.62
434.731	83.62
434.953	81.62
435.175	87.62
435.397	86.62
435.618	91.62
435.84	85.62
436.062	112.62
436.284	99.62
436.505	90.62
436.727	99.62
436.949	83.62
437.17	100.62
437.392	80.62
437.614	85.62
437.835	85.62
438.057	121.62
438.278	98.62
438.5	90.62
438.721	96.62
438.943	101.62
439.165	79.62
439.386	93.62
439.608	103.62
439.829	92.62
440.05	111.62
440.272	112.62
440.493	83.62
440.715	88.62
440.936	88.62
441.158	83.62
441.379	87.62
441.6	81.62
441.822	90.62
442.043	107.62
442.264	102.62
442.486	89.62
442.707	108.62
442.928	96.62
443.149	99.62
443.371	115.62
443.592	97.62
443.813	101.62
444.034	108.62
444.255	83.62
444.476	82.62
444.698	97.62
444.919	85.62
445.14	132.62
445.361	107.62
445.582	102.62
445.803	126.62
446.024	114.62
446.245	106.62
446.466	93.62
446.687	81.62
446.908	102.62
447.129	71.62
447.35	102.62
447.571	98.62
447.792	91.62
448.013	87.62
448.234	97.62
448.455	100.62
448.675	97.62
448.896	109.62
449.117	89.62
449.338	99.62
449.559	105.62
449.779	103.62
450	84.62
450.221	89.62
450.442	78.62
450.662	87.62
450.883	102.62
451.104	115.62
451.324	76.62
451.545	84.62
451.766	80.62
451.986	91.62
452.207	87.62
452.428	92.62
452.648	87.62
452.869	116.62
453.089	107.62
453.31	99.62
453.53	95.62
453.751	91.62
453.971	92.62
454.192	104.62
454.412	89.62
454.633	73.62
454.853	83.62
455.073	86.62
455.294	86.62
455.514	93.62
455.734	81.62
455.955	84.62
456.175	90.62
456.395	86.62
456.616	89.62
456.836	86.62
457.056	93.62
457.276	83.62
457.497	85.62
457.717	99.62
457.937	88.62
458.157	83.62
458.377	89.62
458.598	88.62
458.818	118.62
459.038	122.62
459.258	92.62
459.478	88.62
459.698	63.62
459.918	90.62
460.138	88.62
460.358	89.62
460.578	101.62
460.798	110.62
461.018	87.62
461.238	71.62
461.458	90.62
461.678	101.62
461.898	88.62
462.118	89.62
462.338	84.62
462.558	80.62
462.777	94.62
462.997	93.62
463.217	87.62
463.437	95.62
463.657	81.62
463.876	102.62
464.096	86.62
464.316	92.62
464.536	103.62
464.755	106.62
464.975	113.62
465.195	127.62
465.414	122.62
465.634	88.62
465.854	85.62
466.073	93.62
466.293	89.62
466.512	83.62
466.732	89.62
466.951	90.62
467.171	79.62
467.391	77.62
467.61	92.62
467.829	94.62
468.049	107.62
468.268	108.62
468.488	83.62
468.707	90.62
468.927	85.62
469.146	92.62
469.365	92.62
469.585	93.62
469.804	90.62
470.023	77.62
470.243	88.62
470.462	75.62
470.681	92.62
470.901	89.62
471.12	90.62
471.339	85.62
471.558	86.62
471.777	95.62
471.997	86.62
472.216	111.62
472.435	143.62
472.654	95.62
472.873	97.62
473.092	96.62
473.311	79.62
473.53	73.62
473.749	92.62
473.968	87.62
474.187	83.62
474.406	85.62
474.625	87.62
474.844	84.62
475.063	99.62
475.282	84.62
475.501	93.62
475.72	86.62
475.939	63.62
476.158	98.62
476.377	85.62
476.596	91.62
476.814	86.62
477.033	100.62
477.252	79.62
477.471	89.62
477.69	93.62
477.908	86.62
478.127	87.62
478.346	88.62
478.564	83.62
478.783	86.62
479.002	92.62
479.22	79.62
479.439	89.62
479.658	85.62
479.876	96.62
480.095	101.62
480.313	87.62
480.532	86.62
480.751	109.62
480.969	94.62
481.188	191.62
481.406	158.62
481.624	96.62
481.843	89.62
482.061	83.62
482.28	83.62
482.498	96.62
482.717	97.62
482.935	89.62
483.153	80.62
483.372	85.62
483.59	113.62
483.808	95.62
484.027	78.62
484.245	96.62
484.463	84.62
484.681	91.62
484.9	87.62
485.118	88.62
485.336	98.62
485.554	92.62
485.772	104.62
485.99	96.62
486.209	120.62
486.427	114.62
486.645	107.62
486.863	117.62
487.081	102.62
487.299	115.62
487.517	100.62
487.735	88.62
487.953	94.62
488.171	85.62
488.389	101.62
488.607	92.62
488.825	77.62
489.043	85.62
489.261	88.62
489.479	78.62
489.696	85.62
489.914	85.62
490.132	89.62
490.35	81.62
490.568	99.62
490.786	95.62
491.003	80.62
491.221	92.62
491.439	94.62
491.657	74.62
491.874	96.62
492.092	83.62
492.31	88.62
492.527	96.62
492.745	86.62
492.963	88.62
493.18	95.62
493.398	87.62
493.615	92.62
493.833	101.62
494.05	95.62
494.268	92.62
494.485	91.62
494.703	92.62
494.92	95.62
495.138	92.62
495.355	100.62
495.573	89.62
495.79	101.62
496.008	100.62
496.225	102.62
496.442	89.62
496.66	92.62
496.877	89.62
497.094	80.62
497.312	99.62
497.529	85.62
497.746	100.62
497.963	78.62
498.181	102.62
498.398	106.62
498.615	102.62
498.832	92.62
499.049	85.62
499.267	90.62
499.484	89.62
499.701	108.62
499.918	95.62
500.135	82.62
500.352	106.62
500.569	99.62
500.786	98.62
501.003	99.62
501.22	88.62
501.437	105.62
501.654	88.62
501.871	101.62
502.088	102.62
502.305	100.62
502.522	96.62
502.739	77.62
502.956	91.62
503.172	101.62
503.389	81.62
503.606	106.62
503.823	121.62
504.04	101.62
504.256	92.62
504.473	83.62
504.69	97.62
504.907	91.62
505.123	110.62
505.34	84.62
505.557	79.62
505.773	95.62
505.99	80.62
506.207	88.62
506.423	87.62
506.64	104.62
506.856	113.62
507.073	93.62
507.289	89.62
507.506	87.62
507.722	117.62
507.939	105.62
508.155	109.62
508.372	92.62
508.588	93.62
508.805	93.62
509.021	92.62
509.238	91.62
509.454	95.62
509.67	116.62
509.887	107.62
510.103	102.62
510.319	161.62
510.536	493.62
510.752	1597.62
510.968	471.62
511.184	143.62
511.401	96.62
511.617	91.62
511.833	90.62
512.049	101.62
512.265	106.62
512.481	91.62
512.698	86.62
512.914	94.62
513.13	95.62
513.346	87.62
513.562	90.62
513.778	88.62
513.994	97.62
514.21	93.62
514.426	94.62
514.642	111.62
514.858	112.62
515.074	127.62
515.29	328.62
515.506	961.62
515.721	378.62
515.937	131.62
