Data from Circ_1980_H10_HRD10591_00067.txt Node
Date: Wed Jan 03 12:38:11 EST 2024
User: Yrep
Spectrometer: HR+D1059
Trigger mode: 1
Integration Time (sec): 1.000000E-1
Scans to average: 1
Electric dark correction enabled: true
Nonlinearity correction enabled: false
Boxcar width: 0
XAxis mode: Wavelengths
Number of Pixels in Spectrum: 2048
>>>>>Begin Spectral Data<<<<<
223.165	-26
223.4	-26
223.635	-26
223.869	-18
224.104	-28
224.338	-13
224.573	-10
224.808	2
225.042	-16
225.277	-12
225.511	2
225.746	1
225.98	4
226.215	3
226.449	17
226.683	34
226.918	24
227.152	36
227.387	41
227.621	52
227.856	55
228.09	41
228.324	39
228.559	54
228.793	53
229.027	63
229.262	56
229.496	67
229.73	75
229.964	77
230.199	75
230.433	80
230.667	71
230.901	76
231.136	85
231.37	72
231.604	86
231.838	99
232.072	74
232.306	73
232.541	75
232.775	70
233.009	76
233.243	88
233.477	79
233.711	79
233.945	77
234.179	85
234.413	93
234.647	79
234.881	75
235.115	76
235.349	76
235.583	69
235.817	77
236.051	67
236.285	67
236.519	78
236.753	93
236.987	89
237.221	76
237.455	81
237.689	66
237.922	85
238.156	76
238.39	76
238.624	78
238.858	68
239.091	72
239.325	83
239.559	86
239.793	68
240.027	76
240.26	81
240.494	88
240.728	79
240.961	82
241.195	79
241.429	82
241.662	69
241.896	90
242.13	68
242.363	67
242.597	79
242.83	76
243.064	73
243.298	80
243.531	86
243.765	79
243.998	85
244.232	80
244.465	73
244.699	92
244.932	74
245.166	80
245.399	87
245.633	73
245.866	85
246.099	84
246.333	84
246.566	75
246.8	74
247.033	80
247.266	92
247.5	86
247.733	85
247.966	76
248.2	88
248.433	84
248.666	72
248.899	73
249.133	68
249.366	84
249.599	93
249.832	79
250.066	87
250.299	68
250.532	91
250.765	84
250.998	78
251.231	78
251.465	91
251.698	79
251.931	80
252.164	84
252.397	87
252.63	86
252.863	72
253.096	84
253.329	80
253.562	94
253.795	63
254.028	78
254.261	85
254.494	77
254.727	82
254.96	58
255.193	74
255.426	77
255.659	82
255.892	94
256.124	79
256.357	87
256.59	95
256.823	71
257.056	72
257.289	67
257.521	87
257.754	84
257.987	79
258.22	87
258.452	90
258.685	86
258.918	73
259.151	73
259.383	85
259.616	101
259.849	85
260.081	71
260.314	76
260.547	79
260.779	78
261.012	97
261.244	76
261.477	97
261.71	86
261.942	83
262.175	89
262.407	92
262.64	79
262.872	75
263.105	90
263.337	86
263.57	87
263.802	85
264.035	80
264.267	80
264.499	92
264.732	91
264.964	89
265.197	88
265.429	86
265.661	86
265.894	87
266.126	91
266.358	88
266.591	78
266.823	79
267.055	83
267.287	89
267.52	94
267.752	93
267.984	90
268.216	80
268.448	78
268.681	78
268.913	82
269.145	83
269.377	78
269.609	82
269.841	100
270.073	86
270.306	92
270.538	85
270.77	78
271.002	84
271.234	89
271.466	97
271.698	75
271.93	85
272.162	74
272.394	86
272.626	80
272.858	90
273.09	92
273.322	93
273.553	90
273.785	88
274.017	82
274.249	77
274.481	101
274.713	98
274.945	85
275.176	84
275.408	100
275.64	87
275.872	89
276.104	93
276.335	106
276.567	88
276.799	89
277.031	99
277.262	84
277.494	90
277.726	68
277.957	79
278.189	84
278.421	84
278.652	93
278.884	97
279.115	92
279.347	90
279.579	82
279.81	86
280.042	90
280.273	102
280.505	95
280.736	90
280.968	86
281.199	85
281.431	86
281.662	83
281.894	85
282.125	93
282.356	108
282.588	119
282.819	103
283.051	83
283.282	106
283.513	98
283.745	79
283.976	89
284.207	77
284.439	76
284.67	86
284.901	94
285.132	101
285.364	91
285.595	94
285.826	79
286.057	96
286.288	89
286.52	96
286.751	80
286.982	94
287.213	89
287.444	97
287.675	82
287.906	94
288.138	86
288.369	87
288.6	88
288.831	94
289.062	94
289.293	103
289.524	98
289.755	93
289.986	86
290.217	67
290.448	89
290.679	94
290.91	88
291.141	92
291.371	82
291.602	88
291.833	81
292.064	92
292.295	90
292.526	98
292.757	86
292.987	87
293.218	85
293.449	92
293.68	89
293.91	82
294.141	70
294.372	86
294.603	95
294.833	94
295.064	77
295.295	74
295.525	99
295.756	105
295.987	107
296.217	117
296.448	108
296.679	94
296.909	92
297.14	79
297.37	98
297.601	97
297.831	101
298.062	83
298.292	87
298.523	98
298.753	82
298.984	76
299.214	103
299.445	92
299.675	87
299.905	99
300.136	88
300.366	99
300.597	88
300.827	79
301.057	99
301.288	102
301.518	94
301.748	106
301.979	101
302.209	90
302.439	91
302.669	80
302.9	92
303.13	94
303.36	78
303.59	102
303.82	85
304.051	100
304.281	99
304.511	90
304.741	91
304.971	90
305.201	104
305.431	90
305.661	89
305.891	83
306.121	96
306.352	85
306.582	97
306.812	90
307.042	77
307.272	90
307.502	95
307.731	103
307.961	88
308.191	72
308.421	79
308.651	86
308.881	98
309.111	83
309.341	88
309.571	96
309.8	90
310.03	97
310.26	91
310.49	99
310.72	89
310.949	103
311.179	84
311.409	89
311.639	99
311.868	107
312.098	96
312.328	95
312.557	99
312.787	102
313.017	104
313.246	100
313.476	96
313.706	84
313.935	92
314.165	100
314.394	107
314.624	103
314.853	93
315.083	105
315.312	105
315.542	92
315.771	99
316.001	89
316.23	95
316.46	88
316.689	80
316.919	106
317.148	106
317.377	92
317.607	85
317.836	107
318.065	98
318.295	87
318.524	94
318.753	104
318.983	103
319.212	102
319.441	94
319.67	104
319.9	87
320.129	96
320.358	94
320.587	82
320.816	96
321.046	113
321.275	92
321.504	96
321.733	102
321.962	86
322.191	86
322.42	100
322.649	104
322.878	105
323.108	101
323.337	108
323.566	111
323.795	139
324.024	166
324.253	316
324.482	621
324.71	1205
324.939	1637
325.168	594
325.397	196
325.626	136
325.855	109
326.084	103
326.313	105
326.542	150
326.77	202
326.999	377
327.228	702
327.457	1268
327.686	998
327.914	285
328.143	174
328.372	136
328.6	132
328.829	119
329.058	110
329.287	122
329.515	124
329.744	114
329.972	93
330.201	104
330.43	124
330.658	111
330.887	117
331.115	120
331.344	100
331.572	108
331.801	102
332.03	100
332.258	99
332.486	94
332.715	73
332.943	91
333.172	90
333.4	103
333.629	93
333.857	116
334.085	109
334.314	102
334.542	136
334.771	112
334.999	103
335.227	108
335.455	104
335.684	86
335.912	103
336.14	98
336.369	104
336.597	87
336.825	99
337.053	91
337.281	91
337.51	86
337.738	94
337.966	90
338.194	97
338.422	91
338.65	92
338.878	94
339.106	101
339.334	93
339.562	88
339.79	88
340.018	82
340.246	95
340.474	79
340.702	74
340.93	88
341.158	91
341.386	72
341.614	95
341.842	100
342.07	95
342.298	102
342.526	77
342.754	102
342.981	103
343.209	87
343.437	103
343.665	90
343.893	91
344.12	74
344.348	81
344.576	100
344.804	89
345.031	93
345.259	92
345.487	100
345.714	91
345.942	99
346.17	88
346.397	87
346.625	97
346.853	95
347.08	100
347.308	106
347.535	93
347.763	96
347.99	79
348.218	93
348.445	108
348.673	105
348.9	101
349.128	97
349.355	105
349.583	89
349.81	94
350.037	93
350.265	88
350.492	87
350.72	96
350.947	88
351.174	104
351.402	105
351.629	99
351.856	95
352.083	110
352.311	109
352.538	108
352.765	102
352.992	104
353.22	106
353.447	110
353.674	115
353.901	93
354.128	104
354.355	94
354.583	100
354.81	94
355.037	104
355.264	96
355.491	83
355.718	87
355.945	94
356.172	89
356.399	110
356.626	95
356.853	92
357.08	98
357.307	83
357.534	91
357.761	103
357.988	100
358.215	74
358.441	80
358.668	93
358.895	96
359.122	101
359.349	82
359.576	75
359.802	107
360.029	91
360.256	94
360.483	86
360.709	91
360.936	101
361.163	86
361.39	90
361.616	98
361.843	96
362.07	93
362.296	103
362.523	90
362.749	84
362.976	95
363.203	88
363.429	90
363.656	76
363.882	93
364.109	90
364.335	102
364.562	102
364.788	87
365.015	88
365.241	98
365.468	98
365.694	94
365.92	76
366.147	86
366.373	96
366.599	79
366.826	80
367.052	88
367.278	90
367.505	87
367.731	94
367.957	79
368.184	111
368.41	103
368.636	101
368.862	109
369.089	106
369.315	91
369.541	92
369.767	98
369.993	85
370.219	91
370.445	93
370.672	77
370.898	87
371.124	86
371.35	80
371.576	101
371.802	88
372.028	79
372.254	94
372.48	104
372.706	73
372.932	86
373.158	82
373.384	104
373.61	98
373.835	95
374.061	85
374.287	90
374.513	96
374.739	90
374.965	82
375.191	95
375.416	97
375.642	78
375.868	94
376.094	82
376.319	77
376.545	86
376.771	90
376.997	79
377.222	93
377.448	82
377.674	78
377.899	94
378.125	88
378.35	101
378.576	90
378.802	83
379.027	83
379.253	102
379.478	88
379.704	111
379.929	87
380.155	105
380.38	96
380.606	89
380.831	106
381.057	99
381.282	88
381.507	100
381.733	91
381.958	92
382.184	89
382.409	88
382.634	100
382.86	84
383.085	112
383.31	91
383.535	94
383.761	90
383.986	83
384.211	100
384.436	98
384.662	94
384.887	109
385.112	109
385.337	113
385.562	108
385.787	109
386.013	88
386.238	106
386.463	108
386.688	112
386.913	105
387.138	112
387.363	98
387.588	88
387.813	95
388.038	93
388.263	87
388.488	99
388.713	106
388.938	102
389.163	94
389.387	96
389.612	104
389.837	92
390.062	96
390.287	93
390.512	91
390.736	92
390.961	94
391.186	100
391.411	78
391.636	92
391.86	93
392.085	83
392.31	94
392.534	84
392.759	83
392.984	98
393.208	88
393.433	85
393.658	91
393.882	77
394.107	78
394.331	94
394.556	90
394.78	89
395.005	87
395.229	78
395.454	95
395.678	66
395.903	78
396.127	93
396.352	82
396.576	87
396.801	82
397.025	78
397.249	82
397.474	90
397.698	86
397.922	96
398.147	71
398.371	79
398.595	77
398.82	84
399.044	86
399.268	80
399.492	86
399.717	82
399.941	86
400.165	90
400.389	99
400.613	87
400.837	78
401.062	75
401.286	74
401.51	89
401.734	66
401.958	90
402.182	116
402.406	132
402.63	101
402.854	100
403.078	96
403.302	102
403.526	88
403.75	90
403.974	94
404.198	91
404.422	88
404.645	85
404.869	97
405.093	86
405.317	99
405.541	90
405.765	86
405.988	102
406.212	142
406.436	187
406.66	130
406.883	98
407.107	75
407.331	77
407.555	77
407.778	96
408.002	85
408.226	68
408.449	90
408.673	97
408.896	93
409.12	96
409.344	87
409.567	94
409.791	96
410.014	80
410.238	97
410.461	96
410.685	95
410.908	72
411.132	107
411.355	93
411.578	90
411.802	82
412.025	88
412.249	92
412.472	94
412.695	82
412.919	103
413.142	90
413.365	76
413.589	78
413.812	95
414.035	93
414.258	72
414.482	91
414.705	79
414.928	76
415.151	95
415.374	103
415.597	86
415.821	89
416.044	93
416.267	93
416.49	69
416.713	82
416.936	90
417.159	92
417.382	91
417.605	77
417.828	92
418.051	88
418.274	93
418.497	86
418.72	80
418.943	106
419.166	89
419.389	89
419.611	92
419.834	102
420.057	102
420.28	86
420.503	83
420.726	82
420.948	103
421.171	95
421.394	101
421.617	91
421.839	108
422.062	93
422.285	87
422.507	91
422.73	96
422.953	79
423.175	94
423.398	85
423.621	89
423.843	83
424.066	74
424.288	85
424.511	70
424.733	87
424.956	86
425.178	99
425.401	106
425.623	88
425.846	94
426.068	87
426.291	96
426.513	88
426.735	90
426.958	91
427.18	96
427.402	118
427.625	140
427.847	132
428.069	93
428.292	82
428.514	84
428.736	91
428.958	100
429.181	98
429.403	91
429.625	90
429.847	86
430.069	90
430.292	73
430.514	94
430.736	83
430.958	78
431.18	93
431.402	82
431.624	87
431.846	99
432.068	70
432.29	91
432.512	85
432.734	93
432.956	100
433.178	95
433.4	86
433.622	99
433.844	82
434.066	85
434.287	88
434.509	80
434.731	88
434.953	104
435.175	82
435.397	98
435.618	85
435.84	88
436.062	109
436.284	111
436.505	91
436.727	98
436.949	98
437.17	78
437.392	94
437.614	88
437.835	91
438.057	101
438.278	95
438.5	93
438.721	108
438.943	103
439.165	100
439.386	67
439.608	79
439.829	95
440.05	106
440.272	124
440.493	92
440.715	98
440.936	81
441.158	88
441.379	79
441.6	86
441.822	100
442.043	96
442.264	92
442.486	96
442.707	93
442.928	109
443.149	120
443.371	118
443.592	111
443.813	98
444.034	102
444.255	88
444.476	80
444.698	74
444.919	88
445.14	123
445.361	106
445.582	102
445.803	108
446.024	100
446.245	127
446.466	102
446.687	87
446.908	88
447.129	86
447.35	85
447.571	80
447.792	93
448.013	97
448.234	94
448.455	92
448.675	88
448.896	102
449.117	96
449.338	108
449.559	122
449.779	112
450	71
450.221	74
450.442	72
450.662	89
450.883	100
451.104	96
451.324	95
451.545	94
451.766	88
451.986	90
452.207	73
452.428	84
452.648	86
452.869	96
453.089	100
453.31	103
453.53	85
453.751	99
453.971	100
454.192	106
454.412	86
454.633	98
454.853	82
455.073	105
455.294	86
455.514	93
455.734	86
455.955	84
456.175	80
456.395	83
456.616	85
456.836	91
457.056	84
457.276	94
457.497	86
457.717	93
457.937	84
458.157	85
458.377	85
458.598	111
458.818	128
459.038	135
459.258	99
459.478	85
459.698	91
459.918	96
460.138	102
460.358	71
460.578	76
460.798	98
461.018	93
461.238	90
461.458	87
461.678	81
461.898	79
462.118	72
462.338	104
462.558	79
462.777	89
462.997	93
463.217	79
463.437	85
463.657	72
463.876	79
464.096	92
464.316	95
464.536	99
464.755	94
464.975	108
465.195	134
465.414	127
465.634	93
465.854	91
466.073	86
466.293	66
466.512	74
466.732	92
466.951	82
467.171	93
467.391	88
467.61	94
467.829	86
468.049	108
468.268	96
468.488	83
468.707	74
468.927	82
469.146	95
469.365	94
469.585	90
469.804	99
470.023	92
470.243	91
470.462	88
470.681	104
470.901	88
471.12	70
471.339	62
471.558	83
471.777	92
471.997	86
472.216	91
472.435	132
472.654	99
472.873	94
473.092	89
473.311	77
473.53	88
473.749	79
473.968	78
474.187	87
474.406	86
474.625	92
474.844	82
475.063	91
475.282	93
475.501	87
475.72	84
475.939	88
476.158	95
476.377	91
476.596	78
476.814	96
477.033	93
477.252	83
477.471	83
477.69	91
477.908	92
478.127	107
478.346	79
478.564	87
478.783	86
479.002	94
479.22	95
479.439	101
479.658	83
479.876	93
480.095	95
480.313	84
480.532	85
480.751	91
480.969	118
481.188	164
481.406	153
481.624	100
481.843	89
482.061	88
482.28	79
482.498	94
482.717	73
482.935	108
483.153	71
483.372	92
483.59	95
483.808	92
484.027	98
484.245	100
484.463	79
484.681	89
484.9	101
485.118	89
485.336	106
485.554	103
485.772	111
485.99	107
486.209	123
486.427	103
486.645	98
486.863	109
487.081	95
487.299	100
487.517	107
487.735	88
487.953	88
488.171	92
488.389	102
488.607	92
488.825	94
489.043	78
489.261	91
489.479	102
489.696	72
489.914	84
490.132	91
490.35	88
490.568	81
490.786	93
491.003	84
491.221	81
491.439	79
491.657	77
491.874	106
492.092	73
492.31	81
492.527	82
492.745	79
492.963	76
493.18	90
493.398	109
493.615	101
493.833	104
494.05	86
494.268	84
494.485	91
494.703	77
494.92	86
495.138	83
495.355	95
495.573	88
495.79	78
496.008	86
496.225	91
496.442	79
496.66	100
496.877	91
497.094	92
497.312	93
497.529	103
497.746	83
497.963	77
498.181	98
498.398	90
498.615	108
498.832	98
499.049	87
499.267	93
499.484	77
499.701	84
499.918	84
500.135	89
500.352	93
500.569	98
500.786	90
501.003	95
501.22	101
501.437	98
501.654	77
501.871	92
502.088	102
502.305	91
502.522	98
502.739	86
502.956	95
503.172	96
503.389	92
503.606	96
503.823	94
504.04	88
504.256	83
504.473	96
504.69	77
504.907	86
505.123	87
505.34	92
505.557	93
505.773	80
505.99	86
506.207	92
506.423	88
506.64	92
506.856	91
507.073	87
507.289	83
507.506	93
507.722	100
507.939	102
508.155	95
508.372	77
508.588	103
508.805	103
509.021	99
509.238	102
509.454	102
509.67	102
509.887	101
510.103	123
510.319	179
510.536	607
510.752	1801
510.968	497
511.184	138
511.401	110
511.617	101
511.833	87
512.049	86
512.265	95
512.481	88
512.698	88
512.914	103
513.13	83
513.346	86
513.562	88
513.778	91
513.994	94
514.21	97
514.426	107
514.642	132
514.858	108
515.074	130
515.29	351
515.506	1034
515.721	398
515.937	146
516.153	95
516.369	96
516.585	100
516.801	92
517.016	90
517.232	87
517.448	78
517.664	94
517.879	77
518.095	98
518.311	92
518.527	88
518.742	77
518.958	95
519.173	85
519.389	96
519.605	86
519.82	92
520.036	96
520.251	116
520.467	109
520.682	112
520.898	91
521.113	104
521.329	117
521.544	179
521.76	450
521.975	1711
522.19	978
522.406	228
522.621	122
522.836	94
523.052	90
523.267	86
523.482	86
523.698	106
523.913	110
524.128	114
524.343	89
524.559	94
524.774	87
524.989	75
525.204	100
525.419	82
525.634	80
525.849	92
526.064	89
526.28	100
526.495	91
526.71	77
526.925	100
527.14	87
527.355	99
527.57	90
527.785	86
527.999	73
528.214	75
528.429	95
528.644	89
528.859	78
529.074	99
529.289	116
529.503	146
529.718	96
529.933	84
530.148	86
530.363	90
530.577	76
530.792	87
531.007	85
531.221	93
531.436	91
531.651	91
531.865	96
532.08	90
532.295	85
532.509	88
532.724	79
532.938	88
533.153	95
533.367	95
533.582	100
533.796	95
534.011	88
534.225	74
534.44	68
534.654	88
534.868	90
535.083	99
535.297	94
535.511	98
535.726	99
535.94	84
536.154	94
536.369	87
536.583	94
536.797	84
537.011	83
537.225	100
537.44	68
537.654	85
537.868	90
538.082	96
538.296	78
538.51	87
538.724	93
538.938	84
539.153	84
539.367	100
539.581	71
539.795	85
540.009	73
540.222	85
540.436	92
540.65	82
540.864	88
541.078	99
541.292	95
541.506	96
541.72	100
541.934	88
542.147	93
542.361	86
542.575	98
542.789	85
543.002	87
543.216	90
543.43	98
543.644	80
543.857	98
544.071	71
544.285	87
544.498	95
544.712	86
544.925	93
545.139	85
545.352	84
545.566	79
545.779	87
545.993	90
546.206	82
546.42	102
546.633	96
546.847	97
547.06	89
547.274	86
547.487	94
547.7	84
547.914	77
548.127	77
548.34	70
548.554	84
548.767	88
548.98	96
549.193	103
549.407	95
549.62	90
549.833	89
550.046	99
550.259	99
550.473	94
550.686	90
550.899	90
551.112	84
551.325	77
551.538	82
551.751	82
551.964	83
552.177	102
552.39	86
552.603	91
552.816	101
553.029	77
553.242	87
553.455	89
553.667	94
553.88	94
554.093	96
554.306	90
554.519	89
554.732	94
554.944	98
555.157	85
555.37	91
555.583	106
555.795	100
556.008	82
556.221	101
556.433	103
556.646	106
556.859	91
557.071	91
557.284	93
557.496	94
557.709	78
557.921	96
558.134	88
558.346	93
558.559	88
558.771	72
558.984	92
559.196	84
559.409	89
559.621	78
559.833	97
560.046	82
560.258	91
560.47	74
560.683	82
560.895	88
561.107	91
561.32	88
561.532	94
561.744	91
561.956	98
562.168	95
562.381	110
562.593	102
562.805	85
563.017	92
563.229	76
563.441	76
563.653	86
563.865	75
564.077	94
564.289	95
564.501	91
564.713	75
564.925	92
565.137	106
565.349	102
565.561	83
565.773	81
565.985	95
566.197	100
566.408	94
566.62	82
566.832	76
567.044	76
567.255	95
567.467	79
567.679	100
567.891	94
568.102	92
568.314	79
568.526	86
568.737	91
568.949	88
569.161	86
569.372	96
569.584	88
569.795	101
570.007	100
570.218	212
570.43	119
570.641	84
570.853	90
571.064	82
571.276	90
571.487	97
571.698	86
571.91	90
572.121	74
572.333	86
572.544	92
572.755	90
572.966	75
573.178	86
573.389	88
573.6	93
573.811	102
574.023	90
574.234	98
574.445	85
574.656	87
574.867	89
575.078	98
575.289	92
575.501	87
575.712	79
575.923	95
576.134	78
576.345	101
576.556	102
576.767	87
576.978	86
577.188	98
577.399	83
577.61	95
577.821	94
578.032	97
578.243	222
578.454	548
578.665	164
578.875	97
579.086	88
579.297	93
579.508	93
579.718	84
579.929	94
580.14	93
580.35	90
580.561	93
580.772	82
580.982	93
581.193	70
581.403	73
581.614	91
581.825	83
582.035	78
582.246	95
582.456	91
582.667	71
582.877	84
583.087	86
583.298	85
583.508	83
583.719	97
583.929	77
584.139	70
584.35	79
584.56	86
584.77	76
584.981	84
