Data from Circ_1980_H10_HRD10591_00061.txt Node
Date: Wed Jan 03 12:38:10 EST 2024
User: Yrep
Spectrometer: HR+D1059
Trigger mode: 1
Integration Time (sec): 1.000000E-1
Scans to average: 1
Electric dark correction enabled: true
Nonlinearity correction enabled: false
Boxcar width: 0
XAxis mode: Wavelengths
Number of Pixels in Spectrum: 2048
>>>>>Begin Spectral Data<<<<<
223.165	-27.62
223.4	-27.62
223.635	-27.62
223.869	-10.62
224.104	-21.62
224.338	-12.62
224.573	-13.62
224.808	-19.62
225.042	-19.62
225.277	-1.62
225.511	-2.62
225.746	2.38
225.98	2.38
226.215	18.38
226.449	19.38
226.683	34.38
226.918	32.38
227.152	20.38
227.387	24.38
227.621	38.38
227.856	34.38
228.09	40.38
228.324	40.38
228.559	33.38
228.793	64.38
229.027	56.38
229.262	59.38
229.496	61.38
229.73	90.38
229.964	86.38
230.199	75.38
230.433	80.38
230.667	71.38
230.901	71.38
231.136	62.38
231.37	80.38
231.604	68.38
231.838	78.38
232.072	70.38
232.306	81.38
232.541	79.38
232.775	80.38
233.009	78.38
233.243	88.38
233.477	88.38
233.711	81.38
233.945	92.38
234.179	70.38
234.413	63.38
234.647	74.38
234.881	101.38
235.115	71.38
235.349	72.38
235.583	75.38
235.817	67.38
236.051	79.38
236.285	84.38
236.519	68.38
236.753	82.38
236.987	80.38
237.221	86.38
237.455	82.38
237.689	57.38
237.922	81.38
238.156	73.38
238.39	90.38
238.624	68.38
238.858	83.38
239.091	84.38
239.325	67.38
239.559	70.38
239.793	57.38
240.027	71.38
240.26	81.38
240.494	59.38
240.728	83.38
240.961	69.38
241.195	74.38
241.429	72.38
241.662	73.38
241.896	82.38
242.13	65.38
242.363	73.38
242.597	71.38
242.83	86.38
243.064	87.38
243.298	75.38
243.531	66.38
243.765	84.38
243.998	64.38
244.232	63.38
244.465	63.38
244.699	90.38
244.932	76.38
245.166	73.38
245.399	86.38
245.633	65.38
245.866	78.38
246.099	76.38
246.333	56.38
246.566	74.38
246.8	75.38
247.033	61.38
247.266	73.38
247.5	77.38
247.733	72.38
247.966	82.38
248.2	82.38
248.433	80.38
248.666	89.38
248.899	59.38
249.133	97.38
249.366	102.38
249.599	69.38
249.832	82.38
250.066	76.38
250.299	82.38
250.532	70.38
250.765	92.38
250.998	60.38
251.231	67.38
251.465	70.38
251.698	61.38
251.931	71.38
252.164	84.38
252.397	84.38
252.63	79.38
252.863	75.38
253.096	60.38
253.329	66.38
253.562	81.38
253.795	81.38
254.028	84.38
254.261	85.38
254.494	85.38
254.727	75.38
254.96	68.38
255.193	66.38
255.426	74.38
255.659	78.38
255.892	74.38
256.124	74.38
256.357	84.38
256.59	77.38
256.823	70.38
257.056	72.38
257.289	78.38
257.521	75.38
257.754	62.38
257.987	73.38
258.22	54.38
258.452	73.38
258.685	84.38
258.918	75.38
259.151	72.38
259.383	71.38
259.616	73.38
259.849	76.38
260.081	80.38
260.314	74.38
260.547	91.38
260.779	78.38
261.012	88.38
261.244	81.38
261.477	92.38
261.71	98.38
261.942	98.38
262.175	101.38
262.407	86.38
262.64	70.38
262.872	73.38
263.105	83.38
263.337	84.38
263.57	78.38
263.802	88.38
264.035	89.38
264.267	73.38
264.499	74.38
264.732	67.38
264.964	83.38
265.197	97.38
265.429	88.38
265.661	77.38
265.894	83.38
266.126	74.38
266.358	88.38
266.591	78.38
266.823	76.38
267.055	80.38
267.287	83.38
267.52	99.38
267.752	72.38
267.984	88.38
268.216	93.38
268.448	86.38
268.681	77.38
268.913	87.38
269.145	85.38
269.377	88.38
269.609	67.38
269.841	90.38
270.073	70.38
270.306	85.38
270.538	72.38
270.77	78.38
271.002	74.38
271.234	97.38
271.466	78.38
271.698	78.38
271.93	88.38
272.162	82.38
272.394	78.38
272.626	83.38
272.858	82.38
273.09	78.38
273.322	108.38
273.553	80.38
273.785	78.38
274.017	81.38
274.249	67.38
274.481	78.38
274.713	85.38
274.945	84.38
275.176	89.38
275.408	81.38
275.64	86.38
275.872	75.38
276.104	75.38
276.335	81.38
276.567	99.38
276.799	91.38
277.031	89.38
277.262	89.38
277.494	97.38
277.726	89.38
277.957	89.38
278.189	72.38
278.421	75.38
278.652	80.38
278.884	91.38
279.115	91.38
279.347	71.38
279.579	84.38
279.81	73.38
280.042	61.38
280.273	82.38
280.505	79.38
280.736	83.38
280.968	90.38
281.199	78.38
281.431	82.38
281.662	86.38
281.894	76.38
282.125	81.38
282.356	100.38
282.588	129.38
282.819	98.38
283.051	81.38
283.282	89.38
283.513	80.38
283.745	94.38
283.976	81.38
284.207	78.38
284.439	83.38
284.67	86.38
284.901	80.38
285.132	80.38
285.364	84.38
285.595	75.38
285.826	71.38
286.057	78.38
286.288	88.38
286.52	80.38
286.751	80.38
286.982	84.38
287.213	91.38
287.444	82.38
287.675	93.38
287.906	85.38
288.138	84.38
288.369	101.38
288.6	88.38
288.831	75.38
289.062	90.38
289.293	89.38
289.524	92.38
289.755	86.38
289.986	94.38
290.217	85.38
290.448	90.38
290.679	78.38
290.91	79.38
291.141	82.38
291.371	75.38
291.602	96.38
291.833	83.38
292.064	96.38
292.295	83.38
292.526	73.38
292.757	78.38
292.987	71.38
293.218	92.38
293.449	97.38
293.68	83.38
293.91	91.38
294.141	73.38
294.372	74.38
294.603	90.38
294.833	71.38
295.064	78.38
295.295	84.38
295.525	80.38
295.756	89.38
295.987	112.38
296.217	112.38
296.448	105.38
296.679	84.38
296.909	82.38
297.14	74.38
297.37	89.38
297.601	90.38
297.831	94.38
298.062	99.38
298.292	85.38
298.523	95.38
298.753	92.38
298.984	85.38
299.214	80.38
299.445	91.38
299.675	84.38
299.905	91.38
300.136	92.38
300.366	78.38
300.597	84.38
300.827	98.38
301.057	98.38
301.288	91.38
301.518	80.38
301.748	76.38
301.979	88.38
302.209	99.38
302.439	85.38
302.669	90.38
302.9	85.38
303.13	83.38
303.36	94.38
303.59	84.38
303.82	92.38
304.051	91.38
304.281	87.38
304.511	100.38
304.741	78.38
304.971	75.38
305.201	76.38
305.431	89.38
305.661	88.38
305.891	96.38
306.121	88.38
306.352	90.38
306.582	83.38
306.812	91.38
307.042	88.38
307.272	87.38
307.502	83.38
307.731	92.38
307.961	98.38
308.191	87.38
308.421	90.38
308.651	92.38
308.881	94.38
309.111	114.38
309.341	85.38
309.571	89.38
309.8	96.38
310.03	82.38
310.26	88.38
310.49	84.38
310.72	94.38
310.949	77.38
311.179	89.38
311.409	80.38
311.639	94.38
311.868	90.38
312.098	77.38
312.328	92.38
312.557	95.38
312.787	88.38
313.017	88.38
313.246	83.38
313.476	77.38
313.706	83.38
313.935	106.38
314.165	100.38
314.394	96.38
314.624	95.38
314.853	90.38
315.083	72.38
315.312	80.38
315.542	76.38
315.771	87.38
316.001	91.38
316.23	86.38
316.46	72.38
316.689	108.38
316.919	85.38
317.148	90.38
317.377	106.38
317.607	89.38
317.836	78.38
318.065	92.38
318.295	101.38
318.524	87.38
318.753	100.38
318.983	98.38
319.212	71.38
319.441	112.38
319.67	91.38
319.9	95.38
320.129	87.38
320.358	83.38
320.587	98.38
320.816	75.38
321.046	102.38
321.275	86.38
321.504	95.38
321.733	80.38
321.962	86.38
322.191	84.38
322.42	103.38
322.649	104.38
322.878	99.38
323.108	103.38
323.337	97.38
323.566	120.38
323.795	124.38
324.024	156.38
324.253	281.38
324.482	579.38
324.71	1151.38
324.939	1532.38
325.168	554.38
325.397	182.38
325.626	131.38
325.855	113.38
326.084	101.38
326.313	124.38
326.542	128.38
326.77	172.38
326.999	328.38
327.228	682.38
327.457	1165.38
327.686	965.38
327.914	287.38
328.143	168.38
328.372	118.38
328.6	118.38
328.829	102.38
329.058	109.38
329.287	112.38
329.515	92.38
329.744	97.38
329.972	115.38
330.201	103.38
330.43	116.38
330.658	120.38
330.887	105.38
331.115	102.38
331.344	92.38
331.572	80.38
331.801	95.38
332.03	91.38
332.258	80.38
332.486	71.38
332.715	76.38
332.943	83.38
333.172	94.38
333.4	95.38
333.629	102.38
333.857	104.38
334.085	96.38
334.314	111.38
334.542	122.38
334.771	124.38
334.999	90.38
335.227	87.38
335.455	98.38
335.684	86.38
335.912	94.38
336.14	99.38
336.369	101.38
336.597	105.38
336.825	95.38
337.053	94.38
337.281	86.38
337.51	87.38
337.738	86.38
337.966	96.38
338.194	96.38
338.422	93.38
338.65	75.38
338.878	105.38
339.106	82.38
339.334	78.38
339.562	91.38
339.79	90.38
340.018	99.38
340.246	86.38
340.474	83.38
340.702	83.38
340.93	90.38
341.158	93.38
341.386	88.38
341.614	73.38
341.842	90.38
342.07	82.38
342.298	84.38
342.526	78.38
342.754	83.38
342.981	84.38
343.209	89.38
343.437	99.38
343.665	84.38
343.893	88.38
344.12	99.38
344.348	84.38
344.576	104.38
344.804	94.38
345.031	92.38
345.259	101.38
345.487	89.38
345.714	92.38
345.942	87.38
346.17	86.38
346.397	86.38
346.625	86.38
346.853	91.38
347.08	79.38
347.308	83.38
347.535	92.38
347.763	94.38
347.99	82.38
348.218	96.38
348.445	94.38
348.673	96.38
348.9	84.38
349.128	86.38
349.355	66.38
349.583	86.38
349.81	78.38
350.037	86.38
350.265	91.38
350.492	83.38
350.72	94.38
350.947	93.38
351.174	109.38
351.402	95.38
351.629	102.38
351.856	100.38
352.083	116.38
352.311	106.38
352.538	97.38
352.765	91.38
352.992	101.38
353.22	104.38
353.447	99.38
353.674	111.38
353.901	97.38
354.128	87.38
354.355	88.38
354.583	109.38
354.81	98.38
355.037	95.38
355.264	86.38
355.491	94.38
355.718	95.38
355.945	87.38
356.172	97.38
356.399	88.38
356.626	105.38
356.853	98.38
357.08	91.38
357.307	87.38
357.534	92.38
357.761	87.38
357.988	87.38
358.215	93.38
358.441	94.38
358.668	87.38
358.895	90.38
359.122	82.38
359.349	67.38
359.576	95.38
359.802	88.38
360.029	107.38
360.256	86.38
360.483	86.38
360.709	74.38
360.936	109.38
361.163	80.38
361.39	83.38
361.616	87.38
361.843	92.38
362.07	97.38
362.296	97.38
362.523	77.38
362.749	111.38
362.976	86.38
363.203	72.38
363.429	86.38
363.656	74.38
363.882	98.38
364.109	80.38
364.335	90.38
364.562	73.38
364.788	87.38
365.015	92.38
365.241	98.38
365.468	98.38
365.694	82.38
365.92	82.38
366.147	83.38
366.373	99.38
366.599	86.38
366.826	91.38
367.052	99.38
367.278	88.38
367.505	78.38
367.731	90.38
367.957	89.38
368.184	71.38
368.41	88.38
368.636	91.38
368.862	110.38
369.089	94.38
369.315	87.38
369.541	75.38
369.767	88.38
369.993	74.38
370.219	88.38
370.445	82.38
370.672	84.38
370.898	95.38
371.124	80.38
371.35	86.38
371.576	89.38
371.802	70.38
372.028	91.38
372.254	96.38
372.48	83.38
372.706	104.38
372.932	90.38
373.158	96.38
373.384	89.38
373.61	88.38
373.835	86.38
374.061	84.38
374.287	78.38
374.513	80.38
374.739	78.38
374.965	83.38
375.191	72.38
375.416	78.38
375.642	65.38
375.868	91.38
376.094	86.38
376.319	95.38
376.545	88.38
376.771	78.38
376.997	81.38
377.222	83.38
377.448	94.38
377.674	86.38
377.899	102.38
378.125	89.38
378.35	87.38
378.576	74.38
378.802	93.38
379.027	82.38
379.253	90.38
379.478	79.38
379.704	80.38
379.929	88.38
380.155	85.38
380.38	91.38
380.606	83.38
380.831	81.38
381.057	85.38
381.282	92.38
381.507	105.38
381.733	102.38
381.958	97.38
382.184	89.38
382.409	86.38
382.634	94.38
382.86	102.38
383.085	87.38
383.31	98.38
383.535	118.38
383.761	112.38
383.986	81.38
384.211	91.38
384.436	100.38
384.662	85.38
384.887	98.38
385.112	95.38
385.337	106.38
385.562	105.38
385.787	103.38
386.013	104.38
386.238	122.38
386.463	112.38
386.688	106.38
386.913	101.38
387.138	86.38
387.363	94.38
387.588	93.38
387.813	83.38
388.038	104.38
388.263	101.38
388.488	104.38
388.713	109.38
388.938	95.38
389.163	88.38
389.387	91.38
389.612	91.38
389.837	87.38
390.062	88.38
390.287	88.38
390.512	92.38
390.736	80.38
390.961	97.38
391.186	89.38
391.411	102.38
391.636	68.38
391.86	81.38
392.085	83.38
392.31	83.38
392.534	80.38
392.759	85.38
392.984	82.38
393.208	93.38
393.433	83.38
393.658	82.38
393.882	73.38
394.107	70.38
394.331	93.38
394.556	88.38
394.78	84.38
395.005	80.38
395.229	87.38
395.454	81.38
395.678	70.38
395.903	70.38
396.127	75.38
396.352	75.38
396.576	81.38
396.801	78.38
397.025	82.38
397.249	104.38
397.474	92.38
397.698	74.38
397.922	86.38
398.147	83.38
398.371	78.38
398.595	90.38
398.82	86.38
399.044	85.38
399.268	84.38
399.492	81.38
399.717	94.38
399.941	97.38
400.165	88.38
400.389	86.38
400.613	88.38
400.837	95.38
401.062	80.38
401.286	73.38
401.51	90.38
401.734	94.38
401.958	96.38
402.182	122.38
402.406	131.38
402.63	105.38
402.854	74.38
403.078	82.38
403.302	88.38
403.526	81.38
403.75	82.38
403.974	96.38
404.198	81.38
404.422	84.38
404.645	78.38
404.869	77.38
405.093	83.38
405.317	79.38
405.541	86.38
405.765	78.38
405.988	98.38
406.212	118.38
406.436	154.38
406.66	126.38
406.883	88.38
407.107	80.38
407.331	83.38
407.555	85.38
407.778	82.38
408.002	87.38
408.226	74.38
408.449	86.38
408.673	90.38
408.896	96.38
409.12	104.38
409.344	78.38
409.567	90.38
409.791	80.38
410.014	89.38
410.238	91.38
410.461	91.38
410.685	81.38
410.908	94.38
411.132	97.38
411.355	100.38
411.578	97.38
411.802	74.38
412.025	102.38
412.249	86.38
412.472	90.38
412.695	89.38
412.919	90.38
413.142	71.38
413.365	87.38
413.589	90.38
413.812	79.38
414.035	101.38
414.258	86.38
414.482	97.38
414.705	92.38
414.928	80.38
415.151	100.38
415.374	93.38
415.597	88.38
415.821	77.38
416.044	103.38
416.267	85.38
416.49	71.38
416.713	89.38
416.936	89.38
417.159	84.38
417.382	76.38
417.605	80.38
417.828	87.38
418.051	94.38
418.274	85.38
418.497	92.38
418.72	86.38
418.943	82.38
419.166	69.38
419.389	76.38
419.611	88.38
419.834	84.38
420.057	91.38
420.28	71.38
420.503	82.38
420.726	87.38
420.948	78.38
421.171	85.38
421.394	86.38
421.617	97.38
421.839	94.38
422.062	94.38
422.285	78.38
422.507	87.38
422.73	94.38
422.953	78.38
423.175	85.38
423.398	87.38
423.621	76.38
423.843	100.38
424.066	71.38
424.288	78.38
424.511	84.38
424.733	91.38
424.956	97.38
425.178	103.38
425.401	80.38
425.623	93.38
425.846	88.38
426.068	89.38
426.291	83.38
426.513	82.38
426.735	96.38
426.958	84.38
427.18	78.38
427.402	104.38
427.625	135.38
427.847	105.38
428.069	108.38
428.292	95.38
428.514	83.38
428.736	80.38
428.958	91.38
429.181	94.38
429.403	87.38
429.625	88.38
429.847	93.38
430.069	86.38
430.292	77.38
430.514	82.38
430.736	81.38
430.958	86.38
431.18	76.38
431.402	66.38
431.624	65.38
431.846	89.38
432.068	78.38
432.29	84.38
432.512	80.38
432.734	72.38
432.956	74.38
433.178	92.38
433.4	110.38
433.622	80.38
433.844	83.38
434.066	90.38
434.287	101.38
434.509	83.38
434.731	76.38
434.953	94.38
435.175	86.38
435.397	76.38
435.618	86.38
435.84	105.38
436.062	94.38
436.284	99.38
436.505	101.38
436.727	99.38
436.949	92.38
437.17	87.38
437.392	87.38
437.614	90.38
437.835	90.38
438.057	103.38
438.278	80.38
438.5	95.38
438.721	104.38
438.943	99.38
439.165	75.38
439.386	73.38
439.608	82.38
439.829	86.38
440.05	106.38
440.272	111.38
440.493	86.38
440.715	81.38
440.936	83.38
441.158	88.38
441.379	90.38
441.6	83.38
441.822	68.38
442.043	91.38
442.264	80.38
442.486	90.38
442.707	71.38
442.928	95.38
443.149	112.38
443.371	114.38
443.592	96.38
443.813	87.38
444.034	97.38
444.255	78.38
444.476	88.38
444.698	68.38
444.919	83.38
445.14	107.38
445.361	102.38
445.582	86.38
445.803	115.38
446.024	105.38
446.245	121.38
446.466	95.38
446.687	68.38
446.908	71.38
447.129	78.38
447.35	86.38
447.571	72.38
447.792	78.38
448.013	103.38
448.234	94.38
448.455	84.38
448.675	79.38
448.896	107.38
449.117	98.38
449.338	84.38
449.559	99.38
449.779	105.38
450	91.38
450.221	84.38
450.442	67.38
450.662	99.38
450.883	95.38
451.104	106.38
451.324	86.38
451.545	81.38
451.766	73.38
451.986	81.38
452.207	87.38
452.428	95.38
452.648	87.38
452.869	106.38
453.089	85.38
453.31	96.38
453.53	86.38
453.751	78.38
453.971	93.38
454.192	93.38
454.412	92.38
454.633	89.38
454.853	74.38
455.073	77.38
455.294	80.38
455.514	84.38
455.734	85.38
455.955	90.38
456.175	80.38
456.395	86.38
456.616	83.38
456.836	78.38
457.056	71.38
457.276	72.38
457.497	83.38
457.717	80.38
457.937	77.38
458.157	73.38
458.377	89.38
458.598	96.38
458.818	103.38
459.038	121.38
459.258	100.38
459.478	74.38
459.698	83.38
459.918	98.38
460.138	85.38
460.358	83.38
460.578	84.38
460.798	80.38
461.018	84.38
461.238	76.38
461.458	87.38
461.678	98.38
461.898	93.38
462.118	73.38
462.338	80.38
462.558	82.38
462.777	76.38
462.997	74.38
463.217	83.38
463.437	92.38
463.657	93.38
463.876	94.38
464.096	88.38
464.316	90.38
464.536	86.38
464.755	83.38
464.975	105.38
465.195	138.38
465.414	117.38
465.634	96.38
465.854	80.38
466.073	75.38
466.293	78.38
466.512	77.38
466.732	86.38
466.951	73.38
467.171	86.38
467.391	83.38
467.61	103.38
467.829	82.38
468.049	89.38
468.268	88.38
468.488	91.38
468.707	71.38
468.927	86.38
469.146	67.38
469.365	92.38
469.585	95.38
469.804	106.38
470.023	81.38
470.243	88.38
470.462	97.38
470.681	99.38
470.901	82.38
471.12	90.38
471.339	87.38
471.558	87.38
471.777	75.38
471.997	76.38
472.216	100.38
472.435	115.38
472.654	107.38
472.873	88.38
473.092	86.38
473.311	92.38
473.53	86.38
473.749	89.38
473.968	69.38
474.187	87.38
474.406	94.38
474.625	81.38
474.844	63.38
475.063	71.38
475.282	72.38
475.501	89.38
475.72	82.38
475.939	73.38
476.158	80.38
476.377	90.38
476.596	90.38
476.814	87.38
477.033	92.38
477.252	83.38
477.471	84.38
477.69	90.38
477.908	85.38
478.127	72.38
478.346	88.38
478.564	89.38
478.783	88.38
479.002	91.38
479.22	92.38
479.439	98.38
479.658	88.38
479.876	87.38
480.095	83.38
480.313	88.38
480.532	98.38
480.751	75.38
480.969	110.38
481.188	161.38
481.406	131.38
481.624	83.38
481.843	80.38
482.061	84.38
482.28	98.38
482.498	84.38
482.717	94.38
482.935	84.38
483.153	74.38
483.372	81.38
483.59	82.38
483.808	87.38
484.027	90.38
484.245	79.38
484.463	94.38
484.681	92.38
484.9	100.38
485.118	96.38
485.336	98.38
485.554	90.38
485.772	102.38
485.99	114.38
486.209	96.38
486.427	101.38
486.645	111.38
486.863	110.38
487.081	104.38
487.299	90.38
487.517	87.38
487.735	82.38
487.953	79.38
488.171	95.38
488.389	90.38
488.607	87.38
488.825	81.38
489.043	86.38
489.261	98.38
489.479	92.38
489.696	90.38
489.914	85.38
490.132	96.38
490.35	78.38
490.568	83.38
490.786	92.38
491.003	82.38
491.221	95.38
491.439	90.38
491.657	84.38
491.874	88.38
492.092	98.38
492.31	85.38
492.527	70.38
492.745	71.38
492.963	84.38
493.18	67.38
493.398	92.38
493.615	105.38
493.833	99.38
494.05	74.38
494.268	97.38
494.485	103.38
494.703	97.38
494.92	84.38
495.138	79.38
495.355	92.38
495.573	83.38
495.79	80.38
496.008	84.38
496.225	87.38
496.442	90.38
496.66	89.38
496.877	96.38
497.094	84.38
497.312	90.38
497.529	80.38
497.746	80.38
497.963	70.38
498.181	86.38
498.398	87.38
498.615	89.38
498.832	90.38
499.049	87.38
499.267	95.38
499.484	86.38
499.701	73.38
499.918	84.38
500.135	90.38
500.352	76.38
500.569	91.38
500.786	94.38
501.003	87.38
501.22	76.38
501.437	82.38
501.654	84.38
501.871	88.38
502.088	102.38
502.305	97.38
502.522	79.38
502.739	90.38
502.956	92.38
503.172	92.38
503.389	93.38
503.606	95.38
503.823	108.38
504.04	88.38
504.256	83.38
504.473	83.38
504.69	83.38
504.907	90.38
505.123	78.38
505.34	79.38
505.557	82.38
505.773	100.38
505.99	84.38
506.207	70.38
506.423	81.38
506.64	80.38
506.856	86.38
507.073	79.38
507.289	86.38
507.506	86.38
507.722	85.38
507.939	97.38
508.155	86.38
508.372	76.38
508.588	103.38
508.805	85.38
509.021	96.38
509.238	106.38
509.454	89.38
509.67	92.38
509.887	97.38
510.103	113.38
510.319	173.38
510.536	544.38
510.752	1638.38
510.968	469.38
511.184	139.38
511.401	99.38
511.617	106.38
511.833	94.38
512.049	89.38
512.265	72.38
512.481	85.38
512.698	79.38
512.914	79.38
513.13	93.38
513.346	101.38
513.562	87.38
513.778	88.38
513.994	76.38
514.21	93.38
514.426	103.38
514.642	111.38
514.858	104.38
515.074	142.38
515.29	309.38
515.506	980.38
515.721	365.38
515.937	126.38
516.153	90.38
516.369	102.38
516.585	95.38
516.801	91.38
517.016	94.38
517.232	94.38
517.448	86.38
