Data from Background_3_HRD10591_00025.txt Node
Date: Wed Nov 05 14:49:32 EST 2025
User: Yrep
Spectrometer: HR+D1059
Trigger mode: 1
Integration Time (sec): 1.000000E-1
Scans to average: 1
Electric dark correction enabled: true
Nonlinearity correction enabled: false
Boxcar width: 0
XAxis mode: Wavelengths
Number of Pixels in Spectrum: 2048
>>>>>Begin Spectral Data<<<<<
223.165	-21.81
223.4	-21.81
223.635	-21.81
223.869	-19.81
224.104	-25.81
224.338	-9.81
224.573	-2.81
224.808	-9.81
225.042	-1.81
225.277	7.19
225.511	-11.81
225.746	-7.81
225.98	11.19
226.215	14.19
226.449	16.19
226.683	10.19
226.918	22.19
227.152	30.19
227.387	24.19
227.621	32.19
227.856	43.19
228.09	29.19
228.324	61.19
228.559	66.19
228.793	50.19
229.027	70.19
229.262	62.19
229.496	79.19
229.73	65.19
229.964	78.19
230.199	67.19
230.433	65.19
230.667	84.19
230.901	65.19
231.136	75.19
231.37	72.19
231.604	74.19
231.838	81.19
232.072	83.19
232.306	81.19
232.541	83.19
232.775	77.19
233.009	77.19
233.243	70.19
233.477	73.19
233.711	80.19
233.945	79.19
234.179	71.19
234.413	85.19
234.647	66.19
234.881	79.19
235.115	77.19
235.349	83.19
235.583	87.19
235.817	88.19
236.051	59.19
236.285	77.19
236.519	70.19
236.753	76.19
236.987	91.19
237.221	75.19
237.455	55.19
237.689	71.19
237.922	73.19
238.156	67.19
238.39	77.19
238.624	65.19
238.858	81.19
239.091	77.19
239.325	86.19
239.559	78.19
239.793	77.19
240.027	84.19
240.26	65.19
240.494	90.19
240.728	83.19
240.961	70.19
241.195	81.19
241.429	70.19
241.662	73.19
241.896	74.19
242.13	72.19
242.363	89.19
242.597	72.19
242.83	73.19
243.064	76.19
243.298	77.19
243.531	84.19
243.765	81.19
243.998	62.19
244.232	73.19
244.465	76.19
244.699	90.19
244.932	71.19
245.166	81.19
245.399	71.19
245.633	77.19
245.866	63.19
246.099	87.19
246.333	86.19
246.566	88.19
246.8	78.19
247.033	79.19
247.266	65.19
247.5	73.19
247.733	64.19
247.966	71.19
248.2	85.19
248.433	71.19
248.666	69.19
248.899	79.19
249.133	90.19
249.366	83.19
249.599	83.19
249.832	76.19
250.066	78.19
250.299	87.19
250.532	80.19
250.765	74.19
250.998	77.19
251.231	79.19
251.465	72.19
251.698	67.19
251.931	77.19
252.164	76.19
252.397	84.19
252.63	73.19
252.863	62.19
253.096	67.19
253.329	81.19
253.562	65.19
253.795	74.19
254.028	82.19
254.261	82.19
254.494	88.19
254.727	83.19
254.96	75.19
255.193	71.19
255.426	78.19
255.659	68.19
255.892	89.19
256.124	67.19
256.357	77.19
256.59	81.19
256.823	71.19
257.056	73.19
257.289	76.19
257.521	70.19
257.754	72.19
257.987	87.19
258.22	81.19
258.452	89.19
258.685	87.19
258.918	71.19
259.151	78.19
259.383	79.19
259.616	76.19
259.849	78.19
260.081	87.19
260.314	71.19
260.547	68.19
260.779	98.19
261.012	89.19
261.244	74.19
261.477	97.19
261.71	83.19
261.942	85.19
262.175	77.19
262.407	79.19
262.64	83.19
262.872	83.19
263.105	83.19
263.337	80.19
263.57	82.19
263.802	79.19
264.035	75.19
264.267	79.19
264.499	71.19
264.732	77.19
264.964	70.19
265.197	66.19
265.429	78.19
265.661	64.19
265.894	77.19
266.126	83.19
266.358	79.19
266.591	82.19
266.823	94.19
267.055	82.19
267.287	78.19
267.52	72.19
267.752	81.19
267.984	78.19
268.216	73.19
268.448	86.19
268.681	73.19
268.913	77.19
269.145	82.19
269.377	97.19
269.609	63.19
269.841	91.19
270.073	82.19
270.306	82.19
270.538	82.19
270.77	81.19
271.002	86.19
271.234	83.19
271.466	89.19
271.698	80.19
271.93	81.19
272.162	71.19
272.394	87.19
272.626	81.19
272.858	89.19
273.09	81.19
273.322	88.19
273.553	65.19
273.785	95.19
274.017	75.19
274.249	75.19
274.481	79.19
274.713	73.19
274.945	81.19
275.176	77.19
275.408	73.19
275.64	94.19
275.872	91.19
276.104	81.19
276.335	74.19
276.567	76.19
276.799	77.19
277.031	74.19
277.262	67.19
277.494	75.19
277.726	76.19
277.957	88.19
278.189	64.19
278.421	70.19
278.652	73.19
278.884	68.19
279.115	86.19
279.347	85.19
279.579	82.19
279.81	58.19
280.042	78.19
280.273	88.19
280.505	82.19
280.736	71.19
280.968	67.19
281.199	89.19
281.431	76.19
281.662	83.19
281.894	79.19
282.125	76.19
282.356	88.19
282.588	79.19
282.819	79.19
283.051	80.19
283.282	75.19
283.513	77.19
283.745	95.19
283.976	87.19
284.207	91.19
284.439	86.19
284.67	87.19
284.901	75.19
285.132	73.19
285.364	76.19
285.595	73.19
285.826	89.19
286.057	78.19
286.288	75.19
286.52	82.19
286.751	86.19
286.982	65.19
287.213	79.19
287.444	78.19
287.675	73.19
287.906	72.19
288.138	82.19
288.369	94.19
288.6	81.19
288.831	83.19
289.062	78.19
289.293	84.19
289.524	76.19
289.755	88.19
289.986	75.19
290.217	93.19
290.448	85.19
290.679	80.19
290.91	87.19
291.141	75.19
291.371	90.19
291.602	75.19
291.833	76.19
292.064	75.19
292.295	94.19
292.526	77.19
292.757	89.19
292.987	74.19
293.218	75.19
293.449	71.19
293.68	71.19
293.91	84.19
294.141	93.19
294.372	89.19
294.603	86.19
294.833	82.19
295.064	85.19
295.295	83.19
295.525	73.19
295.756	85.19
295.987	82.19
296.217	89.19
296.448	93.19
296.679	75.19
296.909	98.19
297.14	94.19
297.37	96.19
297.601	80.19
297.831	77.19
298.062	76.19
298.292	87.19
298.523	94.19
298.753	75.19
298.984	89.19
299.214	92.19
299.445	81.19
299.675	79.19
299.905	86.19
300.136	83.19
300.366	65.19
300.597	74.19
300.827	69.19
301.057	81.19
301.288	82.19
301.518	72.19
301.748	78.19
301.979	95.19
302.209	78.19
302.439	84.19
302.669	88.19
302.9	79.19
303.13	70.19
303.36	80.19
303.59	75.19
303.82	63.19
304.051	88.19
304.281	79.19
304.511	90.19
304.741	72.19
304.971	82.19
305.201	86.19
305.431	81.19
305.661	66.19
305.891	81.19
306.121	83.19
306.352	86.19
306.582	81.19
306.812	84.19
307.042	84.19
307.272	68.19
307.502	62.19
307.731	68.19
307.961	87.19
308.191	85.19
308.421	73.19
308.651	88.19
308.881	81.19
309.111	87.19
309.341	75.19
309.571	72.19
309.8	75.19
310.03	73.19
310.26	68.19
310.49	85.19
310.72	74.19
310.949	89.19
311.179	70.19
311.409	85.19
311.639	82.19
311.868	96.19
312.098	87.19
312.328	81.19
312.557	79.19
312.787	81.19
313.017	92.19
313.246	85.19
313.476	91.19
313.706	88.19
313.935	77.19
314.165	79.19
314.394	82.19
314.624	74.19
314.853	89.19
315.083	92.19
315.312	93.19
315.542	82.19
315.771	74.19
316.001	83.19
316.23	88.19
316.46	70.19
316.689	77.19
316.919	82.19
317.148	73.19
317.377	66.19
317.607	85.19
317.836	71.19
318.065	71.19
318.295	85.19
318.524	90.19
318.753	78.19
318.983	85.19
319.212	81.19
319.441	86.19
319.67	77.19
319.9	73.19
320.129	69.19
320.358	81.19
320.587	78.19
320.816	73.19
321.046	89.19
321.275	77.19
321.504	87.19
321.733	71.19
321.962	88.19
322.191	73.19
322.42	84.19
322.649	75.19
322.878	76.19
323.108	78.19
323.337	82.19
323.566	82.19
323.795	79.19
324.024	78.19
324.253	78.19
324.482	77.19
324.71	55.19
324.939	82.19
325.168	77.19
325.397	82.19
325.626	76.19
325.855	93.19
326.084	73.19
326.313	87.19
326.542	81.19
326.77	85.19
326.999	87.19
327.228	81.19
327.457	73.19
327.686	87.19
327.914	85.19
328.143	92.19
328.372	79.19
328.6	78.19
328.829	93.19
329.058	85.19
329.287	77.19
329.515	87.19
329.744	78.19
329.972	73.19
330.201	86.19
330.43	74.19
330.658	79.19
330.887	94.19
331.115	79.19
331.344	87.19
331.572	82.19
331.801	87.19
332.03	84.19
332.258	83.19
332.486	73.19
332.715	81.19
332.943	73.19
333.172	89.19
333.4	79.19
333.629	82.19
333.857	94.19
334.085	82.19
334.314	82.19
334.542	73.19
334.771	75.19
334.999	74.19
335.227	80.19
335.455	73.19
335.684	71.19
335.912	90.19
336.14	84.19
336.369	81.19
336.597	77.19
336.825	96.19
337.053	79.19
337.281	99.19
337.51	85.19
337.738	89.19
337.966	84.19
338.194	86.19
338.422	90.19
338.65	87.19
338.878	76.19
339.106	81.19
339.334	85.19
339.562	75.19
339.79	75.19
340.018	82.19
340.246	88.19
340.474	87.19
340.702	84.19
340.93	88.19
341.158	80.19
341.386	90.19
341.614	72.19
341.842	77.19
342.07	71.19
342.298	76.19
342.526	65.19
342.754	73.19
342.981	89.19
343.209	77.19
343.437	78.19
343.665	82.19
343.893	81.19
344.12	89.19
344.348	93.19
344.576	87.19
344.804	77.19
345.031	82.19
345.259	73.19
345.487	81.19
345.714	78.19
345.942	93.19
346.17	85.19
346.397	91.19
346.625	89.19
346.853	81.19
347.08	69.19
347.308	98.19
347.535	81.19
347.763	88.19
347.99	75.19
348.218	70.19
348.445	64.19
348.673	85.19
348.9	90.19
349.128	75.19
349.355	79.19
349.583	86.19
349.81	85.19
350.037	77.19
350.265	76.19
350.492	70.19
350.72	79.19
350.947	82.19
351.174	76.19
351.402	81.19
351.629	89.19
351.856	89.19
352.083	81.19
352.311	83.19
352.538	71.19
352.765	83.19
352.992	89.19
353.22	81.19
353.447	75.19
353.674	80.19
353.901	83.19
354.128	86.19
354.355	73.19
354.583	89.19
354.81	62.19
355.037	72.19
355.264	86.19
355.491	70.19
355.718	82.19
355.945	76.19
356.172	87.19
356.399	84.19
356.626	77.19
356.853	68.19
357.08	72.19
357.307	75.19
357.534	84.19
357.761	81.19
357.988	89.19
358.215	86.19
358.441	63.19
358.668	62.19
358.895	78.19
359.122	77.19
359.349	69.19
359.576	85.19
359.802	89.19
360.029	73.19
360.256	75.19
360.483	81.19
360.709	80.19
360.936	78.19
361.163	70.19
361.39	71.19
361.616	76.19
361.843	72.19
362.07	79.19
362.296	72.19
362.523	81.19
362.749	94.19
362.976	74.19
363.203	99.19
363.429	91.19
363.656	85.19
363.882	83.19
364.109	81.19
364.335	96.19
364.562	76.19
364.788	86.19
365.015	79.19
365.241	87.19
365.468	89.19
365.694	92.19
365.92	71.19
366.147	66.19
366.373	74.19
366.599	75.19
366.826	80.19
367.052	61.19
367.278	77.19
367.505	81.19
367.731	91.19
367.957	83.19
368.184	53.19
368.41	82.19
368.636	101.19
368.862	89.19
369.089	80.19
369.315	64.19
369.541	80.19
369.767	80.19
369.993	81.19
370.219	81.19
370.445	83.19
370.672	83.19
370.898	68.19
371.124	73.19
371.35	81.19
371.576	87.19
371.802	79.19
372.028	76.19
372.254	76.19
372.48	86.19
372.706	80.19
372.932	75.19
373.158	74.19
373.384	83.19
373.61	93.19
373.835	90.19
374.061	79.19
374.287	81.19
374.513	79.19
374.739	81.19
374.965	86.19
375.191	88.19
375.416	89.19
375.642	87.19
375.868	82.19
376.094	81.19
376.319	74.19
376.545	82.19
376.771	75.19
376.997	83.19
377.222	71.19
377.448	75.19
377.674	70.19
377.899	72.19
378.125	77.19
378.35	90.19
378.576	85.19
378.802	78.19
379.027	91.19
379.253	85.19
379.478	77.19
379.704	81.19
379.929	78.19
380.155	73.19
380.38	85.19
380.606	81.19
380.831	82.19
381.057	80.19
381.282	66.19
381.507	77.19
381.733	82.19
381.958	75.19
382.184	70.19
382.409	70.19
382.634	80.19
382.86	73.19
383.085	92.19
383.31	58.19
383.535	85.19
383.761	64.19
383.986	76.19
384.211	76.19
384.436	82.19
384.662	67.19
384.887	87.19
385.112	72.19
385.337	66.19
385.562	84.19
385.787	74.19
386.013	70.19
386.238	80.19
386.463	66.19
386.688	101.19
386.913	81.19
387.138	76.19
387.363	71.19
387.588	73.19
387.813	68.19
388.038	75.19
388.263	69.19
388.488	72.19
388.713	83.19
388.938	74.19
389.163	81.19
389.387	81.19
389.612	80.19
389.837	78.19
390.062	82.19
390.287	81.19
390.512	91.19
390.736	85.19
390.961	71.19
391.186	85.19
391.411	75.19
391.636	80.19
391.86	83.19
392.085	82.19
392.31	87.19
392.534	82.19
392.759	89.19
392.984	77.19
393.208	74.19
393.433	77.19
393.658	81.19
393.882	69.19
394.107	84.19
394.331	79.19
394.556	81.19
394.78	76.19
395.005	75.19
395.229	83.19
395.454	83.19
395.678	77.19
395.903	72.19
396.127	81.19
396.352	61.19
396.576	70.19
396.801	90.19
397.025	85.19
397.249	65.19
397.474	73.19
397.698	80.19
397.922	76.19
398.147	88.19
398.371	70.19
398.595	77.19
398.82	89.19
399.044	90.19
399.268	77.19
399.492	87.19
399.717	77.19
399.941	75.19
400.165	77.19
400.389	87.19
400.613	78.19
400.837	83.19
401.062	67.19
401.286	77.19
401.51	79.19
401.734	78.19
401.958	67.19
402.182	69.19
402.406	73.19
402.63	84.19
402.854	83.19
403.078	75.19
403.302	88.19
403.526	68.19
403.75	71.19
403.974	74.19
404.198	74.19
404.422	77.19
404.645	71.19
404.869	91.19
405.093	75.19
405.317	71.19
405.541	75.19
405.765	64.19
405.988	81.19
406.212	81.19
406.436	78.19
406.66	75.19
406.883	85.19
407.107	84.19
407.331	86.19
407.555	77.19
407.778	77.19
408.002	76.19
408.226	90.19
408.449	72.19
408.673	92.19
408.896	90.19
409.12	76.19
409.344	80.19
409.567	79.19
409.791	79.19
410.014	89.19
410.238	81.19
410.461	88.19
410.685	82.19
410.908	71.19
411.132	68.19
411.355	74.19
411.578	74.19
411.802	67.19
412.025	59.19
412.249	79.19
412.472	63.19
412.695	94.19
412.919	83.19
413.142	64.19
413.365	86.19
413.589	77.19
413.812	84.19
414.035	80.19
414.258	73.19
414.482	70.19
414.705	69.19
414.928	66.19
415.151	83.19
415.374	75.19
415.597	56.19
415.821	75.19
416.044	76.19
416.267	73.19
416.49	89.19
416.713	93.19
416.936	71.19
417.159	79.19
417.382	65.19
417.605	77.19
417.828	87.19
418.051	86.19
418.274	73.19
418.497	74.19
418.72	70.19
418.943	80.19
419.166	79.19
419.389	82.19
419.611	71.19
419.834	86.19
420.057	75.19
420.28	80.19
420.503	86.19
420.726	64.19
420.948	74.19
421.171	73.19
421.394	78.19
421.617	63.19
421.839	79.19
422.062	73.19
422.285	81.19
422.507	88.19
422.73	85.19
422.953	79.19
423.175	75.19
423.398	78.19
423.621	79.19
423.843	71.19
424.066	74.19
424.288	81.19
424.511	90.19
424.733	80.19
424.956	75.19
425.178	77.19
425.401	73.19
425.623	84.19
425.846	86.19
426.068	78.19
426.291	68.19
426.513	87.19
426.735	70.19
426.958	76.19
427.18	78.19
427.402	90.19
427.625	73.19
427.847	85.19
428.069	87.19
428.292	80.19
428.514	94.19
428.736	75.19
428.958	75.19
429.181	81.19
429.403	82.19
429.625	79.19
429.847	91.19
430.069	73.19
430.292	55.19
430.514	66.19
430.736	86.19
430.958	71.19
431.18	75.19
431.402	80.19
431.624	55.19
431.846	79.19
432.068	76.19
432.29	85.19
432.512	69.19
432.734	75.19
432.956	74.19
433.178	74.19
433.4	79.19
433.622	73.19
433.844	82.19
434.066	82.19
434.287	74.19
434.509	77.19
434.731	91.19
434.953	75.19
435.175	66.19
435.397	75.19
435.618	71.19
435.84	85.19
436.062	74.19
436.284	65.19
436.505	73.19
436.727	85.19
436.949	85.19
437.17	74.19
437.392	80.19
437.614	74.19
437.835	82.19
438.057	82.19
438.278	75.19
438.5	71.19
438.721	73.19
438.943	75.19
439.165	75.19
439.386	68.19
439.608	67.19
439.829	73.19
440.05	91.19
440.272	78.19
440.493	79.19
440.715	65.19
440.936	71.19
441.158	59.19
441.379	69.19
441.6	80.19
441.822	78.19
442.043	82.19
442.264	69.19
442.486	81.19
442.707	68.19
442.928	77.19
443.149	69.19
443.371	79.19
443.592	72.19
443.813	77.19
444.034	74.19
444.255	75.19
444.476	91.19
444.698	75.19
444.919	74.19
445.14	162.19
445.361	111.19
445.582	83.19
445.803	86.19
446.024	82.19
446.245	70.19
446.466	66.19
446.687	69.19
446.908	75.19
447.129	82.19
447.35	85.19
447.571	77.19
447.792	75.19
448.013	75.19
448.234	96.19
448.455	82.19
448.675	68.19
448.896	67.19
449.117	53.19
449.338	82.19
449.559	90.19
449.779	83.19
450	77.19
450.221	73.19
450.442	71.19
450.662	76.19
450.883	78.19
451.104	66.19
451.324	78.19
451.545	79.19
451.766	78.19
451.986	78.19
452.207	78.19
452.428	77.19
452.648	79.19
452.869	73.19
453.089	61.19
453.31	80.19
453.53	79.19
453.751	73.19
453.971	60.19
454.192	83.19
454.412	80.19
454.633	76.19
454.853	86.19
455.073	74.19
455.294	67.19
455.514	78.19
455.734	63.19
455.955	79.19
456.175	80.19
456.395	84.19
456.616	79.19
456.836	77.19
457.056	73.19
457.276	72.19
457.497	73.19
457.717	61.19
457.937	66.19
458.157	87.19
458.377	67.19
458.598	85.19
458.818	68.19
459.038	85.19
459.258	79.19
459.478	73.19
459.698	82.19
459.918	70.19
460.138	73.19
460.358	84.19
460.578	82.19
460.798	70.19
461.018	81.19
461.238	71.19
461.458	85.19
461.678	73.19
461.898	70.19
462.118	73.19
462.338	67.19
462.558	68.19
462.777	76.19
462.997	83.19
463.217	81.19
463.437	74.19
463.657	75.19
463.876	82.19
464.096	90.19
464.316	87.19
464.536	77.19
464.755	75.19
464.975	75.19
465.195	72.19
465.414	81.19
465.634	81.19
465.854	85.19
466.073	65.19
466.293	75.19
466.512	77.19
466.732	84.19
466.951	74.19
467.171	72.19
467.391	57.19
467.61	80.19
467.829	94.19
468.049	80.19
468.268	77.19
468.488	73.19
468.707	60.19
468.927	97.19
469.146	76.19
469.365	66.19
469.585	77.19
469.804	89.19
470.023	77.19
470.243	90.19
470.462	74.19
470.681	82.19
470.901	87.19
471.12	73.19
471.339	86.19
471.558	82.19
471.777	89.19
471.997	65.19
472.216	82.19
472.435	77.19
472.654	65.19
472.873	79.19
473.092	73.19
473.311	69.19
473.53	84.19
473.749	83.19
473.968	85.19
474.187	80.19
474.406	75.19
474.625	89.19
474.844	77.19
475.063	65.19
475.282	75.19
475.501	74.19
475.72	77.19
475.939	83.19
476.158	80.19
476.377	79.19
476.596	80.19
476.814	82.19
477.033	75.19
477.252	70.19
477.471	73.19
477.69	77.19
477.908	78.19
478.127	70.19
478.346	94.19
478.564	71.19
478.783	76.19
479.002	77.19
479.22	79.19
479.439	80.19
479.658	76.19
479.876	88.19
480.095	87.19
480.313	75.19
480.532	74.19
480.751	71.19
480.969	71.19
481.188	79.19
481.406	90.19
481.624	77.19
481.843	71.19
482.061	73.19
482.28	72.19
482.498	85.19
482.717	78.19
482.935	92.19
483.153	66.19
483.372	83.19
483.59	82.19
483.808	85.19
484.027	77.19
484.245	86.19
484.463	85.19
484.681	77.19
484.9	94.19
485.118	82.19
485.336	77.19
485.554	83.19
485.772	83.19
485.99	74.19
486.209	87.19
486.427	75.19
486.645	86.19
486.863	90.19
487.081	79.19
487.299	80.19
487.517	83.19
487.735	74.19
487.953	77.19
488.171	81.19
488.389	73.19
488.607	67.19
488.825	73.19
489.043	71.19
489.261	88.19
489.479	87.19
489.696	71.19
489.914	81.19
490.132	78.19
490.35	72.19
490.568	77.19
490.786	88.19
491.003	69.19
491.221	71.19
491.439	80.19
491.657	75.19
491.874	67.19
492.092	66.19
492.31	73.19
492.527	74.19
492.745	80.19
492.963	74.19
493.18	82.19
493.398	78.19
493.615	77.19
493.833	80.19
494.05	65.19
494.268	88.19
494.485	91.19
494.703	83.19
494.92	55.19
495.138	64.19
495.355	79.19
495.573	87.19
495.79	73.19
496.008	85.19
496.225	80.19
496.442	80.19
496.66	87.19
496.877	83.19
497.094	77.19
497.312	81.19
497.529	78.19
497.746	73.19
497.963	76.19
498.181	75.19
498.398	82.19
498.615	83.19
498.832	63.19
499.049	92.19
499.267	83.19
499.484	77.19
499.701	89.19
499.918	65.19
500.135	67.19
500.352	83.19
500.569	85.19
500.786	83.19
501.003	89.19
501.22	78.19
501.437	80.19
501.654	86.19
501.871	90.19
502.088	84.19
502.305	67.19
502.522	63.19
502.739	52.19
502.956	74.19
503.172	77.19
503.389	55.19
503.606	73.19
503.823	77.19
504.04	74.19
504.256	81.19
504.473	79.19
504.69	72.19
504.907	83.19
505.123	86.19
505.34	93.19
505.557	81.19
505.773	86.19
505.99	71.19
506.207	74.19
506.423	78.19
506.64	58.19
506.856	80.19
507.073	89.19
507.289	79.19
507.506	75.19
507.722	84.19
507.939	71.19
508.155	81.19
508.372	79.19
508.588	82.19
508.805	81.19
509.021	85.19
509.238	78.19
509.454	74.19
509.67	85.19
509.887	85.19
510.103	77.19
510.319	83.19
510.536	67.19
510.752	70.19
510.968	75.19
511.184	80.19
511.401	70.19
511.617	63.19
511.833	81.19
512.049	75.19
512.265	77.19
512.481	84.19
512.698	82.19
512.914	83.19
513.13	81.19
513.346	73.19
513.562	91.19
513.778	91.19
513.994	76.19
514.21	88.19
514.426	73.19
514.642	55.19
514.858	67.19
515.074	80.19
515.29	96.19
515.506	90.19
515.721	67.19
515.937	85.19
516.153	82.19
516.369	86.19
516.585	83.19
516.801	86.19
517.016	93.19
517.232	87.19
517.448	79.19
517.664	67.19
517.879	71.19
518.095	82.19
518.311	75.19
518.527	84.19
518.742	77.19
518.958	74.19
519.173	86.19
519.389	71.19
519.605	65.19
519.82	80.19
520.036	75.19
520.251	77.19
