Data from Background_3_HRD10591_00004.txt Node
Date: Wed Nov 05 14:49:22 EST 2025
User: Yrep
Spectrometer: HR+D1059
Trigger mode: 1
Integration Time (sec): 1.000000E-1
Scans to average: 1
Electric dark correction enabled: true
Nonlinearity correction enabled: false
Boxcar width: 0
XAxis mode: Wavelengths
Number of Pixels in Spectrum: 2048
>>>>>Begin Spectral Data<<<<<
223.165	-21.06
223.4	-21.06
223.635	-21.06
223.869	-24.06
224.104	-23.06
224.338	-10.06
224.573	-23.06
224.808	-11.06
225.042	-5.06
225.277	1.94
225.511	-0.06
225.746	4.94
225.98	-0.06
226.215	19.94
226.449	13.94
226.683	17.94
226.918	27.94
227.152	30.94
227.387	29.94
227.621	31.94
227.856	49.94
228.09	53.94
228.324	58.94
228.559	50.94
228.793	67.94
229.027	64.94
229.262	76.94
229.496	71.94
229.73	62.94
229.964	70.94
230.199	73.94
230.433	69.94
230.667	93.94
230.901	71.94
231.136	82.94
231.37	71.94
231.604	65.94
231.838	76.94
232.072	76.94
232.306	79.94
232.541	80.94
232.775	84.94
233.009	82.94
233.243	85.94
233.477	83.94
233.711	81.94
233.945	86.94
234.179	82.94
234.413	95.94
234.647	76.94
234.881	66.94
235.115	89.94
235.349	70.94
235.583	66.94
235.817	70.94
236.051	74.94
236.285	83.94
236.519	90.94
236.753	79.94
236.987	82.94
237.221	82.94
237.455	79.94
237.689	82.94
237.922	74.94
238.156	75.94
238.39	64.94
238.624	74.94
238.858	75.94
239.091	90.94
239.325	76.94
239.559	78.94
239.793	61.94
240.027	80.94
240.26	64.94
240.494	81.94
240.728	56.94
240.961	70.94
241.195	85.94
241.429	84.94
241.662	66.94
241.896	73.94
242.13	83.94
242.363	80.94
242.597	64.94
242.83	77.94
243.064	81.94
243.298	76.94
243.531	76.94
243.765	83.94
243.998	76.94
244.232	75.94
244.465	80.94
244.699	69.94
244.932	74.94
245.166	84.94
245.399	72.94
245.633	68.94
245.866	74.94
246.099	71.94
246.333	80.94
246.566	80.94
246.8	80.94
247.033	82.94
247.266	73.94
247.5	82.94
247.733	89.94
247.966	92.94
248.2	76.94
248.433	89.94
248.666	84.94
248.899	80.94
249.133	73.94
249.366	82.94
249.599	79.94
249.832	76.94
250.066	79.94
250.299	92.94
250.532	74.94
250.765	66.94
250.998	84.94
251.231	72.94
251.465	93.94
251.698	88.94
251.931	80.94
252.164	88.94
252.397	74.94
252.63	80.94
252.863	84.94
253.096	86.94
253.329	78.94
253.562	72.94
253.795	92.94
254.028	77.94
254.261	90.94
254.494	77.94
254.727	74.94
254.96	74.94
255.193	83.94
255.426	70.94
255.659	91.94
255.892	83.94
256.124	85.94
256.357	93.94
256.59	74.94
256.823	77.94
257.056	78.94
257.289	78.94
257.521	77.94
257.754	82.94
257.987	69.94
258.22	84.94
258.452	82.94
258.685	70.94
258.918	75.94
259.151	102.94
259.383	82.94
259.616	89.94
259.849	78.94
260.081	80.94
260.314	93.94
260.547	80.94
260.779	80.94
261.012	80.94
261.244	83.94
261.477	95.94
261.71	92.94
261.942	85.94
262.175	93.94
262.407	84.94
262.64	84.94
262.872	91.94
263.105	72.94
263.337	76.94
263.57	82.94
263.802	81.94
264.035	83.94
264.267	80.94
264.499	86.94
264.732	84.94
264.964	90.94
265.197	80.94
265.429	85.94
265.661	73.94
265.894	91.94
266.126	64.94
266.358	76.94
266.591	73.94
266.823	81.94
267.055	92.94
267.287	82.94
267.52	93.94
267.752	90.94
267.984	81.94
268.216	88.94
268.448	97.94
268.681	85.94
268.913	95.94
269.145	76.94
269.377	89.94
269.609	72.94
269.841	63.94
270.073	74.94
270.306	82.94
270.538	84.94
270.77	80.94
271.002	83.94
271.234	81.94
271.466	67.94
271.698	91.94
271.93	72.94
272.162	64.94
272.394	88.94
272.626	101.94
272.858	83.94
273.09	92.94
273.322	89.94
273.553	89.94
273.785	76.94
274.017	86.94
274.249	74.94
274.481	81.94
274.713	78.94
274.945	75.94
275.176	83.94
275.408	86.94
275.64	98.94
275.872	76.94
276.104	72.94
276.335	77.94
276.567	84.94
276.799	89.94
277.031	97.94
277.262	88.94
277.494	95.94
277.726	79.94
277.957	77.94
278.189	82.94
278.421	79.94
278.652	71.94
278.884	77.94
279.115	85.94
279.347	88.94
279.579	85.94
279.81	82.94
280.042	98.94
280.273	69.94
280.505	92.94
280.736	83.94
280.968	86.94
281.199	85.94
281.431	86.94
281.662	84.94
281.894	76.94
282.125	109.94
282.356	86.94
282.588	82.94
282.819	76.94
283.051	84.94
283.282	92.94
283.513	82.94
283.745	90.94
283.976	95.94
284.207	90.94
284.439	93.94
284.67	80.94
284.901	92.94
285.132	96.94
285.364	94.94
285.595	90.94
285.826	91.94
286.057	86.94
286.288	80.94
286.52	83.94
286.751	73.94
286.982	92.94
287.213	75.94
287.444	90.94
287.675	76.94
287.906	82.94
288.138	85.94
288.369	78.94
288.6	78.94
288.831	96.94
289.062	97.94
289.293	66.94
289.524	84.94
289.755	88.94
289.986	88.94
290.217	81.94
290.448	86.94
290.679	83.94
290.91	99.94
291.141	77.94
291.371	90.94
291.602	81.94
291.833	77.94
292.064	82.94
292.295	76.94
292.526	84.94
292.757	68.94
292.987	91.94
293.218	81.94
293.449	81.94
293.68	92.94
293.91	70.94
294.141	79.94
294.372	79.94
294.603	86.94
294.833	91.94
295.064	78.94
295.295	85.94
295.525	99.94
295.756	76.94
295.987	95.94
296.217	94.94
296.448	79.94
296.679	93.94
296.909	82.94
297.14	86.94
297.37	96.94
297.601	84.94
297.831	72.94
298.062	79.94
298.292	84.94
298.523	98.94
298.753	88.94
298.984	92.94
299.214	93.94
299.445	71.94
299.675	83.94
299.905	89.94
300.136	87.94
300.366	91.94
300.597	84.94
300.827	95.94
301.057	90.94
301.288	83.94
301.518	78.94
301.748	85.94
301.979	92.94
302.209	96.94
302.439	76.94
302.669	83.94
302.9	89.94
303.13	81.94
303.36	98.94
303.59	89.94
303.82	91.94
304.051	81.94
304.281	97.94
304.511	83.94
304.741	90.94
304.971	82.94
305.201	93.94
305.431	77.94
305.661	84.94
305.891	82.94
306.121	88.94
306.352	74.94
306.582	76.94
306.812	90.94
307.042	76.94
307.272	89.94
307.502	80.94
307.731	95.94
307.961	82.94
308.191	72.94
308.421	83.94
308.651	95.94
308.881	73.94
309.111	85.94
309.341	76.94
309.571	87.94
309.8	71.94
310.03	81.94
310.26	82.94
310.49	82.94
310.72	84.94
310.949	69.94
311.179	83.94
311.409	81.94
311.639	83.94
311.868	92.94
312.098	87.94
312.328	92.94
312.557	91.94
312.787	84.94
313.017	86.94
313.246	93.94
313.476	77.94
313.706	93.94
313.935	79.94
314.165	95.94
314.394	76.94
314.624	74.94
314.853	81.94
315.083	89.94
315.312	83.94
315.542	80.94
315.771	67.94
316.001	83.94
316.23	84.94
316.46	83.94
316.689	89.94
316.919	90.94
317.148	81.94
317.377	92.94
317.607	74.94
317.836	88.94
318.065	78.94
318.295	76.94
318.524	92.94
318.753	93.94
318.983	82.94
319.212	87.94
319.441	93.94
319.67	76.94
319.9	77.94
320.129	94.94
320.358	95.94
320.587	88.94
320.816	98.94
321.046	82.94
321.275	86.94
321.504	85.94
321.733	83.94
321.962	84.94
322.191	83.94
322.42	86.94
322.649	88.94
322.878	91.94
323.108	79.94
323.337	82.94
323.566	78.94
323.795	79.94
324.024	84.94
324.253	90.94
324.482	84.94
324.71	91.94
324.939	76.94
325.168	79.94
325.397	88.94
325.626	79.94
325.855	86.94
326.084	85.94
326.313	86.94
326.542	81.94
326.77	92.94
326.999	86.94
327.228	81.94
327.457	86.94
327.686	90.94
327.914	77.94
328.143	96.94
328.372	84.94
328.6	87.94
328.829	78.94
329.058	84.94
329.287	93.94
329.515	88.94
329.744	98.94
329.972	80.94
330.201	96.94
330.43	99.94
330.658	85.94
330.887	107.94
331.115	79.94
331.344	93.94
331.572	104.94
331.801	81.94
332.03	85.94
332.258	83.94
332.486	79.94
332.715	75.94
332.943	71.94
333.172	74.94
333.4	87.94
333.629	85.94
333.857	85.94
334.085	90.94
334.314	76.94
334.542	81.94
334.771	78.94
334.999	85.94
335.227	81.94
335.455	80.94
335.684	84.94
335.912	81.94
336.14	78.94
336.369	98.94
336.597	90.94
336.825	76.94
337.053	89.94
337.281	93.94
337.51	90.94
337.738	82.94
337.966	92.94
338.194	78.94
338.422	61.94
338.65	104.94
338.878	98.94
339.106	100.94
339.334	84.94
339.562	72.94
339.79	88.94
340.018	87.94
340.246	81.94
340.474	88.94
340.702	76.94
340.93	74.94
341.158	87.94
341.386	82.94
341.614	93.94
341.842	80.94
342.07	101.94
342.298	81.94
342.526	78.94
342.754	86.94
342.981	76.94
343.209	97.94
343.437	83.94
343.665	76.94
343.893	84.94
344.12	82.94
344.348	88.94
344.576	94.94
344.804	85.94
345.031	85.94
345.259	80.94
345.487	99.94
345.714	84.94
345.942	82.94
346.17	76.94
346.397	87.94
346.625	76.94
346.853	93.94
347.08	80.94
347.308	85.94
347.535	86.94
347.763	71.94
347.99	80.94
348.218	82.94
348.445	82.94
348.673	76.94
348.9	86.94
349.128	74.94
349.355	89.94
349.583	76.94
349.81	87.94
350.037	74.94
350.265	76.94
350.492	80.94
350.72	78.94
350.947	84.94
351.174	77.94
351.402	72.94
351.629	86.94
351.856	97.94
352.083	93.94
352.311	86.94
352.538	64.94
352.765	74.94
352.992	96.94
353.22	88.94
353.447	81.94
353.674	101.94
353.901	94.94
354.128	98.94
354.355	93.94
354.583	80.94
354.81	84.94
355.037	86.94
355.264	79.94
355.491	76.94
355.718	97.94
355.945	92.94
356.172	98.94
356.399	90.94
356.626	76.94
356.853	85.94
357.08	76.94
357.307	94.94
357.534	78.94
357.761	73.94
357.988	80.94
358.215	80.94
358.441	73.94
358.668	85.94
358.895	79.94
359.122	89.94
359.349	76.94
359.576	95.94
359.802	94.94
360.029	86.94
360.256	87.94
360.483	95.94
360.709	84.94
360.936	93.94
361.163	96.94
361.39	80.94
361.616	88.94
361.843	80.94
362.07	69.94
362.296	92.94
362.523	92.94
362.749	81.94
362.976	77.94
363.203	81.94
363.429	75.94
363.656	84.94
363.882	86.94
364.109	79.94
364.335	89.94
364.562	73.94
364.788	82.94
365.015	85.94
365.241	88.94
365.468	98.94
365.694	71.94
365.92	87.94
366.147	77.94
366.373	80.94
366.599	79.94
366.826	88.94
367.052	93.94
367.278	81.94
367.505	88.94
367.731	85.94
367.957	95.94
368.184	82.94
368.41	76.94
368.636	92.94
368.862	80.94
369.089	90.94
369.315	71.94
369.541	88.94
369.767	76.94
369.993	84.94
370.219	65.94
370.445	90.94
370.672	74.94
370.898	89.94
371.124	98.94
371.35	63.94
371.576	84.94
371.802	80.94
372.028	72.94
372.254	84.94
372.48	73.94
372.706	79.94
372.932	81.94
373.158	76.94
373.384	74.94
373.61	89.94
373.835	80.94
374.061	87.94
374.287	85.94
374.513	82.94
374.739	84.94
374.965	83.94
375.191	99.94
375.416	95.94
375.642	91.94
375.868	102.94
376.094	98.94
376.319	85.94
376.545	86.94
376.771	77.94
376.997	81.94
377.222	84.94
377.448	88.94
377.674	80.94
377.899	81.94
378.125	80.94
378.35	83.94
378.576	89.94
378.802	88.94
379.027	83.94
379.253	73.94
379.478	71.94
379.704	81.94
379.929	85.94
380.155	83.94
380.38	87.94
380.606	83.94
380.831	76.94
381.057	94.94
381.282	84.94
381.507	91.94
381.733	82.94
381.958	82.94
382.184	71.94
382.409	87.94
382.634	89.94
382.86	104.94
383.085	90.94
383.31	88.94
383.535	75.94
383.761	78.94
383.986	72.94
384.211	96.94
384.436	76.94
384.662	74.94
384.887	73.94
385.112	76.94
385.337	75.94
385.562	73.94
385.787	77.94
386.013	84.94
386.238	83.94
386.463	80.94
386.688	85.94
386.913	70.94
387.138	72.94
387.363	84.94
387.588	93.94
387.813	82.94
388.038	94.94
388.263	89.94
388.488	90.94
388.713	71.94
388.938	88.94
389.163	80.94
389.387	87.94
389.612	78.94
389.837	80.94
390.062	91.94
390.287	83.94
390.512	77.94
390.736	87.94
390.961	105.94
391.186	90.94
391.411	74.94
391.636	83.94
391.86	99.94
392.085	84.94
392.31	98.94
392.534	76.94
392.759	91.94
392.984	74.94
393.208	82.94
393.433	71.94
393.658	81.94
393.882	81.94
394.107	80.94
394.331	93.94
394.556	84.94
394.78	76.94
395.005	80.94
395.229	85.94
395.454	84.94
395.678	93.94
395.903	76.94
396.127	77.94
396.352	85.94
396.576	71.94
396.801	86.94
397.025	87.94
397.249	81.94
397.474	93.94
397.698	78.94
397.922	69.94
398.147	79.94
398.371	68.94
398.595	83.94
398.82	68.94
399.044	88.94
399.268	92.94
399.492	70.94
399.717	79.94
399.941	83.94
400.165	90.94
400.389	86.94
400.613	76.94
400.837	82.94
401.062	81.94
401.286	86.94
401.51	78.94
401.734	61.94
401.958	80.94
402.182	81.94
402.406	85.94
402.63	90.94
402.854	88.94
403.078	67.94
403.302	73.94
403.526	90.94
403.75	84.94
403.974	87.94
404.198	92.94
404.422	89.94
404.645	67.94
404.869	82.94
405.093	76.94
405.317	75.94
405.541	67.94
405.765	87.94
405.988	82.94
406.212	72.94
406.436	68.94
406.66	83.94
406.883	92.94
407.107	80.94
407.331	76.94
407.555	81.94
407.778	69.94
408.002	68.94
408.226	78.94
408.449	95.94
408.673	69.94
408.896	84.94
409.12	77.94
409.344	90.94
409.567	80.94
409.791	80.94
410.014	80.94
410.238	95.94
410.461	96.94
410.685	74.94
410.908	83.94
411.132	74.94
411.355	74.94
411.578	96.94
411.802	72.94
412.025	78.94
412.249	81.94
412.472	79.94
412.695	84.94
412.919	84.94
413.142	66.94
413.365	68.94
413.589	68.94
413.812	81.94
414.035	90.94
414.258	78.94
414.482	80.94
414.705	90.94
414.928	85.94
415.151	72.94
415.374	78.94
415.597	90.94
415.821	81.94
416.044	89.94
416.267	86.94
416.49	92.94
416.713	74.94
416.936	83.94
417.159	60.94
417.382	72.94
417.605	72.94
417.828	61.94
418.051	81.94
418.274	93.94
418.497	83.94
418.72	85.94
418.943	88.94
419.166	71.94
419.389	92.94
419.611	89.94
419.834	93.94
420.057	74.94
420.28	77.94
420.503	89.94
420.726	69.94
420.948	72.94
421.171	94.94
421.394	84.94
421.617	70.94
421.839	79.94
422.062	76.94
422.285	70.94
422.507	83.94
422.73	62.94
422.953	86.94
423.175	78.94
423.398	86.94
423.621	76.94
423.843	80.94
424.066	79.94
424.288	73.94
424.511	90.94
424.733	78.94
424.956	80.94
425.178	74.94
425.401	65.94
425.623	85.94
425.846	89.94
426.068	72.94
426.291	77.94
426.513	100.94
426.735	76.94
426.958	60.94
427.18	77.94
427.402	66.94
427.625	87.94
427.847	89.94
428.069	86.94
428.292	67.94
428.514	76.94
428.736	84.94
428.958	79.94
429.181	89.94
429.403	87.94
429.625	83.94
429.847	66.94
430.069	78.94
430.292	89.94
430.514	76.94
430.736	92.94
430.958	83.94
431.18	78.94
431.402	80.94
431.624	74.94
431.846	80.94
432.068	89.94
432.29	86.94
432.512	88.94
432.734	71.94
432.956	88.94
433.178	84.94
433.4	82.94
433.622	86.94
433.844	86.94
434.066	82.94
434.287	79.94
434.509	82.94
434.731	88.94
434.953	74.94
435.175	73.94
435.397	81.94
435.618	68.94
435.84	70.94
436.062	71.94
436.284	78.94
436.505	76.94
436.727	93.94
436.949	73.94
437.17	95.94
437.392	73.94
437.614	88.94
437.835	76.94
438.057	76.94
438.278	85.94
438.5	65.94
438.721	85.94
438.943	74.94
439.165	79.94
439.386	90.94
439.608	89.94
439.829	84.94
440.05	88.94
440.272	83.94
440.493	81.94
440.715	71.94
440.936	85.94
441.158	91.94
441.379	73.94
441.6	76.94
441.822	84.94
442.043	62.94
442.264	82.94
442.486	83.94
442.707	76.94
442.928	79.94
443.149	72.94
443.371	85.94
443.592	80.94
443.813	85.94
444.034	88.94
444.255	84.94
444.476	101.94
444.698	63.94
444.919	80.94
445.14	172.94
445.361	118.94
445.582	87.94
445.803	86.94
446.024	82.94
446.245	80.94
446.466	92.94
446.687	69.94
446.908	68.94
447.129	69.94
447.35	68.94
447.571	83.94
447.792	86.94
448.013	69.94
448.234	67.94
448.455	77.94
448.675	79.94
448.896	79.94
449.117	76.94
449.338	71.94
449.559	98.94
449.779	76.94
450	77.94
450.221	82.94
450.442	86.94
450.662	81.94
450.883	84.94
451.104	76.94
451.324	58.94
451.545	82.94
451.766	86.94
451.986	80.94
452.207	71.94
452.428	78.94
452.648	78.94
452.869	87.94
453.089	90.94
453.31	71.94
453.53	83.94
453.751	89.94
453.971	80.94
454.192	81.94
454.412	78.94
454.633	67.94
454.853	73.94
455.073	76.94
455.294	68.94
455.514	76.94
455.734	85.94
455.955	83.94
456.175	92.94
456.395	96.94
456.616	68.94
456.836	77.94
457.056	109.94
457.276	82.94
457.497	88.94
457.717	88.94
457.937	77.94
458.157	67.94
458.377	81.94
458.598	91.94
458.818	84.94
459.038	70.94
459.258	73.94
459.478	79.94
459.698	73.94
459.918	72.94
460.138	89.94
460.358	74.94
460.578	68.94
460.798	75.94
461.018	84.94
461.238	73.94
461.458	74.94
461.678	84.94
461.898	79.94
462.118	77.94
462.338	68.94
462.558	88.94
462.777	76.94
462.997	72.94
463.217	68.94
463.437	95.94
463.657	89.94
463.876	75.94
464.096	82.94
464.316	87.94
464.536	83.94
464.755	72.94
464.975	76.94
465.195	80.94
465.414	87.94
465.634	82.94
465.854	78.94
466.073	81.94
466.293	78.94
466.512	96.94
466.732	89.94
466.951	84.94
467.171	78.94
467.391	77.94
467.61	84.94
467.829	76.94
468.049	84.94
468.268	61.94
468.488	78.94
468.707	78.94
468.927	77.94
469.146	76.94
469.365	64.94
469.585	81.94
469.804	81.94
470.023	80.94
470.243	82.94
470.462	93.94
470.681	78.94
470.901	72.94
471.12	68.94
471.339	79.94
471.558	72.94
471.777	80.94
471.997	76.94
472.216	81.94
472.435	77.94
472.654	77.94
472.873	84.94
473.092	75.94
473.311	74.94
473.53	75.94
473.749	84.94
473.968	79.94
474.187	76.94
474.406	82.94
474.625	74.94
474.844	76.94
475.063	82.94
475.282	87.94
475.501	78.94
475.72	83.94
475.939	80.94
476.158	77.94
476.377	84.94
476.596	84.94
476.814	70.94
477.033	70.94
477.252	79.94
477.471	88.94
477.69	92.94
477.908	79.94
478.127	90.94
478.346	85.94
478.564	75.94
478.783	78.94
479.002	79.94
479.22	86.94
479.439	71.94
479.658	86.94
479.876	82.94
480.095	81.94
480.313	76.94
480.532	70.94
480.751	81.94
480.969	79.94
481.188	93.94
481.406	88.94
481.624	66.94
481.843	80.94
482.061	90.94
482.28	80.94
482.498	84.94
482.717	84.94
482.935	76.94
483.153	80.94
483.372	76.94
483.59	85.94
483.808	84.94
484.027	84.94
484.245	89.94
484.463	93.94
484.681	79.94
484.9	95.94
485.118	87.94
485.336	84.94
485.554	80.94
485.772	80.94
485.99	86.94
486.209	86.94
486.427	76.94
486.645	69.94
486.863	69.94
487.081	76.94
487.299	78.94
487.517	96.94
487.735	79.94
487.953	78.94
488.171	80.94
488.389	91.94
488.607	73.94
488.825	83.94
489.043	84.94
489.261	76.94
489.479	74.94
489.696	74.94
489.914	64.94
490.132	69.94
490.35	79.94
490.568	86.94
490.786	77.94
491.003	68.94
491.221	86.94
491.439	92.94
491.657	90.94
491.874	78.94
492.092	80.94
492.31	85.94
492.527	68.94
492.745	87.94
492.963	77.94
493.18	73.94
493.398	86.94
493.615	69.94
493.833	82.94
494.05	80.94
494.268	74.94
494.485	93.94
494.703	76.94
494.92	83.94
495.138	91.94
495.355	82.94
495.573	86.94
495.79	90.94
496.008	81.94
496.225	65.94
496.442	74.94
496.66	66.94
496.877	89.94
497.094	87.94
497.312	100.94
497.529	75.94
497.746	82.94
497.963	85.94
498.181	102.94
498.398	85.94
498.615	77.94
498.832	82.94
499.049	70.94
499.267	83.94
499.484	84.94
499.701	89.94
499.918	81.94
500.135	89.94
500.352	72.94
500.569	90.94
500.786	76.94
501.003	84.94
501.22	85.94
501.437	71.94
501.654	84.94
501.871	77.94
502.088	78.94
502.305	89.94
502.522	84.94
502.739	84.94
502.956	77.94
503.172	80.94
503.389	84.94
503.606	84.94
503.823	91.94
504.04	94.94
504.256	90.94
504.473	83.94
504.69	83.94
504.907	97.94
505.123	83.94
505.34	74.94
505.557	82.94
505.773	74.94
505.99	66.94
506.207	80.94
506.423	91.94
506.64	86.94
506.856	83.94
507.073	74.94
507.289	81.94
507.506	77.94
507.722	71.94
507.939	84.94
508.155	84.94
508.372	70.94
508.588	90.94
508.805	90.94
509.021	83.94
509.238	88.94
509.454	83.94
509.67	76.94
509.887	81.94
510.103	87.94
510.319	65.94
510.536	79.94
510.752	80.94
510.968	85.94
511.184	79.94
511.401	79.94
511.617	82.94
511.833	91.94
512.049	88.94
512.265	72.94
512.481	76.94
512.698	82.94
512.914	77.94
513.13	86.94
513.346	80.94
513.562	79.94
513.778	80.94
513.994	83.94
514.21	75.94
514.426	80.94
514.642	79.94
514.858	78.94
515.074	82.94
515.29	86.94
515.506	82.94
515.721	73.94
515.937	84.94
516.153	87.94
516.369	78.94
516.585	93.94
516.801	93.94
517.016	96.94
517.232	72.94
517.448	78.94
517.664	64.94
517.879	84.94
518.095	74.94
518.311	81.94
518.527	94.94
518.742	76.94
518.958	82.94
519.173	92.94
519.389	76.94
519.605	80.94
519.82	70.94
520.036	88.94
