Data from Background_3_HRD10591_00090.txt Node
Date: Wed Nov 05 14:50:04 EST 2025
User: Yrep
Spectrometer: HR+D1059
Trigger mode: 1
Integration Time (sec): 1.000000E-1
Scans to average: 1
Electric dark correction enabled: true
Nonlinearity correction enabled: false
Boxcar width: 0
XAxis mode: Wavelengths
Number of Pixels in Spectrum: 2048
>>>>>Begin Spectral Data<<<<<
223.165	-12.31
223.4	-12.31
223.635	-12.31
223.869	-21.31
224.104	-6.31
224.338	1.69
224.573	-17.31
224.808	-20.31
225.042	-10.31
225.277	-5.31
225.511	-6.31
225.746	1.69
225.98	8.69
226.215	-4.31
226.449	16.69
226.683	20.69
226.918	25.69
227.152	28.69
227.387	39.69
227.621	38.69
227.856	36.69
228.09	38.69
228.324	60.69
228.559	66.69
228.793	61.69
229.027	55.69
229.262	80.69
229.496	60.69
229.73	52.69
229.964	66.69
230.199	86.69
230.433	60.69
230.667	67.69
230.901	80.69
231.136	74.69
231.37	66.69
231.604	81.69
231.838	78.69
232.072	72.69
232.306	86.69
232.541	71.69
232.775	69.69
233.009	94.69
233.243	77.69
233.477	77.69
233.711	76.69
233.945	78.69
234.179	54.69
234.413	79.69
234.647	74.69
234.881	74.69
235.115	72.69
235.349	85.69
235.583	82.69
235.817	68.69
236.051	72.69
236.285	79.69
236.519	86.69
236.753	79.69
236.987	84.69
237.221	67.69
237.455	68.69
237.689	88.69
237.922	78.69
238.156	74.69
238.39	68.69
238.624	74.69
238.858	66.69
239.091	84.69
239.325	68.69
239.559	59.69
239.793	77.69
240.027	70.69
240.26	72.69
240.494	75.69
240.728	71.69
240.961	90.69
241.195	67.69
241.429	66.69
241.662	76.69
241.896	82.69
242.13	71.69
242.363	59.69
242.597	74.69
242.83	72.69
243.064	78.69
243.298	72.69
243.531	76.69
243.765	59.69
243.998	71.69
244.232	74.69
244.465	84.69
244.699	71.69
244.932	71.69
245.166	74.69
245.399	76.69
245.633	70.69
245.866	75.69
246.099	68.69
246.333	78.69
246.566	87.69
246.8	74.69
247.033	70.69
247.266	75.69
247.5	81.69
247.733	75.69
247.966	82.69
248.2	78.69
248.433	81.69
248.666	63.69
248.899	76.69
249.133	84.69
249.366	66.69
249.599	80.69
249.832	66.69
250.066	75.69
250.299	76.69
250.532	76.69
250.765	64.69
250.998	73.69
251.231	78.69
251.465	62.69
251.698	67.69
251.931	76.69
252.164	91.69
252.397	85.69
252.63	73.69
252.863	72.69
253.096	68.69
253.329	78.69
253.562	74.69
253.795	72.69
254.028	83.69
254.261	83.69
254.494	74.69
254.727	77.69
254.96	80.69
255.193	71.69
255.426	76.69
255.659	74.69
255.892	86.69
256.124	90.69
256.357	77.69
256.59	76.69
256.823	62.69
257.056	75.69
257.289	72.69
257.521	72.69
257.754	70.69
257.987	86.69
258.22	75.69
258.452	64.69
258.685	77.69
258.918	74.69
259.151	79.69
259.383	86.69
259.616	66.69
259.849	80.69
260.081	72.69
260.314	86.69
260.547	76.69
260.779	83.69
261.012	78.69
261.244	84.69
261.477	72.69
261.71	84.69
261.942	77.69
262.175	82.69
262.407	92.69
262.64	88.69
262.872	86.69
263.105	82.69
263.337	68.69
263.57	65.69
263.802	76.69
264.035	84.69
264.267	81.69
264.499	76.69
264.732	94.69
264.964	89.69
265.197	71.69
265.429	76.69
265.661	72.69
265.894	83.69
266.126	76.69
266.358	98.69
266.591	88.69
266.823	80.69
267.055	72.69
267.287	76.69
267.52	78.69
267.752	80.69
267.984	89.69
268.216	84.69
268.448	90.69
268.681	84.69
268.913	80.69
269.145	88.69
269.377	88.69
269.609	75.69
269.841	67.69
270.073	76.69
270.306	78.69
270.538	70.69
270.77	72.69
271.002	87.69
271.234	83.69
271.466	86.69
271.698	72.69
271.93	86.69
272.162	74.69
272.394	78.69
272.626	78.69
272.858	82.69
273.09	77.69
273.322	84.69
273.553	73.69
273.785	69.69
274.017	80.69
274.249	92.69
274.481	71.69
274.713	78.69
274.945	86.69
275.176	81.69
275.408	74.69
275.64	76.69
275.872	80.69
276.104	72.69
276.335	70.69
276.567	80.69
276.799	82.69
277.031	92.69
277.262	82.69
277.494	89.69
277.726	80.69
277.957	88.69
278.189	84.69
278.421	81.69
278.652	79.69
278.884	92.69
279.115	75.69
279.347	82.69
279.579	85.69
279.81	90.69
280.042	72.69
280.273	67.69
280.505	91.69
280.736	84.69
280.968	81.69
281.199	82.69
281.431	81.69
281.662	83.69
281.894	72.69
282.125	78.69
282.356	82.69
282.588	76.69
282.819	91.69
283.051	80.69
283.282	78.69
283.513	82.69
283.745	81.69
283.976	82.69
284.207	78.69
284.439	89.69
284.67	65.69
284.901	85.69
285.132	83.69
285.364	73.69
285.595	81.69
285.826	87.69
286.057	88.69
286.288	79.69
286.52	76.69
286.751	76.69
286.982	83.69
287.213	83.69
287.444	94.69
287.675	77.69
287.906	71.69
288.138	78.69
288.369	78.69
288.6	74.69
288.831	90.69
289.062	88.69
289.293	80.69
289.524	63.69
289.755	70.69
289.986	90.69
290.217	83.69
290.448	102.69
290.679	84.69
290.91	85.69
291.141	68.69
291.371	71.69
291.602	92.69
291.833	78.69
292.064	76.69
292.295	74.69
292.526	79.69
292.757	98.69
292.987	87.69
293.218	81.69
293.449	89.69
293.68	54.69
293.91	78.69
294.141	69.69
294.372	75.69
294.603	67.69
294.833	84.69
295.064	88.69
295.295	84.69
295.525	74.69
295.756	73.69
295.987	78.69
296.217	78.69
296.448	93.69
296.679	83.69
296.909	88.69
297.14	75.69
297.37	94.69
297.601	72.69
297.831	74.69
298.062	79.69
298.292	89.69
298.523	83.69
298.753	78.69
298.984	74.69
299.214	89.69
299.445	86.69
299.675	70.69
299.905	69.69
300.136	80.69
300.366	84.69
300.597	83.69
300.827	86.69
301.057	66.69
301.288	79.69
301.518	78.69
301.748	75.69
301.979	90.69
302.209	68.69
302.439	82.69
302.669	80.69
302.9	79.69
303.13	79.69
303.36	89.69
303.59	78.69
303.82	79.69
304.051	82.69
304.281	92.69
304.511	87.69
304.741	93.69
304.971	97.69
305.201	80.69
305.431	95.69
305.661	87.69
305.891	75.69
306.121	87.69
306.352	79.69
306.582	80.69
306.812	87.69
307.042	93.69
307.272	86.69
307.502	72.69
307.731	85.69
307.961	90.69
308.191	85.69
308.421	79.69
308.651	73.69
308.881	72.69
309.111	75.69
309.341	74.69
309.571	74.69
309.8	87.69
310.03	86.69
310.26	88.69
310.49	78.69
310.72	93.69
310.949	86.69
311.179	75.69
311.409	64.69
311.639	76.69
311.868	80.69
312.098	96.69
312.328	97.69
312.557	95.69
312.787	81.69
313.017	74.69
313.246	82.69
313.476	83.69
313.706	74.69
313.935	89.69
314.165	73.69
314.394	74.69
314.624	79.69
314.853	90.69
315.083	74.69
315.312	77.69
315.542	76.69
315.771	81.69
316.001	88.69
316.23	88.69
316.46	67.69
316.689	83.69
316.919	78.69
317.148	76.69
317.377	78.69
317.607	95.69
317.836	79.69
318.065	94.69
318.295	80.69
318.524	76.69
318.753	78.69
318.983	87.69
319.212	77.69
319.441	73.69
319.67	88.69
319.9	74.69
320.129	88.69
320.358	79.69
320.587	79.69
320.816	91.69
321.046	89.69
321.275	90.69
321.504	73.69
321.733	82.69
321.962	86.69
322.191	83.69
322.42	79.69
322.649	89.69
322.878	70.69
323.108	72.69
323.337	69.69
323.566	67.69
323.795	84.69
324.024	104.69
324.253	89.69
324.482	83.69
324.71	80.69
324.939	80.69
325.168	81.69
325.397	76.69
325.626	85.69
325.855	82.69
326.084	75.69
326.313	80.69
326.542	67.69
326.77	73.69
326.999	75.69
327.228	80.69
327.457	66.69
327.686	78.69
327.914	78.69
328.143	88.69
328.372	75.69
328.6	82.69
328.829	71.69
329.058	82.69
329.287	96.69
329.515	84.69
329.744	67.69
329.972	76.69
330.201	66.69
330.43	83.69
330.658	73.69
330.887	88.69
331.115	91.69
331.344	84.69
331.572	82.69
331.801	78.69
332.03	87.69
332.258	91.69
332.486	77.69
332.715	90.69
332.943	78.69
333.172	75.69
333.4	86.69
333.629	67.69
333.857	85.69
334.085	72.69
334.314	76.69
334.542	90.69
334.771	83.69
334.999	90.69
335.227	82.69
335.455	92.69
335.684	84.69
335.912	90.69
336.14	74.69
336.369	78.69
336.597	85.69
336.825	69.69
337.053	84.69
337.281	66.69
337.51	74.69
337.738	80.69
337.966	84.69
338.194	84.69
338.422	78.69
338.65	75.69
338.878	76.69
339.106	90.69
339.334	72.69
339.562	79.69
339.79	74.69
340.018	84.69
340.246	84.69
340.474	84.69
340.702	83.69
340.93	88.69
341.158	83.69
341.386	80.69
341.614	68.69
341.842	83.69
342.07	90.69
342.298	89.69
342.526	84.69
342.754	89.69
342.981	84.69
343.209	89.69
343.437	89.69
343.665	90.69
343.893	86.69
344.12	76.69
344.348	70.69
344.576	80.69
344.804	69.69
345.031	83.69
345.259	72.69
345.487	86.69
345.714	73.69
345.942	90.69
346.17	70.69
346.397	84.69
346.625	80.69
346.853	78.69
347.08	77.69
347.308	82.69
347.535	72.69
347.763	77.69
347.99	91.69
348.218	102.69
348.445	86.69
348.673	88.69
348.9	89.69
349.128	92.69
349.355	81.69
349.583	82.69
349.81	102.69
350.037	82.69
350.265	88.69
350.492	65.69
350.72	86.69
350.947	93.69
351.174	90.69
351.402	78.69
351.629	87.69
351.856	95.69
352.083	93.69
352.311	78.69
352.538	82.69
352.765	82.69
352.992	82.69
353.22	79.69
353.447	63.69
353.674	95.69
353.901	92.69
354.128	72.69
354.355	86.69
354.583	90.69
354.81	82.69
355.037	88.69
355.264	82.69
355.491	71.69
355.718	63.69
355.945	91.69
356.172	80.69
356.399	73.69
356.626	87.69
356.853	82.69
357.08	82.69
357.307	81.69
357.534	82.69
357.761	84.69
357.988	82.69
358.215	89.69
358.441	80.69
358.668	84.69
358.895	90.69
359.122	72.69
359.349	94.69
359.576	78.69
359.802	77.69
360.029	69.69
360.256	85.69
360.483	81.69
360.709	86.69
360.936	91.69
361.163	78.69
361.39	75.69
361.616	79.69
361.843	95.69
362.07	86.69
362.296	80.69
362.523	69.69
362.749	57.69
362.976	72.69
363.203	76.69
363.429	88.69
363.656	82.69
363.882	89.69
364.109	89.69
364.335	82.69
364.562	79.69
364.788	82.69
365.015	73.69
365.241	85.69
365.468	88.69
365.694	84.69
365.92	93.69
366.147	78.69
366.373	90.69
366.599	88.69
366.826	88.69
367.052	83.69
367.278	76.69
367.505	72.69
367.731	91.69
367.957	80.69
368.184	87.69
368.41	68.69
368.636	80.69
368.862	85.69
369.089	89.69
369.315	77.69
369.541	82.69
369.767	76.69
369.993	76.69
370.219	90.69
370.445	74.69
370.672	83.69
370.898	92.69
371.124	72.69
371.35	78.69
371.576	95.69
371.802	83.69
372.028	69.69
372.254	86.69
372.48	84.69
372.706	70.69
372.932	80.69
373.158	72.69
373.384	85.69
373.61	73.69
373.835	82.69
374.061	76.69
374.287	82.69
374.513	78.69
374.739	84.69
374.965	80.69
375.191	90.69
375.416	87.69
375.642	69.69
375.868	96.69
376.094	78.69
376.319	94.69
376.545	77.69
376.771	83.69
376.997	70.69
377.222	75.69
377.448	81.69
377.674	75.69
377.899	86.69
378.125	85.69
378.35	84.69
378.576	81.69
378.802	91.69
379.027	87.69
379.253	92.69
379.478	89.69
379.704	80.69
379.929	81.69
380.155	74.69
380.38	83.69
380.606	70.69
380.831	68.69
381.057	91.69
381.282	75.69
381.507	79.69
381.733	68.69
381.958	69.69
382.184	91.69
382.409	78.69
382.634	77.69
382.86	76.69
383.085	74.69
383.31	76.69
383.535	68.69
383.761	83.69
383.986	77.69
384.211	93.69
384.436	75.69
384.662	94.69
384.887	90.69
385.112	76.69
385.337	74.69
385.562	89.69
385.787	87.69
386.013	81.69
386.238	74.69
386.463	68.69
386.688	91.69
386.913	86.69
387.138	76.69
387.363	78.69
387.588	82.69
387.813	78.69
388.038	67.69
388.263	95.69
388.488	84.69
388.713	94.69
388.938	69.69
389.163	80.69
389.387	79.69
389.612	75.69
389.837	91.69
390.062	93.69
390.287	80.69
390.512	76.69
390.736	81.69
390.961	71.69
391.186	76.69
391.411	78.69
391.636	72.69
391.86	91.69
392.085	58.69
392.31	81.69
392.534	79.69
392.759	75.69
392.984	81.69
393.208	84.69
393.433	84.69
393.658	78.69
393.882	80.69
394.107	93.69
394.331	74.69
394.556	83.69
394.78	76.69
395.005	86.69
395.229	80.69
395.454	75.69
395.678	87.69
395.903	86.69
396.127	76.69
396.352	84.69
396.576	92.69
396.801	83.69
397.025	71.69
397.249	72.69
397.474	84.69
397.698	71.69
397.922	66.69
398.147	68.69
398.371	71.69
398.595	83.69
398.82	82.69
399.044	79.69
399.268	96.69
399.492	92.69
399.717	74.69
399.941	68.69
400.165	68.69
400.389	78.69
400.613	87.69
400.837	72.69
401.062	70.69
401.286	89.69
401.51	83.69
401.734	78.69
401.958	84.69
402.182	78.69
402.406	85.69
402.63	86.69
402.854	71.69
403.078	80.69
403.302	84.69
403.526	74.69
403.75	86.69
403.974	83.69
404.198	87.69
404.422	76.69
404.645	89.69
404.869	84.69
405.093	88.69
405.317	77.69
405.541	68.69
405.765	84.69
405.988	77.69
406.212	68.69
406.436	72.69
406.66	81.69
406.883	92.69
407.107	80.69
407.331	82.69
407.555	75.69
407.778	80.69
408.002	78.69
408.226	81.69
408.449	74.69
408.673	87.69
408.896	76.69
409.12	74.69
409.344	86.69
409.567	74.69
409.791	74.69
410.014	79.69
410.238	87.69
410.461	74.69
410.685	78.69
410.908	74.69
411.132	94.69
411.355	74.69
411.578	88.69
411.802	75.69
412.025	80.69
412.249	76.69
412.472	68.69
412.695	82.69
412.919	71.69
413.142	80.69
413.365	77.69
413.589	75.69
413.812	80.69
414.035	86.69
414.258	80.69
414.482	79.69
414.705	91.69
414.928	65.69
415.151	75.69
415.374	67.69
415.597	77.69
415.821	82.69
416.044	65.69
416.267	80.69
416.49	74.69
416.713	68.69
416.936	77.69
417.159	76.69
417.382	66.69
417.605	76.69
417.828	81.69
418.051	79.69
418.274	70.69
418.497	83.69
418.72	92.69
418.943	72.69
419.166	78.69
419.389	76.69
419.611	76.69
419.834	83.69
420.057	96.69
420.28	79.69
420.503	80.69
420.726	72.69
420.948	79.69
421.171	79.69
421.394	91.69
421.617	87.69
421.839	80.69
422.062	85.69
422.285	90.69
422.507	87.69
422.73	67.69
422.953	72.69
423.175	71.69
423.398	78.69
423.621	91.69
423.843	74.69
424.066	81.69
424.288	69.69
424.511	85.69
424.733	78.69
424.956	75.69
425.178	76.69
425.401	74.69
425.623	70.69
425.846	64.69
426.068	64.69
426.291	74.69
426.513	93.69
426.735	82.69
426.958	82.69
427.18	71.69
427.402	76.69
427.625	73.69
427.847	80.69
428.069	78.69
428.292	82.69
428.514	92.69
428.736	72.69
428.958	76.69
429.181	83.69
429.403	83.69
429.625	74.69
429.847	62.69
430.069	72.69
430.292	88.69
430.514	71.69
430.736	79.69
430.958	78.69
431.18	62.69
431.402	68.69
431.624	70.69
431.846	74.69
432.068	89.69
432.29	87.69
432.512	76.69
432.734	82.69
432.956	82.69
433.178	72.69
433.4	73.69
433.622	88.69
433.844	69.69
434.066	75.69
434.287	93.69
434.509	105.69
434.731	73.69
434.953	69.69
435.175	80.69
435.397	86.69
435.618	71.69
435.84	83.69
436.062	73.69
436.284	65.69
436.505	86.69
436.727	80.69
436.949	91.69
437.17	83.69
437.392	87.69
437.614	75.69
437.835	85.69
438.057	80.69
438.278	80.69
438.5	90.69
438.721	89.69
438.943	88.69
439.165	79.69
439.386	90.69
439.608	92.69
439.829	67.69
440.05	71.69
440.272	62.69
440.493	81.69
440.715	70.69
440.936	65.69
441.158	83.69
441.379	77.69
441.6	83.69
441.822	76.69
442.043	83.69
442.264	74.69
442.486	92.69
442.707	92.69
442.928	86.69
443.149	96.69
443.371	71.69
443.592	81.69
443.813	71.69
444.034	71.69
444.255	79.69
444.476	89.69
444.698	78.69
444.919	76.69
445.14	160.69
445.361	114.69
445.582	59.69
445.803	67.69
446.024	72.69
446.245	75.69
446.466	88.69
446.687	72.69
446.908	82.69
447.129	96.69
447.35	75.69
447.571	72.69
447.792	76.69
448.013	95.69
448.234	67.69
448.455	79.69
448.675	78.69
448.896	90.69
449.117	84.69
449.338	71.69
449.559	75.69
449.779	79.69
450	77.69
450.221	81.69
450.442	80.69
450.662	84.69
450.883	79.69
451.104	91.69
451.324	73.69
451.545	88.69
451.766	64.69
451.986	77.69
452.207	82.69
452.428	82.69
452.648	88.69
452.869	74.69
453.089	82.69
453.31	74.69
453.53	69.69
453.751	73.69
453.971	78.69
454.192	62.69
454.412	92.69
454.633	71.69
454.853	80.69
455.073	78.69
455.294	92.69
455.514	87.69
455.734	88.69
455.955	90.69
456.175	88.69
456.395	77.69
456.616	95.69
456.836	76.69
457.056	70.69
457.276	55.69
457.497	67.69
457.717	75.69
457.937	88.69
458.157	78.69
458.377	71.69
458.598	82.69
458.818	89.69
459.038	77.69
459.258	71.69
459.478	76.69
459.698	77.69
459.918	82.69
460.138	80.69
460.358	76.69
460.578	99.69
460.798	79.69
461.018	87.69
461.238	76.69
461.458	86.69
461.678	88.69
461.898	88.69
462.118	68.69
462.338	85.69
462.558	78.69
462.777	85.69
462.997	80.69
463.217	76.69
463.437	85.69
463.657	72.69
463.876	87.69
464.096	71.69
464.316	84.69
464.536	87.69
464.755	79.69
464.975	74.69
465.195	76.69
465.414	58.69
465.634	70.69
465.854	76.69
466.073	83.69
466.293	67.69
466.512	68.69
466.732	78.69
466.951	81.69
467.171	77.69
467.391	79.69
467.61	81.69
467.829	68.69
468.049	83.69
468.268	79.69
468.488	81.69
468.707	78.69
468.927	78.69
469.146	70.69
469.365	64.69
469.585	86.69
469.804	76.69
470.023	76.69
470.243	88.69
470.462	77.69
470.681	90.69
470.901	86.69
471.12	86.69
471.339	72.69
471.558	74.69
471.777	81.69
471.997	74.69
472.216	91.69
472.435	76.69
472.654	68.69
472.873	78.69
473.092	88.69
473.311	65.69
473.53	87.69
473.749	71.69
473.968	86.69
474.187	82.69
474.406	65.69
474.625	76.69
474.844	86.69
475.063	78.69
475.282	79.69
475.501	92.69
475.72	86.69
475.939	84.69
476.158	74.69
476.377	94.69
476.596	79.69
476.814	106.69
477.033	77.69
477.252	63.69
477.471	87.69
477.69	89.69
477.908	89.69
478.127	75.69
478.346	78.69
478.564	81.69
478.783	95.69
479.002	71.69
479.22	80.69
479.439	74.69
479.658	64.69
479.876	78.69
480.095	70.69
480.313	78.69
480.532	97.69
480.751	83.69
480.969	98.69
481.188	66.69
481.406	76.69
481.624	83.69
481.843	69.69
482.061	78.69
482.28	74.69
482.498	73.69
482.717	77.69
482.935	89.69
483.153	89.69
483.372	80.69
483.59	98.69
483.808	85.69
484.027	66.69
484.245	82.69
484.463	76.69
484.681	90.69
484.9	75.69
485.118	75.69
485.336	76.69
485.554	77.69
485.772	76.69
485.99	66.69
486.209	90.69
486.427	89.69
486.645	89.69
486.863	76.69
487.081	83.69
487.299	81.69
487.517	81.69
487.735	82.69
487.953	76.69
488.171	76.69
488.389	79.69
488.607	86.69
488.825	91.69
489.043	77.69
489.261	68.69
489.479	74.69
489.696	76.69
489.914	81.69
490.132	80.69
490.35	79.69
490.568	77.69
490.786	88.69
491.003	76.69
491.221	72.69
491.439	77.69
491.657	81.69
491.874	90.69
492.092	90.69
492.31	87.69
492.527	74.69
492.745	85.69
492.963	78.69
493.18	84.69
493.398	76.69
493.615	84.69
493.833	76.69
494.05	73.69
494.268	81.69
494.485	87.69
494.703	78.69
494.92	83.69
495.138	73.69
495.355	79.69
495.573	71.69
495.79	84.69
496.008	77.69
496.225	65.69
496.442	81.69
496.66	86.69
496.877	58.69
497.094	68.69
497.312	85.69
497.529	83.69
497.746	83.69
497.963	72.69
498.181	73.69
498.398	81.69
498.615	72.69
498.832	70.69
499.049	80.69
499.267	91.69
499.484	84.69
499.701	92.69
499.918	76.69
500.135	77.69
500.352	95.69
500.569	69.69
500.786	74.69
501.003	74.69
501.22	64.69
501.437	66.69
501.654	93.69
501.871	74.69
502.088	66.69
502.305	76.69
502.522	94.69
502.739	85.69
502.956	83.69
503.172	83.69
503.389	82.69
503.606	83.69
503.823	98.69
504.04	81.69
504.256	83.69
504.473	79.69
504.69	69.69
504.907	82.69
505.123	76.69
505.34	86.69
505.557	67.69
505.773	79.69
505.99	79.69
506.207	76.69
506.423	83.69
506.64	99.69
506.856	91.69
507.073	92.69
507.289	76.69
507.506	79.69
507.722	98.69
507.939	78.69
508.155	76.69
508.372	88.69
508.588	78.69
508.805	91.69
509.021	82.69
509.238	82.69
509.454	81.69
509.67	80.69
509.887	81.69
510.103	80.69
510.319	78.69
510.536	83.69
510.752	79.69
510.968	88.69
511.184	78.69
511.401	89.69
511.617	86.69
511.833	67.69
512.049	81.69
512.265	83.69
512.481	87.69
512.698	76.69
512.914	80.69
513.13	80.69
513.346	74.69
513.562	72.69
513.778	63.69
513.994	83.69
514.21	74.69
514.426	81.69
514.642	82.69
514.858	81.69
515.074	71.69
515.29	86.69
515.506	87.69
515.721	79.69
515.937	80.69
516.153	67.69
516.369	75.69
516.585	81.69
516.801	66.69
517.016	88.69
517.232	79.69
517.448	81.69
517.664	74.69
517.879	87.69
518.095	75.69
518.311	83.69
518.527	89.69
518.742	84.69
518.958	74.69
519.173	95.69
519.389	66.69
519.605	86.69
519.82	88.69
520.036	83.69
520.251	73.69
