Data from Background_3_HRD10591_00003.txt Node
Date: Wed Nov 05 14:49:21 EST 2025
User: Yrep
Spectrometer: HR+D1059
Trigger mode: 1
Integration Time (sec): 1.000000E-1
Scans to average: 1
Electric dark correction enabled: true
Nonlinearity correction enabled: false
Boxcar width: 0
XAxis mode: Wavelengths
Number of Pixels in Spectrum: 2048
>>>>>Begin Spectral Data<<<<<
223.165	-11.94
223.4	-11.94
223.635	-11.94
223.869	-3.94
224.104	-7.94
224.338	-21.94
224.573	-6.94
224.808	-22.94
225.042	-10.94
225.277	-12.94
225.511	-0.94
225.746	19.06
225.98	2.06
226.215	-7.94
226.449	25.06
226.683	15.06
226.918	22.06
227.152	25.06
227.387	37.06
227.621	45.06
227.856	55.06
228.09	53.06
228.324	45.06
228.559	54.06
228.793	62.06
229.027	61.06
229.262	66.06
229.496	75.06
229.73	63.06
229.964	67.06
230.199	82.06
230.433	81.06
230.667	73.06
230.901	62.06
231.136	70.06
231.37	82.06
231.604	71.06
231.838	91.06
232.072	83.06
232.306	98.06
232.541	87.06
232.775	80.06
233.009	84.06
233.243	83.06
233.477	79.06
233.711	85.06
233.945	66.06
234.179	75.06
234.413	70.06
234.647	89.06
234.881	85.06
235.115	82.06
235.349	75.06
235.583	69.06
235.817	81.06
236.051	86.06
236.285	82.06
236.519	88.06
236.753	87.06
236.987	85.06
237.221	75.06
237.455	82.06
237.689	86.06
237.922	72.06
238.156	82.06
238.39	84.06
238.624	77.06
238.858	94.06
239.091	76.06
239.325	67.06
239.559	77.06
239.793	80.06
240.027	81.06
240.26	81.06
240.494	75.06
240.728	75.06
240.961	75.06
241.195	80.06
241.429	81.06
241.662	68.06
241.896	70.06
242.13	79.06
242.363	72.06
242.597	77.06
242.83	87.06
243.064	73.06
243.298	86.06
243.531	86.06
243.765	86.06
243.998	64.06
244.232	81.06
244.465	86.06
244.699	88.06
244.932	79.06
245.166	79.06
245.399	80.06
245.633	86.06
245.866	89.06
246.099	83.06
246.333	82.06
246.566	86.06
246.8	76.06
247.033	81.06
247.266	77.06
247.5	74.06
247.733	70.06
247.966	69.06
248.2	72.06
248.433	83.06
248.666	86.06
248.899	83.06
249.133	86.06
249.366	80.06
249.599	85.06
249.832	84.06
250.066	82.06
250.299	90.06
250.532	77.06
250.765	74.06
250.998	85.06
251.231	72.06
251.465	85.06
251.698	76.06
251.931	75.06
252.164	75.06
252.397	64.06
252.63	71.06
252.863	80.06
253.096	81.06
253.329	78.06
253.562	96.06
253.795	90.06
254.028	75.06
254.261	75.06
254.494	80.06
254.727	85.06
254.96	91.06
255.193	81.06
255.426	77.06
255.659	86.06
255.892	82.06
256.124	66.06
256.357	82.06
256.59	73.06
256.823	88.06
257.056	81.06
257.289	100.06
257.521	83.06
257.754	88.06
257.987	77.06
258.22	90.06
258.452	73.06
258.685	87.06
258.918	83.06
259.151	88.06
259.383	87.06
259.616	81.06
259.849	71.06
260.081	86.06
260.314	71.06
260.547	70.06
260.779	78.06
261.012	87.06
261.244	73.06
261.477	90.06
261.71	85.06
261.942	88.06
262.175	96.06
262.407	73.06
262.64	96.06
262.872	98.06
263.105	81.06
263.337	94.06
263.57	96.06
263.802	81.06
264.035	88.06
264.267	91.06
264.499	89.06
264.732	74.06
264.964	88.06
265.197	89.06
265.429	81.06
265.661	76.06
265.894	98.06
266.126	85.06
266.358	78.06
266.591	87.06
266.823	88.06
267.055	95.06
267.287	91.06
267.52	75.06
267.752	75.06
267.984	89.06
268.216	85.06
268.448	83.06
268.681	95.06
268.913	93.06
269.145	90.06
269.377	81.06
269.609	86.06
269.841	93.06
270.073	81.06
270.306	75.06
270.538	75.06
270.77	89.06
271.002	94.06
271.234	72.06
271.466	75.06
271.698	83.06
271.93	92.06
272.162	85.06
272.394	81.06
272.626	87.06
272.858	93.06
273.09	92.06
273.322	71.06
273.553	87.06
273.785	80.06
274.017	82.06
274.249	93.06
274.481	79.06
274.713	86.06
274.945	83.06
275.176	79.06
275.408	80.06
275.64	100.06
275.872	89.06
276.104	96.06
276.335	96.06
276.567	89.06
276.799	93.06
277.031	100.06
277.262	89.06
277.494	72.06
277.726	91.06
277.957	99.06
278.189	85.06
278.421	84.06
278.652	90.06
278.884	78.06
279.115	84.06
279.347	96.06
279.579	75.06
279.81	85.06
280.042	73.06
280.273	82.06
280.505	82.06
280.736	105.06
280.968	80.06
281.199	91.06
281.431	85.06
281.662	75.06
281.894	93.06
282.125	79.06
282.356	74.06
282.588	74.06
282.819	102.06
283.051	83.06
283.282	87.06
283.513	99.06
283.745	89.06
283.976	100.06
284.207	98.06
284.439	105.06
284.67	106.06
284.901	95.06
285.132	75.06
285.364	89.06
285.595	91.06
285.826	90.06
286.057	100.06
286.288	81.06
286.52	82.06
286.751	80.06
286.982	86.06
287.213	84.06
287.444	75.06
287.675	72.06
287.906	82.06
288.138	79.06
288.369	103.06
288.6	98.06
288.831	84.06
289.062	87.06
289.293	95.06
289.524	84.06
289.755	89.06
289.986	83.06
290.217	100.06
290.448	73.06
290.679	73.06
290.91	94.06
291.141	96.06
291.371	87.06
291.602	84.06
291.833	92.06
292.064	89.06
292.295	85.06
292.526	91.06
292.757	84.06
292.987	83.06
293.218	91.06
293.449	91.06
293.68	84.06
293.91	93.06
294.141	83.06
294.372	75.06
294.603	101.06
294.833	84.06
295.064	86.06
295.295	80.06
295.525	79.06
295.756	102.06
295.987	88.06
296.217	92.06
296.448	95.06
296.679	82.06
296.909	80.06
297.14	82.06
297.37	92.06
297.601	81.06
297.831	81.06
298.062	75.06
298.292	73.06
298.523	87.06
298.753	86.06
298.984	88.06
299.214	85.06
299.445	90.06
299.675	98.06
299.905	102.06
300.136	79.06
300.366	92.06
300.597	88.06
300.827	94.06
301.057	93.06
301.288	92.06
301.518	83.06
301.748	96.06
301.979	96.06
302.209	91.06
302.439	82.06
302.669	87.06
302.9	106.06
303.13	93.06
303.36	85.06
303.59	77.06
303.82	80.06
304.051	79.06
304.281	96.06
304.511	85.06
304.741	83.06
304.971	71.06
305.201	91.06
305.431	94.06
305.661	83.06
305.891	87.06
306.121	97.06
306.352	79.06
306.582	73.06
306.812	79.06
307.042	78.06
307.272	87.06
307.502	101.06
307.731	76.06
307.961	81.06
308.191	84.06
308.421	97.06
308.651	101.06
308.881	100.06
309.111	87.06
309.341	80.06
309.571	74.06
309.8	87.06
310.03	95.06
310.26	95.06
310.49	75.06
310.72	75.06
310.949	90.06
311.179	88.06
311.409	79.06
311.639	102.06
311.868	81.06
312.098	102.06
312.328	87.06
312.557	75.06
312.787	89.06
313.017	96.06
313.246	85.06
313.476	78.06
313.706	95.06
313.935	93.06
314.165	95.06
314.394	75.06
314.624	82.06
314.853	71.06
315.083	97.06
315.312	81.06
315.542	99.06
315.771	85.06
316.001	83.06
316.23	97.06
316.46	86.06
316.689	79.06
316.919	91.06
317.148	90.06
317.377	85.06
317.607	94.06
317.836	84.06
318.065	86.06
318.295	92.06
318.524	86.06
318.753	82.06
318.983	81.06
319.212	101.06
319.441	100.06
319.67	89.06
319.9	88.06
320.129	105.06
320.358	89.06
320.587	83.06
320.816	86.06
321.046	99.06
321.275	98.06
321.504	94.06
321.733	91.06
321.962	102.06
322.191	100.06
322.42	89.06
322.649	98.06
322.878	80.06
323.108	76.06
323.337	81.06
323.566	87.06
323.795	75.06
324.024	89.06
324.253	79.06
324.482	83.06
324.71	96.06
324.939	98.06
325.168	86.06
325.397	100.06
325.626	96.06
325.855	103.06
326.084	89.06
326.313	72.06
326.542	81.06
326.77	86.06
326.999	90.06
327.228	82.06
327.457	100.06
327.686	85.06
327.914	87.06
328.143	95.06
328.372	81.06
328.6	65.06
328.829	93.06
329.058	93.06
329.287	89.06
329.515	74.06
329.744	88.06
329.972	86.06
330.201	87.06
330.43	89.06
330.658	82.06
330.887	87.06
331.115	91.06
331.344	82.06
331.572	85.06
331.801	83.06
332.03	97.06
332.258	91.06
332.486	86.06
332.715	75.06
332.943	88.06
333.172	93.06
333.4	89.06
333.629	82.06
333.857	95.06
334.085	79.06
334.314	84.06
334.542	82.06
334.771	86.06
334.999	94.06
335.227	88.06
335.455	61.06
335.684	85.06
335.912	90.06
336.14	74.06
336.369	91.06
336.597	89.06
336.825	97.06
337.053	86.06
337.281	89.06
337.51	94.06
337.738	85.06
337.966	92.06
338.194	95.06
338.422	91.06
338.65	107.06
338.878	96.06
339.106	103.06
339.334	85.06
339.562	90.06
339.79	93.06
340.018	86.06
340.246	94.06
340.474	97.06
340.702	87.06
340.93	89.06
341.158	80.06
341.386	90.06
341.614	82.06
341.842	76.06
342.07	73.06
342.298	86.06
342.526	88.06
342.754	77.06
342.981	90.06
343.209	84.06
343.437	101.06
343.665	79.06
343.893	68.06
344.12	91.06
344.348	103.06
344.576	86.06
344.804	80.06
345.031	79.06
345.259	82.06
345.487	87.06
345.714	87.06
345.942	97.06
346.17	91.06
346.397	84.06
346.625	85.06
346.853	87.06
347.08	90.06
347.308	88.06
347.535	85.06
347.763	89.06
347.99	87.06
348.218	76.06
348.445	94.06
348.673	83.06
348.9	81.06
349.128	80.06
349.355	81.06
349.583	88.06
349.81	87.06
350.037	99.06
350.265	99.06
350.492	70.06
350.72	93.06
350.947	91.06
351.174	100.06
351.402	103.06
351.629	80.06
351.856	75.06
352.083	91.06
352.311	85.06
352.538	86.06
352.765	104.06
352.992	87.06
353.22	86.06
353.447	89.06
353.674	88.06
353.901	79.06
354.128	90.06
354.355	87.06
354.583	79.06
354.81	94.06
355.037	87.06
355.264	96.06
355.491	94.06
355.718	83.06
355.945	71.06
356.172	89.06
356.399	88.06
356.626	81.06
356.853	82.06
357.08	89.06
357.307	86.06
357.534	93.06
357.761	71.06
357.988	97.06
358.215	82.06
358.441	97.06
358.668	87.06
358.895	105.06
359.122	96.06
359.349	102.06
359.576	88.06
359.802	85.06
360.029	89.06
360.256	89.06
360.483	92.06
360.709	72.06
360.936	106.06
361.163	87.06
361.39	88.06
361.616	73.06
361.843	73.06
362.07	84.06
362.296	87.06
362.523	93.06
362.749	69.06
362.976	98.06
363.203	93.06
363.429	87.06
363.656	90.06
363.882	94.06
364.109	97.06
364.335	82.06
364.562	86.06
364.788	76.06
365.015	87.06
365.241	89.06
365.468	91.06
365.694	81.06
365.92	81.06
366.147	84.06
366.373	93.06
366.599	99.06
366.826	81.06
367.052	81.06
367.278	83.06
367.505	88.06
367.731	74.06
367.957	78.06
368.184	75.06
368.41	96.06
368.636	85.06
368.862	76.06
369.089	91.06
369.315	80.06
369.541	83.06
369.767	81.06
369.993	81.06
370.219	75.06
370.445	85.06
370.672	92.06
370.898	84.06
371.124	87.06
371.35	78.06
371.576	93.06
371.802	76.06
372.028	74.06
372.254	93.06
372.48	85.06
372.706	87.06
372.932	94.06
373.158	81.06
373.384	80.06
373.61	78.06
373.835	88.06
374.061	93.06
374.287	86.06
374.513	79.06
374.739	81.06
374.965	94.06
375.191	81.06
375.416	96.06
375.642	89.06
375.868	94.06
376.094	83.06
376.319	87.06
376.545	80.06
376.771	88.06
376.997	70.06
377.222	91.06
377.448	90.06
377.674	67.06
377.899	86.06
378.125	83.06
378.35	97.06
378.576	89.06
378.802	86.06
379.027	79.06
379.253	96.06
379.478	85.06
379.704	80.06
379.929	98.06
380.155	89.06
380.38	79.06
380.606	81.06
380.831	78.06
381.057	86.06
381.282	90.06
381.507	82.06
381.733	85.06
381.958	90.06
382.184	98.06
382.409	97.06
382.634	100.06
382.86	89.06
383.085	90.06
383.31	89.06
383.535	87.06
383.761	98.06
383.986	93.06
384.211	91.06
384.436	70.06
384.662	87.06
384.887	76.06
385.112	96.06
385.337	96.06
385.562	78.06
385.787	82.06
386.013	75.06
386.238	74.06
386.463	70.06
386.688	113.06
386.913	79.06
387.138	84.06
387.363	79.06
387.588	95.06
387.813	82.06
388.038	79.06
388.263	88.06
388.488	80.06
388.713	88.06
388.938	74.06
389.163	95.06
389.387	83.06
389.612	86.06
389.837	88.06
390.062	86.06
390.287	97.06
390.512	80.06
390.736	100.06
390.961	78.06
391.186	89.06
391.411	85.06
391.636	97.06
391.86	83.06
392.085	79.06
392.31	92.06
392.534	89.06
392.759	73.06
392.984	74.06
393.208	77.06
393.433	94.06
393.658	79.06
393.882	82.06
394.107	85.06
394.331	89.06
394.556	75.06
394.78	75.06
395.005	72.06
395.229	74.06
395.454	78.06
395.678	86.06
395.903	85.06
396.127	88.06
396.352	98.06
396.576	71.06
396.801	81.06
397.025	76.06
397.249	84.06
397.474	86.06
397.698	83.06
397.922	88.06
398.147	79.06
398.371	89.06
398.595	85.06
398.82	94.06
399.044	75.06
399.268	73.06
399.492	86.06
399.717	75.06
399.941	81.06
400.165	89.06
400.389	89.06
400.613	80.06
400.837	82.06
401.062	89.06
401.286	79.06
401.51	72.06
401.734	80.06
401.958	91.06
402.182	96.06
402.406	80.06
402.63	82.06
402.854	93.06
403.078	82.06
403.302	85.06
403.526	96.06
403.75	85.06
403.974	88.06
404.198	73.06
404.422	87.06
404.645	81.06
404.869	72.06
405.093	79.06
405.317	81.06
405.541	83.06
405.765	73.06
405.988	78.06
406.212	90.06
406.436	80.06
406.66	72.06
406.883	99.06
407.107	86.06
407.331	69.06
407.555	81.06
407.778	82.06
408.002	88.06
408.226	93.06
408.449	87.06
408.673	77.06
408.896	95.06
409.12	92.06
409.344	87.06
409.567	83.06
409.791	78.06
410.014	69.06
410.238	96.06
410.461	85.06
410.685	70.06
410.908	95.06
411.132	85.06
411.355	86.06
411.578	80.06
411.802	76.06
412.025	74.06
412.249	92.06
412.472	89.06
412.695	76.06
412.919	69.06
413.142	79.06
413.365	85.06
413.589	81.06
413.812	94.06
414.035	88.06
414.258	73.06
414.482	88.06
414.705	76.06
414.928	81.06
415.151	81.06
415.374	87.06
415.597	92.06
415.821	93.06
416.044	82.06
416.267	105.06
416.49	83.06
416.713	78.06
416.936	79.06
417.159	71.06
417.382	76.06
417.605	75.06
417.828	83.06
418.051	85.06
418.274	85.06
418.497	94.06
418.72	75.06
418.943	99.06
419.166	86.06
419.389	77.06
419.611	85.06
419.834	82.06
420.057	87.06
420.28	79.06
420.503	87.06
420.726	81.06
420.948	91.06
421.171	85.06
421.394	92.06
421.617	84.06
421.839	82.06
422.062	73.06
422.285	87.06
422.507	74.06
422.73	81.06
422.953	81.06
423.175	82.06
423.398	78.06
423.621	87.06
423.843	85.06
424.066	92.06
424.288	87.06
424.511	93.06
424.733	69.06
424.956	88.06
425.178	79.06
425.401	85.06
425.623	84.06
425.846	86.06
426.068	87.06
426.291	94.06
426.513	81.06
426.735	80.06
426.958	75.06
427.18	87.06
427.402	82.06
427.625	86.06
427.847	99.06
428.069	98.06
428.292	76.06
428.514	79.06
428.736	85.06
428.958	81.06
429.181	84.06
429.403	67.06
429.625	86.06
429.847	91.06
430.069	74.06
430.292	77.06
430.514	75.06
430.736	84.06
430.958	79.06
431.18	89.06
431.402	101.06
431.624	91.06
431.846	87.06
432.068	96.06
432.29	82.06
432.512	83.06
432.734	87.06
432.956	85.06
433.178	91.06
433.4	81.06
433.622	93.06
433.844	78.06
434.066	87.06
434.287	96.06
434.509	76.06
434.731	93.06
434.953	67.06
435.175	74.06
435.397	84.06
435.618	97.06
435.84	86.06
436.062	75.06
436.284	69.06
436.505	79.06
436.727	81.06
436.949	85.06
437.17	83.06
437.392	89.06
437.614	87.06
437.835	85.06
438.057	70.06
438.278	79.06
438.5	87.06
438.721	83.06
438.943	73.06
439.165	76.06
439.386	96.06
439.608	88.06
439.829	77.06
440.05	82.06
440.272	89.06
440.493	85.06
440.715	81.06
440.936	82.06
441.158	78.06
441.379	90.06
441.6	79.06
441.822	82.06
442.043	73.06
442.264	70.06
442.486	73.06
442.707	88.06
442.928	96.06
443.149	82.06
443.371	79.06
443.592	91.06
443.813	81.06
444.034	78.06
444.255	108.06
444.476	83.06
444.698	94.06
444.919	83.06
445.14	150.06
445.361	129.06
445.582	91.06
445.803	86.06
446.024	66.06
446.245	82.06
446.466	76.06
446.687	74.06
446.908	91.06
447.129	73.06
447.35	81.06
447.571	87.06
447.792	79.06
448.013	88.06
448.234	94.06
448.455	90.06
448.675	86.06
448.896	85.06
449.117	88.06
449.338	82.06
449.559	83.06
449.779	82.06
450	81.06
450.221	82.06
450.442	81.06
450.662	84.06
450.883	85.06
451.104	87.06
451.324	67.06
451.545	75.06
451.766	86.06
451.986	82.06
452.207	89.06
452.428	76.06
452.648	78.06
452.869	86.06
453.089	74.06
453.31	93.06
453.53	98.06
453.751	79.06
453.971	83.06
454.192	83.06
454.412	75.06
454.633	73.06
454.853	88.06
455.073	75.06
455.294	88.06
455.514	77.06
455.734	75.06
455.955	81.06
456.175	82.06
456.395	89.06
456.616	82.06
456.836	85.06
457.056	88.06
457.276	77.06
457.497	89.06
457.717	75.06
457.937	91.06
458.157	94.06
458.377	86.06
458.598	88.06
458.818	103.06
459.038	85.06
459.258	94.06
459.478	80.06
459.698	86.06
459.918	89.06
460.138	81.06
460.358	88.06
460.578	95.06
460.798	85.06
461.018	72.06
461.238	96.06
461.458	84.06
461.678	87.06
461.898	101.06
462.118	75.06
462.338	87.06
462.558	75.06
462.777	76.06
462.997	97.06
463.217	81.06
463.437	83.06
463.657	84.06
463.876	87.06
464.096	84.06
464.316	78.06
464.536	100.06
464.755	83.06
464.975	80.06
465.195	76.06
465.414	80.06
465.634	84.06
465.854	94.06
466.073	89.06
466.293	85.06
466.512	77.06
466.732	84.06
466.951	87.06
467.171	69.06
467.391	94.06
467.61	88.06
467.829	87.06
468.049	81.06
468.268	86.06
468.488	84.06
468.707	81.06
468.927	85.06
469.146	96.06
469.365	81.06
469.585	82.06
469.804	82.06
470.023	80.06
470.243	89.06
470.462	88.06
470.681	84.06
470.901	81.06
471.12	84.06
471.339	94.06
471.558	77.06
471.777	87.06
471.997	86.06
472.216	85.06
472.435	97.06
472.654	87.06
472.873	93.06
473.092	83.06
473.311	87.06
473.53	87.06
473.749	91.06
473.968	82.06
474.187	85.06
474.406	91.06
474.625	79.06
474.844	87.06
475.063	80.06
475.282	74.06
475.501	71.06
475.72	77.06
475.939	86.06
476.158	87.06
476.377	77.06
476.596	91.06
476.814	78.06
477.033	95.06
477.252	81.06
477.471	77.06
477.69	88.06
477.908	88.06
478.127	98.06
478.346	86.06
478.564	86.06
478.783	87.06
479.002	97.06
479.22	86.06
479.439	94.06
479.658	92.06
479.876	79.06
480.095	77.06
480.313	100.06
480.532	84.06
480.751	87.06
480.969	79.06
481.188	84.06
481.406	85.06
481.624	86.06
481.843	80.06
482.061	80.06
482.28	90.06
482.498	90.06
482.717	77.06
482.935	82.06
483.153	97.06
483.372	84.06
483.59	81.06
483.808	73.06
484.027	93.06
484.245	88.06
484.463	83.06
484.681	110.06
484.9	87.06
485.118	81.06
485.336	79.06
485.554	87.06
485.772	88.06
485.99	80.06
486.209	75.06
486.427	92.06
486.645	76.06
486.863	89.06
487.081	85.06
487.299	85.06
487.517	78.06
487.735	90.06
487.953	87.06
488.171	84.06
488.389	84.06
488.607	94.06
488.825	82.06
489.043	84.06
489.261	90.06
489.479	85.06
489.696	85.06
489.914	86.06
490.132	99.06
490.35	99.06
490.568	78.06
490.786	80.06
491.003	70.06
491.221	78.06
491.439	87.06
491.657	96.06
491.874	79.06
492.092	88.06
492.31	87.06
492.527	86.06
492.745	81.06
492.963	101.06
493.18	95.06
493.398	93.06
493.615	83.06
493.833	80.06
494.05	66.06
494.268	86.06
494.485	83.06
494.703	87.06
494.92	84.06
495.138	95.06
495.355	85.06
495.573	96.06
495.79	102.06
496.008	89.06
496.225	91.06
496.442	81.06
496.66	88.06
496.877	84.06
497.094	88.06
497.312	83.06
497.529	76.06
497.746	73.06
497.963	93.06
498.181	86.06
498.398	84.06
498.615	87.06
498.832	84.06
499.049	69.06
499.267	87.06
499.484	91.06
499.701	94.06
499.918	92.06
500.135	77.06
500.352	77.06
500.569	99.06
500.786	86.06
501.003	93.06
501.22	80.06
501.437	90.06
501.654	89.06
501.871	75.06
502.088	91.06
502.305	75.06
502.522	86.06
502.739	96.06
502.956	98.06
503.172	90.06
503.389	79.06
503.606	95.06
503.823	87.06
504.04	93.06
504.256	96.06
504.473	86.06
504.69	88.06
504.907	95.06
505.123	75.06
505.34	82.06
505.557	69.06
505.773	83.06
505.99	77.06
506.207	76.06
506.423	85.06
506.64	79.06
506.856	81.06
507.073	100.06
507.289	99.06
507.506	84.06
507.722	71.06
507.939	77.06
508.155	89.06
508.372	80.06
508.588	81.06
508.805	92.06
509.021	82.06
509.238	85.06
509.454	90.06
509.67	89.06
509.887	86.06
510.103	76.06
510.319	77.06
510.536	86.06
510.752	89.06
510.968	88.06
511.184	79.06
511.401	86.06
511.617	91.06
511.833	83.06
512.049	79.06
512.265	93.06
512.481	81.06
512.698	85.06
512.914	80.06
513.13	75.06
513.346	86.06
513.562	89.06
513.778	90.06
513.994	90.06
514.21	68.06
514.426	79.06
514.642	85.06
514.858	93.06
515.074	91.06
515.29	94.06
515.506	89.06
515.721	86.06
515.937	101.06
516.153	80.06
516.369	90.06
516.585	93.06
516.801	75.06
517.016	88.06
517.232	79.06
517.448	83.06
517.664	91.06
517.879	76.06
518.095	82.06
518.311	95.06
518.527	81.06
518.742	96.06
518.958	86.06
519.173	87.06
519.389	92.06
