Data from Background_3_HRD10591_00036.txt Node
Date: Wed Nov 05 14:49:37 EST 2025
User: Yrep
Spectrometer: HR+D1059
Trigger mode: 1
Integration Time (sec): 1.000000E-1
Scans to average: 1
Electric dark correction enabled: true
Nonlinearity correction enabled: false
Boxcar width: 0
XAxis mode: Wavelengths
Number of Pixels in Spectrum: 2048
>>>>>Begin Spectral Data<<<<<
223.165	-17.5
223.4	-17.5
223.635	-17.5
223.869	-18.5
224.104	-32.5
224.338	-11.5
224.573	-12.5
224.808	-13.5
225.042	-18.5
225.277	-5.5
225.511	-5.5
225.746	-4.5
225.98	22.5
226.215	8.5
226.449	28.5
226.683	15.5
226.918	37.5
227.152	27.5
227.387	34.5
227.621	36.5
227.856	36.5
228.09	40.5
228.324	45.5
228.559	66.5
228.793	52.5
229.027	56.5
229.262	79.5
229.496	64.5
229.73	80.5
229.964	63.5
230.199	69.5
230.433	67.5
230.667	70.5
230.901	82.5
231.136	87.5
231.37	84.5
231.604	76.5
231.838	84.5
232.072	98.5
232.306	88.5
232.541	85.5
232.775	89.5
233.009	104.5
233.243	81.5
233.477	95.5
233.711	78.5
233.945	95.5
234.179	66.5
234.413	79.5
234.647	80.5
234.881	81.5
235.115	78.5
235.349	75.5
235.583	82.5
235.817	91.5
236.051	86.5
236.285	85.5
236.519	79.5
236.753	71.5
236.987	71.5
237.221	71.5
237.455	80.5
237.689	78.5
237.922	69.5
238.156	66.5
238.39	67.5
238.624	80.5
238.858	83.5
239.091	60.5
239.325	76.5
239.559	71.5
239.793	58.5
240.027	80.5
240.26	59.5
240.494	84.5
240.728	74.5
240.961	67.5
241.195	71.5
241.429	70.5
241.662	77.5
241.896	90.5
242.13	69.5
242.363	80.5
242.597	82.5
242.83	74.5
243.064	76.5
243.298	75.5
243.531	92.5
243.765	62.5
243.998	78.5
244.232	64.5
244.465	78.5
244.699	67.5
244.932	74.5
245.166	79.5
245.399	86.5
245.633	79.5
245.866	85.5
246.099	76.5
246.333	87.5
246.566	73.5
246.8	64.5
247.033	93.5
247.266	90.5
247.5	75.5
247.733	76.5
247.966	78.5
248.2	68.5
248.433	82.5
248.666	94.5
248.899	85.5
249.133	83.5
249.366	83.5
249.599	83.5
249.832	87.5
250.066	90.5
250.299	84.5
250.532	77.5
250.765	81.5
250.998	74.5
251.231	79.5
251.465	88.5
251.698	82.5
251.931	63.5
252.164	91.5
252.397	64.5
252.63	83.5
252.863	80.5
253.096	90.5
253.329	83.5
253.562	91.5
253.795	80.5
254.028	82.5
254.261	68.5
254.494	75.5
254.727	78.5
254.96	65.5
255.193	68.5
255.426	76.5
255.659	89.5
255.892	80.5
256.124	78.5
256.357	81.5
256.59	82.5
256.823	77.5
257.056	84.5
257.289	96.5
257.521	77.5
257.754	82.5
257.987	86.5
258.22	77.5
258.452	78.5
258.685	104.5
258.918	80.5
259.151	83.5
259.383	76.5
259.616	75.5
259.849	96.5
260.081	92.5
260.314	88.5
260.547	84.5
260.779	82.5
261.012	94.5
261.244	72.5
261.477	84.5
261.71	76.5
261.942	86.5
262.175	85.5
262.407	76.5
262.64	85.5
262.872	80.5
263.105	66.5
263.337	70.5
263.57	83.5
263.802	80.5
264.035	83.5
264.267	84.5
264.499	88.5
264.732	97.5
264.964	84.5
265.197	87.5
265.429	72.5
265.661	85.5
265.894	81.5
266.126	82.5
266.358	77.5
266.591	91.5
266.823	75.5
267.055	82.5
267.287	69.5
267.52	78.5
267.752	90.5
267.984	95.5
268.216	82.5
268.448	86.5
268.681	64.5
268.913	76.5
269.145	92.5
269.377	91.5
269.609	91.5
269.841	70.5
270.073	79.5
270.306	80.5
270.538	79.5
270.77	94.5
271.002	73.5
271.234	72.5
271.466	68.5
271.698	79.5
271.93	90.5
272.162	92.5
272.394	80.5
272.626	79.5
272.858	100.5
273.09	77.5
273.322	87.5
273.553	95.5
273.785	75.5
274.017	72.5
274.249	87.5
274.481	85.5
274.713	87.5
274.945	98.5
275.176	96.5
275.408	76.5
275.64	92.5
275.872	82.5
276.104	74.5
276.335	84.5
276.567	95.5
276.799	91.5
277.031	88.5
277.262	86.5
277.494	78.5
277.726	83.5
277.957	78.5
278.189	86.5
278.421	82.5
278.652	88.5
278.884	85.5
279.115	68.5
279.347	76.5
279.579	85.5
279.81	80.5
280.042	92.5
280.273	74.5
280.505	84.5
280.736	79.5
280.968	76.5
281.199	91.5
281.431	87.5
281.662	80.5
281.894	80.5
282.125	79.5
282.356	86.5
282.588	86.5
282.819	80.5
283.051	104.5
283.282	83.5
283.513	89.5
283.745	88.5
283.976	97.5
284.207	85.5
284.439	99.5
284.67	98.5
284.901	80.5
285.132	80.5
285.364	98.5
285.595	88.5
285.826	82.5
286.057	90.5
286.288	90.5
286.52	81.5
286.751	82.5
286.982	82.5
287.213	78.5
287.444	73.5
287.675	67.5
287.906	94.5
288.138	74.5
288.369	79.5
288.6	94.5
288.831	69.5
289.062	70.5
289.293	87.5
289.524	75.5
289.755	92.5
289.986	82.5
290.217	86.5
290.448	80.5
290.679	98.5
290.91	77.5
291.141	95.5
291.371	82.5
291.602	79.5
291.833	80.5
292.064	94.5
292.295	80.5
292.526	85.5
292.757	87.5
292.987	75.5
293.218	86.5
293.449	85.5
293.68	84.5
293.91	73.5
294.141	85.5
294.372	87.5
294.603	90.5
294.833	85.5
295.064	80.5
295.295	109.5
295.525	87.5
295.756	98.5
295.987	91.5
296.217	85.5
296.448	76.5
296.679	77.5
296.909	93.5
297.14	85.5
297.37	67.5
297.601	75.5
297.831	83.5
298.062	87.5
298.292	86.5
298.523	79.5
298.753	87.5
298.984	83.5
299.214	81.5
299.445	90.5
299.675	98.5
299.905	77.5
300.136	94.5
300.366	92.5
300.597	56.5
300.827	77.5
301.057	86.5
301.288	75.5
301.518	78.5
301.748	79.5
301.979	107.5
302.209	96.5
302.439	79.5
302.669	75.5
302.9	85.5
303.13	100.5
303.36	81.5
303.59	86.5
303.82	86.5
304.051	88.5
304.281	87.5
304.511	79.5
304.741	72.5
304.971	85.5
305.201	87.5
305.431	93.5
305.661	100.5
305.891	80.5
306.121	81.5
306.352	78.5
306.582	90.5
306.812	84.5
307.042	98.5
307.272	72.5
307.502	93.5
307.731	86.5
307.961	74.5
308.191	82.5
308.421	90.5
308.651	95.5
308.881	70.5
309.111	84.5
309.341	69.5
309.571	78.5
309.8	82.5
310.03	78.5
310.26	60.5
310.49	64.5
310.72	71.5
310.949	83.5
311.179	86.5
311.409	74.5
311.639	86.5
311.868	93.5
312.098	85.5
312.328	92.5
312.557	88.5
312.787	80.5
313.017	99.5
313.246	79.5
313.476	66.5
313.706	89.5
313.935	92.5
314.165	76.5
314.394	85.5
314.624	90.5
314.853	97.5
315.083	93.5
315.312	96.5
315.542	85.5
315.771	88.5
316.001	87.5
316.23	74.5
316.46	82.5
316.689	65.5
316.919	77.5
317.148	82.5
317.377	84.5
317.607	93.5
317.836	78.5
318.065	71.5
318.295	95.5
318.524	96.5
318.753	91.5
318.983	93.5
319.212	68.5
319.441	80.5
319.67	96.5
319.9	88.5
320.129	82.5
320.358	81.5
320.587	76.5
320.816	87.5
321.046	82.5
321.275	75.5
321.504	97.5
321.733	82.5
321.962	86.5
322.191	94.5
322.42	81.5
322.649	74.5
322.878	94.5
323.108	94.5
323.337	85.5
323.566	73.5
323.795	78.5
324.024	75.5
324.253	79.5
324.482	64.5
324.71	78.5
324.939	83.5
325.168	84.5
325.397	78.5
325.626	79.5
325.855	83.5
326.084	91.5
326.313	79.5
326.542	92.5
326.77	82.5
326.999	92.5
327.228	100.5
327.457	86.5
327.686	85.5
327.914	80.5
328.143	81.5
328.372	99.5
328.6	78.5
328.829	95.5
329.058	89.5
329.287	76.5
329.515	75.5
329.744	75.5
329.972	83.5
330.201	79.5
330.43	88.5
330.658	72.5
330.887	100.5
331.115	88.5
331.344	82.5
331.572	92.5
331.801	92.5
332.03	83.5
332.258	91.5
332.486	87.5
332.715	86.5
332.943	90.5
333.172	84.5
333.4	77.5
333.629	70.5
333.857	77.5
334.085	72.5
334.314	81.5
334.542	90.5
334.771	79.5
334.999	89.5
335.227	90.5
335.455	81.5
335.684	74.5
335.912	82.5
336.14	95.5
336.369	83.5
336.597	80.5
336.825	73.5
337.053	86.5
337.281	86.5
337.51	85.5
337.738	97.5
337.966	88.5
338.194	86.5
338.422	95.5
338.65	82.5
338.878	84.5
339.106	96.5
339.334	80.5
339.562	90.5
339.79	88.5
340.018	91.5
340.246	78.5
340.474	78.5
340.702	84.5
340.93	90.5
341.158	75.5
341.386	86.5
341.614	86.5
341.842	77.5
342.07	77.5
342.298	83.5
342.526	88.5
342.754	89.5
342.981	92.5
343.209	78.5
343.437	94.5
343.665	82.5
343.893	81.5
344.12	82.5
344.348	86.5
344.576	76.5
344.804	77.5
345.031	84.5
345.259	79.5
345.487	77.5
345.714	78.5
345.942	82.5
346.17	82.5
346.397	77.5
346.625	79.5
346.853	74.5
347.08	87.5
347.308	86.5
347.535	75.5
347.763	66.5
347.99	76.5
348.218	95.5
348.445	85.5
348.673	71.5
348.9	84.5
349.128	90.5
349.355	78.5
349.583	101.5
349.81	80.5
350.037	87.5
350.265	70.5
350.492	88.5
350.72	80.5
350.947	72.5
351.174	82.5
351.402	90.5
351.629	86.5
351.856	88.5
352.083	94.5
352.311	86.5
352.538	83.5
352.765	87.5
352.992	100.5
353.22	83.5
353.447	71.5
353.674	77.5
353.901	85.5
354.128	84.5
354.355	81.5
354.583	70.5
354.81	86.5
355.037	83.5
355.264	82.5
355.491	80.5
355.718	85.5
355.945	91.5
356.172	68.5
356.399	87.5
356.626	87.5
356.853	91.5
357.08	91.5
357.307	85.5
357.534	92.5
357.761	98.5
357.988	88.5
358.215	79.5
358.441	82.5
358.668	73.5
358.895	75.5
359.122	88.5
359.349	91.5
359.576	83.5
359.802	92.5
360.029	70.5
360.256	86.5
360.483	98.5
360.709	77.5
360.936	86.5
361.163	82.5
361.39	103.5
361.616	92.5
361.843	87.5
362.07	79.5
362.296	92.5
362.523	73.5
362.749	78.5
362.976	91.5
363.203	97.5
363.429	80.5
363.656	82.5
363.882	91.5
364.109	100.5
364.335	89.5
364.562	86.5
364.788	89.5
365.015	83.5
365.241	86.5
365.468	87.5
365.694	76.5
365.92	87.5
366.147	94.5
366.373	86.5
366.599	72.5
366.826	82.5
367.052	96.5
367.278	80.5
367.505	96.5
367.731	82.5
367.957	88.5
368.184	77.5
368.41	87.5
368.636	90.5
368.862	84.5
369.089	79.5
369.315	77.5
369.541	78.5
369.767	80.5
369.993	101.5
370.219	84.5
370.445	80.5
370.672	75.5
370.898	83.5
371.124	80.5
371.35	85.5
371.576	82.5
371.802	86.5
372.028	86.5
372.254	82.5
372.48	72.5
372.706	83.5
372.932	80.5
373.158	87.5
373.384	77.5
373.61	95.5
373.835	76.5
374.061	85.5
374.287	86.5
374.513	84.5
374.739	72.5
374.965	79.5
375.191	90.5
375.416	75.5
375.642	86.5
375.868	85.5
376.094	83.5
376.319	85.5
376.545	80.5
376.771	65.5
376.997	76.5
377.222	83.5
377.448	87.5
377.674	75.5
377.899	81.5
378.125	79.5
378.35	86.5
378.576	79.5
378.802	92.5
379.027	85.5
379.253	86.5
379.478	98.5
379.704	88.5
379.929	82.5
380.155	75.5
380.38	91.5
380.606	90.5
380.831	78.5
381.057	75.5
381.282	82.5
381.507	95.5
381.733	84.5
381.958	71.5
382.184	88.5
382.409	85.5
382.634	81.5
382.86	84.5
383.085	79.5
383.31	88.5
383.535	78.5
383.761	99.5
383.986	75.5
384.211	99.5
384.436	76.5
384.662	80.5
384.887	80.5
385.112	94.5
385.337	88.5
385.562	83.5
385.787	82.5
386.013	73.5
386.238	85.5
386.463	81.5
386.688	92.5
386.913	95.5
387.138	90.5
387.363	81.5
387.588	93.5
387.813	67.5
388.038	84.5
388.263	90.5
388.488	78.5
388.713	75.5
388.938	80.5
389.163	88.5
389.387	77.5
389.612	68.5
389.837	82.5
390.062	76.5
390.287	86.5
390.512	74.5
390.736	85.5
390.961	92.5
391.186	84.5
391.411	71.5
391.636	89.5
391.86	80.5
392.085	73.5
392.31	79.5
392.534	72.5
392.759	83.5
392.984	74.5
393.208	76.5
393.433	85.5
393.658	82.5
393.882	61.5
394.107	73.5
394.331	82.5
394.556	76.5
394.78	80.5
395.005	86.5
395.229	73.5
395.454	88.5
395.678	76.5
395.903	78.5
396.127	82.5
396.352	92.5
396.576	73.5
396.801	89.5
397.025	85.5
397.249	77.5
397.474	84.5
397.698	97.5
397.922	86.5
398.147	91.5
398.371	72.5
398.595	87.5
398.82	80.5
399.044	85.5
399.268	84.5
399.492	80.5
399.717	94.5
399.941	80.5
400.165	75.5
400.389	86.5
400.613	84.5
400.837	83.5
401.062	79.5
401.286	71.5
401.51	90.5
401.734	83.5
401.958	81.5
402.182	91.5
402.406	88.5
402.63	76.5
402.854	88.5
403.078	91.5
403.302	82.5
403.526	74.5
403.75	88.5
403.974	83.5
404.198	72.5
404.422	88.5
404.645	94.5
404.869	92.5
405.093	86.5
405.317	84.5
405.541	76.5
405.765	72.5
405.988	62.5
406.212	85.5
406.436	84.5
406.66	68.5
406.883	79.5
407.107	90.5
407.331	84.5
407.555	87.5
407.778	69.5
408.002	96.5
408.226	82.5
408.449	78.5
408.673	68.5
408.896	83.5
409.12	84.5
409.344	72.5
409.567	78.5
409.791	81.5
410.014	70.5
410.238	87.5
410.461	80.5
410.685	90.5
410.908	90.5
411.132	92.5
411.355	81.5
411.578	89.5
411.802	79.5
412.025	76.5
412.249	91.5
412.472	98.5
412.695	81.5
412.919	83.5
413.142	75.5
413.365	84.5
413.589	75.5
413.812	71.5
414.035	93.5
414.258	79.5
414.482	83.5
414.705	80.5
414.928	85.5
415.151	91.5
415.374	92.5
415.597	75.5
415.821	75.5
416.044	74.5
416.267	76.5
416.49	85.5
416.713	97.5
416.936	85.5
417.159	78.5
417.382	81.5
417.605	84.5
417.828	74.5
418.051	81.5
418.274	78.5
418.497	86.5
418.72	88.5
418.943	86.5
419.166	74.5
419.389	89.5
419.611	80.5
419.834	83.5
420.057	95.5
420.28	77.5
420.503	79.5
420.726	95.5
420.948	65.5
421.171	86.5
421.394	64.5
421.617	83.5
421.839	82.5
422.062	80.5
422.285	98.5
422.507	71.5
422.73	80.5
422.953	88.5
423.175	96.5
423.398	60.5
423.621	80.5
423.843	78.5
424.066	78.5
424.288	92.5
424.511	82.5
424.733	94.5
424.956	89.5
425.178	77.5
425.401	79.5
425.623	80.5
425.846	95.5
426.068	73.5
426.291	74.5
426.513	80.5
426.735	81.5
426.958	70.5
427.18	87.5
427.402	84.5
427.625	69.5
427.847	85.5
428.069	76.5
428.292	74.5
428.514	90.5
428.736	79.5
428.958	71.5
429.181	88.5
429.403	79.5
429.625	70.5
429.847	84.5
430.069	88.5
430.292	84.5
430.514	82.5
430.736	81.5
430.958	79.5
431.18	87.5
431.402	95.5
431.624	69.5
431.846	86.5
432.068	92.5
432.29	73.5
432.512	87.5
432.734	94.5
432.956	83.5
433.178	98.5
433.4	90.5
433.622	90.5
433.844	87.5
434.066	58.5
434.287	85.5
434.509	78.5
434.731	69.5
434.953	86.5
435.175	88.5
435.397	87.5
435.618	89.5
435.84	85.5
436.062	89.5
436.284	82.5
436.505	84.5
436.727	83.5
436.949	83.5
437.17	75.5
437.392	84.5
437.614	66.5
437.835	87.5
438.057	71.5
438.278	69.5
438.5	85.5
438.721	94.5
438.943	91.5
439.165	82.5
439.386	80.5
439.608	78.5
439.829	72.5
440.05	82.5
440.272	95.5
440.493	85.5
440.715	80.5
440.936	76.5
441.158	76.5
441.379	70.5
441.6	94.5
441.822	76.5
442.043	82.5
442.264	82.5
442.486	81.5
442.707	71.5
442.928	77.5
443.149	73.5
443.371	89.5
443.592	94.5
443.813	81.5
444.034	78.5
444.255	78.5
444.476	81.5
444.698	92.5
444.919	82.5
445.14	122.5
445.361	103.5
445.582	82.5
445.803	80.5
446.024	75.5
446.245	79.5
446.466	79.5
446.687	87.5
446.908	84.5
447.129	84.5
447.35	77.5
447.571	76.5
447.792	85.5
448.013	72.5
448.234	69.5
448.455	79.5
448.675	72.5
448.896	83.5
449.117	86.5
449.338	63.5
449.559	86.5
449.779	82.5
450	78.5
450.221	82.5
450.442	79.5
450.662	82.5
450.883	92.5
451.104	94.5
451.324	87.5
451.545	85.5
451.766	78.5
451.986	85.5
452.207	80.5
452.428	88.5
452.648	85.5
452.869	84.5
453.089	83.5
453.31	65.5
453.53	86.5
453.751	91.5
453.971	85.5
454.192	76.5
454.412	88.5
454.633	81.5
454.853	88.5
455.073	80.5
455.294	76.5
455.514	80.5
455.734	70.5
455.955	85.5
456.175	87.5
456.395	81.5
456.616	84.5
456.836	82.5
457.056	89.5
457.276	76.5
457.497	70.5
457.717	80.5
457.937	76.5
458.157	72.5
458.377	95.5
458.598	72.5
458.818	77.5
459.038	76.5
459.258	85.5
459.478	84.5
459.698	80.5
459.918	68.5
460.138	68.5
460.358	82.5
460.578	84.5
460.798	89.5
461.018	90.5
461.238	80.5
461.458	101.5
461.678	76.5
461.898	74.5
462.118	76.5
462.338	77.5
462.558	72.5
462.777	73.5
462.997	80.5
463.217	79.5
463.437	90.5
463.657	98.5
463.876	70.5
464.096	89.5
464.316	86.5
464.536	81.5
464.755	70.5
464.975	82.5
465.195	90.5
465.414	81.5
465.634	86.5
465.854	79.5
466.073	80.5
466.293	78.5
466.512	85.5
466.732	71.5
466.951	90.5
467.171	78.5
467.391	91.5
467.61	75.5
467.829	71.5
468.049	80.5
468.268	83.5
468.488	84.5
468.707	79.5
468.927	87.5
469.146	79.5
469.365	85.5
469.585	90.5
469.804	83.5
470.023	79.5
470.243	92.5
470.462	81.5
470.681	83.5
470.901	84.5
471.12	84.5
471.339	77.5
471.558	75.5
471.777	79.5
471.997	74.5
472.216	71.5
472.435	88.5
472.654	79.5
472.873	73.5
473.092	89.5
473.311	92.5
473.53	84.5
473.749	94.5
473.968	96.5
474.187	75.5
474.406	68.5
474.625	70.5
474.844	86.5
475.063	83.5
475.282	80.5
475.501	81.5
475.72	74.5
475.939	81.5
476.158	86.5
476.377	81.5
476.596	69.5
476.814	82.5
477.033	95.5
477.252	93.5
477.471	77.5
477.69	78.5
477.908	69.5
478.127	78.5
478.346	97.5
478.564	90.5
478.783	84.5
479.002	92.5
479.22	74.5
479.439	84.5
479.658	82.5
479.876	78.5
480.095	85.5
480.313	99.5
480.532	89.5
480.751	85.5
480.969	93.5
481.188	69.5
481.406	83.5
481.624	90.5
481.843	90.5
482.061	73.5
482.28	88.5
482.498	84.5
482.717	87.5
482.935	82.5
483.153	78.5
483.372	82.5
483.59	86.5
483.808	77.5
484.027	82.5
484.245	81.5
484.463	85.5
484.681	86.5
484.9	67.5
485.118	88.5
485.336	81.5
485.554	78.5
485.772	76.5
485.99	95.5
486.209	94.5
486.427	86.5
486.645	70.5
486.863	85.5
487.081	70.5
487.299	77.5
487.517	78.5
487.735	87.5
487.953	65.5
488.171	85.5
488.389	79.5
488.607	76.5
488.825	76.5
489.043	84.5
489.261	83.5
489.479	94.5
489.696	86.5
489.914	78.5
490.132	65.5
490.35	83.5
490.568	83.5
490.786	71.5
491.003	83.5
491.221	78.5
491.439	93.5
491.657	81.5
491.874	79.5
492.092	82.5
492.31	81.5
492.527	78.5
492.745	73.5
492.963	107.5
493.18	80.5
493.398	81.5
493.615	88.5
493.833	91.5
494.05	85.5
494.268	76.5
494.485	83.5
494.703	89.5
494.92	94.5
495.138	78.5
495.355	95.5
495.573	88.5
495.79	85.5
496.008	84.5
496.225	67.5
496.442	84.5
496.66	90.5
496.877	99.5
497.094	81.5
497.312	82.5
497.529	84.5
497.746	83.5
497.963	82.5
498.181	82.5
498.398	95.5
498.615	74.5
498.832	63.5
499.049	72.5
499.267	87.5
499.484	81.5
499.701	81.5
499.918	96.5
500.135	83.5
500.352	80.5
500.569	83.5
500.786	86.5
501.003	87.5
501.22	83.5
501.437	85.5
501.654	84.5
501.871	75.5
502.088	78.5
502.305	78.5
502.522	93.5
502.739	89.5
502.956	75.5
503.172	79.5
503.389	86.5
503.606	91.5
503.823	82.5
504.04	95.5
504.256	78.5
504.473	82.5
504.69	72.5
504.907	96.5
505.123	85.5
505.34	90.5
505.557	86.5
505.773	80.5
505.99	87.5
506.207	72.5
506.423	88.5
506.64	95.5
506.856	92.5
507.073	82.5
507.289	87.5
507.506	86.5
507.722	72.5
507.939	91.5
508.155	94.5
508.372	91.5
508.588	88.5
508.805	93.5
509.021	83.5
509.238	87.5
509.454	80.5
509.67	82.5
509.887	95.5
510.103	92.5
510.319	63.5
510.536	81.5
510.752	74.5
510.968	79.5
511.184	58.5
511.401	69.5
511.617	84.5
511.833	86.5
512.049	73.5
512.265	68.5
512.481	88.5
512.698	76.5
512.914	95.5
513.13	97.5
513.346	73.5
513.562	74.5
513.778	83.5
513.994	79.5
514.21	84.5
514.426	81.5
514.642	85.5
514.858	88.5
515.074	90.5
515.29	83.5
515.506	74.5
515.721	80.5
515.937	96.5
516.153	96.5
516.369	77.5
516.585	97.5
516.801	80.5
517.016	95.5
517.232	96.5
517.448	85.5
517.664	73.5
517.879	85.5
518.095	76.5
518.311	84.5
518.527	70.5
518.742	77.5
518.958	85.5
519.173	82.5
519.389	82.5
519.605	87.5
519.82	70.5
520.036	79.5
520.251	78.5
520.467	71.5
520.682	86.5
520.898	76.5
521.113	70.5
521.329	72.5
521.544	94.5
521.76	83.5
521.975	87.5
522.19	84.5
522.406	80.5
522.621	81.5
522.836	74.5
523.052	83.5
523.267	88.5
523.482	82.5
523.698	88.5
523.913	88.5
524.128	79.5
524.343	89.5
524.559	91.5
524.774	70.5
524.989	95.5
525.204	87.5
525.419	86.5
525.634	90.5
525.849	95.5
526.064	87.5
526.28	80.5
526.495	76.5
526.71	87.5
526.925	80.5
527.14	86.5
527.355	90.5
527.57	93.5
527.785	85.5
527.999	70.5
528.214	79.5
528.429	92.5
528.644	94.5
528.859	78.5
529.074	87.5
529.289	87.5
529.503	82.5
529.718	75.5
529.933	80.5
530.148	90.5
530.363	108.5
530.577	86.5
530.792	94.5
531.007	93.5
531.221	99.5
531.436	85.5
531.651	78.5
531.865	70.5
532.08	77.5
532.295	71.5
532.509	92.5
532.724	78.5
532.938	90.5
533.153	93.5
533.367	78.5
533.582	70.5
533.796	75.5
534.011	86.5
534.225	76.5
534.44	82.5
534.654	78.5
534.868	75.5
535.083	103.5
535.297	98.5
535.511	78.5
535.726	91.5
535.94	81.5
536.154	92.5
536.369	76.5
536.583	86.5
536.797	85.5
537.011	77.5
537.225	90.5
537.44	88.5
537.654	85.5
537.868	80.5
538.082	83.5
538.296	63.5
538.51	85.5
538.724	95.5
538.938	78.5
539.153	90.5
539.367	76.5
539.581	84.5
539.795	71.5
540.009	78.5
540.222	81.5
