Data from Background_3_HRD10591_00024.txt Node
Date: Wed Nov 05 14:49:31 EST 2025
User: Yrep
Spectrometer: HR+D1059
Trigger mode: 1
Integration Time (sec): 1.000000E-1
Scans to average: 1
Electric dark correction enabled: true
Nonlinearity correction enabled: false
Boxcar width: 0
XAxis mode: Wavelengths
Number of Pixels in Spectrum: 2048
>>>>>Begin Spectral Data<<<<<
223.165	-10.69
223.4	-10.69
223.635	-10.69
223.869	-13.69
224.104	-14.69
224.338	-15.69
224.573	-20.69
224.808	-11.69
225.042	-3.69
225.277	-4.69
225.511	5.31
225.746	-6.69
225.98	2.31
226.215	19.31
226.449	25.31
226.683	10.31
226.918	2.31
227.152	37.31
227.387	33.31
227.621	47.31
227.856	50.31
228.09	46.31
228.324	55.31
228.559	59.31
228.793	66.31
229.027	75.31
229.262	53.31
229.496	61.31
229.73	68.31
229.964	67.31
230.199	73.31
230.433	73.31
230.667	83.31
230.901	75.31
231.136	84.31
231.37	79.31
231.604	83.31
231.838	81.31
232.072	98.31
232.306	71.31
232.541	85.31
232.775	80.31
233.009	79.31
233.243	80.31
233.477	82.31
233.711	85.31
233.945	77.31
234.179	74.31
234.413	76.31
234.647	96.31
234.881	74.31
235.115	88.31
235.349	95.31
235.583	65.31
235.817	90.31
236.051	67.31
236.285	57.31
236.519	75.31
236.753	70.31
236.987	87.31
237.221	83.31
237.455	67.31
237.689	84.31
237.922	74.31
238.156	77.31
238.39	82.31
238.624	71.31
238.858	78.31
239.091	89.31
239.325	80.31
239.559	67.31
239.793	84.31
240.027	85.31
240.26	80.31
240.494	69.31
240.728	63.31
240.961	79.31
241.195	82.31
241.429	76.31
241.662	85.31
241.896	95.31
242.13	75.31
242.363	74.31
242.597	72.31
242.83	85.31
243.064	68.31
243.298	66.31
243.531	77.31
243.765	79.31
243.998	75.31
244.232	67.31
244.465	84.31
244.699	83.31
244.932	93.31
245.166	72.31
245.399	79.31
245.633	86.31
245.866	77.31
246.099	76.31
246.333	83.31
246.566	85.31
246.8	67.31
247.033	91.31
247.266	85.31
247.5	74.31
247.733	82.31
247.966	64.31
248.2	70.31
248.433	71.31
248.666	73.31
248.899	73.31
249.133	89.31
249.366	75.31
249.599	85.31
249.832	79.31
250.066	91.31
250.299	81.31
250.532	72.31
250.765	81.31
250.998	86.31
251.231	83.31
251.465	64.31
251.698	85.31
251.931	73.31
252.164	58.31
252.397	63.31
252.63	68.31
252.863	76.31
253.096	74.31
253.329	71.31
253.562	79.31
253.795	63.31
254.028	82.31
254.261	68.31
254.494	84.31
254.727	89.31
254.96	58.31
255.193	94.31
255.426	89.31
255.659	84.31
255.892	89.31
256.124	79.31
256.357	65.31
256.59	67.31
256.823	83.31
257.056	75.31
257.289	80.31
257.521	80.31
257.754	99.31
257.987	74.31
258.22	83.31
258.452	89.31
258.685	80.31
258.918	84.31
259.151	79.31
259.383	96.31
259.616	82.31
259.849	88.31
260.081	81.31
260.314	80.31
260.547	80.31
260.779	88.31
261.012	80.31
261.244	94.31
261.477	77.31
261.71	84.31
261.942	72.31
262.175	86.31
262.407	84.31
262.64	81.31
262.872	75.31
263.105	88.31
263.337	84.31
263.57	87.31
263.802	80.31
264.035	78.31
264.267	86.31
264.499	81.31
264.732	95.31
264.964	79.31
265.197	80.31
265.429	83.31
265.661	91.31
265.894	89.31
266.126	78.31
266.358	86.31
266.591	82.31
266.823	95.31
267.055	82.31
267.287	83.31
267.52	76.31
267.752	96.31
267.984	87.31
268.216	90.31
268.448	97.31
268.681	85.31
268.913	86.31
269.145	92.31
269.377	93.31
269.609	80.31
269.841	94.31
270.073	81.31
270.306	81.31
270.538	80.31
270.77	79.31
271.002	94.31
271.234	87.31
271.466	86.31
271.698	70.31
271.93	99.31
272.162	82.31
272.394	80.31
272.626	91.31
272.858	79.31
273.09	88.31
273.322	97.31
273.553	77.31
273.785	74.31
274.017	81.31
274.249	77.31
274.481	82.31
274.713	78.31
274.945	80.31
275.176	80.31
275.408	77.31
275.64	79.31
275.872	79.31
276.104	96.31
276.335	84.31
276.567	83.31
276.799	81.31
277.031	73.31
277.262	82.31
277.494	82.31
277.726	90.31
277.957	74.31
278.189	91.31
278.421	95.31
278.652	80.31
278.884	94.31
279.115	93.31
279.347	94.31
279.579	83.31
279.81	85.31
280.042	87.31
280.273	95.31
280.505	93.31
280.736	82.31
280.968	79.31
281.199	96.31
281.431	83.31
281.662	91.31
281.894	60.31
282.125	69.31
282.356	85.31
282.588	91.31
282.819	82.31
283.051	96.31
283.282	70.31
283.513	91.31
283.745	80.31
283.976	92.31
284.207	91.31
284.439	89.31
284.67	75.31
284.901	86.31
285.132	96.31
285.364	98.31
285.595	69.31
285.826	80.31
286.057	70.31
286.288	89.31
286.52	78.31
286.751	84.31
286.982	87.31
287.213	79.31
287.444	74.31
287.675	101.31
287.906	81.31
288.138	77.31
288.369	73.31
288.6	94.31
288.831	81.31
289.062	87.31
289.293	76.31
289.524	82.31
289.755	84.31
289.986	93.31
290.217	82.31
290.448	90.31
290.679	90.31
290.91	81.31
291.141	85.31
291.371	84.31
291.602	88.31
291.833	95.31
292.064	82.31
292.295	83.31
292.526	81.31
292.757	85.31
292.987	87.31
293.218	79.31
293.449	87.31
293.68	86.31
293.91	76.31
294.141	88.31
294.372	74.31
294.603	69.31
294.833	76.31
295.064	87.31
295.295	67.31
295.525	93.31
295.756	94.31
295.987	71.31
296.217	88.31
296.448	82.31
296.679	97.31
296.909	109.31
297.14	94.31
297.37	87.31
297.601	61.31
297.831	85.31
298.062	86.31
298.292	99.31
298.523	97.31
298.753	75.31
298.984	68.31
299.214	82.31
299.445	93.31
299.675	84.31
299.905	71.31
300.136	80.31
300.366	90.31
300.597	95.31
300.827	93.31
301.057	87.31
301.288	87.31
301.518	79.31
301.748	87.31
301.979	94.31
302.209	90.31
302.439	95.31
302.669	100.31
302.9	94.31
303.13	91.31
303.36	88.31
303.59	71.31
303.82	82.31
304.051	77.31
304.281	89.31
304.511	98.31
304.741	92.31
304.971	90.31
305.201	96.31
305.431	95.31
305.661	87.31
305.891	90.31
306.121	86.31
306.352	63.31
306.582	72.31
306.812	88.31
307.042	84.31
307.272	86.31
307.502	76.31
307.731	78.31
307.961	75.31
308.191	82.31
308.421	92.31
308.651	80.31
308.881	87.31
309.111	82.31
309.341	93.31
309.571	87.31
309.8	79.31
310.03	82.31
310.26	80.31
310.49	83.31
310.72	85.31
310.949	74.31
311.179	84.31
311.409	88.31
311.639	81.31
311.868	82.31
312.098	86.31
312.328	99.31
312.557	87.31
312.787	83.31
313.017	73.31
313.246	63.31
313.476	90.31
313.706	91.31
313.935	86.31
314.165	88.31
314.394	73.31
314.624	94.31
314.853	71.31
315.083	73.31
315.312	91.31
315.542	84.31
315.771	77.31
316.001	72.31
316.23	99.31
316.46	71.31
316.689	78.31
316.919	85.31
317.148	82.31
317.377	88.31
317.607	83.31
317.836	79.31
318.065	81.31
318.295	98.31
318.524	79.31
318.753	73.31
318.983	82.31
319.212	91.31
319.441	83.31
319.67	93.31
319.9	89.31
320.129	84.31
320.358	90.31
320.587	86.31
320.816	80.31
321.046	85.31
321.275	92.31
321.504	82.31
321.733	100.31
321.962	70.31
322.191	83.31
322.42	74.31
322.649	81.31
322.878	88.31
323.108	88.31
323.337	73.31
323.566	87.31
323.795	88.31
324.024	84.31
324.253	84.31
324.482	90.31
324.71	79.31
324.939	84.31
325.168	96.31
325.397	80.31
325.626	68.31
325.855	99.31
326.084	82.31
326.313	85.31
326.542	84.31
326.77	91.31
326.999	90.31
327.228	87.31
327.457	82.31
327.686	86.31
327.914	88.31
328.143	95.31
328.372	89.31
328.6	80.31
328.829	86.31
329.058	84.31
329.287	72.31
329.515	69.31
329.744	82.31
329.972	86.31
330.201	77.31
330.43	85.31
330.658	95.31
330.887	85.31
331.115	79.31
331.344	80.31
331.572	101.31
331.801	99.31
332.03	89.31
332.258	70.31
332.486	88.31
332.715	97.31
332.943	77.31
333.172	80.31
333.4	78.31
333.629	79.31
333.857	87.31
334.085	89.31
334.314	92.31
334.542	81.31
334.771	83.31
334.999	83.31
335.227	83.31
335.455	89.31
335.684	91.31
335.912	84.31
336.14	80.31
336.369	87.31
336.597	83.31
336.825	87.31
337.053	92.31
337.281	95.31
337.51	91.31
337.738	103.31
337.966	83.31
338.194	80.31
338.422	74.31
338.65	85.31
338.878	70.31
339.106	77.31
339.334	71.31
339.562	77.31
339.79	92.31
340.018	88.31
340.246	71.31
340.474	71.31
340.702	78.31
340.93	83.31
341.158	82.31
341.386	82.31
341.614	79.31
341.842	60.31
342.07	74.31
342.298	83.31
342.526	92.31
342.754	71.31
342.981	73.31
343.209	70.31
343.437	102.31
343.665	99.31
343.893	88.31
344.12	88.31
344.348	80.31
344.576	65.31
344.804	79.31
345.031	81.31
345.259	90.31
345.487	79.31
345.714	87.31
345.942	85.31
346.17	84.31
346.397	78.31
346.625	86.31
346.853	88.31
347.08	88.31
347.308	87.31
347.535	76.31
347.763	99.31
347.99	85.31
348.218	96.31
348.445	74.31
348.673	88.31
348.9	89.31
349.128	92.31
349.355	85.31
349.583	92.31
349.81	87.31
350.037	88.31
350.265	88.31
350.492	82.31
350.72	81.31
350.947	75.31
351.174	87.31
351.402	69.31
351.629	84.31
351.856	94.31
352.083	84.31
352.311	65.31
352.538	72.31
352.765	83.31
352.992	83.31
353.22	94.31
353.447	89.31
353.674	83.31
353.901	80.31
354.128	80.31
354.355	88.31
354.583	69.31
354.81	72.31
355.037	87.31
355.264	83.31
355.491	87.31
355.718	86.31
355.945	85.31
356.172	81.31
356.399	81.31
356.626	80.31
356.853	92.31
357.08	73.31
357.307	74.31
357.534	71.31
357.761	79.31
357.988	85.31
358.215	83.31
358.441	90.31
358.668	87.31
358.895	78.31
359.122	77.31
359.349	68.31
359.576	86.31
359.802	85.31
360.029	85.31
360.256	77.31
360.483	72.31
360.709	88.31
360.936	89.31
361.163	80.31
361.39	83.31
361.616	84.31
361.843	68.31
362.07	76.31
362.296	97.31
362.523	72.31
362.749	84.31
362.976	81.31
363.203	97.31
363.429	80.31
363.656	94.31
363.882	74.31
364.109	76.31
364.335	86.31
364.562	81.31
364.788	91.31
365.015	79.31
365.241	72.31
365.468	89.31
365.694	90.31
365.92	91.31
366.147	97.31
366.373	69.31
366.599	80.31
366.826	89.31
367.052	91.31
367.278	71.31
367.505	82.31
367.731	84.31
367.957	78.31
368.184	70.31
368.41	86.31
368.636	86.31
368.862	77.31
369.089	83.31
369.315	77.31
369.541	84.31
369.767	93.31
369.993	98.31
370.219	92.31
370.445	79.31
370.672	71.31
370.898	62.31
371.124	74.31
371.35	80.31
371.576	87.31
371.802	76.31
372.028	81.31
372.254	87.31
372.48	77.31
372.706	75.31
372.932	91.31
373.158	79.31
373.384	86.31
373.61	100.31
373.835	82.31
374.061	81.31
374.287	86.31
374.513	73.31
374.739	92.31
374.965	84.31
375.191	87.31
375.416	79.31
375.642	80.31
375.868	79.31
376.094	79.31
376.319	73.31
376.545	78.31
376.771	81.31
376.997	81.31
377.222	85.31
377.448	77.31
377.674	78.31
377.899	77.31
378.125	79.31
378.35	89.31
378.576	78.31
378.802	78.31
379.027	70.31
379.253	84.31
379.478	71.31
379.704	85.31
379.929	81.31
380.155	78.31
380.38	74.31
380.606	76.31
380.831	75.31
381.057	91.31
381.282	88.31
381.507	87.31
381.733	84.31
381.958	88.31
382.184	92.31
382.409	87.31
382.634	84.31
382.86	83.31
383.085	83.31
383.31	87.31
383.535	94.31
383.761	88.31
383.986	94.31
384.211	89.31
384.436	85.31
384.662	85.31
384.887	67.31
385.112	76.31
385.337	83.31
385.562	81.31
385.787	91.31
386.013	67.31
386.238	73.31
386.463	83.31
386.688	92.31
386.913	79.31
387.138	72.31
387.363	88.31
387.588	68.31
387.813	86.31
388.038	79.31
388.263	70.31
388.488	74.31
388.713	87.31
388.938	81.31
389.163	87.31
389.387	66.31
389.612	77.31
389.837	77.31
390.062	80.31
390.287	63.31
390.512	98.31
390.736	71.31
390.961	87.31
391.186	81.31
391.411	79.31
391.636	83.31
391.86	80.31
392.085	87.31
392.31	85.31
392.534	70.31
392.759	77.31
392.984	79.31
393.208	87.31
393.433	65.31
393.658	87.31
393.882	91.31
394.107	83.31
394.331	98.31
394.556	77.31
394.78	78.31
395.005	92.31
395.229	84.31
395.454	85.31
395.678	85.31
395.903	88.31
396.127	72.31
396.352	69.31
396.576	78.31
396.801	93.31
397.025	78.31
397.249	85.31
397.474	93.31
397.698	79.31
397.922	80.31
398.147	80.31
398.371	79.31
398.595	87.31
398.82	77.31
399.044	73.31
399.268	86.31
399.492	81.31
399.717	93.31
399.941	82.31
400.165	96.31
400.389	79.31
400.613	73.31
400.837	94.31
401.062	94.31
401.286	89.31
401.51	90.31
401.734	66.31
401.958	78.31
402.182	73.31
402.406	78.31
402.63	85.31
402.854	82.31
403.078	85.31
403.302	78.31
403.526	90.31
403.75	82.31
403.974	70.31
404.198	94.31
404.422	81.31
404.645	84.31
404.869	75.31
405.093	91.31
405.317	97.31
405.541	92.31
405.765	71.31
405.988	81.31
406.212	97.31
406.436	91.31
406.66	97.31
406.883	73.31
407.107	89.31
407.331	83.31
407.555	75.31
407.778	87.31
408.002	85.31
408.226	73.31
408.449	87.31
408.673	74.31
408.896	92.31
409.12	91.31
409.344	108.31
409.567	81.31
409.791	80.31
410.014	82.31
410.238	72.31
410.461	99.31
410.685	98.31
410.908	90.31
411.132	93.31
411.355	80.31
411.578	83.31
411.802	85.31
412.025	73.31
412.249	85.31
412.472	73.31
412.695	69.31
412.919	84.31
413.142	96.31
413.365	71.31
413.589	69.31
413.812	81.31
414.035	83.31
414.258	87.31
414.482	88.31
414.705	73.31
414.928	79.31
415.151	83.31
415.374	63.31
415.597	84.31
415.821	75.31
416.044	86.31
416.267	79.31
416.49	87.31
416.713	78.31
416.936	70.31
417.159	76.31
417.382	86.31
417.605	73.31
417.828	74.31
418.051	73.31
418.274	78.31
418.497	70.31
418.72	70.31
418.943	86.31
419.166	67.31
419.389	85.31
419.611	71.31
419.834	70.31
420.057	79.31
420.28	78.31
420.503	93.31
420.726	83.31
420.948	86.31
421.171	71.31
421.394	81.31
421.617	79.31
421.839	63.31
422.062	81.31
422.285	80.31
422.507	69.31
422.73	91.31
422.953	68.31
423.175	73.31
423.398	86.31
423.621	86.31
423.843	78.31
424.066	76.31
424.288	74.31
424.511	88.31
424.733	75.31
424.956	83.31
425.178	87.31
425.401	68.31
425.623	84.31
425.846	83.31
426.068	92.31
426.291	81.31
426.513	73.31
426.735	85.31
426.958	71.31
427.18	88.31
427.402	85.31
427.625	83.31
427.847	67.31
428.069	89.31
428.292	74.31
428.514	84.31
428.736	80.31
428.958	89.31
429.181	81.31
429.403	93.31
429.625	83.31
429.847	79.31
430.069	83.31
430.292	87.31
430.514	71.31
430.736	65.31
430.958	69.31
431.18	69.31
431.402	89.31
431.624	80.31
431.846	77.31
432.068	84.31
432.29	63.31
432.512	81.31
432.734	70.31
432.956	85.31
433.178	85.31
433.4	56.31
433.622	64.31
433.844	85.31
434.066	82.31
434.287	75.31
434.509	71.31
434.731	90.31
434.953	80.31
435.175	84.31
435.397	87.31
435.618	101.31
435.84	88.31
436.062	72.31
436.284	69.31
436.505	78.31
436.727	79.31
436.949	83.31
437.17	77.31
437.392	81.31
437.614	81.31
437.835	84.31
438.057	90.31
438.278	65.31
438.5	82.31
438.721	85.31
438.943	84.31
439.165	81.31
439.386	77.31
439.608	79.31
439.829	89.31
440.05	72.31
440.272	94.31
440.493	79.31
440.715	83.31
440.936	77.31
441.158	77.31
441.379	84.31
441.6	73.31
441.822	77.31
442.043	93.31
442.264	67.31
442.486	68.31
442.707	76.31
442.928	76.31
443.149	84.31
443.371	91.31
443.592	92.31
443.813	76.31
444.034	79.31
444.255	84.31
444.476	73.31
444.698	77.31
444.919	77.31
445.14	144.31
445.361	99.31
445.582	91.31
445.803	72.31
446.024	80.31
446.245	79.31
446.466	89.31
446.687	95.31
446.908	84.31
447.129	80.31
447.35	76.31
447.571	86.31
447.792	88.31
448.013	79.31
448.234	70.31
448.455	86.31
448.675	91.31
448.896	79.31
449.117	80.31
449.338	70.31
449.559	80.31
449.779	99.31
450	83.31
450.221	80.31
450.442	97.31
450.662	83.31
450.883	91.31
451.104	81.31
451.324	83.31
451.545	79.31
451.766	86.31
451.986	75.31
452.207	86.31
452.428	87.31
452.648	81.31
452.869	79.31
453.089	94.31
453.31	83.31
453.53	77.31
453.751	88.31
453.971	90.31
454.192	83.31
454.412	77.31
454.633	72.31
454.853	80.31
455.073	70.31
455.294	79.31
455.514	84.31
455.734	89.31
455.955	84.31
456.175	86.31
456.395	76.31
456.616	78.31
456.836	95.31
457.056	82.31
457.276	80.31
457.497	79.31
457.717	83.31
457.937	79.31
458.157	76.31
458.377	71.31
458.598	84.31
458.818	76.31
459.038	69.31
459.258	83.31
459.478	83.31
459.698	86.31
459.918	94.31
460.138	88.31
460.358	76.31
460.578	91.31
460.798	85.31
461.018	77.31
461.238	87.31
461.458	75.31
461.678	79.31
461.898	86.31
462.118	89.31
462.338	92.31
462.558	80.31
462.777	81.31
462.997	87.31
463.217	91.31
463.437	94.31
463.657	69.31
463.876	77.31
464.096	76.31
464.316	78.31
464.536	83.31
464.755	80.31
464.975	99.31
465.195	81.31
465.414	90.31
465.634	84.31
465.854	69.31
466.073	81.31
466.293	96.31
466.512	81.31
466.732	95.31
466.951	80.31
467.171	84.31
467.391	80.31
467.61	69.31
467.829	81.31
468.049	90.31
468.268	75.31
468.488	87.31
468.707	63.31
468.927	91.31
469.146	73.31
469.365	83.31
469.585	77.31
469.804	88.31
470.023	77.31
470.243	88.31
470.462	68.31
470.681	77.31
470.901	69.31
471.12	73.31
471.339	79.31
471.558	97.31
471.777	85.31
471.997	72.31
472.216	79.31
472.435	75.31
472.654	86.31
472.873	83.31
473.092	88.31
473.311	73.31
473.53	73.31
473.749	88.31
473.968	79.31
474.187	78.31
474.406	86.31
474.625	80.31
474.844	71.31
475.063	84.31
475.282	90.31
475.501	83.31
475.72	91.31
475.939	80.31
476.158	71.31
476.377	89.31
476.596	88.31
476.814	83.31
477.033	91.31
477.252	86.31
477.471	71.31
477.69	88.31
477.908	88.31
478.127	76.31
478.346	82.31
478.564	88.31
478.783	71.31
479.002	97.31
479.22	78.31
479.439	103.31
479.658	94.31
479.876	87.31
480.095	84.31
480.313	73.31
480.532	98.31
480.751	91.31
480.969	65.31
481.188	67.31
481.406	92.31
481.624	91.31
481.843	88.31
482.061	85.31
482.28	98.31
482.498	84.31
482.717	81.31
482.935	87.31
483.153	81.31
483.372	79.31
483.59	86.31
483.808	82.31
484.027	77.31
484.245	79.31
484.463	88.31
484.681	71.31
484.9	95.31
485.118	88.31
485.336	89.31
485.554	81.31
485.772	72.31
485.99	79.31
486.209	90.31
486.427	61.31
486.645	94.31
486.863	79.31
487.081	86.31
487.299	85.31
487.517	94.31
487.735	79.31
487.953	81.31
488.171	94.31
488.389	88.31
488.607	83.31
488.825	95.31
489.043	74.31
489.261	78.31
489.479	94.31
489.696	71.31
489.914	83.31
490.132	94.31
490.35	82.31
490.568	78.31
490.786	78.31
491.003	68.31
491.221	79.31
491.439	83.31
491.657	68.31
491.874	91.31
492.092	73.31
492.31	74.31
492.527	79.31
492.745	89.31
492.963	83.31
493.18	88.31
493.398	95.31
493.615	93.31
493.833	98.31
494.05	89.31
494.268	74.31
494.485	88.31
494.703	76.31
494.92	95.31
495.138	79.31
495.355	83.31
495.573	87.31
495.79	80.31
496.008	85.31
496.225	77.31
496.442	83.31
496.66	79.31
496.877	77.31
497.094	89.31
497.312	84.31
497.529	80.31
497.746	76.31
497.963	94.31
498.181	68.31
498.398	83.31
498.615	78.31
498.832	77.31
499.049	87.31
499.267	92.31
499.484	85.31
499.701	79.31
499.918	88.31
500.135	75.31
500.352	85.31
500.569	73.31
500.786	76.31
501.003	86.31
501.22	65.31
501.437	85.31
501.654	56.31
501.871	73.31
502.088	101.31
502.305	81.31
502.522	78.31
502.739	75.31
502.956	91.31
503.172	90.31
503.389	82.31
503.606	78.31
503.823	89.31
504.04	83.31
504.256	88.31
504.473	85.31
504.69	92.31
504.907	77.31
505.123	69.31
505.34	77.31
505.557	83.31
505.773	91.31
505.99	81.31
506.207	79.31
506.423	88.31
506.64	88.31
506.856	85.31
507.073	84.31
507.289	92.31
507.506	81.31
507.722	93.31
507.939	86.31
508.155	88.31
508.372	80.31
508.588	100.31
508.805	90.31
509.021	84.31
509.238	91.31
509.454	73.31
509.67	76.31
509.887	82.31
510.103	89.31
510.319	92.31
510.536	90.31
510.752	82.31
510.968	100.31
511.184	80.31
511.401	79.31
511.617	67.31
511.833	74.31
512.049	74.31
512.265	86.31
512.481	84.31
512.698	87.31
512.914	96.31
513.13	91.31
513.346	84.31
513.562	81.31
513.778	91.31
513.994	79.31
514.21	74.31
514.426	85.31
514.642	100.31
514.858	92.31
515.074	84.31
515.29	96.31
515.506	85.31
515.721	81.31
515.937	81.31
516.153	91.31
516.369	80.31
516.585	81.31
516.801	73.31
517.016	81.31
517.232	92.31
517.448	79.31
517.664	64.31
517.879	86.31
518.095	80.31
518.311	67.31
518.527	85.31
518.742	87.31
518.958	87.31
519.173	88.31
519.389	68.31
519.605	79.31
519.82	83.31
520.036	89.31
