Data from Background_3_HRD10591_00055.txt Node
Date: Wed Nov 05 14:49:47 EST 2025
User: Yrep
Spectrometer: HR+D1059
Trigger mode: 1
Integration Time (sec): 1.000000E-1
Scans to average: 1
Electric dark correction enabled: true
Nonlinearity correction enabled: false
Boxcar width: 0
XAxis mode: Wavelengths
Number of Pixels in Spectrum: 2048
>>>>>Begin Spectral Data<<<<<
223.165	-14.56
223.4	-14.56
223.635	-14.56
223.869	-20.56
224.104	-16.56
224.338	-23.56
224.573	-12.56
224.808	-8.56
225.042	-6.56
225.277	1.44
225.511	7.44
225.746	13.44
225.98	15.44
226.215	19.44
226.449	-0.56
226.683	9.44
226.918	1.44
227.152	35.44
227.387	34.44
227.621	36.44
227.856	28.44
228.09	44.44
228.324	40.44
228.559	43.44
228.793	72.44
229.027	70.44
229.262	61.44
229.496	70.44
229.73	73.44
229.964	60.44
230.199	72.44
230.433	65.44
230.667	76.44
230.901	72.44
231.136	72.44
231.37	71.44
231.604	74.44
231.838	76.44
232.072	86.44
232.306	93.44
232.541	77.44
232.775	96.44
233.009	90.44
233.243	86.44
233.477	85.44
233.711	74.44
233.945	84.44
234.179	82.44
234.413	76.44
234.647	72.44
234.881	85.44
235.115	76.44
235.349	85.44
235.583	82.44
235.817	80.44
236.051	81.44
236.285	74.44
236.519	81.44
236.753	74.44
236.987	82.44
237.221	79.44
237.455	76.44
237.689	80.44
237.922	76.44
238.156	74.44
238.39	74.44
238.624	80.44
238.858	83.44
239.091	72.44
239.325	89.44
239.559	76.44
239.793	80.44
240.027	70.44
240.26	67.44
240.494	101.44
240.728	76.44
240.961	68.44
241.195	70.44
241.429	89.44
241.662	70.44
241.896	85.44
242.13	72.44
242.363	71.44
242.597	81.44
242.83	62.44
243.064	62.44
243.298	66.44
243.531	70.44
243.765	66.44
243.998	77.44
244.232	89.44
244.465	77.44
244.699	73.44
244.932	82.44
245.166	74.44
245.399	79.44
245.633	80.44
245.866	70.44
246.099	75.44
246.333	68.44
246.566	68.44
246.8	73.44
247.033	80.44
247.266	82.44
247.5	80.44
247.733	64.44
247.966	87.44
248.2	77.44
248.433	78.44
248.666	71.44
248.899	80.44
249.133	72.44
249.366	73.44
249.599	69.44
249.832	84.44
250.066	84.44
250.299	70.44
250.532	83.44
250.765	81.44
250.998	80.44
251.231	72.44
251.465	77.44
251.698	77.44
251.931	75.44
252.164	69.44
252.397	76.44
252.63	78.44
252.863	80.44
253.096	79.44
253.329	75.44
253.562	74.44
253.795	69.44
254.028	72.44
254.261	80.44
254.494	76.44
254.727	75.44
254.96	75.44
255.193	69.44
255.426	85.44
255.659	86.44
255.892	91.44
256.124	78.44
256.357	76.44
256.59	69.44
256.823	69.44
257.056	84.44
257.289	76.44
257.521	81.44
257.754	66.44
257.987	73.44
258.22	85.44
258.452	73.44
258.685	82.44
258.918	83.44
259.151	93.44
259.383	85.44
259.616	68.44
259.849	60.44
260.081	80.44
260.314	96.44
260.547	78.44
260.779	88.44
261.012	84.44
261.244	87.44
261.477	85.44
261.71	92.44
261.942	79.44
262.175	70.44
262.407	77.44
262.64	91.44
262.872	82.44
263.105	90.44
263.337	81.44
263.57	83.44
263.802	93.44
264.035	82.44
264.267	78.44
264.499	88.44
264.732	79.44
264.964	72.44
265.197	88.44
265.429	82.44
265.661	85.44
265.894	90.44
266.126	80.44
266.358	76.44
266.591	77.44
266.823	80.44
267.055	82.44
267.287	80.44
267.52	69.44
267.752	84.44
267.984	83.44
268.216	91.44
268.448	75.44
268.681	89.44
268.913	90.44
269.145	92.44
269.377	86.44
269.609	92.44
269.841	86.44
270.073	95.44
270.306	77.44
270.538	76.44
270.77	85.44
271.002	87.44
271.234	84.44
271.466	76.44
271.698	80.44
271.93	75.44
272.162	84.44
272.394	85.44
272.626	90.44
272.858	78.44
273.09	81.44
273.322	89.44
273.553	82.44
273.785	86.44
274.017	70.44
274.249	83.44
274.481	108.44
274.713	93.44
274.945	85.44
275.176	84.44
275.408	80.44
275.64	98.44
275.872	69.44
276.104	90.44
276.335	81.44
276.567	86.44
276.799	86.44
277.031	83.44
277.262	80.44
277.494	73.44
277.726	82.44
277.957	71.44
278.189	72.44
278.421	91.44
278.652	95.44
278.884	89.44
279.115	82.44
279.347	75.44
279.579	77.44
279.81	85.44
280.042	88.44
280.273	80.44
280.505	70.44
280.736	83.44
280.968	89.44
281.199	81.44
281.431	71.44
281.662	74.44
281.894	95.44
282.125	90.44
282.356	85.44
282.588	85.44
282.819	84.44
283.051	85.44
283.282	82.44
283.513	85.44
283.745	90.44
283.976	93.44
284.207	68.44
284.439	72.44
284.67	95.44
284.901	98.44
285.132	92.44
285.364	94.44
285.595	82.44
285.826	91.44
286.057	86.44
286.288	82.44
286.52	105.44
286.751	84.44
286.982	84.44
287.213	80.44
287.444	88.44
287.675	76.44
287.906	84.44
288.138	80.44
288.369	88.44
288.6	77.44
288.831	82.44
289.062	76.44
289.293	80.44
289.524	95.44
289.755	72.44
289.986	82.44
290.217	68.44
290.448	66.44
290.679	83.44
290.91	98.44
291.141	85.44
291.371	85.44
291.602	69.44
291.833	90.44
292.064	86.44
292.295	73.44
292.526	87.44
292.757	81.44
292.987	82.44
293.218	93.44
293.449	82.44
293.68	76.44
293.91	92.44
294.141	82.44
294.372	90.44
294.603	78.44
294.833	83.44
295.064	88.44
295.295	91.44
295.525	88.44
295.756	82.44
295.987	76.44
296.217	83.44
296.448	93.44
296.679	74.44
296.909	71.44
297.14	92.44
297.37	85.44
297.601	82.44
297.831	85.44
298.062	81.44
298.292	83.44
298.523	79.44
298.753	88.44
298.984	84.44
299.214	97.44
299.445	91.44
299.675	75.44
299.905	69.44
300.136	71.44
300.366	90.44
300.597	85.44
300.827	66.44
301.057	81.44
301.288	74.44
301.518	78.44
301.748	77.44
301.979	97.44
302.209	80.44
302.439	76.44
302.669	78.44
302.9	84.44
303.13	92.44
303.36	82.44
303.59	85.44
303.82	89.44
304.051	94.44
304.281	81.44
304.511	90.44
304.741	72.44
304.971	84.44
305.201	80.44
305.431	94.44
305.661	89.44
305.891	90.44
306.121	87.44
306.352	73.44
306.582	82.44
306.812	82.44
307.042	93.44
307.272	95.44
307.502	79.44
307.731	88.44
307.961	84.44
308.191	75.44
308.421	74.44
308.651	80.44
308.881	88.44
309.111	73.44
309.341	91.44
309.571	93.44
309.8	83.44
310.03	74.44
310.26	84.44
310.49	90.44
310.72	89.44
310.949	70.44
311.179	86.44
311.409	81.44
311.639	79.44
311.868	77.44
312.098	76.44
312.328	95.44
312.557	88.44
312.787	90.44
313.017	90.44
313.246	78.44
313.476	71.44
313.706	75.44
313.935	75.44
314.165	82.44
314.394	86.44
314.624	77.44
314.853	69.44
315.083	85.44
315.312	93.44
315.542	82.44
315.771	83.44
316.001	83.44
316.23	92.44
316.46	80.44
316.689	90.44
316.919	84.44
317.148	76.44
317.377	84.44
317.607	83.44
317.836	100.44
318.065	78.44
318.295	91.44
318.524	85.44
318.753	92.44
318.983	75.44
319.212	96.44
319.441	63.44
319.67	85.44
319.9	87.44
320.129	83.44
320.358	84.44
320.587	96.44
320.816	84.44
321.046	89.44
321.275	88.44
321.504	77.44
321.733	79.44
321.962	84.44
322.191	91.44
322.42	69.44
322.649	87.44
322.878	80.44
323.108	80.44
323.337	76.44
323.566	88.44
323.795	81.44
324.024	91.44
324.253	82.44
324.482	74.44
324.71	85.44
324.939	80.44
325.168	87.44
325.397	84.44
325.626	83.44
325.855	109.44
326.084	98.44
326.313	79.44
326.542	101.44
326.77	85.44
326.999	78.44
327.228	84.44
327.457	71.44
327.686	77.44
327.914	91.44
328.143	91.44
328.372	67.44
328.6	67.44
328.829	85.44
329.058	82.44
329.287	80.44
329.515	75.44
329.744	81.44
329.972	86.44
330.201	86.44
330.43	80.44
330.658	72.44
330.887	93.44
331.115	88.44
331.344	102.44
331.572	89.44
331.801	74.44
332.03	92.44
332.258	88.44
332.486	78.44
332.715	77.44
332.943	72.44
333.172	81.44
333.4	85.44
333.629	80.44
333.857	80.44
334.085	84.44
334.314	89.44
334.542	80.44
334.771	88.44
334.999	81.44
335.227	83.44
335.455	78.44
335.684	74.44
335.912	86.44
336.14	82.44
336.369	83.44
336.597	75.44
336.825	77.44
337.053	74.44
337.281	66.44
337.51	68.44
337.738	83.44
337.966	74.44
338.194	75.44
338.422	95.44
338.65	102.44
338.878	85.44
339.106	78.44
339.334	74.44
339.562	78.44
339.79	82.44
340.018	85.44
340.246	70.44
340.474	80.44
340.702	82.44
340.93	87.44
341.158	70.44
341.386	84.44
341.614	98.44
341.842	88.44
342.07	68.44
342.298	85.44
342.526	85.44
342.754	85.44
342.981	81.44
343.209	91.44
343.437	84.44
343.665	98.44
343.893	80.44
344.12	90.44
344.348	71.44
344.576	91.44
344.804	85.44
345.031	88.44
345.259	88.44
345.487	67.44
345.714	94.44
345.942	98.44
346.17	78.44
346.397	83.44
346.625	74.44
346.853	91.44
347.08	97.44
347.308	91.44
347.535	86.44
347.763	71.44
347.99	80.44
348.218	84.44
348.445	91.44
348.673	104.44
348.9	92.44
349.128	79.44
349.355	78.44
349.583	84.44
349.81	92.44
350.037	83.44
350.265	90.44
350.492	72.44
350.72	90.44
350.947	90.44
351.174	89.44
351.402	75.44
351.629	74.44
351.856	98.44
352.083	78.44
352.311	83.44
352.538	92.44
352.765	84.44
352.992	94.44
353.22	89.44
353.447	86.44
353.674	84.44
353.901	82.44
354.128	93.44
354.355	85.44
354.583	75.44
354.81	80.44
355.037	94.44
355.264	80.44
355.491	88.44
355.718	67.44
355.945	97.44
356.172	72.44
356.399	83.44
356.626	85.44
356.853	84.44
357.08	95.44
357.307	82.44
357.534	84.44
357.761	62.44
357.988	88.44
358.215	88.44
358.441	86.44
358.668	94.44
358.895	91.44
359.122	82.44
359.349	74.44
359.576	88.44
359.802	81.44
360.029	63.44
360.256	75.44
360.483	82.44
360.709	86.44
360.936	81.44
361.163	77.44
361.39	82.44
361.616	69.44
361.843	78.44
362.07	64.44
362.296	80.44
362.523	94.44
362.749	76.44
362.976	90.44
363.203	98.44
363.429	71.44
363.656	73.44
363.882	67.44
364.109	69.44
364.335	82.44
364.562	76.44
364.788	97.44
365.015	86.44
365.241	70.44
365.468	74.44
365.694	94.44
365.92	88.44
366.147	73.44
366.373	71.44
366.599	91.44
366.826	80.44
367.052	82.44
367.278	92.44
367.505	88.44
367.731	76.44
367.957	75.44
368.184	75.44
368.41	68.44
368.636	88.44
368.862	97.44
369.089	85.44
369.315	88.44
369.541	92.44
369.767	77.44
369.993	75.44
370.219	70.44
370.445	88.44
370.672	84.44
370.898	80.44
371.124	78.44
371.35	86.44
371.576	83.44
371.802	77.44
372.028	84.44
372.254	68.44
372.48	90.44
372.706	71.44
372.932	78.44
373.158	80.44
373.384	93.44
373.61	84.44
373.835	81.44
374.061	82.44
374.287	69.44
374.513	74.44
374.739	68.44
374.965	81.44
375.191	84.44
375.416	84.44
375.642	79.44
375.868	89.44
376.094	64.44
376.319	84.44
376.545	76.44
376.771	83.44
376.997	72.44
377.222	85.44
377.448	81.44
377.674	75.44
377.899	73.44
378.125	67.44
378.35	82.44
378.576	73.44
378.802	68.44
379.027	91.44
379.253	76.44
379.478	71.44
379.704	86.44
379.929	69.44
380.155	69.44
380.38	69.44
380.606	62.44
380.831	90.44
381.057	88.44
381.282	71.44
381.507	88.44
381.733	91.44
381.958	92.44
382.184	80.44
382.409	85.44
382.634	89.44
382.86	81.44
383.085	84.44
383.31	78.44
383.535	76.44
383.761	77.44
383.986	84.44
384.211	69.44
384.436	71.44
384.662	70.44
384.887	68.44
385.112	81.44
385.337	88.44
385.562	78.44
385.787	75.44
386.013	87.44
386.238	71.44
386.463	74.44
386.688	88.44
386.913	90.44
387.138	80.44
387.363	87.44
387.588	78.44
387.813	78.44
388.038	93.44
388.263	78.44
388.488	93.44
388.713	73.44
388.938	74.44
389.163	87.44
389.387	85.44
389.612	87.44
389.837	82.44
390.062	85.44
390.287	64.44
390.512	85.44
390.736	83.44
390.961	67.44
391.186	72.44
391.411	85.44
391.636	83.44
391.86	71.44
392.085	81.44
392.31	88.44
392.534	72.44
392.759	89.44
392.984	70.44
393.208	84.44
393.433	90.44
393.658	79.44
393.882	84.44
394.107	76.44
394.331	87.44
394.556	70.44
394.78	77.44
395.005	85.44
395.229	84.44
395.454	92.44
395.678	89.44
395.903	73.44
396.127	76.44
396.352	78.44
396.576	73.44
396.801	80.44
397.025	85.44
397.249	94.44
397.474	76.44
397.698	88.44
397.922	85.44
398.147	80.44
398.371	75.44
398.595	86.44
398.82	74.44
399.044	82.44
399.268	68.44
399.492	86.44
399.717	84.44
399.941	66.44
400.165	85.44
400.389	67.44
400.613	72.44
400.837	82.44
401.062	76.44
401.286	70.44
401.51	76.44
401.734	76.44
401.958	68.44
402.182	84.44
402.406	85.44
402.63	88.44
402.854	84.44
403.078	90.44
403.302	76.44
403.526	95.44
403.75	89.44
403.974	93.44
404.198	84.44
404.422	76.44
404.645	78.44
404.869	77.44
405.093	74.44
405.317	71.44
405.541	83.44
405.765	92.44
405.988	90.44
406.212	66.44
406.436	82.44
406.66	78.44
406.883	67.44
407.107	76.44
407.331	98.44
407.555	94.44
407.778	86.44
408.002	70.44
408.226	81.44
408.449	72.44
408.673	69.44
408.896	85.44
409.12	94.44
409.344	78.44
409.567	82.44
409.791	76.44
410.014	79.44
410.238	93.44
410.461	92.44
410.685	82.44
410.908	85.44
411.132	76.44
411.355	70.44
411.578	103.44
411.802	92.44
412.025	65.44
412.249	70.44
412.472	80.44
412.695	76.44
412.919	75.44
413.142	79.44
413.365	77.44
413.589	70.44
413.812	79.44
414.035	86.44
414.258	77.44
414.482	66.44
414.705	92.44
414.928	72.44
415.151	80.44
415.374	80.44
415.597	77.44
415.821	96.44
416.044	92.44
416.267	75.44
416.49	62.44
416.713	66.44
416.936	69.44
417.159	73.44
417.382	80.44
417.605	66.44
417.828	93.44
418.051	79.44
418.274	82.44
418.497	67.44
418.72	91.44
418.943	88.44
419.166	86.44
419.389	80.44
419.611	73.44
419.834	88.44
420.057	60.44
420.28	76.44
420.503	74.44
420.726	61.44
420.948	80.44
421.171	82.44
421.394	82.44
421.617	91.44
421.839	84.44
422.062	80.44
422.285	71.44
422.507	80.44
422.73	84.44
422.953	93.44
423.175	94.44
423.398	93.44
423.621	90.44
423.843	85.44
424.066	85.44
424.288	79.44
424.511	82.44
424.733	77.44
424.956	74.44
425.178	79.44
425.401	84.44
425.623	90.44
425.846	69.44
426.068	61.44
426.291	76.44
426.513	81.44
426.735	88.44
426.958	76.44
427.18	90.44
427.402	64.44
427.625	77.44
427.847	80.44
428.069	77.44
428.292	84.44
428.514	70.44
428.736	84.44
428.958	84.44
429.181	83.44
429.403	83.44
429.625	79.44
429.847	85.44
430.069	73.44
430.292	95.44
430.514	72.44
430.736	89.44
430.958	84.44
431.18	79.44
431.402	76.44
431.624	88.44
431.846	87.44
432.068	77.44
432.29	92.44
432.512	65.44
432.734	68.44
432.956	74.44
433.178	82.44
433.4	87.44
433.622	78.44
433.844	67.44
434.066	81.44
434.287	72.44
434.509	77.44
434.731	70.44
434.953	80.44
435.175	84.44
435.397	80.44
435.618	72.44
435.84	76.44
436.062	86.44
436.284	69.44
436.505	64.44
436.727	83.44
436.949	75.44
437.17	76.44
437.392	88.44
437.614	81.44
437.835	80.44
438.057	79.44
438.278	87.44
438.5	85.44
438.721	96.44
438.943	93.44
439.165	82.44
439.386	81.44
439.608	87.44
439.829	77.44
440.05	81.44
440.272	77.44
440.493	68.44
440.715	90.44
440.936	73.44
441.158	88.44
441.379	90.44
441.6	87.44
441.822	77.44
442.043	82.44
442.264	71.44
442.486	84.44
442.707	88.44
442.928	66.44
443.149	71.44
443.371	82.44
443.592	73.44
443.813	96.44
444.034	59.44
444.255	84.44
444.476	76.44
444.698	73.44
444.919	78.44
445.14	152.44
445.361	116.44
445.582	90.44
445.803	68.44
446.024	66.44
446.245	84.44
446.466	66.44
446.687	66.44
446.908	72.44
447.129	76.44
447.35	76.44
447.571	76.44
447.792	88.44
448.013	81.44
448.234	91.44
448.455	60.44
448.675	75.44
448.896	76.44
449.117	76.44
449.338	73.44
449.559	83.44
449.779	70.44
450	82.44
450.221	83.44
450.442	82.44
450.662	83.44
450.883	81.44
451.104	80.44
451.324	68.44
451.545	86.44
451.766	85.44
451.986	63.44
452.207	98.44
452.428	73.44
452.648	83.44
452.869	75.44
453.089	85.44
453.31	83.44
453.53	78.44
453.751	82.44
453.971	99.44
454.192	86.44
454.412	77.44
454.633	75.44
454.853	76.44
455.073	76.44
455.294	73.44
455.514	74.44
455.734	81.44
455.955	82.44
456.175	54.44
456.395	63.44
456.616	92.44
456.836	73.44
457.056	78.44
457.276	85.44
457.497	81.44
457.717	77.44
457.937	83.44
458.157	81.44
458.377	88.44
458.598	74.44
458.818	90.44
459.038	83.44
459.258	78.44
459.478	83.44
459.698	84.44
459.918	68.44
460.138	78.44
460.358	76.44
460.578	82.44
460.798	81.44
461.018	68.44
461.238	74.44
461.458	89.44
461.678	76.44
461.898	88.44
462.118	96.44
462.338	78.44
462.558	73.44
462.777	83.44
462.997	77.44
463.217	62.44
463.437	73.44
463.657	93.44
463.876	87.44
464.096	82.44
464.316	72.44
464.536	78.44
464.755	81.44
464.975	86.44
465.195	87.44
465.414	66.44
465.634	82.44
465.854	81.44
466.073	81.44
466.293	69.44
466.512	83.44
466.732	67.44
466.951	85.44
467.171	83.44
467.391	80.44
467.61	78.44
467.829	84.44
468.049	85.44
468.268	75.44
468.488	87.44
468.707	85.44
468.927	76.44
469.146	76.44
469.365	85.44
469.585	82.44
469.804	80.44
470.023	84.44
470.243	74.44
470.462	87.44
470.681	78.44
470.901	64.44
471.12	92.44
471.339	88.44
471.558	82.44
471.777	67.44
471.997	78.44
472.216	76.44
472.435	81.44
472.654	90.44
472.873	82.44
473.092	78.44
473.311	68.44
473.53	78.44
473.749	67.44
473.968	90.44
474.187	86.44
474.406	77.44
474.625	95.44
474.844	78.44
475.063	81.44
475.282	78.44
475.501	79.44
475.72	95.44
475.939	90.44
476.158	73.44
476.377	89.44
476.596	81.44
476.814	105.44
477.033	71.44
477.252	94.44
477.471	75.44
477.69	78.44
477.908	79.44
478.127	86.44
478.346	81.44
478.564	89.44
478.783	81.44
479.002	68.44
479.22	68.44
479.439	75.44
479.658	84.44
479.876	92.44
480.095	72.44
480.313	83.44
480.532	79.44
480.751	78.44
480.969	85.44
481.188	62.44
481.406	88.44
481.624	73.44
481.843	81.44
482.061	92.44
482.28	81.44
482.498	91.44
482.717	74.44
482.935	81.44
483.153	87.44
483.372	76.44
483.59	92.44
483.808	86.44
484.027	93.44
484.245	70.44
484.463	84.44
484.681	100.44
484.9	91.44
485.118	70.44
485.336	76.44
485.554	82.44
485.772	88.44
485.99	101.44
486.209	78.44
486.427	85.44
486.645	79.44
486.863	84.44
487.081	89.44
487.299	80.44
487.517	91.44
487.735	92.44
487.953	53.44
488.171	89.44
488.389	83.44
488.607	68.44
488.825	80.44
489.043	90.44
489.261	80.44
489.479	82.44
489.696	85.44
489.914	76.44
490.132	74.44
490.35	87.44
490.568	64.44
490.786	74.44
491.003	90.44
491.221	84.44
491.439	66.44
491.657	75.44
491.874	66.44
492.092	86.44
492.31	90.44
492.527	94.44
492.745	71.44
492.963	84.44
493.18	85.44
493.398	88.44
493.615	88.44
493.833	85.44
494.05	93.44
494.268	79.44
494.485	78.44
494.703	84.44
494.92	80.44
495.138	96.44
495.355	94.44
495.573	85.44
495.79	68.44
496.008	84.44
496.225	93.44
496.442	84.44
496.66	86.44
496.877	84.44
497.094	84.44
497.312	82.44
497.529	92.44
497.746	71.44
497.963	76.44
498.181	84.44
498.398	77.44
498.615	88.44
498.832	87.44
499.049	85.44
499.267	94.44
499.484	89.44
499.701	63.44
499.918	89.44
500.135	99.44
500.352	76.44
500.569	82.44
500.786	82.44
501.003	73.44
501.22	82.44
501.437	93.44
501.654	80.44
501.871	70.44
502.088	83.44
502.305	93.44
502.522	77.44
502.739	68.44
502.956	83.44
503.172	88.44
503.389	74.44
503.606	78.44
503.823	94.44
504.04	80.44
504.256	92.44
504.473	86.44
504.69	85.44
504.907	86.44
505.123	81.44
505.34	82.44
505.557	81.44
505.773	78.44
505.99	80.44
506.207	71.44
506.423	77.44
506.64	76.44
506.856	73.44
507.073	68.44
507.289	77.44
507.506	70.44
507.722	79.44
507.939	77.44
508.155	68.44
508.372	88.44
508.588	79.44
508.805	81.44
509.021	80.44
509.238	92.44
509.454	86.44
509.67	91.44
509.887	76.44
510.103	78.44
510.319	77.44
510.536	85.44
510.752	75.44
510.968	94.44
511.184	78.44
511.401	83.44
511.617	67.44
511.833	88.44
512.049	83.44
512.265	89.44
512.481	78.44
512.698	76.44
512.914	84.44
513.13	106.44
513.346	96.44
513.562	78.44
513.778	81.44
513.994	84.44
514.21	79.44
514.426	81.44
514.642	66.44
514.858	83.44
515.074	80.44
515.29	85.44
515.506	85.44
515.721	82.44
515.937	81.44
516.153	81.44
516.369	75.44
516.585	89.44
516.801	73.44
517.016	82.44
517.232	78.44
517.448	79.44
517.664	83.44
517.879	71.44
518.095	88.44
518.311	76.44
518.527	93.44
518.742	70.44
518.958	97.44
519.173	82.44
519.389	94.44
519.605	75.44
519.82	75.44
520.036	66.44
