Data from Background_3_HRD10591_00073.txt Node
Date: Wed Nov 05 14:49:56 EST 2025
User: Yrep
Spectrometer: HR+D1059
Trigger mode: 1
Integration Time (sec): 1.000000E-1
Scans to average: 1
Electric dark correction enabled: true
Nonlinearity correction enabled: false
Boxcar width: 0
XAxis mode: Wavelengths
Number of Pixels in Spectrum: 2048
>>>>>Begin Spectral Data<<<<<
223.165	-13.44
223.4	-13.44
223.635	-13.44
223.869	-17.44
224.104	-25.44
224.338	-14.44
224.573	-16.44
224.808	-2.44
225.042	-16.44
225.277	-10.44
225.511	-0.44
225.746	0.56
225.98	13.56
226.215	17.56
226.449	18.56
226.683	16.56
226.918	26.56
227.152	23.56
227.387	33.56
227.621	42.56
227.856	53.56
228.09	52.56
228.324	55.56
228.559	51.56
228.793	55.56
229.027	57.56
229.262	67.56
229.496	75.56
229.73	61.56
229.964	65.56
230.199	87.56
230.433	78.56
230.667	91.56
230.901	59.56
231.136	70.56
231.37	84.56
231.604	67.56
231.838	83.56
232.072	78.56
232.306	75.56
232.541	72.56
232.775	76.56
233.009	77.56
233.243	76.56
233.477	81.56
233.711	78.56
233.945	79.56
234.179	87.56
234.413	83.56
234.647	76.56
234.881	85.56
235.115	87.56
235.349	85.56
235.583	84.56
235.817	78.56
236.051	85.56
236.285	93.56
236.519	82.56
236.753	82.56
236.987	83.56
237.221	84.56
237.455	77.56
237.689	75.56
237.922	74.56
238.156	85.56
238.39	74.56
238.624	87.56
238.858	82.56
239.091	77.56
239.325	82.56
239.559	79.56
239.793	70.56
240.027	72.56
240.26	70.56
240.494	64.56
240.728	69.56
240.961	64.56
241.195	88.56
241.429	85.56
241.662	63.56
241.896	74.56
242.13	73.56
242.363	69.56
242.597	78.56
242.83	91.56
243.064	73.56
243.298	82.56
243.531	73.56
243.765	81.56
243.998	89.56
244.232	94.56
244.465	86.56
244.699	70.56
244.932	90.56
245.166	84.56
245.399	73.56
245.633	71.56
245.866	83.56
246.099	66.56
246.333	86.56
246.566	83.56
246.8	81.56
247.033	87.56
247.266	80.56
247.5	63.56
247.733	78.56
247.966	73.56
248.2	75.56
248.433	70.56
248.666	71.56
248.899	75.56
249.133	71.56
249.366	79.56
249.599	69.56
249.832	75.56
250.066	83.56
250.299	63.56
250.532	76.56
250.765	72.56
250.998	82.56
251.231	74.56
251.465	88.56
251.698	65.56
251.931	84.56
252.164	71.56
252.397	82.56
252.63	79.56
252.863	75.56
253.096	94.56
253.329	74.56
253.562	81.56
253.795	74.56
254.028	82.56
254.261	84.56
254.494	78.56
254.727	75.56
254.96	80.56
255.193	102.56
255.426	83.56
255.659	83.56
255.892	93.56
256.124	101.56
256.357	77.56
256.59	86.56
256.823	87.56
257.056	83.56
257.289	71.56
257.521	81.56
257.754	77.56
257.987	73.56
258.22	91.56
258.452	84.56
258.685	88.56
258.918	87.56
259.151	80.56
259.383	92.56
259.616	72.56
259.849	80.56
260.081	78.56
260.314	79.56
260.547	77.56
260.779	87.56
261.012	78.56
261.244	81.56
261.477	84.56
261.71	73.56
261.942	68.56
262.175	78.56
262.407	93.56
262.64	91.56
262.872	68.56
263.105	89.56
263.337	87.56
263.57	81.56
263.802	92.56
264.035	99.56
264.267	82.56
264.499	74.56
264.732	99.56
264.964	85.56
265.197	79.56
265.429	84.56
265.661	78.56
265.894	73.56
266.126	77.56
266.358	80.56
266.591	95.56
266.823	83.56
267.055	75.56
267.287	87.56
267.52	73.56
267.752	80.56
267.984	86.56
268.216	87.56
268.448	68.56
268.681	85.56
268.913	84.56
269.145	86.56
269.377	89.56
269.609	92.56
269.841	82.56
270.073	83.56
270.306	91.56
270.538	95.56
270.77	77.56
271.002	87.56
271.234	91.56
271.466	80.56
271.698	67.56
271.93	84.56
272.162	95.56
272.394	87.56
272.626	77.56
272.858	90.56
273.09	79.56
273.322	79.56
273.553	89.56
273.785	90.56
274.017	78.56
274.249	92.56
274.481	86.56
274.713	79.56
274.945	85.56
275.176	82.56
275.408	86.56
275.64	80.56
275.872	88.56
276.104	79.56
276.335	88.56
276.567	86.56
276.799	79.56
277.031	83.56
277.262	81.56
277.494	75.56
277.726	87.56
277.957	99.56
278.189	80.56
278.421	81.56
278.652	82.56
278.884	81.56
279.115	80.56
279.347	79.56
279.579	85.56
279.81	89.56
280.042	78.56
280.273	73.56
280.505	81.56
280.736	77.56
280.968	96.56
281.199	90.56
281.431	70.56
281.662	78.56
281.894	85.56
282.125	83.56
282.356	86.56
282.588	93.56
282.819	81.56
283.051	84.56
283.282	82.56
283.513	98.56
283.745	87.56
283.976	79.56
284.207	79.56
284.439	86.56
284.67	91.56
284.901	72.56
285.132	97.56
285.364	76.56
285.595	80.56
285.826	85.56
286.057	87.56
286.288	72.56
286.52	87.56
286.751	90.56
286.982	87.56
287.213	81.56
287.444	92.56
287.675	96.56
287.906	80.56
288.138	85.56
288.369	93.56
288.6	100.56
288.831	82.56
289.062	95.56
289.293	84.56
289.524	91.56
289.755	87.56
289.986	87.56
290.217	90.56
290.448	83.56
290.679	93.56
290.91	91.56
291.141	73.56
291.371	83.56
291.602	81.56
291.833	79.56
292.064	93.56
292.295	90.56
292.526	63.56
292.757	74.56
292.987	77.56
293.218	78.56
293.449	80.56
293.68	84.56
293.91	77.56
294.141	75.56
294.372	85.56
294.603	86.56
294.833	87.56
295.064	73.56
295.295	73.56
295.525	86.56
295.756	95.56
295.987	79.56
296.217	80.56
296.448	78.56
296.679	84.56
296.909	86.56
297.14	92.56
297.37	78.56
297.601	77.56
297.831	91.56
298.062	99.56
298.292	82.56
298.523	87.56
298.753	85.56
298.984	67.56
299.214	77.56
299.445	85.56
299.675	81.56
299.905	103.56
300.136	88.56
300.366	95.56
300.597	86.56
300.827	83.56
301.057	67.56
301.288	68.56
301.518	80.56
301.748	83.56
301.979	99.56
302.209	84.56
302.439	81.56
302.669	70.56
302.9	82.56
303.13	79.56
303.36	81.56
303.59	90.56
303.82	68.56
304.051	82.56
304.281	96.56
304.511	98.56
304.741	87.56
304.971	83.56
305.201	87.56
305.431	87.56
305.661	86.56
305.891	78.56
306.121	99.56
306.352	89.56
306.582	93.56
306.812	85.56
307.042	78.56
307.272	80.56
307.502	87.56
307.731	101.56
307.961	98.56
308.191	77.56
308.421	86.56
308.651	104.56
308.881	87.56
309.111	81.56
309.341	86.56
309.571	81.56
309.8	86.56
310.03	87.56
310.26	99.56
310.49	87.56
310.72	84.56
310.949	88.56
311.179	88.56
311.409	93.56
311.639	83.56
311.868	89.56
312.098	91.56
312.328	81.56
312.557	71.56
312.787	95.56
313.017	80.56
313.246	88.56
313.476	89.56
313.706	79.56
313.935	85.56
314.165	78.56
314.394	88.56
314.624	88.56
314.853	89.56
315.083	97.56
315.312	91.56
315.542	85.56
315.771	91.56
316.001	77.56
316.23	93.56
316.46	65.56
316.689	88.56
316.919	93.56
317.148	80.56
317.377	89.56
317.607	86.56
317.836	83.56
318.065	93.56
318.295	87.56
318.524	89.56
318.753	79.56
318.983	78.56
319.212	85.56
319.441	83.56
319.67	85.56
319.9	88.56
320.129	84.56
320.358	97.56
320.587	73.56
320.816	76.56
321.046	101.56
321.275	77.56
321.504	79.56
321.733	89.56
321.962	79.56
322.191	85.56
322.42	71.56
322.649	79.56
322.878	86.56
323.108	107.56
323.337	89.56
323.566	82.56
323.795	87.56
324.024	79.56
324.253	79.56
324.482	77.56
324.71	85.56
324.939	90.56
325.168	87.56
325.397	96.56
325.626	81.56
325.855	81.56
326.084	70.56
326.313	73.56
326.542	75.56
326.77	91.56
326.999	87.56
327.228	85.56
327.457	84.56
327.686	85.56
327.914	60.56
328.143	82.56
328.372	80.56
328.6	84.56
328.829	88.56
329.058	89.56
329.287	71.56
329.515	94.56
329.744	84.56
329.972	92.56
330.201	85.56
330.43	78.56
330.658	86.56
330.887	81.56
331.115	81.56
331.344	87.56
331.572	92.56
331.801	74.56
332.03	88.56
332.258	80.56
332.486	89.56
332.715	92.56
332.943	87.56
333.172	71.56
333.4	71.56
333.629	73.56
333.857	86.56
334.085	83.56
334.314	80.56
334.542	76.56
334.771	88.56
334.999	85.56
335.227	86.56
335.455	83.56
335.684	95.56
335.912	92.56
336.14	73.56
336.369	86.56
336.597	93.56
336.825	81.56
337.053	80.56
337.281	89.56
337.51	74.56
337.738	96.56
337.966	85.56
338.194	92.56
338.422	88.56
338.65	86.56
338.878	65.56
339.106	76.56
339.334	95.56
339.562	86.56
339.79	79.56
340.018	85.56
340.246	90.56
340.474	77.56
340.702	73.56
340.93	85.56
341.158	87.56
341.386	81.56
341.614	91.56
341.842	79.56
342.07	67.56
342.298	89.56
342.526	87.56
342.754	94.56
342.981	78.56
343.209	96.56
343.437	104.56
343.665	79.56
343.893	86.56
344.12	81.56
344.348	72.56
344.576	86.56
344.804	79.56
345.031	95.56
345.259	86.56
345.487	89.56
345.714	78.56
345.942	78.56
346.17	84.56
346.397	100.56
346.625	96.56
346.853	79.56
347.08	67.56
347.308	85.56
347.535	88.56
347.763	92.56
347.99	78.56
348.218	84.56
348.445	80.56
348.673	81.56
348.9	80.56
349.128	77.56
349.355	88.56
349.583	74.56
349.81	83.56
350.037	83.56
350.265	76.56
350.492	87.56
350.72	79.56
350.947	73.56
351.174	79.56
351.402	83.56
351.629	78.56
351.856	81.56
352.083	84.56
352.311	73.56
352.538	85.56
352.765	90.56
352.992	84.56
353.22	93.56
353.447	84.56
353.674	82.56
353.901	85.56
354.128	91.56
354.355	72.56
354.583	79.56
354.81	91.56
355.037	79.56
355.264	92.56
355.491	85.56
355.718	80.56
355.945	82.56
356.172	87.56
356.399	77.56
356.626	79.56
356.853	77.56
357.08	85.56
357.307	86.56
357.534	87.56
357.761	86.56
357.988	80.56
358.215	89.56
358.441	97.56
358.668	83.56
358.895	87.56
359.122	95.56
359.349	92.56
359.576	80.56
359.802	89.56
360.029	84.56
360.256	89.56
360.483	69.56
360.709	73.56
360.936	86.56
361.163	88.56
361.39	85.56
361.616	88.56
361.843	75.56
362.07	77.56
362.296	95.56
362.523	88.56
362.749	94.56
362.976	88.56
363.203	84.56
363.429	73.56
363.656	89.56
363.882	72.56
364.109	73.56
364.335	86.56
364.562	81.56
364.788	85.56
365.015	81.56
365.241	89.56
365.468	88.56
365.694	94.56
365.92	81.56
366.147	69.56
366.373	73.56
366.599	84.56
366.826	86.56
367.052	89.56
367.278	90.56
367.505	81.56
367.731	90.56
367.957	73.56
368.184	85.56
368.41	82.56
368.636	89.56
368.862	77.56
369.089	78.56
369.315	88.56
369.541	81.56
369.767	94.56
369.993	88.56
370.219	84.56
370.445	88.56
370.672	85.56
370.898	99.56
371.124	79.56
371.35	87.56
371.576	70.56
371.802	97.56
372.028	77.56
372.254	76.56
372.48	98.56
372.706	75.56
372.932	83.56
373.158	77.56
373.384	86.56
373.61	80.56
373.835	85.56
374.061	91.56
374.287	84.56
374.513	87.56
374.739	104.56
374.965	86.56
375.191	78.56
375.416	79.56
375.642	85.56
375.868	94.56
376.094	78.56
376.319	81.56
376.545	84.56
376.771	79.56
376.997	89.56
377.222	88.56
377.448	77.56
377.674	93.56
377.899	84.56
378.125	74.56
378.35	81.56
378.576	94.56
378.802	85.56
379.027	73.56
379.253	81.56
379.478	80.56
379.704	94.56
379.929	81.56
380.155	100.56
380.38	83.56
380.606	76.56
380.831	71.56
381.057	87.56
381.282	69.56
381.507	86.56
381.733	79.56
381.958	71.56
382.184	71.56
382.409	92.56
382.634	91.56
382.86	86.56
383.085	86.56
383.31	74.56
383.535	68.56
383.761	81.56
383.986	89.56
384.211	83.56
384.436	79.56
384.662	88.56
384.887	79.56
385.112	79.56
385.337	84.56
385.562	96.56
385.787	88.56
386.013	89.56
386.238	85.56
386.463	85.56
386.688	83.56
386.913	80.56
387.138	83.56
387.363	77.56
387.588	86.56
387.813	89.56
388.038	83.56
388.263	82.56
388.488	61.56
388.713	57.56
388.938	86.56
389.163	71.56
389.387	85.56
389.612	71.56
389.837	66.56
390.062	88.56
390.287	91.56
390.512	86.56
390.736	88.56
390.961	91.56
391.186	66.56
391.411	88.56
391.636	72.56
391.86	79.56
392.085	94.56
392.31	86.56
392.534	88.56
392.759	92.56
392.984	85.56
393.208	93.56
393.433	82.56
393.658	74.56
393.882	91.56
394.107	86.56
394.331	107.56
394.556	87.56
394.78	98.56
395.005	81.56
395.229	79.56
395.454	100.56
395.678	88.56
395.903	94.56
396.127	88.56
396.352	91.56
396.576	72.56
396.801	87.56
397.025	69.56
397.249	75.56
397.474	98.56
397.698	86.56
397.922	90.56
398.147	70.56
398.371	90.56
398.595	87.56
398.82	93.56
399.044	102.56
399.268	77.56
399.492	79.56
399.717	78.56
399.941	81.56
400.165	88.56
400.389	78.56
400.613	76.56
400.837	89.56
401.062	77.56
401.286	70.56
401.51	72.56
401.734	91.56
401.958	78.56
402.182	91.56
402.406	87.56
402.63	72.56
402.854	85.56
403.078	89.56
403.302	77.56
403.526	81.56
403.75	85.56
403.974	80.56
404.198	93.56
404.422	81.56
404.645	79.56
404.869	79.56
405.093	70.56
405.317	82.56
405.541	93.56
405.765	97.56
405.988	81.56
406.212	91.56
406.436	79.56
406.66	84.56
406.883	77.56
407.107	84.56
407.331	88.56
407.555	109.56
407.778	65.56
408.002	87.56
408.226	93.56
408.449	84.56
408.673	95.56
408.896	86.56
409.12	76.56
409.344	87.56
409.567	77.56
409.791	77.56
410.014	83.56
410.238	79.56
410.461	82.56
410.685	79.56
410.908	85.56
411.132	80.56
411.355	78.56
411.578	89.56
411.802	96.56
412.025	67.56
412.249	67.56
412.472	83.56
412.695	87.56
412.919	80.56
413.142	72.56
413.365	83.56
413.589	65.56
413.812	77.56
414.035	83.56
414.258	88.56
414.482	76.56
414.705	81.56
414.928	78.56
415.151	73.56
415.374	94.56
415.597	77.56
415.821	84.56
416.044	81.56
416.267	73.56
416.49	79.56
416.713	71.56
416.936	71.56
417.159	67.56
417.382	87.56
417.605	89.56
417.828	93.56
418.051	82.56
418.274	79.56
418.497	80.56
418.72	81.56
418.943	88.56
419.166	80.56
419.389	85.56
419.611	76.56
419.834	84.56
420.057	80.56
420.28	90.56
420.503	82.56
420.726	82.56
420.948	85.56
421.171	76.56
421.394	83.56
421.617	81.56
421.839	80.56
422.062	85.56
422.285	98.56
422.507	77.56
422.73	69.56
422.953	75.56
423.175	91.56
423.398	82.56
423.621	74.56
423.843	80.56
424.066	91.56
424.288	79.56
424.511	94.56
424.733	88.56
424.956	69.56
425.178	76.56
425.401	73.56
425.623	81.56
425.846	76.56
426.068	87.56
426.291	85.56
426.513	78.56
426.735	65.56
426.958	87.56
427.18	85.56
427.402	91.56
427.625	83.56
427.847	76.56
428.069	98.56
428.292	98.56
428.514	92.56
428.736	83.56
428.958	87.56
429.181	68.56
429.403	73.56
429.625	82.56
429.847	81.56
430.069	93.56
430.292	79.56
430.514	78.56
430.736	78.56
430.958	70.56
431.18	78.56
431.402	85.56
431.624	89.56
431.846	77.56
432.068	71.56
432.29	87.56
432.512	84.56
432.734	89.56
432.956	82.56
433.178	68.56
433.4	86.56
433.622	80.56
433.844	73.56
434.066	84.56
434.287	71.56
434.509	86.56
434.731	78.56
434.953	82.56
435.175	91.56
435.397	92.56
435.618	80.56
435.84	84.56
436.062	71.56
436.284	91.56
436.505	89.56
436.727	78.56
436.949	83.56
437.17	84.56
437.392	72.56
437.614	79.56
437.835	83.56
438.057	88.56
438.278	75.56
438.5	80.56
438.721	69.56
438.943	85.56
439.165	88.56
439.386	80.56
439.608	92.56
439.829	92.56
440.05	104.56
440.272	92.56
440.493	82.56
440.715	66.56
440.936	79.56
441.158	76.56
441.379	74.56
441.6	92.56
441.822	88.56
442.043	76.56
442.264	59.56
442.486	79.56
442.707	86.56
442.928	88.56
443.149	76.56
443.371	79.56
443.592	74.56
443.813	78.56
444.034	64.56
444.255	80.56
444.476	75.56
444.698	82.56
444.919	87.56
445.14	163.56
445.361	131.56
445.582	85.56
445.803	83.56
446.024	73.56
446.245	74.56
446.466	86.56
446.687	84.56
446.908	78.56
447.129	83.56
447.35	81.56
447.571	77.56
447.792	80.56
448.013	72.56
448.234	80.56
448.455	72.56
448.675	81.56
448.896	92.56
449.117	73.56
449.338	89.56
449.559	86.56
449.779	79.56
450	95.56
450.221	77.56
450.442	81.56
450.662	73.56
450.883	96.56
451.104	95.56
451.324	88.56
451.545	85.56
451.766	80.56
451.986	92.56
452.207	80.56
452.428	85.56
452.648	77.56
452.869	86.56
453.089	60.56
453.31	82.56
453.53	83.56
453.751	95.56
453.971	85.56
454.192	76.56
454.412	75.56
454.633	81.56
454.853	76.56
455.073	77.56
455.294	83.56
455.514	87.56
455.734	66.56
455.955	96.56
456.175	71.56
456.395	88.56
456.616	85.56
456.836	99.56
457.056	76.56
457.276	73.56
457.497	83.56
457.717	81.56
457.937	92.56
458.157	92.56
458.377	69.56
458.598	91.56
458.818	72.56
459.038	79.56
459.258	86.56
459.478	88.56
459.698	80.56
459.918	81.56
460.138	83.56
460.358	84.56
460.578	88.56
460.798	88.56
461.018	81.56
461.238	69.56
461.458	81.56
461.678	82.56
461.898	75.56
462.118	77.56
462.338	73.56
462.558	80.56
462.777	76.56
462.997	83.56
463.217	83.56
463.437	91.56
463.657	88.56
463.876	82.56
464.096	70.56
464.316	78.56
464.536	73.56
464.755	91.56
464.975	81.56
465.195	76.56
465.414	77.56
465.634	81.56
465.854	79.56
466.073	77.56
466.293	86.56
466.512	89.56
466.732	88.56
466.951	68.56
467.171	83.56
467.391	86.56
467.61	73.56
467.829	77.56
468.049	90.56
468.268	89.56
468.488	85.56
468.707	96.56
468.927	67.56
469.146	79.56
469.365	73.56
469.585	79.56
469.804	86.56
470.023	90.56
470.243	88.56
470.462	82.56
470.681	77.56
470.901	68.56
471.12	83.56
471.339	93.56
471.558	85.56
471.777	78.56
471.997	83.56
472.216	86.56
472.435	95.56
472.654	92.56
472.873	69.56
473.092	96.56
473.311	95.56
473.53	73.56
473.749	84.56
473.968	77.56
474.187	89.56
474.406	86.56
474.625	77.56
474.844	72.56
475.063	71.56
475.282	75.56
475.501	92.56
475.72	84.56
475.939	100.56
476.158	79.56
476.377	75.56
476.596	72.56
476.814	75.56
477.033	77.56
477.252	71.56
477.471	83.56
477.69	71.56
477.908	68.56
478.127	83.56
478.346	86.56
478.564	86.56
478.783	82.56
479.002	85.56
479.22	66.56
479.439	87.56
479.658	86.56
479.876	82.56
480.095	88.56
480.313	97.56
480.532	98.56
480.751	79.56
480.969	87.56
481.188	77.56
481.406	77.56
481.624	73.56
481.843	82.56
482.061	89.56
482.28	83.56
482.498	79.56
482.717	88.56
482.935	98.56
483.153	89.56
483.372	76.56
483.59	87.56
483.808	79.56
484.027	77.56
484.245	71.56
484.463	89.56
484.681	99.56
484.9	84.56
485.118	88.56
485.336	80.56
485.554	83.56
485.772	89.56
485.99	86.56
486.209	75.56
486.427	78.56
486.645	69.56
486.863	96.56
487.081	92.56
487.299	63.56
487.517	83.56
487.735	84.56
487.953	84.56
488.171	84.56
488.389	88.56
488.607	68.56
488.825	74.56
489.043	91.56
489.261	84.56
489.479	74.56
489.696	75.56
489.914	83.56
490.132	87.56
490.35	87.56
490.568	90.56
490.786	79.56
491.003	89.56
491.221	84.56
491.439	89.56
491.657	96.56
491.874	80.56
492.092	85.56
492.31	84.56
492.527	66.56
492.745	84.56
492.963	89.56
493.18	87.56
493.398	90.56
493.615	91.56
493.833	86.56
494.05	85.56
494.268	85.56
494.485	91.56
494.703	81.56
494.92	82.56
495.138	76.56
495.355	86.56
495.573	72.56
495.79	78.56
496.008	94.56
496.225	87.56
496.442	75.56
496.66	81.56
496.877	83.56
497.094	73.56
497.312	94.56
497.529	89.56
497.746	72.56
497.963	76.56
498.181	80.56
498.398	86.56
498.615	95.56
498.832	88.56
499.049	79.56
499.267	80.56
499.484	90.56
499.701	87.56
499.918	80.56
500.135	104.56
500.352	80.56
500.569	97.56
500.786	98.56
501.003	81.56
501.22	93.56
501.437	79.56
501.654	85.56
501.871	83.56
502.088	81.56
502.305	89.56
502.522	91.56
502.739	85.56
502.956	79.56
503.172	89.56
503.389	88.56
503.606	72.56
503.823	84.56
504.04	99.56
504.256	79.56
504.473	90.56
504.69	90.56
504.907	86.56
505.123	97.56
505.34	85.56
505.557	88.56
505.773	100.56
505.99	71.56
506.207	83.56
506.423	82.56
506.64	96.56
506.856	72.56
507.073	91.56
507.289	96.56
507.506	87.56
507.722	85.56
507.939	96.56
508.155	71.56
508.372	85.56
508.588	77.56
508.805	83.56
509.021	81.56
509.238	86.56
509.454	77.56
509.67	84.56
509.887	83.56
510.103	85.56
510.319	89.56
510.536	94.56
510.752	83.56
510.968	80.56
511.184	71.56
511.401	88.56
511.617	75.56
511.833	91.56
512.049	90.56
512.265	80.56
512.481	81.56
512.698	90.56
512.914	95.56
513.13	93.56
513.346	79.56
513.562	83.56
513.778	80.56
513.994	79.56
514.21	83.56
514.426	102.56
514.642	86.56
514.858	92.56
515.074	95.56
515.29	95.56
515.506	86.56
515.721	97.56
515.937	87.56
516.153	83.56
516.369	81.56
516.585	68.56
516.801	83.56
517.016	78.56
517.232	60.56
517.448	87.56
517.664	91.56
517.879	81.56
518.095	81.56
518.311	73.56
518.527	79.56
518.742	81.56
518.958	84.56
519.173	88.56
519.389	79.56
519.605	82.56
519.82	93.56
