Data from Background_3_HRD10591_00027.txt Node
Date: Wed Nov 05 14:49:33 EST 2025
User: Yrep
Spectrometer: HR+D1059
Trigger mode: 1
Integration Time (sec): 1.000000E-1
Scans to average: 1
Electric dark correction enabled: true
Nonlinearity correction enabled: false
Boxcar width: 0
XAxis mode: Wavelengths
Number of Pixels in Spectrum: 2048
>>>>>Begin Spectral Data<<<<<
223.165	-10.69
223.4	-10.69
223.635	-10.69
223.869	-20.69
224.104	-18.69
224.338	-9.69
224.573	-11.69
224.808	-18.69
225.042	-9.69
225.277	-7.69
225.511	-6.69
225.746	17.31
225.98	1.31
226.215	19.31
226.449	10.31
226.683	15.31
226.918	31.31
227.152	19.31
227.387	29.31
227.621	31.31
227.856	42.31
228.09	50.31
228.324	66.31
228.559	57.31
228.793	51.31
229.027	64.31
229.262	54.31
229.496	66.31
229.73	76.31
229.964	79.31
230.199	76.31
230.433	63.31
230.667	89.31
230.901	75.31
231.136	71.31
231.37	62.31
231.604	84.31
231.838	85.31
232.072	91.31
232.306	72.31
232.541	84.31
232.775	85.31
233.009	70.31
233.243	86.31
233.477	78.31
233.711	68.31
233.945	78.31
234.179	78.31
234.413	69.31
234.647	75.31
234.881	81.31
235.115	88.31
235.349	73.31
235.583	63.31
235.817	77.31
236.051	75.31
236.285	83.31
236.519	94.31
236.753	69.31
236.987	81.31
237.221	71.31
237.455	75.31
237.689	85.31
237.922	77.31
238.156	81.31
238.39	55.31
238.624	84.31
238.858	81.31
239.091	74.31
239.325	66.31
239.559	63.31
239.793	66.31
240.027	83.31
240.26	81.31
240.494	83.31
240.728	89.31
240.961	75.31
241.195	76.31
241.429	67.31
241.662	83.31
241.896	77.31
242.13	76.31
242.363	72.31
242.597	80.31
242.83	70.31
243.064	76.31
243.298	73.31
243.531	88.31
243.765	76.31
243.998	63.31
244.232	85.31
244.465	70.31
244.699	79.31
244.932	85.31
245.166	77.31
245.399	72.31
245.633	72.31
245.866	82.31
246.099	70.31
246.333	71.31
246.566	76.31
246.8	81.31
247.033	95.31
247.266	82.31
247.5	81.31
247.733	87.31
247.966	94.31
248.2	74.31
248.433	65.31
248.666	77.31
248.899	75.31
249.133	77.31
249.366	87.31
249.599	78.31
249.832	86.31
250.066	83.31
250.299	67.31
250.532	77.31
250.765	83.31
250.998	79.31
251.231	69.31
251.465	74.31
251.698	82.31
251.931	84.31
252.164	82.31
252.397	57.31
252.63	78.31
252.863	85.31
253.096	98.31
253.329	91.31
253.562	68.31
253.795	73.31
254.028	77.31
254.261	90.31
254.494	83.31
254.727	93.31
254.96	85.31
255.193	77.31
255.426	87.31
255.659	89.31
255.892	82.31
256.124	71.31
256.357	83.31
256.59	73.31
256.823	81.31
257.056	73.31
257.289	86.31
257.521	82.31
257.754	78.31
257.987	72.31
258.22	86.31
258.452	72.31
258.685	81.31
258.918	73.31
259.151	81.31
259.383	78.31
259.616	77.31
259.849	79.31
260.081	97.31
260.314	76.31
260.547	87.31
260.779	80.31
261.012	81.31
261.244	71.31
261.477	95.31
261.71	78.31
261.942	90.31
262.175	73.31
262.407	75.31
262.64	82.31
262.872	78.31
263.105	92.31
263.337	80.31
263.57	83.31
263.802	71.31
264.035	82.31
264.267	88.31
264.499	84.31
264.732	93.31
264.964	64.31
265.197	89.31
265.429	84.31
265.661	85.31
265.894	80.31
266.126	86.31
266.358	81.31
266.591	82.31
266.823	77.31
267.055	76.31
267.287	103.31
267.52	86.31
267.752	63.31
267.984	87.31
268.216	82.31
268.448	88.31
268.681	92.31
268.913	94.31
269.145	85.31
269.377	87.31
269.609	75.31
269.841	76.31
270.073	77.31
270.306	78.31
270.538	81.31
270.77	77.31
271.002	80.31
271.234	81.31
271.466	97.31
271.698	91.31
271.93	78.31
272.162	85.31
272.394	93.31
272.626	78.31
272.858	83.31
273.09	86.31
273.322	77.31
273.553	84.31
273.785	78.31
274.017	94.31
274.249	72.31
274.481	98.31
274.713	79.31
274.945	94.31
275.176	75.31
275.408	81.31
275.64	75.31
275.872	86.31
276.104	88.31
276.335	85.31
276.567	96.31
276.799	81.31
277.031	65.31
277.262	85.31
277.494	66.31
277.726	80.31
277.957	91.31
278.189	90.31
278.421	95.31
278.652	71.31
278.884	91.31
279.115	99.31
279.347	76.31
279.579	78.31
279.81	79.31
280.042	86.31
280.273	89.31
280.505	82.31
280.736	85.31
280.968	102.31
281.199	86.31
281.431	80.31
281.662	77.31
281.894	96.31
282.125	76.31
282.356	75.31
282.588	98.31
282.819	75.31
283.051	87.31
283.282	99.31
283.513	87.31
283.745	89.31
283.976	70.31
284.207	83.31
284.439	79.31
284.67	92.31
284.901	89.31
285.132	74.31
285.364	85.31
285.595	88.31
285.826	93.31
286.057	82.31
286.288	77.31
286.52	73.31
286.751	86.31
286.982	90.31
287.213	81.31
287.444	86.31
287.675	80.31
287.906	85.31
288.138	92.31
288.369	86.31
288.6	71.31
288.831	95.31
289.062	86.31
289.293	78.31
289.524	82.31
289.755	79.31
289.986	87.31
290.217	86.31
290.448	91.31
290.679	90.31
290.91	74.31
291.141	80.31
291.371	81.31
291.602	90.31
291.833	93.31
292.064	84.31
292.295	94.31
292.526	70.31
292.757	71.31
292.987	95.31
293.218	87.31
293.449	93.31
293.68	96.31
293.91	82.31
294.141	83.31
294.372	93.31
294.603	92.31
294.833	77.31
295.064	82.31
295.295	88.31
295.525	86.31
295.756	78.31
295.987	70.31
296.217	80.31
296.448	79.31
296.679	91.31
296.909	83.31
297.14	100.31
297.37	89.31
297.601	86.31
297.831	91.31
298.062	92.31
298.292	75.31
298.523	80.31
298.753	93.31
298.984	75.31
299.214	83.31
299.445	88.31
299.675	81.31
299.905	91.31
300.136	87.31
300.366	86.31
300.597	85.31
300.827	81.31
301.057	78.31
301.288	83.31
301.518	80.31
301.748	103.31
301.979	95.31
302.209	64.31
302.439	76.31
302.669	87.31
302.9	89.31
303.13	84.31
303.36	95.31
303.59	85.31
303.82	74.31
304.051	86.31
304.281	93.31
304.511	91.31
304.741	87.31
304.971	86.31
305.201	92.31
305.431	84.31
305.661	69.31
305.891	85.31
306.121	99.31
306.352	80.31
306.582	84.31
306.812	83.31
307.042	74.31
307.272	74.31
307.502	85.31
307.731	80.31
307.961	80.31
308.191	83.31
308.421	98.31
308.651	87.31
308.881	92.31
309.111	99.31
309.341	83.31
309.571	84.31
309.8	87.31
310.03	90.31
310.26	85.31
310.49	67.31
310.72	64.31
310.949	84.31
311.179	102.31
311.409	93.31
311.639	81.31
311.868	85.31
312.098	90.31
312.328	101.31
312.557	67.31
312.787	85.31
313.017	88.31
313.246	78.31
313.476	84.31
313.706	98.31
313.935	91.31
314.165	95.31
314.394	96.31
314.624	103.31
314.853	85.31
315.083	78.31
315.312	88.31
315.542	85.31
315.771	98.31
316.001	94.31
316.23	102.31
316.46	83.31
316.689	74.31
316.919	89.31
317.148	105.31
317.377	80.31
317.607	76.31
317.836	87.31
318.065	71.31
318.295	92.31
318.524	91.31
318.753	83.31
318.983	99.31
319.212	69.31
319.441	85.31
319.67	85.31
319.9	82.31
320.129	84.31
320.358	85.31
320.587	94.31
320.816	81.31
321.046	83.31
321.275	85.31
321.504	83.31
321.733	78.31
321.962	94.31
322.191	77.31
322.42	86.31
322.649	91.31
322.878	89.31
323.108	88.31
323.337	87.31
323.566	98.31
323.795	103.31
324.024	74.31
324.253	85.31
324.482	81.31
324.71	69.31
324.939	95.31
325.168	85.31
325.397	79.31
325.626	83.31
325.855	84.31
326.084	79.31
326.313	70.31
326.542	93.31
326.77	88.31
326.999	70.31
327.228	77.31
327.457	84.31
327.686	78.31
327.914	89.31
328.143	93.31
328.372	80.31
328.6	89.31
328.829	71.31
329.058	87.31
329.287	93.31
329.515	88.31
329.744	89.31
329.972	97.31
330.201	83.31
330.43	94.31
330.658	90.31
330.887	76.31
331.115	100.31
331.344	71.31
331.572	95.31
331.801	84.31
332.03	93.31
332.258	85.31
332.486	87.31
332.715	93.31
332.943	80.31
333.172	86.31
333.4	86.31
333.629	93.31
333.857	94.31
334.085	74.31
334.314	85.31
334.542	80.31
334.771	93.31
334.999	78.31
335.227	82.31
335.455	94.31
335.684	77.31
335.912	85.31
336.14	77.31
336.369	70.31
336.597	89.31
336.825	86.31
337.053	80.31
337.281	79.31
337.51	91.31
337.738	84.31
337.966	80.31
338.194	92.31
338.422	78.31
338.65	83.31
338.878	99.31
339.106	82.31
339.334	86.31
339.562	78.31
339.79	91.31
340.018	91.31
340.246	85.31
340.474	78.31
340.702	94.31
340.93	92.31
341.158	89.31
341.386	99.31
341.614	81.31
341.842	82.31
342.07	79.31
342.298	79.31
342.526	90.31
342.754	74.31
342.981	84.31
343.209	81.31
343.437	92.31
343.665	85.31
343.893	90.31
344.12	87.31
344.348	101.31
344.576	76.31
344.804	90.31
345.031	82.31
345.259	82.31
345.487	79.31
345.714	89.31
345.942	85.31
346.17	82.31
346.397	82.31
346.625	79.31
346.853	93.31
347.08	74.31
347.308	91.31
347.535	95.31
347.763	66.31
347.99	67.31
348.218	91.31
348.445	78.31
348.673	85.31
348.9	77.31
349.128	77.31
349.355	84.31
349.583	90.31
349.81	85.31
350.037	84.31
350.265	83.31
350.492	89.31
350.72	78.31
350.947	91.31
351.174	88.31
351.402	84.31
351.629	93.31
351.856	59.31
352.083	76.31
352.311	76.31
352.538	82.31
352.765	92.31
352.992	91.31
353.22	84.31
353.447	87.31
353.674	95.31
353.901	96.31
354.128	77.31
354.355	78.31
354.583	87.31
354.81	79.31
355.037	81.31
355.264	78.31
355.491	93.31
355.718	99.31
355.945	72.31
356.172	86.31
356.399	73.31
356.626	88.31
356.853	85.31
357.08	89.31
357.307	85.31
357.534	83.31
357.761	98.31
357.988	80.31
358.215	78.31
358.441	74.31
358.668	81.31
358.895	97.31
359.122	74.31
359.349	82.31
359.576	92.31
359.802	88.31
360.029	74.31
360.256	77.31
360.483	85.31
360.709	87.31
360.936	83.31
361.163	99.31
361.39	80.31
361.616	90.31
361.843	69.31
362.07	86.31
362.296	97.31
362.523	80.31
362.749	88.31
362.976	86.31
363.203	94.31
363.429	86.31
363.656	70.31
363.882	90.31
364.109	87.31
364.335	89.31
364.562	82.31
364.788	99.31
365.015	91.31
365.241	99.31
365.468	92.31
365.694	70.31
365.92	83.31
366.147	85.31
366.373	86.31
366.599	86.31
366.826	65.31
367.052	83.31
367.278	102.31
367.505	91.31
367.731	89.31
367.957	68.31
368.184	73.31
368.41	86.31
368.636	87.31
368.862	74.31
369.089	93.31
369.315	80.31
369.541	87.31
369.767	77.31
369.993	91.31
370.219	70.31
370.445	81.31
370.672	63.31
370.898	71.31
371.124	90.31
371.35	69.31
371.576	89.31
371.802	77.31
372.028	78.31
372.254	69.31
372.48	83.31
372.706	81.31
372.932	81.31
373.158	90.31
373.384	84.31
373.61	81.31
373.835	86.31
374.061	83.31
374.287	74.31
374.513	89.31
374.739	94.31
374.965	87.31
375.191	99.31
375.416	100.31
375.642	86.31
375.868	84.31
376.094	80.31
376.319	79.31
376.545	84.31
376.771	83.31
376.997	99.31
377.222	85.31
377.448	83.31
377.674	88.31
377.899	91.31
378.125	97.31
378.35	79.31
378.576	92.31
378.802	77.31
379.027	86.31
379.253	92.31
379.478	81.31
379.704	89.31
379.929	70.31
380.155	76.31
380.38	79.31
380.606	81.31
380.831	70.31
381.057	83.31
381.282	81.31
381.507	82.31
381.733	72.31
381.958	87.31
382.184	70.31
382.409	85.31
382.634	79.31
382.86	88.31
383.085	81.31
383.31	93.31
383.535	81.31
383.761	71.31
383.986	85.31
384.211	71.31
384.436	78.31
384.662	79.31
384.887	80.31
385.112	73.31
385.337	85.31
385.562	90.31
385.787	90.31
386.013	98.31
386.238	92.31
386.463	85.31
386.688	107.31
386.913	84.31
387.138	79.31
387.363	88.31
387.588	85.31
387.813	86.31
388.038	90.31
388.263	89.31
388.488	90.31
388.713	85.31
388.938	77.31
389.163	82.31
389.387	84.31
389.612	71.31
389.837	68.31
390.062	78.31
390.287	90.31
390.512	71.31
390.736	83.31
390.961	77.31
391.186	75.31
391.411	77.31
391.636	89.31
391.86	89.31
392.085	90.31
392.31	74.31
392.534	69.31
392.759	90.31
392.984	71.31
393.208	86.31
393.433	81.31
393.658	83.31
393.882	85.31
394.107	90.31
394.331	81.31
394.556	90.31
394.78	80.31
395.005	83.31
395.229	74.31
395.454	90.31
395.678	81.31
395.903	74.31
396.127	89.31
396.352	92.31
396.576	85.31
396.801	77.31
397.025	85.31
397.249	74.31
397.474	88.31
397.698	92.31
397.922	80.31
398.147	91.31
398.371	84.31
398.595	94.31
398.82	86.31
399.044	87.31
399.268	99.31
399.492	71.31
399.717	87.31
399.941	85.31
400.165	84.31
400.389	85.31
400.613	82.31
400.837	72.31
401.062	83.31
401.286	77.31
401.51	89.31
401.734	79.31
401.958	84.31
402.182	84.31
402.406	81.31
402.63	81.31
402.854	81.31
403.078	85.31
403.302	79.31
403.526	82.31
403.75	73.31
403.974	96.31
404.198	87.31
404.422	89.31
404.645	81.31
404.869	77.31
405.093	88.31
405.317	86.31
405.541	78.31
405.765	87.31
405.988	83.31
406.212	99.31
406.436	90.31
406.66	79.31
406.883	87.31
407.107	81.31
407.331	77.31
407.555	86.31
407.778	64.31
408.002	85.31
408.226	93.31
408.449	70.31
408.673	75.31
408.896	93.31
409.12	75.31
409.344	93.31
409.567	96.31
409.791	77.31
410.014	81.31
410.238	91.31
410.461	100.31
410.685	85.31
410.908	89.31
411.132	75.31
411.355	71.31
411.578	81.31
411.802	78.31
412.025	86.31
412.249	85.31
412.472	92.31
412.695	79.31
412.919	78.31
413.142	74.31
413.365	77.31
413.589	75.31
413.812	87.31
414.035	80.31
414.258	95.31
414.482	73.31
414.705	69.31
414.928	85.31
415.151	82.31
415.374	70.31
415.597	89.31
415.821	83.31
416.044	88.31
416.267	86.31
416.49	78.31
416.713	67.31
416.936	69.31
417.159	82.31
417.382	75.31
417.605	84.31
417.828	73.31
418.051	66.31
418.274	89.31
418.497	72.31
418.72	81.31
418.943	88.31
419.166	88.31
419.389	78.31
419.611	79.31
419.834	78.31
420.057	83.31
420.28	95.31
420.503	71.31
420.726	80.31
420.948	84.31
421.171	84.31
421.394	74.31
421.617	65.31
421.839	69.31
422.062	90.31
422.285	72.31
422.507	94.31
422.73	81.31
422.953	72.31
423.175	75.31
423.398	93.31
423.621	81.31
423.843	75.31
424.066	81.31
424.288	79.31
424.511	87.31
424.733	72.31
424.956	91.31
425.178	77.31
425.401	81.31
425.623	82.31
425.846	89.31
426.068	87.31
426.291	88.31
426.513	79.31
426.735	85.31
426.958	85.31
427.18	85.31
427.402	83.31
427.625	73.31
427.847	76.31
428.069	88.31
428.292	90.31
428.514	67.31
428.736	90.31
428.958	94.31
429.181	71.31
429.403	95.31
429.625	78.31
429.847	69.31
430.069	86.31
430.292	77.31
430.514	80.31
430.736	71.31
430.958	80.31
431.18	75.31
431.402	71.31
431.624	81.31
431.846	79.31
432.068	74.31
432.29	91.31
432.512	69.31
432.734	77.31
432.956	78.31
433.178	80.31
433.4	84.31
433.622	90.31
433.844	79.31
434.066	72.31
434.287	78.31
434.509	83.31
434.731	65.31
434.953	81.31
435.175	74.31
435.397	77.31
435.618	72.31
435.84	79.31
436.062	85.31
436.284	89.31
436.505	80.31
436.727	78.31
436.949	73.31
437.17	66.31
437.392	69.31
437.614	89.31
437.835	79.31
438.057	77.31
438.278	82.31
438.5	79.31
438.721	87.31
438.943	85.31
439.165	71.31
439.386	84.31
439.608	83.31
439.829	84.31
440.05	81.31
440.272	86.31
440.493	68.31
440.715	74.31
440.936	71.31
441.158	79.31
441.379	82.31
441.6	75.31
441.822	94.31
442.043	83.31
442.264	69.31
442.486	73.31
442.707	65.31
442.928	78.31
443.149	85.31
443.371	85.31
443.592	84.31
443.813	90.31
444.034	84.31
444.255	86.31
444.476	72.31
444.698	81.31
444.919	69.31
445.14	149.31
445.361	118.31
445.582	84.31
445.803	83.31
446.024	85.31
446.245	89.31
446.466	93.31
446.687	80.31
446.908	80.31
447.129	87.31
447.35	80.31
447.571	77.31
447.792	85.31
448.013	65.31
448.234	87.31
448.455	76.31
448.675	67.31
448.896	76.31
449.117	66.31
449.338	91.31
449.559	88.31
449.779	87.31
450	82.31
450.221	64.31
450.442	81.31
450.662	67.31
450.883	74.31
451.104	79.31
451.324	87.31
451.545	78.31
451.766	81.31
451.986	81.31
452.207	83.31
452.428	82.31
452.648	88.31
452.869	72.31
453.089	75.31
453.31	83.31
453.53	90.31
453.751	86.31
453.971	87.31
454.192	78.31
454.412	93.31
454.633	81.31
454.853	80.31
455.073	95.31
455.294	82.31
455.514	75.31
455.734	75.31
455.955	80.31
456.175	71.31
456.395	79.31
456.616	93.31
456.836	76.31
457.056	74.31
457.276	78.31
457.497	83.31
457.717	88.31
457.937	81.31
458.157	75.31
458.377	79.31
458.598	90.31
458.818	82.31
459.038	71.31
459.258	81.31
459.478	76.31
459.698	85.31
459.918	83.31
460.138	79.31
460.358	71.31
460.578	82.31
460.798	85.31
461.018	65.31
461.238	78.31
461.458	91.31
461.678	83.31
461.898	83.31
462.118	86.31
462.338	89.31
462.558	85.31
462.777	74.31
462.997	75.31
463.217	84.31
463.437	86.31
463.657	86.31
463.876	93.31
464.096	75.31
464.316	83.31
464.536	77.31
464.755	83.31
464.975	81.31
465.195	63.31
465.414	82.31
465.634	67.31
465.854	74.31
466.073	78.31
466.293	85.31
466.512	82.31
466.732	72.31
466.951	79.31
467.171	79.31
467.391	82.31
467.61	88.31
467.829	68.31
468.049	84.31
468.268	75.31
468.488	78.31
468.707	67.31
468.927	83.31
469.146	79.31
469.365	87.31
469.585	66.31
469.804	83.31
470.023	75.31
470.243	81.31
470.462	89.31
470.681	90.31
470.901	69.31
471.12	71.31
471.339	87.31
471.558	79.31
471.777	83.31
471.997	87.31
472.216	70.31
472.435	67.31
472.654	75.31
472.873	67.31
473.092	96.31
473.311	86.31
473.53	77.31
473.749	80.31
473.968	83.31
474.187	79.31
474.406	69.31
474.625	95.31
474.844	83.31
475.063	69.31
475.282	67.31
475.501	85.31
475.72	89.31
475.939	82.31
476.158	77.31
476.377	82.31
476.596	82.31
476.814	77.31
477.033	84.31
477.252	86.31
477.471	76.31
477.69	87.31
477.908	81.31
478.127	77.31
478.346	75.31
478.564	75.31
478.783	67.31
479.002	82.31
479.22	76.31
479.439	97.31
479.658	83.31
479.876	79.31
480.095	78.31
480.313	78.31
480.532	77.31
480.751	75.31
480.969	86.31
481.188	87.31
481.406	87.31
481.624	83.31
481.843	75.31
482.061	72.31
482.28	79.31
482.498	85.31
482.717	87.31
482.935	79.31
483.153	79.31
483.372	75.31
483.59	77.31
483.808	92.31
484.027	84.31
484.245	77.31
484.463	75.31
484.681	81.31
484.9	76.31
485.118	74.31
485.336	86.31
485.554	66.31
485.772	83.31
485.99	80.31
486.209	90.31
486.427	97.31
486.645	76.31
486.863	73.31
487.081	68.31
487.299	89.31
487.517	72.31
487.735	87.31
487.953	83.31
488.171	79.31
488.389	71.31
488.607	81.31
488.825	91.31
489.043	92.31
489.261	79.31
489.479	92.31
489.696	82.31
489.914	82.31
490.132	80.31
490.35	103.31
490.568	85.31
490.786	86.31
491.003	85.31
491.221	84.31
491.439	79.31
491.657	80.31
491.874	74.31
492.092	86.31
492.31	95.31
492.527	72.31
492.745	80.31
492.963	78.31
493.18	85.31
493.398	85.31
493.615	87.31
493.833	68.31
494.05	77.31
494.268	75.31
494.485	96.31
494.703	78.31
494.92	72.31
495.138	81.31
495.355	85.31
495.573	77.31
495.79	80.31
496.008	71.31
496.225	85.31
496.442	76.31
496.66	89.31
496.877	81.31
497.094	65.31
497.312	75.31
497.529	83.31
497.746	76.31
497.963	84.31
498.181	79.31
498.398	75.31
498.615	82.31
498.832	88.31
499.049	73.31
499.267	87.31
499.484	91.31
499.701	80.31
499.918	65.31
500.135	86.31
500.352	80.31
500.569	78.31
500.786	83.31
501.003	75.31
501.22	64.31
501.437	70.31
501.654	87.31
501.871	81.31
502.088	92.31
502.305	67.31
502.522	80.31
502.739	79.31
502.956	78.31
503.172	85.31
503.389	86.31
503.606	72.31
503.823	69.31
504.04	74.31
504.256	81.31
504.473	81.31
504.69	85.31
504.907	74.31
505.123	82.31
505.34	79.31
505.557	81.31
505.773	80.31
505.99	79.31
506.207	76.31
506.423	85.31
506.64	81.31
506.856	81.31
507.073	81.31
507.289	84.31
507.506	84.31
507.722	75.31
507.939	90.31
508.155	90.31
508.372	83.31
508.588	79.31
508.805	81.31
509.021	84.31
509.238	91.31
509.454	99.31
509.67	92.31
509.887	89.31
510.103	81.31
510.319	77.31
510.536	76.31
510.752	76.31
510.968	78.31
511.184	81.31
511.401	80.31
511.617	82.31
511.833	87.31
512.049	84.31
512.265	82.31
512.481	85.31
512.698	80.31
512.914	77.31
513.13	88.31
513.346	90.31
513.562	77.31
513.778	79.31
513.994	82.31
514.21	81.31
514.426	75.31
514.642	86.31
514.858	93.31
515.074	87.31
515.29	85.31
515.506	87.31
515.721	82.31
515.937	80.31
516.153	84.31
516.369	92.31
516.585	79.31
516.801	75.31
517.016	97.31
517.232	79.31
517.448	91.31
517.664	83.31
517.879	87.31
518.095	91.31
518.311	78.31
518.527	79.31
518.742	79.31
518.958	90.31
519.173	83.31
519.389	81.31
519.605	76.31
519.82	83.31
520.036	87.31
