Data from Background_3_HRD10591_00044.txt Node
Date: Wed Nov 05 14:49:41 EST 2025
User: Yrep
Spectrometer: HR+D1059
Trigger mode: 1
Integration Time (sec): 1.000000E-1
Scans to average: 1
Electric dark correction enabled: true
Nonlinearity correction enabled: false
Boxcar width: 0
XAxis mode: Wavelengths
Number of Pixels in Spectrum: 2048
>>>>>Begin Spectral Data<<<<<
223.165	-17.69
223.4	-17.69
223.635	-17.69
223.869	-15.69
224.104	-15.69
224.338	-4.69
224.573	-25.69
224.808	-13.69
225.042	-1.69
225.277	-11.69
225.511	1.31
225.746	1.31
225.98	2.31
226.215	11.31
226.449	11.31
226.683	24.31
226.918	24.31
227.152	30.31
227.387	41.31
227.621	50.31
227.856	58.31
228.09	42.31
228.324	60.31
228.559	58.31
228.793	61.31
229.027	60.31
229.262	70.31
229.496	64.31
229.73	76.31
229.964	74.31
230.199	74.31
230.433	83.31
230.667	68.31
230.901	74.31
231.136	90.31
231.37	82.31
231.604	88.31
231.838	94.31
232.072	88.31
232.306	86.31
232.541	74.31
232.775	72.31
233.009	85.31
233.243	72.31
233.477	75.31
233.711	95.31
233.945	88.31
234.179	97.31
234.413	87.31
234.647	88.31
234.881	91.31
235.115	67.31
235.349	80.31
235.583	84.31
235.817	75.31
236.051	75.31
236.285	82.31
236.519	78.31
236.753	92.31
236.987	95.31
237.221	84.31
237.455	73.31
237.689	75.31
237.922	80.31
238.156	86.31
238.39	69.31
238.624	79.31
238.858	83.31
239.091	68.31
239.325	73.31
239.559	77.31
239.793	77.31
240.027	84.31
240.26	89.31
240.494	85.31
240.728	71.31
240.961	76.31
241.195	74.31
241.429	77.31
241.662	83.31
241.896	79.31
242.13	81.31
242.363	83.31
242.597	92.31
242.83	83.31
243.064	85.31
243.298	86.31
243.531	74.31
243.765	70.31
243.998	82.31
244.232	94.31
244.465	96.31
244.699	75.31
244.932	62.31
245.166	90.31
245.399	81.31
245.633	75.31
245.866	83.31
246.099	72.31
246.333	86.31
246.566	84.31
246.8	84.31
247.033	77.31
247.266	78.31
247.5	96.31
247.733	83.31
247.966	90.31
248.2	72.31
248.433	82.31
248.666	85.31
248.899	81.31
249.133	87.31
249.366	97.31
249.599	76.31
249.832	88.31
250.066	84.31
250.299	83.31
250.532	83.31
250.765	85.31
250.998	77.31
251.231	83.31
251.465	87.31
251.698	72.31
251.931	79.31
252.164	76.31
252.397	78.31
252.63	88.31
252.863	66.31
253.096	68.31
253.329	88.31
253.562	92.31
253.795	83.31
254.028	96.31
254.261	85.31
254.494	72.31
254.727	96.31
254.96	87.31
255.193	78.31
255.426	84.31
255.659	80.31
255.892	79.31
256.124	86.31
256.357	81.31
256.59	95.31
256.823	90.31
257.056	83.31
257.289	83.31
257.521	74.31
257.754	88.31
257.987	79.31
258.22	78.31
258.452	82.31
258.685	99.31
258.918	88.31
259.151	82.31
259.383	92.31
259.616	80.31
259.849	86.31
260.081	81.31
260.314	82.31
260.547	80.31
260.779	80.31
261.012	85.31
261.244	89.31
261.477	86.31
261.71	89.31
261.942	103.31
262.175	85.31
262.407	65.31
262.64	84.31
262.872	82.31
263.105	76.31
263.337	77.31
263.57	82.31
263.802	99.31
264.035	79.31
264.267	80.31
264.499	90.31
264.732	97.31
264.964	78.31
265.197	93.31
265.429	92.31
265.661	75.31
265.894	79.31
266.126	87.31
266.358	81.31
266.591	80.31
266.823	96.31
267.055	84.31
267.287	92.31
267.52	88.31
267.752	93.31
267.984	80.31
268.216	79.31
268.448	80.31
268.681	78.31
268.913	80.31
269.145	81.31
269.377	98.31
269.609	102.31
269.841	98.31
270.073	98.31
270.306	79.31
270.538	92.31
270.77	73.31
271.002	85.31
271.234	77.31
271.466	83.31
271.698	79.31
271.93	86.31
272.162	92.31
272.394	93.31
272.626	87.31
272.858	83.31
273.09	95.31
273.322	80.31
273.553	91.31
273.785	75.31
274.017	86.31
274.249	88.31
274.481	103.31
274.713	96.31
274.945	89.31
275.176	70.31
275.408	90.31
275.64	83.31
275.872	96.31
276.104	80.31
276.335	90.31
276.567	88.31
276.799	80.31
277.031	84.31
277.262	81.31
277.494	86.31
277.726	89.31
277.957	91.31
278.189	85.31
278.421	88.31
278.652	94.31
278.884	81.31
279.115	96.31
279.347	98.31
279.579	85.31
279.81	88.31
280.042	76.31
280.273	90.31
280.505	82.31
280.736	82.31
280.968	95.31
281.199	82.31
281.431	87.31
281.662	77.31
281.894	90.31
282.125	102.31
282.356	90.31
282.588	76.31
282.819	81.31
283.051	83.31
283.282	93.31
283.513	84.31
283.745	90.31
283.976	87.31
284.207	84.31
284.439	79.31
284.67	92.31
284.901	107.31
285.132	81.31
285.364	89.31
285.595	84.31
285.826	81.31
286.057	86.31
286.288	84.31
286.52	106.31
286.751	79.31
286.982	86.31
287.213	80.31
287.444	94.31
287.675	92.31
287.906	84.31
288.138	76.31
288.369	86.31
288.6	91.31
288.831	99.31
289.062	106.31
289.293	77.31
289.524	87.31
289.755	100.31
289.986	88.31
290.217	78.31
290.448	94.31
290.679	83.31
290.91	89.31
291.141	89.31
291.371	96.31
291.602	84.31
291.833	84.31
292.064	86.31
292.295	87.31
292.526	72.31
292.757	82.31
292.987	83.31
293.218	86.31
293.449	84.31
293.68	99.31
293.91	89.31
294.141	111.31
294.372	103.31
294.603	95.31
294.833	92.31
295.064	83.31
295.295	89.31
295.525	95.31
295.756	106.31
295.987	73.31
296.217	80.31
296.448	80.31
296.679	87.31
296.909	86.31
297.14	72.31
297.37	94.31
297.601	82.31
297.831	74.31
298.062	70.31
298.292	83.31
298.523	94.31
298.753	87.31
298.984	94.31
299.214	84.31
299.445	87.31
299.675	99.31
299.905	80.31
300.136	78.31
300.366	82.31
300.597	90.31
300.827	87.31
301.057	82.31
301.288	83.31
301.518	94.31
301.748	94.31
301.979	94.31
302.209	99.31
302.439	80.31
302.669	89.31
302.9	98.31
303.13	98.31
303.36	88.31
303.59	93.31
303.82	96.31
304.051	83.31
304.281	86.31
304.511	94.31
304.741	87.31
304.971	94.31
305.201	95.31
305.431	107.31
305.661	100.31
305.891	79.31
306.121	78.31
306.352	87.31
306.582	102.31
306.812	82.31
307.042	93.31
307.272	85.31
307.502	79.31
307.731	94.31
307.961	83.31
308.191	95.31
308.421	106.31
308.651	90.31
308.881	83.31
309.111	84.31
309.341	87.31
309.571	99.31
309.8	76.31
310.03	90.31
310.26	90.31
310.49	83.31
310.72	93.31
310.949	79.31
311.179	80.31
311.409	97.31
311.639	88.31
311.868	97.31
312.098	90.31
312.328	88.31
312.557	80.31
312.787	83.31
313.017	92.31
313.246	85.31
313.476	95.31
313.706	95.31
313.935	81.31
314.165	73.31
314.394	73.31
314.624	95.31
314.853	93.31
315.083	75.31
315.312	92.31
315.542	87.31
315.771	90.31
316.001	91.31
316.23	93.31
316.46	95.31
316.689	88.31
316.919	78.31
317.148	83.31
317.377	90.31
317.607	88.31
317.836	84.31
318.065	88.31
318.295	80.31
318.524	91.31
318.753	93.31
318.983	84.31
319.212	88.31
319.441	94.31
319.67	110.31
319.9	91.31
320.129	118.31
320.358	84.31
320.587	80.31
320.816	82.31
321.046	98.31
321.275	92.31
321.504	93.31
321.733	94.31
321.962	85.31
322.191	96.31
322.42	75.31
322.649	95.31
322.878	85.31
323.108	76.31
323.337	82.31
323.566	95.31
323.795	89.31
324.024	90.31
324.253	97.31
324.482	86.31
324.71	98.31
324.939	87.31
325.168	82.31
325.397	89.31
325.626	85.31
325.855	74.31
326.084	87.31
326.313	92.31
326.542	83.31
326.77	82.31
326.999	89.31
327.228	86.31
327.457	84.31
327.686	87.31
327.914	82.31
328.143	98.31
328.372	90.31
328.6	103.31
328.829	87.31
329.058	84.31
329.287	94.31
329.515	93.31
329.744	81.31
329.972	91.31
330.201	96.31
330.43	84.31
330.658	92.31
330.887	80.31
331.115	81.31
331.344	74.31
331.572	92.31
331.801	86.31
332.03	79.31
332.258	91.31
332.486	83.31
332.715	83.31
332.943	90.31
333.172	81.31
333.4	81.31
333.629	82.31
333.857	88.31
334.085	75.31
334.314	95.31
334.542	87.31
334.771	98.31
334.999	96.31
335.227	92.31
335.455	101.31
335.684	91.31
335.912	91.31
336.14	93.31
336.369	86.31
336.597	98.31
336.825	81.31
337.053	93.31
337.281	89.31
337.51	87.31
337.738	79.31
337.966	81.31
338.194	85.31
338.422	94.31
338.65	74.31
338.878	91.31
339.106	95.31
339.334	86.31
339.562	78.31
339.79	84.31
340.018	94.31
340.246	80.31
340.474	93.31
340.702	96.31
340.93	99.31
341.158	90.31
341.386	91.31
341.614	95.31
341.842	84.31
342.07	77.31
342.298	83.31
342.526	91.31
342.754	96.31
342.981	87.31
343.209	76.31
343.437	107.31
343.665	95.31
343.893	106.31
344.12	107.31
344.348	89.31
344.576	89.31
344.804	84.31
345.031	87.31
345.259	94.31
345.487	74.31
345.714	83.31
345.942	83.31
346.17	79.31
346.397	89.31
346.625	84.31
346.853	84.31
347.08	90.31
347.308	84.31
347.535	87.31
347.763	86.31
347.99	98.31
348.218	98.31
348.445	97.31
348.673	83.31
348.9	75.31
349.128	104.31
349.355	90.31
349.583	87.31
349.81	88.31
350.037	96.31
350.265	80.31
350.492	82.31
350.72	94.31
350.947	89.31
351.174	82.31
351.402	87.31
351.629	88.31
351.856	74.31
352.083	90.31
352.311	90.31
352.538	88.31
352.765	91.31
352.992	96.31
353.22	90.31
353.447	71.31
353.674	84.31
353.901	88.31
354.128	80.31
354.355	90.31
354.583	85.31
354.81	88.31
355.037	94.31
355.264	87.31
355.491	91.31
355.718	81.31
355.945	78.31
356.172	93.31
356.399	85.31
356.626	68.31
356.853	84.31
357.08	85.31
357.307	77.31
357.534	86.31
357.761	88.31
357.988	95.31
358.215	88.31
358.441	87.31
358.668	87.31
358.895	98.31
359.122	83.31
359.349	85.31
359.576	82.31
359.802	92.31
360.029	97.31
360.256	85.31
360.483	76.31
360.709	96.31
360.936	74.31
361.163	87.31
361.39	89.31
361.616	99.31
361.843	76.31
362.07	95.31
362.296	91.31
362.523	101.31
362.749	76.31
362.976	90.31
363.203	103.31
363.429	95.31
363.656	88.31
363.882	78.31
364.109	75.31
364.335	87.31
364.562	85.31
364.788	95.31
365.015	77.31
365.241	90.31
365.468	88.31
365.694	85.31
365.92	103.31
366.147	88.31
366.373	80.31
366.599	79.31
366.826	88.31
367.052	83.31
367.278	86.31
367.505	96.31
367.731	86.31
367.957	76.31
368.184	86.31
368.41	80.31
368.636	80.31
368.862	80.31
369.089	80.31
369.315	84.31
369.541	91.31
369.767	80.31
369.993	82.31
370.219	70.31
370.445	75.31
370.672	81.31
370.898	78.31
371.124	100.31
371.35	99.31
371.576	79.31
371.802	84.31
372.028	89.31
372.254	92.31
372.48	92.31
372.706	100.31
372.932	89.31
373.158	76.31
373.384	81.31
373.61	88.31
373.835	68.31
374.061	78.31
374.287	86.31
374.513	84.31
374.739	75.31
374.965	84.31
375.191	77.31
375.416	102.31
375.642	82.31
375.868	97.31
376.094	89.31
376.319	73.31
376.545	92.31
376.771	91.31
376.997	87.31
377.222	96.31
377.448	103.31
377.674	92.31
377.899	81.31
378.125	88.31
378.35	87.31
378.576	87.31
378.802	79.31
379.027	79.31
379.253	84.31
379.478	87.31
379.704	89.31
379.929	114.31
380.155	85.31
380.38	86.31
380.606	88.31
380.831	86.31
381.057	95.31
381.282	96.31
381.507	99.31
381.733	96.31
381.958	94.31
382.184	95.31
382.409	86.31
382.634	76.31
382.86	84.31
383.085	96.31
383.31	89.31
383.535	84.31
383.761	90.31
383.986	105.31
384.211	83.31
384.436	90.31
384.662	84.31
384.887	90.31
385.112	76.31
385.337	87.31
385.562	102.31
385.787	83.31
386.013	79.31
386.238	88.31
386.463	75.31
386.688	86.31
386.913	83.31
387.138	80.31
387.363	83.31
387.588	89.31
387.813	90.31
388.038	90.31
388.263	98.31
388.488	100.31
388.713	80.31
388.938	96.31
389.163	97.31
389.387	96.31
389.612	84.31
389.837	88.31
390.062	88.31
390.287	86.31
390.512	82.31
390.736	88.31
390.961	75.31
391.186	73.31
391.411	81.31
391.636	90.31
391.86	91.31
392.085	80.31
392.31	77.31
392.534	72.31
392.759	98.31
392.984	92.31
393.208	83.31
393.433	75.31
393.658	91.31
393.882	97.31
394.107	90.31
394.331	94.31
394.556	85.31
394.78	88.31
395.005	85.31
395.229	95.31
395.454	94.31
395.678	91.31
395.903	95.31
396.127	91.31
396.352	85.31
396.576	86.31
396.801	83.31
397.025	71.31
397.249	86.31
397.474	90.31
397.698	105.31
397.922	79.31
398.147	87.31
398.371	87.31
398.595	84.31
398.82	71.31
399.044	82.31
399.268	78.31
399.492	88.31
399.717	100.31
399.941	88.31
400.165	84.31
400.389	85.31
400.613	75.31
400.837	75.31
401.062	74.31
401.286	84.31
401.51	85.31
401.734	89.31
401.958	90.31
402.182	70.31
402.406	85.31
402.63	97.31
402.854	91.31
403.078	79.31
403.302	82.31
403.526	76.31
403.75	84.31
403.974	91.31
404.198	94.31
404.422	86.31
404.645	84.31
404.869	82.31
405.093	92.31
405.317	94.31
405.541	86.31
405.765	92.31
405.988	86.31
406.212	85.31
406.436	101.31
406.66	73.31
406.883	84.31
407.107	91.31
407.331	86.31
407.555	92.31
407.778	87.31
408.002	85.31
408.226	73.31
408.449	83.31
408.673	90.31
408.896	88.31
409.12	102.31
409.344	80.31
409.567	74.31
409.791	92.31
410.014	86.31
410.238	90.31
410.461	71.31
410.685	97.31
410.908	90.31
411.132	92.31
411.355	71.31
411.578	102.31
411.802	82.31
412.025	89.31
412.249	82.31
412.472	83.31
412.695	84.31
412.919	80.31
413.142	87.31
413.365	82.31
413.589	91.31
413.812	84.31
414.035	97.31
414.258	91.31
414.482	83.31
414.705	86.31
414.928	72.31
415.151	76.31
415.374	76.31
415.597	95.31
415.821	67.31
416.044	76.31
416.267	93.31
416.49	80.31
416.713	82.31
416.936	88.31
417.159	96.31
417.382	91.31
417.605	87.31
417.828	91.31
418.051	82.31
418.274	70.31
418.497	80.31
418.72	83.31
418.943	98.31
419.166	94.31
419.389	80.31
419.611	77.31
419.834	83.31
420.057	72.31
420.28	82.31
420.503	86.31
420.726	90.31
420.948	86.31
421.171	86.31
421.394	76.31
421.617	82.31
421.839	82.31
422.062	81.31
422.285	75.31
422.507	97.31
422.73	89.31
422.953	96.31
423.175	83.31
423.398	94.31
423.621	81.31
423.843	102.31
424.066	83.31
424.288	80.31
424.511	70.31
424.733	96.31
424.956	97.31
425.178	88.31
425.401	89.31
425.623	91.31
425.846	75.31
426.068	88.31
426.291	82.31
426.513	94.31
426.735	68.31
426.958	80.31
427.18	90.31
427.402	79.31
427.625	90.31
427.847	96.31
428.069	73.31
428.292	91.31
428.514	106.31
428.736	74.31
428.958	83.31
429.181	83.31
429.403	84.31
429.625	78.31
429.847	77.31
430.069	95.31
430.292	89.31
430.514	89.31
430.736	82.31
430.958	84.31
431.18	66.31
431.402	92.31
431.624	103.31
431.846	83.31
432.068	94.31
432.29	84.31
432.512	93.31
432.734	84.31
432.956	76.31
433.178	96.31
433.4	79.31
433.622	76.31
433.844	94.31
434.066	88.31
434.287	82.31
434.509	80.31
434.731	75.31
434.953	86.31
435.175	82.31
435.397	95.31
435.618	81.31
435.84	95.31
436.062	85.31
436.284	70.31
436.505	91.31
436.727	82.31
436.949	94.31
437.17	94.31
437.392	94.31
437.614	98.31
437.835	88.31
438.057	85.31
438.278	71.31
438.5	93.31
438.721	84.31
438.943	76.31
439.165	86.31
439.386	90.31
439.608	85.31
439.829	87.31
440.05	83.31
440.272	80.31
440.493	77.31
440.715	71.31
440.936	80.31
441.158	85.31
441.379	83.31
441.6	96.31
441.822	77.31
442.043	83.31
442.264	88.31
442.486	94.31
442.707	104.31
442.928	72.31
443.149	89.31
443.371	86.31
443.592	75.31
443.813	84.31
444.034	86.31
444.255	90.31
444.476	85.31
444.698	93.31
444.919	94.31
445.14	158.31
445.361	103.31
445.582	89.31
445.803	84.31
446.024	87.31
446.245	85.31
446.466	92.31
446.687	83.31
446.908	86.31
447.129	94.31
447.35	78.31
447.571	79.31
447.792	97.31
448.013	68.31
448.234	73.31
448.455	89.31
448.675	88.31
448.896	98.31
449.117	91.31
449.338	83.31
449.559	87.31
449.779	91.31
450	86.31
450.221	86.31
450.442	90.31
450.662	88.31
450.883	90.31
451.104	79.31
451.324	84.31
451.545	82.31
451.766	73.31
451.986	86.31
452.207	100.31
452.428	90.31
452.648	74.31
452.869	78.31
453.089	83.31
453.31	93.31
453.53	86.31
453.751	83.31
453.971	79.31
454.192	80.31
454.412	72.31
454.633	76.31
454.853	83.31
455.073	84.31
455.294	98.31
455.514	86.31
455.734	83.31
455.955	77.31
456.175	81.31
456.395	81.31
456.616	85.31
456.836	89.31
457.056	73.31
457.276	78.31
457.497	91.31
457.717	96.31
457.937	77.31
458.157	74.31
458.377	87.31
458.598	88.31
458.818	89.31
459.038	83.31
459.258	75.31
459.478	95.31
459.698	75.31
459.918	88.31
460.138	80.31
460.358	96.31
460.578	92.31
460.798	90.31
461.018	94.31
461.238	88.31
461.458	94.31
461.678	75.31
461.898	94.31
462.118	100.31
462.338	94.31
462.558	80.31
462.777	82.31
462.997	86.31
463.217	89.31
463.437	82.31
463.657	88.31
463.876	93.31
464.096	75.31
464.316	79.31
464.536	71.31
464.755	77.31
464.975	90.31
465.195	79.31
465.414	85.31
465.634	95.31
465.854	77.31
466.073	88.31
466.293	90.31
466.512	88.31
466.732	82.31
466.951	85.31
467.171	82.31
467.391	82.31
467.61	90.31
467.829	77.31
468.049	93.31
468.268	78.31
468.488	66.31
468.707	96.31
468.927	85.31
469.146	81.31
469.365	87.31
469.585	94.31
469.804	101.31
470.023	94.31
470.243	94.31
470.462	71.31
470.681	92.31
470.901	86.31
471.12	84.31
471.339	78.31
471.558	88.31
471.777	81.31
471.997	87.31
472.216	85.31
472.435	86.31
472.654	80.31
472.873	85.31
473.092	85.31
473.311	96.31
473.53	92.31
473.749	82.31
473.968	89.31
474.187	79.31
474.406	70.31
474.625	86.31
474.844	88.31
475.063	91.31
475.282	92.31
475.501	80.31
475.72	73.31
475.939	100.31
476.158	82.31
476.377	85.31
476.596	97.31
476.814	94.31
477.033	82.31
477.252	87.31
477.471	99.31
477.69	83.31
477.908	90.31
478.127	103.31
478.346	94.31
478.564	78.31
478.783	77.31
479.002	91.31
479.22	102.31
479.439	89.31
479.658	73.31
479.876	93.31
480.095	83.31
480.313	79.31
480.532	98.31
480.751	91.31
480.969	86.31
481.188	80.31
481.406	100.31
481.624	92.31
481.843	86.31
482.061	82.31
482.28	66.31
482.498	90.31
482.717	79.31
482.935	75.31
483.153	100.31
483.372	87.31
483.59	90.31
483.808	91.31
484.027	91.31
484.245	81.31
484.463	97.31
484.681	92.31
484.9	73.31
485.118	82.31
485.336	82.31
485.554	103.31
485.772	84.31
485.99	86.31
486.209	87.31
486.427	85.31
486.645	80.31
486.863	78.31
487.081	81.31
487.299	98.31
487.517	85.31
487.735	86.31
487.953	90.31
488.171	87.31
488.389	94.31
488.607	96.31
488.825	94.31
489.043	92.31
489.261	96.31
489.479	106.31
489.696	88.31
489.914	74.31
490.132	75.31
490.35	81.31
490.568	92.31
490.786	80.31
491.003	79.31
491.221	84.31
491.439	85.31
491.657	74.31
491.874	83.31
492.092	88.31
492.31	88.31
492.527	82.31
492.745	77.31
492.963	89.31
493.18	92.31
493.398	73.31
493.615	84.31
493.833	78.31
494.05	90.31
494.268	75.31
494.485	90.31
494.703	87.31
494.92	97.31
495.138	98.31
495.355	92.31
495.573	87.31
495.79	94.31
496.008	92.31
496.225	94.31
496.442	87.31
496.66	94.31
496.877	82.31
497.094	100.31
497.312	89.31
497.529	91.31
497.746	86.31
497.963	84.31
498.181	80.31
498.398	82.31
498.615	77.31
498.832	84.31
499.049	88.31
499.267	94.31
499.484	93.31
499.701	90.31
499.918	97.31
500.135	92.31
500.352	83.31
500.569	82.31
500.786	96.31
501.003	85.31
501.22	88.31
501.437	88.31
501.654	101.31
501.871	77.31
502.088	82.31
502.305	84.31
502.522	84.31
502.739	98.31
502.956	82.31
503.172	79.31
503.389	88.31
503.606	87.31
503.823	92.31
504.04	86.31
504.256	91.31
504.473	92.31
504.69	93.31
504.907	94.31
505.123	90.31
505.34	81.31
505.557	94.31
505.773	77.31
505.99	90.31
506.207	82.31
506.423	87.31
506.64	76.31
506.856	73.31
507.073	71.31
507.289	74.31
507.506	83.31
507.722	96.31
507.939	92.31
508.155	89.31
508.372	74.31
508.588	105.31
508.805	94.31
509.021	90.31
509.238	98.31
509.454	87.31
509.67	86.31
509.887	102.31
510.103	86.31
510.319	85.31
510.536	86.31
510.752	84.31
510.968	75.31
511.184	86.31
511.401	77.31
511.617	82.31
511.833	91.31
512.049	88.31
512.265	79.31
512.481	92.31
512.698	90.31
512.914	81.31
513.13	96.31
513.346	71.31
513.562	78.31
513.778	83.31
513.994	82.31
514.21	89.31
514.426	82.31
514.642	86.31
514.858	90.31
515.074	98.31
515.29	97.31
515.506	74.31
515.721	78.31
515.937	83.31
516.153	80.31
516.369	91.31
516.585	80.31
516.801	75.31
517.016	92.31
517.232	84.31
517.448	79.31
517.664	92.31
517.879	89.31
518.095	95.31
518.311	94.31
518.527	80.31
518.742	88.31
518.958	86.31
519.173	98.31
519.389	90.31
