Data from Background_3_HRD10591_00072.txt Node
Date: Wed Nov 05 14:49:55 EST 2025
User: Yrep
Spectrometer: HR+D1059
Trigger mode: 1
Integration Time (sec): 1.000000E-1
Scans to average: 1
Electric dark correction enabled: true
Nonlinearity correction enabled: false
Boxcar width: 0
XAxis mode: Wavelengths
Number of Pixels in Spectrum: 2048
>>>>>Begin Spectral Data<<<<<
223.165	-0.69
223.4	-0.69
223.635	-0.69
223.869	-14.69
224.104	-19.69
224.338	-14.69
224.573	-11.69
224.808	-6.69
225.042	-12.69
225.277	0.31
225.511	-9.69
225.746	3.31
225.98	12.31
226.215	15.31
226.449	4.31
226.683	8.31
226.918	18.31
227.152	28.31
227.387	44.31
227.621	47.31
227.856	50.31
228.09	31.31
228.324	47.31
228.559	43.31
228.793	60.31
229.027	71.31
229.262	62.31
229.496	51.31
229.73	69.31
229.964	68.31
230.199	68.31
230.433	82.31
230.667	75.31
230.901	64.31
231.136	67.31
231.37	94.31
231.604	75.31
231.838	75.31
232.072	96.31
232.306	85.31
232.541	83.31
232.775	71.31
233.009	70.31
233.243	80.31
233.477	80.31
233.711	83.31
233.945	91.31
234.179	76.31
234.413	75.31
234.647	75.31
234.881	65.31
235.115	81.31
235.349	82.31
235.583	79.31
235.817	80.31
236.051	84.31
236.285	70.31
236.519	73.31
236.753	72.31
236.987	66.31
237.221	82.31
237.455	76.31
237.689	78.31
237.922	79.31
238.156	83.31
238.39	70.31
238.624	73.31
238.858	65.31
239.091	91.31
239.325	75.31
239.559	66.31
239.793	64.31
240.027	63.31
240.26	77.31
240.494	76.31
240.728	69.31
240.961	79.31
241.195	73.31
241.429	82.31
241.662	71.31
241.896	76.31
242.13	81.31
242.363	69.31
242.597	65.31
242.83	75.31
243.064	65.31
243.298	81.31
243.531	66.31
243.765	89.31
243.998	90.31
244.232	83.31
244.465	83.31
244.699	86.31
244.932	65.31
245.166	74.31
245.399	71.31
245.633	72.31
245.866	76.31
246.099	74.31
246.333	98.31
246.566	92.31
246.8	69.31
247.033	69.31
247.266	81.31
247.5	65.31
247.733	63.31
247.966	73.31
248.2	73.31
248.433	65.31
248.666	66.31
248.899	90.31
249.133	77.31
249.366	81.31
249.599	59.31
249.832	68.31
250.066	80.31
250.299	77.31
250.532	87.31
250.765	76.31
250.998	81.31
251.231	89.31
251.465	72.31
251.698	59.31
251.931	73.31
252.164	79.31
252.397	71.31
252.63	79.31
252.863	75.31
253.096	73.31
253.329	84.31
253.562	79.31
253.795	60.31
254.028	75.31
254.261	84.31
254.494	65.31
254.727	80.31
254.96	83.31
255.193	80.31
255.426	77.31
255.659	73.31
255.892	80.31
256.124	90.31
256.357	83.31
256.59	79.31
256.823	74.31
257.056	77.31
257.289	69.31
257.521	82.31
257.754	69.31
257.987	64.31
258.22	78.31
258.452	89.31
258.685	69.31
258.918	62.31
259.151	73.31
259.383	65.31
259.616	73.31
259.849	76.31
260.081	83.31
260.314	77.31
260.547	67.31
260.779	76.31
261.012	79.31
261.244	93.31
261.477	84.31
261.71	89.31
261.942	75.31
262.175	79.31
262.407	67.31
262.64	69.31
262.872	83.31
263.105	95.31
263.337	90.31
263.57	73.31
263.802	67.31
264.035	75.31
264.267	88.31
264.499	76.31
264.732	88.31
264.964	96.31
265.197	91.31
265.429	87.31
265.661	79.31
265.894	69.31
266.126	84.31
266.358	63.31
266.591	68.31
266.823	72.31
267.055	89.31
267.287	94.31
267.52	85.31
267.752	87.31
267.984	77.31
268.216	87.31
268.448	91.31
268.681	84.31
268.913	83.31
269.145	78.31
269.377	84.31
269.609	76.31
269.841	94.31
270.073	76.31
270.306	73.31
270.538	68.31
270.77	81.31
271.002	64.31
271.234	85.31
271.466	72.31
271.698	87.31
271.93	81.31
272.162	83.31
272.394	87.31
272.626	81.31
272.858	93.31
273.09	79.31
273.322	69.31
273.553	83.31
273.785	79.31
274.017	89.31
274.249	78.31
274.481	77.31
274.713	71.31
274.945	79.31
275.176	86.31
275.408	73.31
275.64	77.31
275.872	79.31
276.104	66.31
276.335	80.31
276.567	80.31
276.799	100.31
277.031	75.31
277.262	83.31
277.494	88.31
277.726	78.31
277.957	58.31
278.189	76.31
278.421	81.31
278.652	76.31
278.884	75.31
279.115	89.31
279.347	85.31
279.579	71.31
279.81	81.31
280.042	82.31
280.273	84.31
280.505	69.31
280.736	88.31
280.968	90.31
281.199	82.31
281.431	88.31
281.662	81.31
281.894	84.31
282.125	88.31
282.356	77.31
282.588	89.31
282.819	80.31
283.051	73.31
283.282	90.31
283.513	85.31
283.745	91.31
283.976	90.31
284.207	75.31
284.439	85.31
284.67	79.31
284.901	76.31
285.132	78.31
285.364	87.31
285.595	85.31
285.826	75.31
286.057	85.31
286.288	77.31
286.52	94.31
286.751	97.31
286.982	86.31
287.213	61.31
287.444	80.31
287.675	87.31
287.906	76.31
288.138	79.31
288.369	82.31
288.6	72.31
288.831	84.31
289.062	78.31
289.293	81.31
289.524	68.31
289.755	92.31
289.986	77.31
290.217	93.31
290.448	99.31
290.679	84.31
290.91	88.31
291.141	89.31
291.371	79.31
291.602	77.31
291.833	88.31
292.064	90.31
292.295	89.31
292.526	79.31
292.757	77.31
292.987	92.31
293.218	97.31
293.449	79.31
293.68	85.31
293.91	88.31
294.141	78.31
294.372	85.31
294.603	95.31
294.833	69.31
295.064	87.31
295.295	79.31
295.525	64.31
295.756	78.31
295.987	83.31
296.217	79.31
296.448	93.31
296.679	88.31
296.909	83.31
297.14	79.31
297.37	93.31
297.601	70.31
297.831	77.31
298.062	87.31
298.292	83.31
298.523	87.31
298.753	85.31
298.984	83.31
299.214	90.31
299.445	81.31
299.675	81.31
299.905	77.31
300.136	77.31
300.366	75.31
300.597	91.31
300.827	87.31
301.057	85.31
301.288	80.31
301.518	81.31
301.748	75.31
301.979	102.31
302.209	86.31
302.439	90.31
302.669	84.31
302.9	85.31
303.13	81.31
303.36	77.31
303.59	62.31
303.82	87.31
304.051	87.31
304.281	93.31
304.511	87.31
304.741	98.31
304.971	92.31
305.201	75.31
305.431	92.31
305.661	78.31
305.891	83.31
306.121	76.31
306.352	88.31
306.582	83.31
306.812	87.31
307.042	74.31
307.272	87.31
307.502	75.31
307.731	96.31
307.961	76.31
308.191	83.31
308.421	99.31
308.651	86.31
308.881	81.31
309.111	76.31
309.341	79.31
309.571	83.31
309.8	86.31
310.03	95.31
310.26	91.31
310.49	80.31
310.72	87.31
310.949	76.31
311.179	97.31
311.409	76.31
311.639	85.31
311.868	79.31
312.098	91.31
312.328	75.31
312.557	80.31
312.787	79.31
313.017	91.31
313.246	97.31
313.476	78.31
313.706	77.31
313.935	77.31
314.165	76.31
314.394	100.31
314.624	87.31
314.853	87.31
315.083	85.31
315.312	81.31
315.542	73.31
315.771	67.31
316.001	77.31
316.23	82.31
316.46	80.31
316.689	67.31
316.919	89.31
317.148	92.31
317.377	100.31
317.607	92.31
317.836	87.31
318.065	98.31
318.295	78.31
318.524	87.31
318.753	93.31
318.983	68.31
319.212	83.31
319.441	77.31
319.67	82.31
319.9	85.31
320.129	80.31
320.358	85.31
320.587	65.31
320.816	68.31
321.046	70.31
321.275	83.31
321.504	87.31
321.733	77.31
321.962	83.31
322.191	77.31
322.42	90.31
322.649	86.31
322.878	81.31
323.108	83.31
323.337	81.31
323.566	87.31
323.795	84.31
324.024	83.31
324.253	80.31
324.482	67.31
324.71	93.31
324.939	81.31
325.168	81.31
325.397	83.31
325.626	79.31
325.855	87.31
326.084	92.31
326.313	82.31
326.542	77.31
326.77	74.31
326.999	77.31
327.228	70.31
327.457	77.31
327.686	96.31
327.914	89.31
328.143	87.31
328.372	82.31
328.6	81.31
328.829	66.31
329.058	91.31
329.287	88.31
329.515	74.31
329.744	86.31
329.972	79.31
330.201	73.31
330.43	85.31
330.658	80.31
330.887	73.31
331.115	83.31
331.344	80.31
331.572	87.31
331.801	85.31
332.03	90.31
332.258	91.31
332.486	76.31
332.715	73.31
332.943	75.31
333.172	87.31
333.4	79.31
333.629	91.31
333.857	76.31
334.085	74.31
334.314	74.31
334.542	94.31
334.771	91.31
334.999	92.31
335.227	93.31
335.455	91.31
335.684	93.31
335.912	87.31
336.14	88.31
336.369	78.31
336.597	79.31
336.825	87.31
337.053	94.31
337.281	86.31
337.51	73.31
337.738	85.31
337.966	78.31
338.194	86.31
338.422	77.31
338.65	83.31
338.878	87.31
339.106	84.31
339.334	78.31
339.562	76.31
339.79	89.31
340.018	84.31
340.246	90.31
340.474	81.31
340.702	73.31
340.93	77.31
341.158	84.31
341.386	85.31
341.614	85.31
341.842	71.31
342.07	89.31
342.298	82.31
342.526	77.31
342.754	78.31
342.981	87.31
343.209	79.31
343.437	92.31
343.665	78.31
343.893	85.31
344.12	87.31
344.348	81.31
344.576	80.31
344.804	75.31
345.031	87.31
345.259	77.31
345.487	83.31
345.714	87.31
345.942	80.31
346.17	83.31
346.397	87.31
346.625	76.31
346.853	86.31
347.08	64.31
347.308	89.31
347.535	82.31
347.763	67.31
347.99	86.31
348.218	101.31
348.445	73.31
348.673	91.31
348.9	91.31
349.128	82.31
349.355	69.31
349.583	71.31
349.81	73.31
350.037	77.31
350.265	69.31
350.492	73.31
350.72	88.31
350.947	80.31
351.174	75.31
351.402	85.31
351.629	77.31
351.856	80.31
352.083	85.31
352.311	93.31
352.538	93.31
352.765	90.31
352.992	94.31
353.22	66.31
353.447	81.31
353.674	77.31
353.901	83.31
354.128	87.31
354.355	75.31
354.583	65.31
354.81	80.31
355.037	75.31
355.264	94.31
355.491	92.31
355.718	80.31
355.945	84.31
356.172	77.31
356.399	98.31
356.626	84.31
356.853	89.31
357.08	89.31
357.307	96.31
357.534	85.31
357.761	88.31
357.988	73.31
358.215	74.31
358.441	72.31
358.668	79.31
358.895	76.31
359.122	81.31
359.349	66.31
359.576	72.31
359.802	73.31
360.029	68.31
360.256	91.31
360.483	91.31
360.709	85.31
360.936	107.31
361.163	75.31
361.39	81.31
361.616	81.31
361.843	89.31
362.07	84.31
362.296	79.31
362.523	78.31
362.749	77.31
362.976	77.31
363.203	85.31
363.429	86.31
363.656	82.31
363.882	83.31
364.109	69.31
364.335	87.31
364.562	79.31
364.788	78.31
365.015	84.31
365.241	75.31
365.468	77.31
365.694	85.31
365.92	81.31
366.147	90.31
366.373	84.31
366.599	81.31
366.826	55.31
367.052	77.31
367.278	78.31
367.505	79.31
367.731	90.31
367.957	87.31
368.184	90.31
368.41	84.31
368.636	91.31
368.862	97.31
369.089	80.31
369.315	83.31
369.541	76.31
369.767	77.31
369.993	105.31
370.219	79.31
370.445	77.31
370.672	82.31
370.898	66.31
371.124	81.31
371.35	71.31
371.576	75.31
371.802	77.31
372.028	74.31
372.254	75.31
372.48	81.31
372.706	88.31
372.932	80.31
373.158	77.31
373.384	90.31
373.61	83.31
373.835	69.31
374.061	76.31
374.287	68.31
374.513	68.31
374.739	82.31
374.965	67.31
375.191	83.31
375.416	76.31
375.642	89.31
375.868	77.31
376.094	75.31
376.319	91.31
376.545	91.31
376.771	80.31
376.997	83.31
377.222	80.31
377.448	86.31
377.674	79.31
377.899	88.31
378.125	83.31
378.35	77.31
378.576	86.31
378.802	72.31
379.027	80.31
379.253	78.31
379.478	85.31
379.704	73.31
379.929	88.31
380.155	70.31
380.38	86.31
380.606	95.31
380.831	73.31
381.057	99.31
381.282	74.31
381.507	76.31
381.733	68.31
381.958	68.31
382.184	78.31
382.409	83.31
382.634	79.31
382.86	81.31
383.085	72.31
383.31	81.31
383.535	94.31
383.761	79.31
383.986	77.31
384.211	78.31
384.436	85.31
384.662	82.31
384.887	81.31
385.112	75.31
385.337	87.31
385.562	86.31
385.787	79.31
386.013	91.31
386.238	79.31
386.463	78.31
386.688	109.31
386.913	77.31
387.138	79.31
387.363	80.31
387.588	70.31
387.813	68.31
388.038	75.31
388.263	89.31
388.488	86.31
388.713	82.31
388.938	79.31
389.163	78.31
389.387	74.31
389.612	79.31
389.837	67.31
390.062	79.31
390.287	94.31
390.512	70.31
390.736	79.31
390.961	67.31
391.186	69.31
391.411	83.31
391.636	90.31
391.86	70.31
392.085	81.31
392.31	66.31
392.534	71.31
392.759	81.31
392.984	82.31
393.208	91.31
393.433	84.31
393.658	93.31
393.882	79.31
394.107	85.31
394.331	71.31
394.556	73.31
394.78	76.31
395.005	80.31
395.229	75.31
395.454	69.31
395.678	79.31
395.903	84.31
396.127	62.31
396.352	82.31
396.576	85.31
396.801	80.31
397.025	89.31
397.249	82.31
397.474	65.31
397.698	73.31
397.922	87.31
398.147	91.31
398.371	96.31
398.595	77.31
398.82	79.31
399.044	72.31
399.268	68.31
399.492	75.31
399.717	83.31
399.941	86.31
400.165	79.31
400.389	74.31
400.613	63.31
400.837	93.31
401.062	77.31
401.286	89.31
401.51	80.31
401.734	85.31
401.958	70.31
402.182	71.31
402.406	79.31
402.63	83.31
402.854	80.31
403.078	84.31
403.302	79.31
403.526	79.31
403.75	69.31
403.974	74.31
404.198	74.31
404.422	94.31
404.645	61.31
404.869	76.31
405.093	82.31
405.317	83.31
405.541	85.31
405.765	92.31
405.988	71.31
406.212	77.31
406.436	71.31
406.66	92.31
406.883	86.31
407.107	84.31
407.331	91.31
407.555	64.31
407.778	83.31
408.002	82.31
408.226	85.31
408.449	80.31
408.673	84.31
408.896	81.31
409.12	69.31
409.344	77.31
409.567	84.31
409.791	85.31
410.014	78.31
410.238	85.31
410.461	66.31
410.685	81.31
410.908	80.31
411.132	84.31
411.355	79.31
411.578	78.31
411.802	80.31
412.025	82.31
412.249	75.31
412.472	85.31
412.695	90.31
412.919	75.31
413.142	81.31
413.365	76.31
413.589	77.31
413.812	78.31
414.035	83.31
414.258	76.31
414.482	77.31
414.705	87.31
414.928	70.31
415.151	83.31
415.374	89.31
415.597	80.31
415.821	84.31
416.044	95.31
416.267	76.31
416.49	73.31
416.713	87.31
416.936	75.31
417.159	72.31
417.382	86.31
417.605	91.31
417.828	71.31
418.051	60.31
418.274	81.31
418.497	71.31
418.72	71.31
418.943	77.31
419.166	75.31
419.389	85.31
419.611	89.31
419.834	85.31
420.057	85.31
420.28	69.31
420.503	84.31
420.726	76.31
420.948	79.31
421.171	76.31
421.394	71.31
421.617	87.31
421.839	69.31
422.062	79.31
422.285	89.31
422.507	81.31
422.73	76.31
422.953	69.31
423.175	89.31
423.398	69.31
423.621	81.31
423.843	79.31
424.066	75.31
424.288	79.31
424.511	81.31
424.733	70.31
424.956	76.31
425.178	69.31
425.401	94.31
425.623	93.31
425.846	74.31
426.068	81.31
426.291	81.31
426.513	81.31
426.735	72.31
426.958	89.31
427.18	88.31
427.402	86.31
427.625	72.31
427.847	91.31
428.069	70.31
428.292	75.31
428.514	87.31
428.736	68.31
428.958	67.31
429.181	80.31
429.403	77.31
429.625	73.31
429.847	73.31
430.069	69.31
430.292	73.31
430.514	76.31
430.736	66.31
430.958	80.31
431.18	75.31
431.402	78.31
431.624	88.31
431.846	93.31
432.068	74.31
432.29	90.31
432.512	78.31
432.734	87.31
432.956	84.31
433.178	78.31
433.4	83.31
433.622	81.31
433.844	96.31
434.066	81.31
434.287	73.31
434.509	86.31
434.731	74.31
434.953	86.31
435.175	86.31
435.397	75.31
435.618	82.31
435.84	84.31
436.062	76.31
436.284	70.31
436.505	67.31
436.727	76.31
436.949	78.31
437.17	85.31
437.392	81.31
437.614	67.31
437.835	78.31
438.057	67.31
438.278	66.31
438.5	88.31
438.721	78.31
438.943	79.31
439.165	74.31
439.386	79.31
439.608	81.31
439.829	79.31
440.05	66.31
440.272	73.31
440.493	57.31
440.715	76.31
440.936	99.31
441.158	91.31
441.379	78.31
441.6	87.31
441.822	89.31
442.043	65.31
442.264	77.31
442.486	81.31
442.707	71.31
442.928	85.31
443.149	74.31
443.371	79.31
443.592	74.31
443.813	80.31
444.034	77.31
444.255	92.31
444.476	95.31
444.698	82.31
444.919	74.31
445.14	154.31
445.361	113.31
445.582	87.31
445.803	75.31
446.024	63.31
446.245	90.31
446.466	74.31
446.687	79.31
446.908	85.31
447.129	77.31
447.35	79.31
447.571	77.31
447.792	76.31
448.013	75.31
448.234	84.31
448.455	85.31
448.675	79.31
448.896	85.31
449.117	62.31
449.338	88.31
449.559	81.31
449.779	74.31
450	86.31
450.221	88.31
450.442	89.31
450.662	83.31
450.883	79.31
451.104	80.31
451.324	73.31
451.545	82.31
451.766	81.31
451.986	83.31
452.207	87.31
452.428	65.31
452.648	81.31
452.869	83.31
453.089	74.31
453.31	85.31
453.53	72.31
453.751	89.31
453.971	72.31
454.192	80.31
454.412	77.31
454.633	83.31
454.853	90.31
455.073	86.31
455.294	89.31
455.514	84.31
455.734	77.31
455.955	79.31
456.175	82.31
456.395	77.31
456.616	85.31
456.836	84.31
457.056	76.31
457.276	79.31
457.497	73.31
457.717	76.31
457.937	85.31
458.157	79.31
458.377	79.31
458.598	78.31
458.818	82.31
459.038	75.31
459.258	74.31
459.478	83.31
459.698	74.31
459.918	93.31
460.138	78.31
460.358	69.31
460.578	74.31
460.798	82.31
461.018	77.31
461.238	95.31
461.458	83.31
461.678	83.31
461.898	79.31
462.118	90.31
462.338	83.31
462.558	76.31
462.777	83.31
462.997	64.31
463.217	75.31
463.437	70.31
463.657	73.31
463.876	63.31
464.096	64.31
464.316	75.31
464.536	73.31
464.755	87.31
464.975	81.31
465.195	86.31
465.414	72.31
465.634	81.31
465.854	84.31
466.073	75.31
466.293	83.31
466.512	90.31
466.732	91.31
466.951	78.31
467.171	75.31
467.391	74.31
467.61	81.31
467.829	77.31
468.049	74.31
468.268	79.31
468.488	75.31
468.707	88.31
468.927	79.31
469.146	85.31
469.365	88.31
469.585	65.31
469.804	75.31
470.023	70.31
470.243	72.31
470.462	84.31
470.681	69.31
470.901	79.31
471.12	72.31
471.339	78.31
471.558	83.31
471.777	83.31
471.997	86.31
472.216	79.31
472.435	79.31
472.654	67.31
472.873	86.31
473.092	87.31
473.311	80.31
473.53	69.31
473.749	77.31
473.968	89.31
474.187	70.31
474.406	75.31
474.625	75.31
474.844	83.31
475.063	93.31
475.282	90.31
475.501	91.31
475.72	82.31
475.939	94.31
476.158	79.31
476.377	75.31
476.596	90.31
476.814	77.31
477.033	63.31
477.252	75.31
477.471	74.31
477.69	76.31
477.908	76.31
478.127	68.31
478.346	83.31
478.564	81.31
478.783	79.31
479.002	73.31
479.22	85.31
479.439	79.31
479.658	82.31
479.876	87.31
480.095	75.31
480.313	74.31
480.532	91.31
480.751	81.31
480.969	71.31
481.188	97.31
481.406	87.31
481.624	89.31
481.843	85.31
482.061	69.31
482.28	85.31
482.498	88.31
482.717	81.31
482.935	77.31
483.153	85.31
483.372	93.31
483.59	80.31
483.808	79.31
484.027	85.31
484.245	81.31
484.463	68.31
484.681	76.31
484.9	65.31
485.118	84.31
485.336	72.31
485.554	72.31
485.772	80.31
485.99	81.31
486.209	80.31
486.427	67.31
486.645	74.31
486.863	65.31
487.081	83.31
487.299	81.31
487.517	73.31
487.735	69.31
487.953	66.31
488.171	95.31
488.389	93.31
488.607	78.31
488.825	83.31
489.043	78.31
489.261	88.31
489.479	82.31
489.696	83.31
489.914	63.31
490.132	89.31
490.35	79.31
490.568	70.31
490.786	69.31
491.003	89.31
491.221	84.31
491.439	77.31
491.657	74.31
491.874	96.31
492.092	80.31
492.31	81.31
492.527	80.31
492.745	78.31
492.963	92.31
493.18	77.31
493.398	79.31
493.615	83.31
493.833	70.31
494.05	79.31
494.268	80.31
494.485	85.31
494.703	80.31
494.92	84.31
495.138	80.31
495.355	69.31
495.573	79.31
495.79	73.31
496.008	72.31
496.225	84.31
496.442	85.31
496.66	83.31
496.877	74.31
497.094	72.31
497.312	79.31
497.529	79.31
497.746	70.31
497.963	98.31
498.181	82.31
498.398	79.31
498.615	87.31
498.832	84.31
499.049	99.31
499.267	88.31
499.484	90.31
499.701	77.31
499.918	79.31
500.135	69.31
500.352	84.31
500.569	84.31
500.786	83.31
501.003	73.31
501.22	87.31
501.437	83.31
501.654	96.31
501.871	88.31
502.088	90.31
502.305	79.31
502.522	77.31
502.739	77.31
502.956	93.31
503.172	81.31
503.389	81.31
503.606	85.31
503.823	74.31
504.04	82.31
504.256	73.31
504.473	79.31
504.69	87.31
504.907	77.31
505.123	78.31
505.34	88.31
505.557	75.31
505.773	77.31
505.99	84.31
506.207	75.31
506.423	61.31
506.64	80.31
506.856	77.31
507.073	75.31
507.289	80.31
507.506	75.31
507.722	70.31
507.939	75.31
508.155	84.31
508.372	78.31
508.588	85.31
508.805	67.31
509.021	79.31
509.238	81.31
509.454	85.31
509.67	87.31
509.887	80.31
510.103	72.31
510.319	85.31
510.536	78.31
510.752	83.31
510.968	84.31
511.184	74.31
511.401	71.31
511.617	83.31
511.833	75.31
512.049	78.31
512.265	92.31
512.481	71.31
512.698	84.31
512.914	84.31
513.13	81.31
513.346	95.31
513.562	72.31
513.778	88.31
513.994	104.31
514.21	89.31
514.426	84.31
514.642	91.31
514.858	91.31
515.074	77.31
515.29	76.31
515.506	81.31
515.721	84.31
515.937	79.31
516.153	75.31
516.369	91.31
516.585	79.31
516.801	68.31
517.016	83.31
517.232	88.31
517.448	89.31
517.664	88.31
517.879	85.31
518.095	99.31
518.311	75.31
518.527	86.31
518.742	78.31
518.958	82.31
519.173	68.31
519.389	66.31
519.605	62.31
519.82	67.31
520.036	85.31
520.251	87.31
