Data from Background_3_HRD10591_00078.txt Node
Date: Wed Nov 05 14:49:58 EST 2025
User: Yrep
Spectrometer: HR+D1059
Trigger mode: 1
Integration Time (sec): 1.000000E-1
Scans to average: 1
Electric dark correction enabled: true
Nonlinearity correction enabled: false
Boxcar width: 0
XAxis mode: Wavelengths
Number of Pixels in Spectrum: 2048
>>>>>Begin Spectral Data<<<<<
223.165	-8.75
223.4	-8.75
223.635	-8.75
223.869	-16.75
224.104	-1.75
224.338	-20.75
224.573	-4.75
224.808	-17.75
225.042	-1.75
225.277	-4.75
225.511	-11.75
225.746	-1.75
225.98	-1.75
226.215	8.25
226.449	13.25
226.683	22.25
226.918	30.25
227.152	18.25
227.387	46.25
227.621	53.25
227.856	47.25
228.09	50.25
228.324	53.25
228.559	62.25
228.793	72.25
229.027	66.25
229.262	74.25
229.496	78.25
229.73	75.25
229.964	73.25
230.199	71.25
230.433	67.25
230.667	79.25
230.901	84.25
231.136	92.25
231.37	90.25
231.604	80.25
231.838	83.25
232.072	84.25
232.306	75.25
232.541	81.25
232.775	82.25
233.009	85.25
233.243	72.25
233.477	96.25
233.711	79.25
233.945	92.25
234.179	76.25
234.413	88.25
234.647	78.25
234.881	82.25
235.115	71.25
235.349	87.25
235.583	89.25
235.817	84.25
236.051	84.25
236.285	77.25
236.519	88.25
236.753	84.25
236.987	72.25
237.221	79.25
237.455	74.25
237.689	78.25
237.922	72.25
238.156	74.25
238.39	73.25
238.624	82.25
238.858	73.25
239.091	82.25
239.325	81.25
239.559	70.25
239.793	74.25
240.027	83.25
240.26	82.25
240.494	81.25
240.728	79.25
240.961	75.25
241.195	68.25
241.429	84.25
241.662	74.25
241.896	94.25
242.13	83.25
242.363	81.25
242.597	63.25
242.83	85.25
243.064	62.25
243.298	76.25
243.531	84.25
243.765	72.25
243.998	77.25
244.232	87.25
244.465	92.25
244.699	76.25
244.932	81.25
245.166	84.25
245.399	78.25
245.633	76.25
245.866	78.25
246.099	84.25
246.333	85.25
246.566	81.25
246.8	94.25
247.033	78.25
247.266	72.25
247.5	85.25
247.733	86.25
247.966	78.25
248.2	82.25
248.433	68.25
248.666	83.25
248.899	83.25
249.133	101.25
249.366	77.25
249.599	80.25
249.832	86.25
250.066	82.25
250.299	87.25
250.532	87.25
250.765	92.25
250.998	92.25
251.231	73.25
251.465	79.25
251.698	86.25
251.931	58.25
252.164	82.25
252.397	94.25
252.63	95.25
252.863	76.25
253.096	94.25
253.329	86.25
253.562	82.25
253.795	86.25
254.028	83.25
254.261	86.25
254.494	89.25
254.727	84.25
254.96	78.25
255.193	85.25
255.426	80.25
255.659	78.25
255.892	80.25
256.124	79.25
256.357	85.25
256.59	103.25
256.823	85.25
257.056	91.25
257.289	82.25
257.521	93.25
257.754	91.25
257.987	74.25
258.22	75.25
258.452	82.25
258.685	86.25
258.918	72.25
259.151	70.25
259.383	79.25
259.616	76.25
259.849	85.25
260.081	92.25
260.314	83.25
260.547	79.25
260.779	84.25
261.012	92.25
261.244	84.25
261.477	85.25
261.71	83.25
261.942	99.25
262.175	82.25
262.407	81.25
262.64	73.25
262.872	92.25
263.105	88.25
263.337	88.25
263.57	66.25
263.802	88.25
264.035	92.25
264.267	82.25
264.499	90.25
264.732	82.25
264.964	89.25
265.197	100.25
265.429	87.25
265.661	88.25
265.894	82.25
266.126	86.25
266.358	91.25
266.591	86.25
266.823	84.25
267.055	87.25
267.287	96.25
267.52	90.25
267.752	82.25
267.984	85.25
268.216	69.25
268.448	81.25
268.681	86.25
268.913	81.25
269.145	72.25
269.377	94.25
269.609	83.25
269.841	80.25
270.073	78.25
270.306	85.25
270.538	94.25
270.77	80.25
271.002	87.25
271.234	89.25
271.466	93.25
271.698	91.25
271.93	83.25
272.162	78.25
272.394	78.25
272.626	81.25
272.858	96.25
273.09	84.25
273.322	74.25
273.553	93.25
273.785	103.25
274.017	80.25
274.249	84.25
274.481	100.25
274.713	72.25
274.945	91.25
275.176	88.25
275.408	84.25
275.64	84.25
275.872	82.25
276.104	74.25
276.335	78.25
276.567	85.25
276.799	80.25
277.031	101.25
277.262	89.25
277.494	91.25
277.726	86.25
277.957	76.25
278.189	78.25
278.421	74.25
278.652	80.25
278.884	79.25
279.115	98.25
279.347	94.25
279.579	84.25
279.81	94.25
280.042	97.25
280.273	82.25
280.505	76.25
280.736	74.25
280.968	80.25
281.199	82.25
281.431	93.25
281.662	76.25
281.894	85.25
282.125	99.25
282.356	86.25
282.588	77.25
282.819	84.25
283.051	82.25
283.282	89.25
283.513	70.25
283.745	96.25
283.976	80.25
284.207	95.25
284.439	82.25
284.67	80.25
284.901	77.25
285.132	83.25
285.364	86.25
285.595	91.25
285.826	86.25
286.057	92.25
286.288	88.25
286.52	94.25
286.751	95.25
286.982	77.25
287.213	84.25
287.444	85.25
287.675	86.25
287.906	86.25
288.138	89.25
288.369	98.25
288.6	97.25
288.831	98.25
289.062	103.25
289.293	98.25
289.524	76.25
289.755	73.25
289.986	92.25
290.217	96.25
290.448	97.25
290.679	95.25
290.91	79.25
291.141	91.25
291.371	94.25
291.602	98.25
291.833	95.25
292.064	82.25
292.295	92.25
292.526	80.25
292.757	86.25
292.987	81.25
293.218	87.25
293.449	93.25
293.68	88.25
293.91	80.25
294.141	88.25
294.372	92.25
294.603	97.25
294.833	94.25
295.064	87.25
295.295	77.25
295.525	82.25
295.756	88.25
295.987	83.25
296.217	92.25
296.448	92.25
296.679	87.25
296.909	90.25
297.14	88.25
297.37	88.25
297.601	82.25
297.831	72.25
298.062	75.25
298.292	90.25
298.523	104.25
298.753	91.25
298.984	81.25
299.214	78.25
299.445	81.25
299.675	90.25
299.905	83.25
300.136	87.25
300.366	86.25
300.597	101.25
300.827	86.25
301.057	94.25
301.288	96.25
301.518	100.25
301.748	84.25
301.979	102.25
302.209	100.25
302.439	84.25
302.669	104.25
302.9	88.25
303.13	90.25
303.36	94.25
303.59	104.25
303.82	94.25
304.051	91.25
304.281	72.25
304.511	93.25
304.741	80.25
304.971	84.25
305.201	90.25
305.431	95.25
305.661	88.25
305.891	90.25
306.121	92.25
306.352	92.25
306.582	99.25
306.812	97.25
307.042	91.25
307.272	90.25
307.502	97.25
307.731	82.25
307.961	77.25
308.191	96.25
308.421	99.25
308.651	89.25
308.881	94.25
309.111	98.25
309.341	71.25
309.571	100.25
309.8	103.25
310.03	80.25
310.26	98.25
310.49	94.25
310.72	90.25
310.949	98.25
311.179	90.25
311.409	87.25
311.639	84.25
311.868	93.25
312.098	99.25
312.328	84.25
312.557	103.25
312.787	94.25
313.017	93.25
313.246	86.25
313.476	80.25
313.706	85.25
313.935	83.25
314.165	89.25
314.394	103.25
314.624	94.25
314.853	72.25
315.083	88.25
315.312	80.25
315.542	87.25
315.771	98.25
316.001	93.25
316.23	74.25
316.46	89.25
316.689	80.25
316.919	85.25
317.148	97.25
317.377	88.25
317.607	92.25
317.836	85.25
318.065	86.25
318.295	84.25
318.524	93.25
318.753	90.25
318.983	85.25
319.212	83.25
319.441	80.25
319.67	84.25
319.9	83.25
320.129	88.25
320.358	98.25
320.587	92.25
320.816	94.25
321.046	102.25
321.275	99.25
321.504	99.25
321.733	87.25
321.962	82.25
322.191	97.25
322.42	90.25
322.649	82.25
322.878	98.25
323.108	87.25
323.337	99.25
323.566	96.25
323.795	90.25
324.024	84.25
324.253	94.25
324.482	98.25
324.71	95.25
324.939	101.25
325.168	75.25
325.397	98.25
325.626	82.25
325.855	85.25
326.084	104.25
326.313	91.25
326.542	97.25
326.77	74.25
326.999	92.25
327.228	73.25
327.457	92.25
327.686	99.25
327.914	99.25
328.143	94.25
328.372	70.25
328.6	110.25
328.829	97.25
329.058	88.25
329.287	80.25
329.515	82.25
329.744	92.25
329.972	87.25
330.201	96.25
330.43	87.25
330.658	83.25
330.887	93.25
331.115	100.25
331.344	72.25
331.572	95.25
331.801	85.25
332.03	89.25
332.258	80.25
332.486	94.25
332.715	90.25
332.943	84.25
333.172	89.25
333.4	79.25
333.629	96.25
333.857	88.25
334.085	84.25
334.314	80.25
334.542	80.25
334.771	84.25
334.999	93.25
335.227	93.25
335.455	95.25
335.684	92.25
335.912	86.25
336.14	72.25
336.369	79.25
336.597	87.25
336.825	94.25
337.053	100.25
337.281	105.25
337.51	92.25
337.738	87.25
337.966	77.25
338.194	88.25
338.422	92.25
338.65	80.25
338.878	98.25
339.106	90.25
339.334	97.25
339.562	83.25
339.79	82.25
340.018	92.25
340.246	84.25
340.474	93.25
340.702	77.25
340.93	78.25
341.158	86.25
341.386	84.25
341.614	88.25
341.842	71.25
342.07	90.25
342.298	78.25
342.526	79.25
342.754	92.25
342.981	86.25
343.209	84.25
343.437	102.25
343.665	81.25
343.893	106.25
344.12	84.25
344.348	84.25
344.576	89.25
344.804	100.25
345.031	77.25
345.259	89.25
345.487	93.25
345.714	86.25
345.942	101.25
346.17	72.25
346.397	103.25
346.625	87.25
346.853	86.25
347.08	83.25
347.308	81.25
347.535	100.25
347.763	73.25
347.99	73.25
348.218	87.25
348.445	86.25
348.673	87.25
348.9	84.25
349.128	94.25
349.355	77.25
349.583	85.25
349.81	89.25
350.037	93.25
350.265	90.25
350.492	82.25
350.72	103.25
350.947	85.25
351.174	101.25
351.402	95.25
351.629	98.25
351.856	88.25
352.083	92.25
352.311	88.25
352.538	78.25
352.765	91.25
352.992	92.25
353.22	86.25
353.447	78.25
353.674	82.25
353.901	94.25
354.128	84.25
354.355	93.25
354.583	81.25
354.81	107.25
355.037	82.25
355.264	90.25
355.491	73.25
355.718	98.25
355.945	85.25
356.172	96.25
356.399	86.25
356.626	86.25
356.853	82.25
357.08	83.25
357.307	69.25
357.534	84.25
357.761	103.25
357.988	92.25
358.215	84.25
358.441	86.25
358.668	75.25
358.895	74.25
359.122	87.25
359.349	80.25
359.576	95.25
359.802	85.25
360.029	87.25
360.256	85.25
360.483	93.25
360.709	69.25
360.936	108.25
361.163	98.25
361.39	88.25
361.616	89.25
361.843	90.25
362.07	94.25
362.296	97.25
362.523	99.25
362.749	83.25
362.976	96.25
363.203	73.25
363.429	82.25
363.656	75.25
363.882	71.25
364.109	88.25
364.335	100.25
364.562	97.25
364.788	84.25
365.015	82.25
365.241	89.25
365.468	75.25
365.694	87.25
365.92	88.25
366.147	85.25
366.373	92.25
366.599	87.25
366.826	84.25
367.052	82.25
367.278	91.25
367.505	82.25
367.731	100.25
367.957	95.25
368.184	92.25
368.41	92.25
368.636	90.25
368.862	84.25
369.089	84.25
369.315	89.25
369.541	89.25
369.767	89.25
369.993	80.25
370.219	80.25
370.445	80.25
370.672	99.25
370.898	90.25
371.124	81.25
371.35	88.25
371.576	88.25
371.802	79.25
372.028	90.25
372.254	82.25
372.48	77.25
372.706	91.25
372.932	93.25
373.158	94.25
373.384	83.25
373.61	95.25
373.835	83.25
374.061	88.25
374.287	81.25
374.513	84.25
374.739	92.25
374.965	85.25
375.191	88.25
375.416	80.25
375.642	90.25
375.868	88.25
376.094	90.25
376.319	90.25
376.545	79.25
376.771	66.25
376.997	82.25
377.222	84.25
377.448	80.25
377.674	79.25
377.899	87.25
378.125	87.25
378.35	81.25
378.576	96.25
378.802	79.25
379.027	97.25
379.253	81.25
379.478	93.25
379.704	99.25
379.929	81.25
380.155	82.25
380.38	85.25
380.606	90.25
380.831	84.25
381.057	85.25
381.282	77.25
381.507	76.25
381.733	78.25
381.958	82.25
382.184	76.25
382.409	85.25
382.634	90.25
382.86	80.25
383.085	91.25
383.31	96.25
383.535	85.25
383.761	85.25
383.986	89.25
384.211	93.25
384.436	92.25
384.662	99.25
384.887	95.25
385.112	85.25
385.337	73.25
385.562	85.25
385.787	80.25
386.013	71.25
386.238	78.25
386.463	88.25
386.688	90.25
386.913	85.25
387.138	85.25
387.363	78.25
387.588	72.25
387.813	86.25
388.038	84.25
388.263	95.25
388.488	74.25
388.713	100.25
388.938	91.25
389.163	84.25
389.387	80.25
389.612	86.25
389.837	77.25
390.062	80.25
390.287	82.25
390.512	83.25
390.736	82.25
390.961	100.25
391.186	92.25
391.411	95.25
391.636	85.25
391.86	89.25
392.085	100.25
392.31	88.25
392.534	84.25
392.759	80.25
392.984	90.25
393.208	90.25
393.433	85.25
393.658	68.25
393.882	79.25
394.107	86.25
394.331	94.25
394.556	77.25
394.78	97.25
395.005	76.25
395.229	77.25
395.454	88.25
395.678	81.25
395.903	98.25
396.127	90.25
396.352	87.25
396.576	82.25
396.801	92.25
397.025	82.25
397.249	85.25
397.474	64.25
397.698	86.25
397.922	81.25
398.147	76.25
398.371	83.25
398.595	88.25
398.82	86.25
399.044	74.25
399.268	78.25
399.492	94.25
399.717	82.25
399.941	90.25
400.165	84.25
400.389	70.25
400.613	79.25
400.837	92.25
401.062	94.25
401.286	90.25
401.51	78.25
401.734	79.25
401.958	75.25
402.182	90.25
402.406	84.25
402.63	74.25
402.854	81.25
403.078	88.25
403.302	76.25
403.526	86.25
403.75	90.25
403.974	82.25
404.198	79.25
404.422	89.25
404.645	84.25
404.869	81.25
405.093	94.25
405.317	86.25
405.541	96.25
405.765	92.25
405.988	92.25
406.212	87.25
406.436	80.25
406.66	86.25
406.883	81.25
407.107	83.25
407.331	72.25
407.555	91.25
407.778	74.25
408.002	68.25
408.226	83.25
408.449	62.25
408.673	70.25
408.896	88.25
409.12	88.25
409.344	78.25
409.567	87.25
409.791	74.25
410.014	92.25
410.238	79.25
410.461	84.25
410.685	89.25
410.908	73.25
411.132	83.25
411.355	89.25
411.578	87.25
411.802	75.25
412.025	93.25
412.249	82.25
412.472	85.25
412.695	85.25
412.919	83.25
413.142	98.25
413.365	80.25
413.589	83.25
413.812	70.25
414.035	80.25
414.258	85.25
414.482	95.25
414.705	88.25
414.928	98.25
415.151	77.25
415.374	75.25
415.597	64.25
415.821	82.25
416.044	81.25
416.267	80.25
416.49	94.25
416.713	98.25
416.936	82.25
417.159	80.25
417.382	87.25
417.605	81.25
417.828	82.25
418.051	69.25
418.274	94.25
418.497	78.25
418.72	81.25
418.943	98.25
419.166	90.25
419.389	88.25
419.611	86.25
419.834	79.25
420.057	83.25
420.28	77.25
420.503	72.25
420.726	85.25
420.948	91.25
421.171	97.25
421.394	77.25
421.617	85.25
421.839	89.25
422.062	84.25
422.285	78.25
422.507	91.25
422.73	98.25
422.953	84.25
423.175	87.25
423.398	73.25
423.621	76.25
423.843	81.25
424.066	82.25
424.288	84.25
424.511	81.25
424.733	85.25
424.956	87.25
425.178	88.25
425.401	75.25
425.623	82.25
425.846	89.25
426.068	78.25
426.291	82.25
426.513	78.25
426.735	79.25
426.958	91.25
427.18	88.25
427.402	88.25
427.625	93.25
427.847	86.25
428.069	72.25
428.292	84.25
428.514	93.25
428.736	91.25
428.958	84.25
429.181	96.25
429.403	89.25
429.625	85.25
429.847	72.25
430.069	83.25
430.292	79.25
430.514	79.25
430.736	78.25
430.958	80.25
431.18	80.25
431.402	76.25
431.624	83.25
431.846	78.25
432.068	87.25
432.29	82.25
432.512	90.25
432.734	90.25
432.956	95.25
433.178	91.25
433.4	95.25
433.622	76.25
433.844	80.25
434.066	81.25
434.287	89.25
434.509	81.25
434.731	92.25
434.953	80.25
435.175	81.25
435.397	80.25
435.618	74.25
435.84	72.25
436.062	72.25
436.284	92.25
436.505	80.25
436.727	80.25
436.949	85.25
437.17	84.25
437.392	88.25
437.614	87.25
437.835	73.25
438.057	81.25
438.278	72.25
438.5	89.25
438.721	99.25
438.943	83.25
439.165	81.25
439.386	95.25
439.608	84.25
439.829	80.25
440.05	75.25
440.272	86.25
440.493	81.25
440.715	84.25
440.936	90.25
441.158	82.25
441.379	83.25
441.6	91.25
441.822	85.25
442.043	84.25
442.264	79.25
442.486	78.25
442.707	77.25
442.928	87.25
443.149	86.25
443.371	87.25
443.592	102.25
443.813	69.25
444.034	79.25
444.255	86.25
444.476	76.25
444.698	101.25
444.919	76.25
445.14	189.25
445.361	126.25
445.582	86.25
445.803	84.25
446.024	83.25
446.245	84.25
446.466	97.25
446.687	88.25
446.908	83.25
447.129	85.25
447.35	84.25
447.571	90.25
447.792	88.25
448.013	71.25
448.234	79.25
448.455	90.25
448.675	79.25
448.896	89.25
449.117	102.25
449.338	86.25
449.559	94.25
449.779	75.25
450	80.25
450.221	64.25
450.442	75.25
450.662	81.25
450.883	87.25
451.104	85.25
451.324	75.25
451.545	81.25
451.766	81.25
451.986	85.25
452.207	88.25
452.428	81.25
452.648	83.25
452.869	80.25
453.089	87.25
453.31	86.25
453.53	85.25
453.751	83.25
453.971	68.25
454.192	86.25
454.412	74.25
454.633	98.25
454.853	87.25
455.073	91.25
455.294	94.25
455.514	101.25
455.734	102.25
455.955	83.25
456.175	73.25
456.395	75.25
456.616	90.25
456.836	97.25
457.056	82.25
457.276	95.25
457.497	90.25
457.717	72.25
457.937	82.25
458.157	103.25
458.377	76.25
458.598	82.25
458.818	86.25
459.038	75.25
459.258	80.25
459.478	91.25
459.698	69.25
459.918	97.25
460.138	95.25
460.358	94.25
460.578	78.25
460.798	70.25
461.018	102.25
461.238	75.25
461.458	74.25
461.678	73.25
461.898	92.25
462.118	101.25
462.338	88.25
462.558	80.25
462.777	84.25
462.997	87.25
463.217	83.25
463.437	92.25
463.657	86.25
463.876	77.25
464.096	80.25
464.316	85.25
464.536	87.25
464.755	83.25
464.975	84.25
465.195	73.25
465.414	79.25
465.634	81.25
465.854	99.25
466.073	72.25
466.293	80.25
466.512	98.25
466.732	86.25
466.951	80.25
467.171	89.25
467.391	93.25
467.61	73.25
467.829	92.25
468.049	86.25
468.268	89.25
468.488	94.25
468.707	88.25
468.927	81.25
469.146	72.25
469.365	85.25
469.585	80.25
469.804	75.25
470.023	92.25
470.243	100.25
470.462	84.25
470.681	85.25
470.901	80.25
471.12	76.25
471.339	65.25
471.558	95.25
471.777	82.25
471.997	92.25
472.216	90.25
472.435	72.25
472.654	66.25
472.873	88.25
473.092	88.25
473.311	88.25
473.53	92.25
473.749	76.25
473.968	82.25
474.187	83.25
474.406	87.25
474.625	81.25
474.844	91.25
475.063	85.25
475.282	89.25
475.501	83.25
475.72	84.25
475.939	93.25
476.158	89.25
476.377	73.25
476.596	85.25
476.814	98.25
477.033	80.25
477.252	78.25
477.471	65.25
477.69	86.25
477.908	89.25
478.127	100.25
478.346	91.25
478.564	87.25
478.783	76.25
479.002	85.25
479.22	80.25
479.439	84.25
479.658	84.25
479.876	82.25
480.095	84.25
480.313	84.25
480.532	77.25
480.751	96.25
480.969	81.25
481.188	82.25
481.406	79.25
481.624	81.25
481.843	84.25
482.061	72.25
482.28	78.25
482.498	91.25
482.717	64.25
482.935	88.25
483.153	99.25
483.372	87.25
483.59	72.25
483.808	86.25
484.027	89.25
484.245	64.25
484.463	76.25
484.681	103.25
484.9	85.25
485.118	85.25
485.336	70.25
485.554	83.25
485.772	89.25
485.99	79.25
486.209	91.25
486.427	86.25
486.645	80.25
486.863	85.25
487.081	92.25
487.299	88.25
487.517	77.25
487.735	81.25
487.953	89.25
488.171	84.25
488.389	82.25
488.607	74.25
488.825	88.25
489.043	101.25
489.261	91.25
489.479	86.25
489.696	92.25
489.914	91.25
490.132	90.25
490.35	81.25
490.568	80.25
490.786	68.25
491.003	86.25
491.221	65.25
491.439	88.25
491.657	85.25
491.874	97.25
492.092	81.25
492.31	85.25
492.527	95.25
492.745	78.25
492.963	93.25
493.18	83.25
493.398	92.25
493.615	84.25
493.833	92.25
494.05	89.25
494.268	90.25
494.485	85.25
494.703	73.25
494.92	87.25
495.138	73.25
495.355	81.25
495.573	92.25
495.79	94.25
496.008	89.25
496.225	98.25
496.442	99.25
496.66	95.25
496.877	85.25
497.094	81.25
497.312	94.25
497.529	88.25
497.746	93.25
497.963	96.25
498.181	90.25
498.398	86.25
498.615	88.25
498.832	90.25
499.049	84.25
499.267	69.25
499.484	85.25
499.701	72.25
499.918	89.25
500.135	86.25
500.352	92.25
500.569	82.25
500.786	78.25
501.003	73.25
501.22	89.25
501.437	84.25
501.654	95.25
501.871	93.25
502.088	77.25
502.305	74.25
502.522	76.25
502.739	99.25
502.956	68.25
503.172	85.25
503.389	90.25
503.606	86.25
503.823	81.25
504.04	78.25
504.256	80.25
504.473	74.25
504.69	86.25
504.907	80.25
505.123	71.25
505.34	74.25
505.557	84.25
505.773	94.25
505.99	87.25
506.207	78.25
506.423	91.25
506.64	75.25
506.856	83.25
507.073	81.25
507.289	86.25
507.506	92.25
507.722	78.25
507.939	93.25
508.155	95.25
508.372	96.25
508.588	85.25
508.805	74.25
509.021	87.25
509.238	88.25
509.454	81.25
509.67	86.25
509.887	81.25
510.103	74.25
510.319	85.25
510.536	81.25
510.752	81.25
510.968	96.25
511.184	85.25
511.401	92.25
511.617	71.25
511.833	80.25
512.049	89.25
512.265	80.25
512.481	88.25
512.698	74.25
512.914	78.25
513.13	88.25
513.346	84.25
513.562	86.25
513.778	85.25
513.994	75.25
514.21	88.25
514.426	87.25
514.642	87.25
514.858	76.25
515.074	88.25
515.29	97.25
515.506	82.25
515.721	82.25
515.937	90.25
516.153	86.25
516.369	80.25
516.585	77.25
516.801	90.25
517.016	74.25
517.232	88.25
517.448	86.25
517.664	87.25
517.879	74.25
518.095	102.25
518.311	89.25
518.527	96.25
518.742	94.25
518.958	76.25
519.173	85.25
519.389	92.25
