Data from Background_3_HRD10591_00018.txt Node
Date: Wed Nov 05 14:49:28 EST 2025
User: Yrep
Spectrometer: HR+D1059
Trigger mode: 1
Integration Time (sec): 1.000000E-1
Scans to average: 1
Electric dark correction enabled: true
Nonlinearity correction enabled: false
Boxcar width: 0
XAxis mode: Wavelengths
Number of Pixels in Spectrum: 2048
>>>>>Begin Spectral Data<<<<<
223.165	-29.94
223.4	-29.94
223.635	-29.94
223.869	-24.94
224.104	-13.94
224.338	-8.94
224.573	-9.94
224.808	-19.94
225.042	0.06
225.277	-6.94
225.511	-1.94
225.746	-2.94
225.98	5.06
226.215	33.06
226.449	9.06
226.683	19.06
226.918	24.06
227.152	29.06
227.387	33.06
227.621	51.06
227.856	53.06
228.09	41.06
228.324	53.06
228.559	59.06
228.793	67.06
229.027	61.06
229.262	72.06
229.496	82.06
229.73	62.06
229.964	78.06
230.199	83.06
230.433	70.06
230.667	73.06
230.901	78.06
231.136	74.06
231.37	77.06
231.604	64.06
231.838	84.06
232.072	82.06
232.306	80.06
232.541	89.06
232.775	84.06
233.009	80.06
233.243	71.06
233.477	68.06
233.711	74.06
233.945	91.06
234.179	82.06
234.413	93.06
234.647	87.06
234.881	74.06
235.115	80.06
235.349	82.06
235.583	81.06
235.817	70.06
236.051	78.06
236.285	74.06
236.519	81.06
236.753	80.06
236.987	89.06
237.221	86.06
237.455	72.06
237.689	80.06
237.922	72.06
238.156	78.06
238.39	70.06
238.624	79.06
238.858	70.06
239.091	84.06
239.325	84.06
239.559	72.06
239.793	69.06
240.027	68.06
240.26	73.06
240.494	64.06
240.728	71.06
240.961	72.06
241.195	71.06
241.429	92.06
241.662	75.06
241.896	69.06
242.13	86.06
242.363	78.06
242.597	80.06
242.83	68.06
243.064	62.06
243.298	87.06
243.531	74.06
243.765	69.06
243.998	66.06
244.232	78.06
244.465	82.06
244.699	84.06
244.932	78.06
245.166	68.06
245.399	80.06
245.633	86.06
245.866	67.06
246.099	82.06
246.333	69.06
246.566	88.06
246.8	70.06
247.033	76.06
247.266	81.06
247.5	72.06
247.733	82.06
247.966	77.06
248.2	76.06
248.433	87.06
248.666	77.06
248.899	89.06
249.133	75.06
249.366	83.06
249.599	76.06
249.832	85.06
250.066	84.06
250.299	80.06
250.532	76.06
250.765	70.06
250.998	86.06
251.231	90.06
251.465	86.06
251.698	68.06
251.931	86.06
252.164	71.06
252.397	78.06
252.63	79.06
252.863	72.06
253.096	80.06
253.329	75.06
253.562	94.06
253.795	87.06
254.028	86.06
254.261	76.06
254.494	79.06
254.727	86.06
254.96	83.06
255.193	74.06
255.426	83.06
255.659	85.06
255.892	61.06
256.124	82.06
256.357	85.06
256.59	84.06
256.823	85.06
257.056	80.06
257.289	78.06
257.521	88.06
257.754	77.06
257.987	81.06
258.22	83.06
258.452	63.06
258.685	88.06
258.918	71.06
259.151	84.06
259.383	77.06
259.616	73.06
259.849	78.06
260.081	75.06
260.314	95.06
260.547	88.06
260.779	91.06
261.012	77.06
261.244	82.06
261.477	93.06
261.71	85.06
261.942	83.06
262.175	85.06
262.407	81.06
262.64	89.06
262.872	82.06
263.105	92.06
263.337	83.06
263.57	86.06
263.802	97.06
264.035	76.06
264.267	78.06
264.499	81.06
264.732	81.06
264.964	83.06
265.197	82.06
265.429	83.06
265.661	75.06
265.894	83.06
266.126	89.06
266.358	70.06
266.591	71.06
266.823	75.06
267.055	73.06
267.287	77.06
267.52	81.06
267.752	89.06
267.984	80.06
268.216	70.06
268.448	67.06
268.681	90.06
268.913	76.06
269.145	92.06
269.377	85.06
269.609	94.06
269.841	89.06
270.073	86.06
270.306	87.06
270.538	82.06
270.77	76.06
271.002	89.06
271.234	88.06
271.466	92.06
271.698	92.06
271.93	90.06
272.162	81.06
272.394	85.06
272.626	77.06
272.858	89.06
273.09	83.06
273.322	93.06
273.553	87.06
273.785	69.06
274.017	80.06
274.249	76.06
274.481	89.06
274.713	82.06
274.945	90.06
275.176	71.06
275.408	80.06
275.64	78.06
275.872	90.06
276.104	82.06
276.335	78.06
276.567	84.06
276.799	84.06
277.031	92.06
277.262	90.06
277.494	78.06
277.726	85.06
277.957	82.06
278.189	76.06
278.421	92.06
278.652	85.06
278.884	95.06
279.115	85.06
279.347	99.06
279.579	93.06
279.81	90.06
280.042	93.06
280.273	86.06
280.505	78.06
280.736	71.06
280.968	81.06
281.199	89.06
281.431	91.06
281.662	82.06
281.894	84.06
282.125	78.06
282.356	82.06
282.588	84.06
282.819	93.06
283.051	81.06
283.282	79.06
283.513	90.06
283.745	88.06
283.976	78.06
284.207	97.06
284.439	96.06
284.67	85.06
284.901	96.06
285.132	85.06
285.364	85.06
285.595	75.06
285.826	79.06
286.057	91.06
286.288	86.06
286.52	85.06
286.751	89.06
286.982	84.06
287.213	81.06
287.444	80.06
287.675	76.06
287.906	82.06
288.138	80.06
288.369	88.06
288.6	88.06
288.831	81.06
289.062	85.06
289.293	96.06
289.524	73.06
289.755	78.06
289.986	84.06
290.217	80.06
290.448	73.06
290.679	81.06
290.91	88.06
291.141	94.06
291.371	94.06
291.602	89.06
291.833	71.06
292.064	81.06
292.295	84.06
292.526	91.06
292.757	80.06
292.987	93.06
293.218	78.06
293.449	76.06
293.68	77.06
293.91	75.06
294.141	95.06
294.372	90.06
294.603	75.06
294.833	77.06
295.064	84.06
295.295	81.06
295.525	86.06
295.756	93.06
295.987	71.06
296.217	85.06
296.448	80.06
296.679	82.06
296.909	100.06
297.14	96.06
297.37	84.06
297.601	72.06
297.831	74.06
298.062	68.06
298.292	78.06
298.523	90.06
298.753	81.06
298.984	82.06
299.214	87.06
299.445	84.06
299.675	90.06
299.905	92.06
300.136	79.06
300.366	82.06
300.597	76.06
300.827	89.06
301.057	88.06
301.288	82.06
301.518	87.06
301.748	99.06
301.979	93.06
302.209	84.06
302.439	86.06
302.669	79.06
302.9	74.06
303.13	86.06
303.36	94.06
303.59	73.06
303.82	76.06
304.051	68.06
304.281	76.06
304.511	88.06
304.741	73.06
304.971	69.06
305.201	92.06
305.431	70.06
305.661	89.06
305.891	79.06
306.121	85.06
306.352	75.06
306.582	74.06
306.812	94.06
307.042	86.06
307.272	88.06
307.502	95.06
307.731	71.06
307.961	86.06
308.191	92.06
308.421	90.06
308.651	93.06
308.881	77.06
309.111	85.06
309.341	86.06
309.571	95.06
309.8	85.06
310.03	85.06
310.26	85.06
310.49	84.06
310.72	82.06
310.949	70.06
311.179	88.06
311.409	92.06
311.639	83.06
311.868	85.06
312.098	97.06
312.328	80.06
312.557	91.06
312.787	76.06
313.017	89.06
313.246	89.06
313.476	75.06
313.706	92.06
313.935	67.06
314.165	80.06
314.394	94.06
314.624	90.06
314.853	85.06
315.083	90.06
315.312	86.06
315.542	97.06
315.771	92.06
316.001	80.06
316.23	87.06
316.46	80.06
316.689	70.06
316.919	69.06
317.148	89.06
317.377	80.06
317.607	90.06
317.836	83.06
318.065	84.06
318.295	88.06
318.524	75.06
318.753	89.06
318.983	82.06
319.212	91.06
319.441	84.06
319.67	88.06
319.9	81.06
320.129	94.06
320.358	90.06
320.587	86.06
320.816	89.06
321.046	94.06
321.275	79.06
321.504	89.06
321.733	76.06
321.962	75.06
322.191	74.06
322.42	81.06
322.649	78.06
322.878	93.06
323.108	81.06
323.337	82.06
323.566	99.06
323.795	81.06
324.024	84.06
324.253	81.06
324.482	85.06
324.71	96.06
324.939	68.06
325.168	79.06
325.397	81.06
325.626	92.06
325.855	82.06
326.084	92.06
326.313	68.06
326.542	75.06
326.77	85.06
326.999	84.06
327.228	76.06
327.457	78.06
327.686	81.06
327.914	93.06
328.143	92.06
328.372	86.06
328.6	73.06
328.829	82.06
329.058	70.06
329.287	85.06
329.515	84.06
329.744	94.06
329.972	87.06
330.201	76.06
330.43	81.06
330.658	82.06
330.887	93.06
331.115	91.06
331.344	93.06
331.572	95.06
331.801	83.06
332.03	85.06
332.258	94.06
332.486	73.06
332.715	76.06
332.943	79.06
333.172	75.06
333.4	85.06
333.629	88.06
333.857	86.06
334.085	81.06
334.314	83.06
334.542	83.06
334.771	88.06
334.999	79.06
335.227	90.06
335.455	97.06
335.684	84.06
335.912	90.06
336.14	86.06
336.369	81.06
336.597	94.06
336.825	90.06
337.053	88.06
337.281	89.06
337.51	83.06
337.738	101.06
337.966	80.06
338.194	93.06
338.422	86.06
338.65	95.06
338.878	91.06
339.106	80.06
339.334	82.06
339.562	84.06
339.79	81.06
340.018	86.06
340.246	89.06
340.474	78.06
340.702	68.06
340.93	85.06
341.158	94.06
341.386	80.06
341.614	69.06
341.842	80.06
342.07	80.06
342.298	79.06
342.526	82.06
342.754	80.06
342.981	87.06
343.209	89.06
343.437	91.06
343.665	83.06
343.893	86.06
344.12	96.06
344.348	84.06
344.576	96.06
344.804	94.06
345.031	84.06
345.259	95.06
345.487	90.06
345.714	89.06
345.942	75.06
346.17	78.06
346.397	99.06
346.625	95.06
346.853	85.06
347.08	107.06
347.308	87.06
347.535	90.06
347.763	90.06
347.99	100.06
348.218	88.06
348.445	90.06
348.673	79.06
348.9	79.06
349.128	105.06
349.355	84.06
349.583	60.06
349.81	83.06
350.037	74.06
350.265	83.06
350.492	89.06
350.72	100.06
350.947	85.06
351.174	79.06
351.402	90.06
351.629	81.06
351.856	78.06
352.083	84.06
352.311	80.06
352.538	80.06
352.765	90.06
352.992	93.06
353.22	85.06
353.447	81.06
353.674	84.06
353.901	89.06
354.128	74.06
354.355	83.06
354.583	79.06
354.81	94.06
355.037	85.06
355.264	88.06
355.491	75.06
355.718	79.06
355.945	84.06
356.172	84.06
356.399	78.06
356.626	71.06
356.853	71.06
357.08	94.06
357.307	107.06
357.534	76.06
357.761	66.06
357.988	84.06
358.215	98.06
358.441	84.06
358.668	103.06
358.895	101.06
359.122	82.06
359.349	83.06
359.576	83.06
359.802	77.06
360.029	80.06
360.256	77.06
360.483	97.06
360.709	81.06
360.936	83.06
361.163	81.06
361.39	85.06
361.616	77.06
361.843	83.06
362.07	78.06
362.296	90.06
362.523	71.06
362.749	81.06
362.976	82.06
363.203	81.06
363.429	85.06
363.656	86.06
363.882	90.06
364.109	80.06
364.335	84.06
364.562	90.06
364.788	88.06
365.015	92.06
365.241	70.06
365.468	81.06
365.694	84.06
365.92	68.06
366.147	78.06
366.373	72.06
366.599	80.06
366.826	95.06
367.052	84.06
367.278	78.06
367.505	78.06
367.731	101.06
367.957	80.06
368.184	71.06
368.41	71.06
368.636	76.06
368.862	82.06
369.089	90.06
369.315	83.06
369.541	90.06
369.767	89.06
369.993	80.06
370.219	79.06
370.445	75.06
370.672	85.06
370.898	81.06
371.124	94.06
371.35	67.06
371.576	83.06
371.802	80.06
372.028	87.06
372.254	74.06
372.48	82.06
372.706	75.06
372.932	80.06
373.158	88.06
373.384	90.06
373.61	79.06
373.835	82.06
374.061	84.06
374.287	84.06
374.513	85.06
374.739	78.06
374.965	81.06
375.191	83.06
375.416	83.06
375.642	91.06
375.868	80.06
376.094	81.06
376.319	80.06
376.545	90.06
376.771	88.06
376.997	78.06
377.222	84.06
377.448	77.06
377.674	82.06
377.899	88.06
378.125	89.06
378.35	89.06
378.576	63.06
378.802	74.06
379.027	94.06
379.253	75.06
379.478	86.06
379.704	77.06
379.929	87.06
380.155	81.06
380.38	77.06
380.606	89.06
380.831	81.06
381.057	88.06
381.282	76.06
381.507	80.06
381.733	90.06
381.958	82.06
382.184	91.06
382.409	88.06
382.634	94.06
382.86	88.06
383.085	79.06
383.31	76.06
383.535	70.06
383.761	84.06
383.986	86.06
384.211	72.06
384.436	78.06
384.662	78.06
384.887	82.06
385.112	81.06
385.337	78.06
385.562	91.06
385.787	83.06
386.013	85.06
386.238	69.06
386.463	80.06
386.688	106.06
386.913	76.06
387.138	90.06
387.363	94.06
387.588	90.06
387.813	90.06
388.038	91.06
388.263	79.06
388.488	78.06
388.713	74.06
388.938	73.06
389.163	76.06
389.387	79.06
389.612	81.06
389.837	85.06
390.062	89.06
390.287	90.06
390.512	79.06
390.736	80.06
390.961	99.06
391.186	91.06
391.411	83.06
391.636	96.06
391.86	88.06
392.085	76.06
392.31	78.06
392.534	81.06
392.759	74.06
392.984	82.06
393.208	81.06
393.433	79.06
393.658	87.06
393.882	92.06
394.107	83.06
394.331	73.06
394.556	77.06
394.78	83.06
395.005	82.06
395.229	77.06
395.454	83.06
395.678	73.06
395.903	78.06
396.127	80.06
396.352	79.06
396.576	103.06
396.801	88.06
397.025	86.06
397.249	86.06
397.474	86.06
397.698	83.06
397.922	82.06
398.147	70.06
398.371	68.06
398.595	85.06
398.82	75.06
399.044	77.06
399.268	69.06
399.492	81.06
399.717	88.06
399.941	73.06
400.165	78.06
400.389	71.06
400.613	97.06
400.837	92.06
401.062	62.06
401.286	90.06
401.51	72.06
401.734	86.06
401.958	88.06
402.182	61.06
402.406	70.06
402.63	72.06
402.854	92.06
403.078	79.06
403.302	73.06
403.526	92.06
403.75	79.06
403.974	84.06
404.198	74.06
404.422	90.06
404.645	89.06
404.869	97.06
405.093	88.06
405.317	78.06
405.541	66.06
405.765	84.06
405.988	85.06
406.212	84.06
406.436	76.06
406.66	77.06
406.883	77.06
407.107	91.06
407.331	83.06
407.555	83.06
407.778	94.06
408.002	72.06
408.226	73.06
408.449	83.06
408.673	70.06
408.896	76.06
409.12	83.06
409.344	72.06
409.567	96.06
409.791	79.06
410.014	89.06
410.238	78.06
410.461	91.06
410.685	74.06
410.908	77.06
411.132	81.06
411.355	82.06
411.578	82.06
411.802	84.06
412.025	79.06
412.249	98.06
412.472	85.06
412.695	80.06
412.919	76.06
413.142	75.06
413.365	76.06
413.589	71.06
413.812	77.06
414.035	81.06
414.258	80.06
414.482	84.06
414.705	95.06
414.928	92.06
415.151	80.06
415.374	73.06
415.597	80.06
415.821	71.06
416.044	76.06
416.267	78.06
416.49	76.06
416.713	68.06
416.936	82.06
417.159	88.06
417.382	85.06
417.605	82.06
417.828	80.06
418.051	80.06
418.274	77.06
418.497	80.06
418.72	90.06
418.943	70.06
419.166	81.06
419.389	76.06
419.611	72.06
419.834	70.06
420.057	82.06
420.28	80.06
420.503	79.06
420.726	80.06
420.948	92.06
421.171	85.06
421.394	76.06
421.617	68.06
421.839	73.06
422.062	70.06
422.285	82.06
422.507	82.06
422.73	75.06
422.953	77.06
423.175	69.06
423.398	84.06
423.621	81.06
423.843	72.06
424.066	80.06
424.288	89.06
424.511	74.06
424.733	89.06
424.956	88.06
425.178	89.06
425.401	93.06
425.623	85.06
425.846	75.06
426.068	92.06
426.291	76.06
426.513	73.06
426.735	78.06
426.958	88.06
427.18	86.06
427.402	61.06
427.625	69.06
427.847	78.06
428.069	74.06
428.292	83.06
428.514	76.06
428.736	81.06
428.958	82.06
429.181	87.06
429.403	76.06
429.625	63.06
429.847	82.06
430.069	86.06
430.292	82.06
430.514	88.06
430.736	68.06
430.958	69.06
431.18	74.06
431.402	85.06
431.624	83.06
431.846	78.06
432.068	76.06
432.29	92.06
432.512	88.06
432.734	82.06
432.956	89.06
433.178	81.06
433.4	76.06
433.622	72.06
433.844	75.06
434.066	78.06
434.287	86.06
434.509	71.06
434.731	88.06
434.953	76.06
435.175	72.06
435.397	82.06
435.618	95.06
435.84	75.06
436.062	77.06
436.284	66.06
436.505	73.06
436.727	92.06
436.949	75.06
437.17	77.06
437.392	77.06
437.614	87.06
437.835	91.06
438.057	76.06
438.278	80.06
438.5	70.06
438.721	92.06
438.943	68.06
439.165	75.06
439.386	80.06
439.608	78.06
439.829	80.06
440.05	72.06
440.272	75.06
440.493	89.06
440.715	88.06
440.936	86.06
441.158	79.06
441.379	80.06
441.6	74.06
441.822	77.06
442.043	93.06
442.264	87.06
442.486	75.06
442.707	72.06
442.928	76.06
443.149	90.06
443.371	83.06
443.592	80.06
443.813	75.06
444.034	74.06
444.255	84.06
444.476	74.06
444.698	81.06
444.919	82.06
445.14	131.06
445.361	132.06
445.582	98.06
445.803	78.06
446.024	75.06
446.245	80.06
446.466	71.06
446.687	73.06
446.908	78.06
447.129	89.06
447.35	60.06
447.571	82.06
447.792	84.06
448.013	86.06
448.234	78.06
448.455	67.06
448.675	86.06
448.896	80.06
449.117	75.06
449.338	82.06
449.559	73.06
449.779	75.06
450	74.06
450.221	79.06
450.442	86.06
450.662	78.06
450.883	78.06
451.104	90.06
451.324	81.06
451.545	75.06
451.766	61.06
451.986	71.06
452.207	85.06
452.428	74.06
452.648	80.06
452.869	80.06
453.089	78.06
453.31	76.06
453.53	75.06
453.751	84.06
453.971	77.06
454.192	76.06
454.412	78.06
454.633	72.06
454.853	72.06
455.073	84.06
455.294	81.06
455.514	91.06
455.734	76.06
455.955	83.06
456.175	77.06
456.395	83.06
456.616	87.06
456.836	68.06
457.056	92.06
457.276	70.06
457.497	74.06
457.717	73.06
457.937	85.06
458.157	76.06
458.377	78.06
458.598	73.06
458.818	74.06
459.038	79.06
459.258	88.06
459.478	87.06
459.698	67.06
459.918	63.06
460.138	65.06
460.358	71.06
460.578	80.06
460.798	76.06
461.018	83.06
461.238	92.06
461.458	88.06
461.678	73.06
461.898	78.06
462.118	89.06
462.338	82.06
462.558	86.06
462.777	76.06
462.997	88.06
463.217	84.06
463.437	83.06
463.657	81.06
463.876	74.06
464.096	77.06
464.316	82.06
464.536	81.06
464.755	76.06
464.975	85.06
465.195	73.06
465.414	80.06
465.634	93.06
465.854	85.06
466.073	72.06
466.293	70.06
466.512	80.06
466.732	78.06
466.951	77.06
467.171	83.06
467.391	79.06
467.61	82.06
467.829	87.06
468.049	81.06
468.268	83.06
468.488	76.06
468.707	69.06
468.927	67.06
469.146	76.06
469.365	78.06
469.585	78.06
469.804	72.06
470.023	74.06
470.243	74.06
470.462	64.06
470.681	80.06
470.901	78.06
471.12	77.06
471.339	79.06
471.558	68.06
471.777	84.06
471.997	81.06
472.216	78.06
472.435	83.06
472.654	85.06
472.873	81.06
473.092	66.06
473.311	92.06
473.53	78.06
473.749	92.06
473.968	84.06
474.187	84.06
474.406	74.06
474.625	85.06
474.844	93.06
475.063	83.06
475.282	82.06
475.501	70.06
475.72	84.06
475.939	86.06
476.158	77.06
476.377	99.06
476.596	76.06
476.814	79.06
477.033	94.06
477.252	76.06
477.471	81.06
477.69	69.06
477.908	71.06
478.127	92.06
478.346	75.06
478.564	72.06
478.783	69.06
479.002	93.06
479.22	84.06
479.439	77.06
479.658	82.06
479.876	66.06
480.095	79.06
480.313	81.06
480.532	91.06
480.751	84.06
480.969	76.06
481.188	73.06
481.406	77.06
481.624	82.06
481.843	82.06
482.061	85.06
482.28	92.06
482.498	77.06
482.717	64.06
482.935	90.06
483.153	62.06
483.372	90.06
483.59	76.06
483.808	72.06
484.027	85.06
484.245	82.06
484.463	87.06
484.681	75.06
484.9	82.06
485.118	74.06
485.336	80.06
485.554	88.06
485.772	77.06
485.99	77.06
486.209	84.06
486.427	69.06
486.645	80.06
486.863	58.06
487.081	82.06
487.299	88.06
487.517	106.06
487.735	92.06
487.953	85.06
488.171	88.06
488.389	65.06
488.607	71.06
488.825	84.06
489.043	82.06
489.261	90.06
489.479	78.06
489.696	86.06
489.914	89.06
490.132	86.06
490.35	94.06
490.568	82.06
490.786	78.06
491.003	68.06
491.221	76.06
491.439	79.06
491.657	72.06
491.874	80.06
492.092	82.06
492.31	73.06
492.527	86.06
492.745	94.06
492.963	83.06
493.18	86.06
493.398	61.06
493.615	68.06
493.833	80.06
494.05	70.06
494.268	94.06
494.485	94.06
494.703	85.06
494.92	66.06
495.138	75.06
495.355	74.06
495.573	80.06
495.79	82.06
496.008	83.06
496.225	79.06
496.442	80.06
496.66	104.06
496.877	79.06
497.094	84.06
497.312	72.06
497.529	88.06
497.746	83.06
497.963	85.06
498.181	86.06
498.398	76.06
498.615	67.06
498.832	90.06
499.049	83.06
499.267	85.06
499.484	82.06
499.701	88.06
499.918	84.06
500.135	76.06
500.352	84.06
500.569	64.06
500.786	86.06
501.003	73.06
501.22	85.06
501.437	92.06
501.654	86.06
501.871	93.06
502.088	70.06
502.305	86.06
502.522	78.06
502.739	99.06
502.956	89.06
503.172	78.06
503.389	78.06
503.606	78.06
503.823	80.06
504.04	76.06
504.256	93.06
504.473	74.06
504.69	97.06
504.907	100.06
505.123	106.06
505.34	87.06
505.557	71.06
505.773	91.06
505.99	76.06
506.207	80.06
506.423	84.06
506.64	93.06
506.856	88.06
507.073	79.06
507.289	81.06
507.506	70.06
507.722	84.06
507.939	70.06
508.155	84.06
508.372	74.06
508.588	77.06
508.805	96.06
509.021	90.06
509.238	92.06
509.454	82.06
509.67	80.06
509.887	78.06
510.103	82.06
510.319	89.06
510.536	82.06
510.752	89.06
510.968	82.06
511.184	88.06
511.401	62.06
511.617	79.06
511.833	74.06
512.049	77.06
512.265	79.06
512.481	82.06
512.698	87.06
512.914	71.06
513.13	73.06
513.346	97.06
513.562	72.06
513.778	85.06
513.994	78.06
514.21	80.06
514.426	95.06
514.642	85.06
514.858	82.06
515.074	77.06
515.29	85.06
515.506	73.06
515.721	77.06
515.937	93.06
516.153	85.06
516.369	80.06
516.585	85.06
516.801	74.06
517.016	72.06
517.232	85.06
517.448	78.06
517.664	69.06
517.879	80.06
518.095	90.06
518.311	77.06
518.527	73.06
518.742	81.06
518.958	75.06
519.173	88.06
519.389	84.06
519.605	76.06
519.82	83.06
520.036	78.06
