Data from Background_3_HRD10591_00088.txt Node
Date: Wed Nov 05 14:50:03 EST 2025
User: Yrep
Spectrometer: HR+D1059
Trigger mode: 1
Integration Time (sec): 1.000000E-1
Scans to average: 1
Electric dark correction enabled: true
Nonlinearity correction enabled: false
Boxcar width: 0
XAxis mode: Wavelengths
Number of Pixels in Spectrum: 2048
>>>>>Begin Spectral Data<<<<<
223.165	-10.31
223.4	-10.31
223.635	-10.31
223.869	-13.31
224.104	-9.31
224.338	-17.31
224.573	-20.31
224.808	1.69
225.042	-12.31
225.277	3.69
225.511	-8.31
225.746	1.69
225.98	-10.31
226.215	12.69
226.449	12.69
226.683	13.69
226.918	25.69
227.152	29.69
227.387	28.69
227.621	48.69
227.856	48.69
228.09	46.69
228.324	56.69
228.559	49.69
228.793	59.69
229.027	60.69
229.262	67.69
229.496	53.69
229.73	67.69
229.964	91.69
230.199	75.69
230.433	64.69
230.667	89.69
230.901	87.69
231.136	73.69
231.37	77.69
231.604	77.69
231.838	94.69
232.072	65.69
232.306	83.69
232.541	84.69
232.775	78.69
233.009	97.69
233.243	77.69
233.477	91.69
233.711	81.69
233.945	84.69
234.179	77.69
234.413	83.69
234.647	74.69
234.881	74.69
235.115	80.69
235.349	80.69
235.583	80.69
235.817	86.69
236.051	70.69
236.285	76.69
236.519	68.69
236.753	98.69
236.987	79.69
237.221	71.69
237.455	71.69
237.689	81.69
237.922	74.69
238.156	71.69
238.39	80.69
238.624	74.69
238.858	78.69
239.091	77.69
239.325	68.69
239.559	69.69
239.793	83.69
240.027	71.69
240.26	87.69
240.494	83.69
240.728	67.69
240.961	82.69
241.195	68.69
241.429	78.69
241.662	78.69
241.896	71.69
242.13	85.69
242.363	76.69
242.597	69.69
242.83	78.69
243.064	64.69
243.298	69.69
243.531	78.69
243.765	86.69
243.998	76.69
244.232	83.69
244.465	92.69
244.699	65.69
244.932	72.69
245.166	82.69
245.399	65.69
245.633	70.69
245.866	76.69
246.099	74.69
246.333	70.69
246.566	67.69
246.8	80.69
247.033	86.69
247.266	85.69
247.5	83.69
247.733	96.69
247.966	87.69
248.2	76.69
248.433	66.69
248.666	77.69
248.899	86.69
249.133	96.69
249.366	82.69
249.599	84.69
249.832	68.69
250.066	59.69
250.299	78.69
250.532	64.69
250.765	79.69
250.998	83.69
251.231	88.69
251.465	89.69
251.698	82.69
251.931	78.69
252.164	87.69
252.397	67.69
252.63	81.69
252.863	76.69
253.096	72.69
253.329	85.69
253.562	96.69
253.795	70.69
254.028	78.69
254.261	74.69
254.494	88.69
254.727	87.69
254.96	61.69
255.193	80.69
255.426	77.69
255.659	65.69
255.892	92.69
256.124	89.69
256.357	76.69
256.59	75.69
256.823	60.69
257.056	76.69
257.289	81.69
257.521	70.69
257.754	84.69
257.987	89.69
258.22	88.69
258.452	70.69
258.685	68.69
258.918	80.69
259.151	78.69
259.383	80.69
259.616	74.69
259.849	77.69
260.081	88.69
260.314	100.69
260.547	70.69
260.779	76.69
261.012	83.69
261.244	80.69
261.477	86.69
261.71	82.69
261.942	71.69
262.175	81.69
262.407	78.69
262.64	76.69
262.872	89.69
263.105	84.69
263.337	91.69
263.57	90.69
263.802	83.69
264.035	72.69
264.267	89.69
264.499	76.69
264.732	92.69
264.964	68.69
265.197	69.69
265.429	77.69
265.661	88.69
265.894	87.69
266.126	87.69
266.358	70.69
266.591	64.69
266.823	77.69
267.055	72.69
267.287	77.69
267.52	61.69
267.752	82.69
267.984	88.69
268.216	76.69
268.448	84.69
268.681	76.69
268.913	70.69
269.145	70.69
269.377	85.69
269.609	86.69
269.841	78.69
270.073	86.69
270.306	89.69
270.538	91.69
270.77	97.69
271.002	77.69
271.234	88.69
271.466	89.69
271.698	76.69
271.93	76.69
272.162	85.69
272.394	87.69
272.626	71.69
272.858	75.69
273.09	82.69
273.322	76.69
273.553	76.69
273.785	78.69
274.017	73.69
274.249	80.69
274.481	83.69
274.713	84.69
274.945	91.69
275.176	79.69
275.408	70.69
275.64	85.69
275.872	80.69
276.104	77.69
276.335	90.69
276.567	73.69
276.799	80.69
277.031	78.69
277.262	84.69
277.494	90.69
277.726	91.69
277.957	80.69
278.189	88.69
278.421	63.69
278.652	83.69
278.884	88.69
279.115	88.69
279.347	88.69
279.579	78.69
279.81	79.69
280.042	82.69
280.273	75.69
280.505	84.69
280.736	71.69
280.968	85.69
281.199	87.69
281.431	81.69
281.662	92.69
281.894	88.69
282.125	76.69
282.356	91.69
282.588	87.69
282.819	89.69
283.051	90.69
283.282	89.69
283.513	93.69
283.745	83.69
283.976	78.69
284.207	88.69
284.439	84.69
284.67	105.69
284.901	95.69
285.132	80.69
285.364	78.69
285.595	84.69
285.826	72.69
286.057	85.69
286.288	93.69
286.52	80.69
286.751	77.69
286.982	81.69
287.213	88.69
287.444	85.69
287.675	71.69
287.906	86.69
288.138	89.69
288.369	75.69
288.6	89.69
288.831	78.69
289.062	87.69
289.293	70.69
289.524	83.69
289.755	72.69
289.986	78.69
290.217	86.69
290.448	94.69
290.679	86.69
290.91	79.69
291.141	92.69
291.371	97.69
291.602	81.69
291.833	81.69
292.064	85.69
292.295	83.69
292.526	73.69
292.757	86.69
292.987	72.69
293.218	95.69
293.449	78.69
293.68	93.69
293.91	85.69
294.141	92.69
294.372	100.69
294.603	65.69
294.833	97.69
295.064	85.69
295.295	90.69
295.525	85.69
295.756	72.69
295.987	75.69
296.217	85.69
296.448	76.69
296.679	77.69
296.909	96.69
297.14	84.69
297.37	90.69
297.601	79.69
297.831	75.69
298.062	99.69
298.292	91.69
298.523	85.69
298.753	72.69
298.984	82.69
299.214	91.69
299.445	74.69
299.675	99.69
299.905	87.69
300.136	65.69
300.366	72.69
300.597	84.69
300.827	83.69
301.057	88.69
301.288	94.69
301.518	85.69
301.748	88.69
301.979	114.69
302.209	70.69
302.439	85.69
302.669	104.69
302.9	82.69
303.13	78.69
303.36	81.69
303.59	70.69
303.82	91.69
304.051	77.69
304.281	77.69
304.511	75.69
304.741	81.69
304.971	81.69
305.201	70.69
305.431	87.69
305.661	96.69
305.891	97.69
306.121	92.69
306.352	73.69
306.582	72.69
306.812	88.69
307.042	70.69
307.272	68.69
307.502	78.69
307.731	89.69
307.961	90.69
308.191	69.69
308.421	78.69
308.651	74.69
308.881	78.69
309.111	82.69
309.341	88.69
309.571	77.69
309.8	80.69
310.03	84.69
310.26	78.69
310.49	92.69
310.72	88.69
310.949	77.69
311.179	82.69
311.409	93.69
311.639	79.69
311.868	101.69
312.098	95.69
312.328	93.69
312.557	92.69
312.787	88.69
313.017	79.69
313.246	84.69
313.476	75.69
313.706	91.69
313.935	74.69
314.165	71.69
314.394	70.69
314.624	76.69
314.853	78.69
315.083	75.69
315.312	92.69
315.542	80.69
315.771	91.69
316.001	88.69
316.23	90.69
316.46	90.69
316.689	67.69
316.919	82.69
317.148	69.69
317.377	106.69
317.607	88.69
317.836	76.69
318.065	65.69
318.295	82.69
318.524	73.69
318.753	78.69
318.983	93.69
319.212	69.69
319.441	69.69
319.67	92.69
319.9	92.69
320.129	75.69
320.358	80.69
320.587	96.69
320.816	92.69
321.046	71.69
321.275	70.69
321.504	89.69
321.733	66.69
321.962	90.69
322.191	81.69
322.42	91.69
322.649	85.69
322.878	98.69
323.108	96.69
323.337	89.69
323.566	90.69
323.795	85.69
324.024	83.69
324.253	77.69
324.482	84.69
324.71	100.69
324.939	75.69
325.168	77.69
325.397	94.69
325.626	77.69
325.855	81.69
326.084	70.69
326.313	78.69
326.542	76.69
326.77	96.69
326.999	87.69
327.228	95.69
327.457	106.69
327.686	81.69
327.914	79.69
328.143	78.69
328.372	91.69
328.6	75.69
328.829	82.69
329.058	84.69
329.287	91.69
329.515	87.69
329.744	68.69
329.972	74.69
330.201	69.69
330.43	79.69
330.658	86.69
330.887	78.69
331.115	81.69
331.344	74.69
331.572	90.69
331.801	74.69
332.03	84.69
332.258	85.69
332.486	92.69
332.715	93.69
332.943	76.69
333.172	86.69
333.4	72.69
333.629	88.69
333.857	89.69
334.085	85.69
334.314	86.69
334.542	89.69
334.771	87.69
334.999	91.69
335.227	77.69
335.455	77.69
335.684	88.69
335.912	89.69
336.14	88.69
336.369	89.69
336.597	94.69
336.825	76.69
337.053	84.69
337.281	70.69
337.51	77.69
337.738	85.69
337.966	64.69
338.194	77.69
338.422	64.69
338.65	78.69
338.878	80.69
339.106	90.69
339.334	84.69
339.562	69.69
339.79	80.69
340.018	80.69
340.246	79.69
340.474	88.69
340.702	79.69
340.93	79.69
341.158	75.69
341.386	90.69
341.614	83.69
341.842	83.69
342.07	84.69
342.298	83.69
342.526	81.69
342.754	73.69
342.981	87.69
343.209	81.69
343.437	94.69
343.665	89.69
343.893	96.69
344.12	78.69
344.348	89.69
344.576	100.69
344.804	78.69
345.031	82.69
345.259	86.69
345.487	84.69
345.714	79.69
345.942	73.69
346.17	89.69
346.397	75.69
346.625	78.69
346.853	78.69
347.08	83.69
347.308	84.69
347.535	90.69
347.763	84.69
347.99	94.69
348.218	79.69
348.445	69.69
348.673	76.69
348.9	81.69
349.128	89.69
349.355	96.69
349.583	95.69
349.81	84.69
350.037	76.69
350.265	79.69
350.492	87.69
350.72	77.69
350.947	69.69
351.174	74.69
351.402	81.69
351.629	91.69
351.856	82.69
352.083	84.69
352.311	85.69
352.538	80.69
352.765	94.69
352.992	90.69
353.22	92.69
353.447	83.69
353.674	81.69
353.901	83.69
354.128	92.69
354.355	90.69
354.583	88.69
354.81	78.69
355.037	92.69
355.264	90.69
355.491	78.69
355.718	104.69
355.945	94.69
356.172	81.69
356.399	85.69
356.626	80.69
356.853	82.69
357.08	91.69
357.307	93.69
357.534	85.69
357.761	93.69
357.988	87.69
358.215	90.69
358.441	67.69
358.668	90.69
358.895	92.69
359.122	80.69
359.349	94.69
359.576	76.69
359.802	89.69
360.029	79.69
360.256	87.69
360.483	65.69
360.709	78.69
360.936	82.69
361.163	90.69
361.39	89.69
361.616	90.69
361.843	95.69
362.07	91.69
362.296	79.69
362.523	56.69
362.749	68.69
362.976	74.69
363.203	94.69
363.429	78.69
363.656	78.69
363.882	91.69
364.109	83.69
364.335	78.69
364.562	85.69
364.788	67.69
365.015	89.69
365.241	104.69
365.468	90.69
365.694	87.69
365.92	86.69
366.147	74.69
366.373	80.69
366.599	78.69
366.826	84.69
367.052	64.69
367.278	69.69
367.505	72.69
367.731	94.69
367.957	88.69
368.184	86.69
368.41	84.69
368.636	77.69
368.862	85.69
369.089	75.69
369.315	67.69
369.541	69.69
369.767	78.69
369.993	76.69
370.219	86.69
370.445	77.69
370.672	69.69
370.898	86.69
371.124	70.69
371.35	84.69
371.576	69.69
371.802	100.69
372.028	79.69
372.254	85.69
372.48	95.69
372.706	66.69
372.932	95.69
373.158	83.69
373.384	83.69
373.61	74.69
373.835	80.69
374.061	84.69
374.287	78.69
374.513	93.69
374.739	74.69
374.965	77.69
375.191	79.69
375.416	74.69
375.642	92.69
375.868	85.69
376.094	89.69
376.319	71.69
376.545	68.69
376.771	61.69
376.997	79.69
377.222	92.69
377.448	77.69
377.674	78.69
377.899	91.69
378.125	85.69
378.35	77.69
378.576	81.69
378.802	70.69
379.027	88.69
379.253	82.69
379.478	74.69
379.704	76.69
379.929	70.69
380.155	88.69
380.38	78.69
380.606	75.69
380.831	70.69
381.057	77.69
381.282	81.69
381.507	91.69
381.733	98.69
381.958	104.69
382.184	74.69
382.409	77.69
382.634	83.69
382.86	89.69
383.085	76.69
383.31	84.69
383.535	84.69
383.761	82.69
383.986	94.69
384.211	72.69
384.436	66.69
384.662	94.69
384.887	76.69
385.112	87.69
385.337	90.69
385.562	82.69
385.787	85.69
386.013	82.69
386.238	76.69
386.463	77.69
386.688	78.69
386.913	81.69
387.138	76.69
387.363	74.69
387.588	81.69
387.813	85.69
388.038	82.69
388.263	79.69
388.488	75.69
388.713	76.69
388.938	71.69
389.163	76.69
389.387	78.69
389.612	74.69
389.837	92.69
390.062	74.69
390.287	80.69
390.512	81.69
390.736	81.69
390.961	74.69
391.186	78.69
391.411	84.69
391.636	89.69
391.86	80.69
392.085	80.69
392.31	84.69
392.534	75.69
392.759	69.69
392.984	70.69
393.208	73.69
393.433	80.69
393.658	82.69
393.882	86.69
394.107	87.69
394.331	94.69
394.556	79.69
394.78	78.69
395.005	85.69
395.229	82.69
395.454	72.69
395.678	75.69
395.903	76.69
396.127	90.69
396.352	77.69
396.576	89.69
396.801	80.69
397.025	76.69
397.249	78.69
397.474	89.69
397.698	85.69
397.922	77.69
398.147	79.69
398.371	83.69
398.595	90.69
398.82	74.69
399.044	76.69
399.268	79.69
399.492	86.69
399.717	91.69
399.941	83.69
400.165	90.69
400.389	85.69
400.613	88.69
400.837	85.69
401.062	78.69
401.286	84.69
401.51	85.69
401.734	89.69
401.958	81.69
402.182	78.69
402.406	78.69
402.63	73.69
402.854	85.69
403.078	77.69
403.302	98.69
403.526	104.69
403.75	93.69
403.974	85.69
404.198	78.69
404.422	71.69
404.645	62.69
404.869	80.69
405.093	87.69
405.317	84.69
405.541	86.69
405.765	81.69
405.988	82.69
406.212	82.69
406.436	89.69
406.66	77.69
406.883	69.69
407.107	85.69
407.331	72.69
407.555	82.69
407.778	81.69
408.002	65.69
408.226	80.69
408.449	76.69
408.673	75.69
408.896	66.69
409.12	63.69
409.344	81.69
409.567	88.69
409.791	99.69
410.014	100.69
410.238	82.69
410.461	64.69
410.685	72.69
410.908	79.69
411.132	67.69
411.355	82.69
411.578	86.69
411.802	60.69
412.025	89.69
412.249	82.69
412.472	83.69
412.695	79.69
412.919	85.69
413.142	85.69
413.365	88.69
413.589	84.69
413.812	89.69
414.035	80.69
414.258	78.69
414.482	78.69
414.705	77.69
414.928	77.69
415.151	70.69
415.374	85.69
415.597	72.69
415.821	92.69
416.044	75.69
416.267	77.69
416.49	78.69
416.713	85.69
416.936	92.69
417.159	79.69
417.382	88.69
417.605	69.69
417.828	76.69
418.051	82.69
418.274	88.69
418.497	65.69
418.72	64.69
418.943	73.69
419.166	85.69
419.389	80.69
419.611	61.69
419.834	81.69
420.057	76.69
420.28	89.69
420.503	79.69
420.726	78.69
420.948	84.69
421.171	73.69
421.394	79.69
421.617	75.69
421.839	81.69
422.062	83.69
422.285	91.69
422.507	85.69
422.73	87.69
422.953	70.69
423.175	76.69
423.398	83.69
423.621	83.69
423.843	75.69
424.066	79.69
424.288	83.69
424.511	90.69
424.733	92.69
424.956	76.69
425.178	88.69
425.401	82.69
425.623	88.69
425.846	76.69
426.068	74.69
426.291	75.69
426.513	76.69
426.735	91.69
426.958	76.69
427.18	81.69
427.402	85.69
427.625	79.69
427.847	84.69
428.069	65.69
428.292	88.69
428.514	92.69
428.736	86.69
428.958	72.69
429.181	66.69
429.403	66.69
429.625	71.69
429.847	87.69
430.069	85.69
430.292	80.69
430.514	71.69
430.736	86.69
430.958	84.69
431.18	90.69
431.402	78.69
431.624	86.69
431.846	74.69
432.068	65.69
432.29	84.69
432.512	84.69
432.734	67.69
432.956	80.69
433.178	59.69
433.4	92.69
433.622	74.69
433.844	86.69
434.066	83.69
434.287	72.69
434.509	70.69
434.731	90.69
434.953	80.69
435.175	68.69
435.397	74.69
435.618	93.69
435.84	81.69
436.062	60.69
436.284	76.69
436.505	70.69
436.727	76.69
436.949	83.69
437.17	72.69
437.392	84.69
437.614	84.69
437.835	90.69
438.057	80.69
438.278	88.69
438.5	82.69
438.721	76.69
438.943	73.69
439.165	79.69
439.386	74.69
439.608	94.69
439.829	81.69
440.05	89.69
440.272	84.69
440.493	82.69
440.715	86.69
440.936	89.69
441.158	76.69
441.379	89.69
441.6	60.69
441.822	80.69
442.043	89.69
442.264	92.69
442.486	76.69
442.707	85.69
442.928	76.69
443.149	82.69
443.371	89.69
443.592	69.69
443.813	86.69
444.034	76.69
444.255	82.69
444.476	84.69
444.698	78.69
444.919	83.69
445.14	143.69
445.361	116.69
445.582	78.69
445.803	89.69
446.024	90.69
446.245	75.69
446.466	76.69
446.687	85.69
446.908	81.69
447.129	76.69
447.35	92.69
447.571	87.69
447.792	75.69
448.013	88.69
448.234	88.69
448.455	81.69
448.675	78.69
448.896	94.69
449.117	67.69
449.338	76.69
449.559	82.69
449.779	67.69
450	89.69
450.221	80.69
450.442	92.69
450.662	90.69
450.883	89.69
451.104	74.69
451.324	85.69
451.545	75.69
451.766	90.69
451.986	83.69
452.207	88.69
452.428	82.69
452.648	84.69
452.869	70.69
453.089	81.69
453.31	88.69
453.53	77.69
453.751	77.69
453.971	80.69
454.192	60.69
454.412	69.69
454.633	78.69
454.853	85.69
455.073	80.69
455.294	84.69
455.514	77.69
455.734	80.69
455.955	68.69
456.175	86.69
456.395	80.69
456.616	68.69
456.836	78.69
457.056	74.69
457.276	68.69
457.497	68.69
457.717	91.69
457.937	90.69
458.157	77.69
458.377	76.69
458.598	86.69
458.818	83.69
459.038	71.69
459.258	80.69
459.478	80.69
459.698	85.69
459.918	74.69
460.138	72.69
460.358	83.69
460.578	74.69
460.798	75.69
461.018	82.69
461.238	68.69
461.458	79.69
461.678	78.69
461.898	94.69
462.118	82.69
462.338	83.69
462.558	83.69
462.777	77.69
462.997	80.69
463.217	84.69
463.437	88.69
463.657	78.69
463.876	89.69
464.096	73.69
464.316	80.69
464.536	86.69
464.755	75.69
464.975	80.69
465.195	69.69
465.414	83.69
465.634	75.69
465.854	90.69
466.073	92.69
466.293	76.69
466.512	92.69
466.732	87.69
466.951	81.69
467.171	81.69
467.391	85.69
467.61	93.69
467.829	85.69
468.049	85.69
468.268	79.69
468.488	82.69
468.707	92.69
468.927	71.69
469.146	86.69
469.365	81.69
469.585	82.69
469.804	83.69
470.023	74.69
470.243	84.69
470.462	87.69
470.681	78.69
470.901	68.69
471.12	76.69
471.339	80.69
471.558	82.69
471.777	69.69
471.997	84.69
472.216	88.69
472.435	86.69
472.654	95.69
472.873	84.69
473.092	78.69
473.311	74.69
473.53	84.69
473.749	79.69
473.968	79.69
474.187	76.69
474.406	83.69
474.625	67.69
474.844	79.69
475.063	77.69
475.282	69.69
475.501	89.69
475.72	88.69
475.939	82.69
476.158	86.69
476.377	89.69
476.596	82.69
476.814	78.69
477.033	69.69
477.252	72.69
477.471	85.69
477.69	78.69
477.908	89.69
478.127	79.69
478.346	85.69
478.564	81.69
478.783	80.69
479.002	80.69
479.22	93.69
479.439	94.69
479.658	81.69
479.876	89.69
480.095	89.69
480.313	83.69
480.532	83.69
480.751	79.69
480.969	69.69
481.188	88.69
481.406	74.69
481.624	78.69
481.843	77.69
482.061	70.69
482.28	75.69
482.498	86.69
482.717	75.69
482.935	88.69
483.153	91.69
483.372	92.69
483.59	82.69
483.808	84.69
484.027	79.69
484.245	81.69
484.463	84.69
484.681	73.69
484.9	86.69
485.118	81.69
485.336	84.69
485.554	70.69
485.772	85.69
485.99	77.69
486.209	85.69
486.427	74.69
486.645	86.69
486.863	88.69
487.081	81.69
487.299	90.69
487.517	83.69
487.735	82.69
487.953	86.69
488.171	88.69
488.389	72.69
488.607	76.69
488.825	78.69
489.043	79.69
489.261	80.69
489.479	90.69
489.696	83.69
489.914	86.69
490.132	90.69
490.35	84.69
490.568	88.69
490.786	77.69
491.003	74.69
491.221	75.69
491.439	80.69
491.657	89.69
491.874	84.69
492.092	87.69
492.31	74.69
492.527	68.69
492.745	76.69
492.963	93.69
493.18	77.69
493.398	72.69
493.615	81.69
493.833	85.69
494.05	69.69
494.268	69.69
494.485	91.69
494.703	82.69
494.92	94.69
495.138	77.69
495.355	81.69
495.573	81.69
495.79	77.69
496.008	99.69
496.225	91.69
496.442	88.69
496.66	85.69
496.877	80.69
497.094	92.69
497.312	88.69
497.529	79.69
497.746	91.69
497.963	91.69
498.181	66.69
498.398	82.69
498.615	87.69
498.832	89.69
499.049	79.69
499.267	81.69
499.484	69.69
499.701	88.69
499.918	92.69
500.135	82.69
500.352	81.69
500.569	78.69
500.786	80.69
501.003	83.69
501.22	83.69
501.437	82.69
501.654	84.69
501.871	91.69
502.088	65.69
502.305	91.69
502.522	98.69
502.739	74.69
502.956	77.69
503.172	81.69
503.389	81.69
503.606	78.69
503.823	71.69
504.04	86.69
504.256	80.69
504.473	81.69
504.69	82.69
504.907	81.69
505.123	73.69
505.34	95.69
505.557	94.69
505.773	77.69
505.99	84.69
506.207	72.69
506.423	75.69
506.64	82.69
506.856	83.69
507.073	94.69
507.289	88.69
507.506	82.69
507.722	88.69
507.939	76.69
508.155	88.69
508.372	84.69
508.588	84.69
508.805	97.69
509.021	88.69
509.238	91.69
509.454	77.69
509.67	76.69
509.887	82.69
510.103	92.69
510.319	85.69
510.536	85.69
510.752	88.69
510.968	98.69
511.184	82.69
511.401	79.69
511.617	72.69
511.833	79.69
512.049	73.69
512.265	77.69
512.481	84.69
512.698	70.69
512.914	70.69
513.13	81.69
513.346	74.69
513.562	94.69
513.778	85.69
513.994	75.69
514.21	90.69
514.426	70.69
514.642	86.69
514.858	93.69
515.074	95.69
515.29	86.69
515.506	81.69
515.721	80.69
515.937	77.69
516.153	84.69
516.369	83.69
516.585	86.69
516.801	86.69
517.016	85.69
517.232	80.69
517.448	85.69
517.664	80.69
517.879	91.69
518.095	85.69
518.311	94.69
518.527	78.69
518.742	83.69
518.958	73.69
519.173	81.69
519.389	74.69
519.605	76.69
519.82	79.69
520.036	87.69
