Data from Background_3_HRD10591_00008.txt Node
Date: Wed Nov 05 14:49:24 EST 2025
User: Yrep
Spectrometer: HR+D1059
Trigger mode: 1
Integration Time (sec): 1.000000E-1
Scans to average: 1
Electric dark correction enabled: true
Nonlinearity correction enabled: false
Boxcar width: 0
XAxis mode: Wavelengths
Number of Pixels in Spectrum: 2048
>>>>>Begin Spectral Data<<<<<
223.165	-19.25
223.4	-19.25
223.635	-19.25
223.869	-15.25
224.104	-17.25
224.338	-3.25
224.573	-14.25
224.808	-10.25
225.042	-13.25
225.277	-0.25
225.511	-4.25
225.746	-1.25
225.98	3.75
226.215	0.75
226.449	15.75
226.683	23.75
226.918	25.75
227.152	28.75
227.387	21.75
227.621	31.75
227.856	47.75
228.09	42.75
228.324	51.75
228.559	49.75
228.793	37.75
229.027	56.75
229.262	66.75
229.496	67.75
229.73	56.75
229.964	70.75
230.199	65.75
230.433	87.75
230.667	70.75
230.901	88.75
231.136	75.75
231.37	77.75
231.604	79.75
231.838	83.75
232.072	68.75
232.306	81.75
232.541	87.75
232.775	85.75
233.009	73.75
233.243	74.75
233.477	85.75
233.711	78.75
233.945	89.75
234.179	80.75
234.413	70.75
234.647	64.75
234.881	77.75
235.115	81.75
235.349	75.75
235.583	73.75
235.817	82.75
236.051	76.75
236.285	79.75
236.519	63.75
236.753	74.75
236.987	88.75
237.221	72.75
237.455	81.75
237.689	89.75
237.922	83.75
238.156	79.75
238.39	77.75
238.624	83.75
238.858	81.75
239.091	82.75
239.325	72.75
239.559	66.75
239.793	73.75
240.027	71.75
240.26	66.75
240.494	85.75
240.728	62.75
240.961	69.75
241.195	55.75
241.429	80.75
241.662	76.75
241.896	70.75
242.13	68.75
242.363	81.75
242.597	83.75
242.83	88.75
243.064	73.75
243.298	86.75
243.531	81.75
243.765	81.75
243.998	78.75
244.232	89.75
244.465	70.75
244.699	77.75
244.932	67.75
245.166	74.75
245.399	63.75
245.633	63.75
245.866	65.75
246.099	77.75
246.333	67.75
246.566	81.75
246.8	68.75
247.033	76.75
247.266	63.75
247.5	65.75
247.733	81.75
247.966	72.75
248.2	70.75
248.433	79.75
248.666	74.75
248.899	72.75
249.133	88.75
249.366	78.75
249.599	75.75
249.832	70.75
250.066	76.75
250.299	71.75
250.532	70.75
250.765	86.75
250.998	75.75
251.231	76.75
251.465	69.75
251.698	69.75
251.931	84.75
252.164	70.75
252.397	64.75
252.63	81.75
252.863	74.75
253.096	71.75
253.329	75.75
253.562	69.75
253.795	69.75
254.028	68.75
254.261	67.75
254.494	71.75
254.727	99.75
254.96	84.75
255.193	86.75
255.426	65.75
255.659	70.75
255.892	80.75
256.124	80.75
256.357	67.75
256.59	104.75
256.823	83.75
257.056	69.75
257.289	69.75
257.521	83.75
257.754	79.75
257.987	76.75
258.22	81.75
258.452	82.75
258.685	75.75
258.918	65.75
259.151	77.75
259.383	73.75
259.616	79.75
259.849	87.75
260.081	79.75
260.314	75.75
260.547	75.75
260.779	78.75
261.012	67.75
261.244	84.75
261.477	82.75
261.71	78.75
261.942	75.75
262.175	83.75
262.407	91.75
262.64	82.75
262.872	79.75
263.105	80.75
263.337	93.75
263.57	67.75
263.802	81.75
264.035	83.75
264.267	84.75
264.499	77.75
264.732	91.75
264.964	79.75
265.197	74.75
265.429	80.75
265.661	85.75
265.894	83.75
266.126	80.75
266.358	87.75
266.591	82.75
266.823	81.75
267.055	79.75
267.287	79.75
267.52	80.75
267.752	68.75
267.984	82.75
268.216	79.75
268.448	78.75
268.681	86.75
268.913	78.75
269.145	81.75
269.377	71.75
269.609	73.75
269.841	67.75
270.073	77.75
270.306	82.75
270.538	81.75
270.77	79.75
271.002	85.75
271.234	83.75
271.466	66.75
271.698	75.75
271.93	80.75
272.162	91.75
272.394	66.75
272.626	70.75
272.858	79.75
273.09	91.75
273.322	77.75
273.553	77.75
273.785	78.75
274.017	81.75
274.249	79.75
274.481	69.75
274.713	74.75
274.945	80.75
275.176	90.75
275.408	90.75
275.64	82.75
275.872	104.75
276.104	80.75
276.335	72.75
276.567	81.75
276.799	85.75
277.031	75.75
277.262	80.75
277.494	79.75
277.726	90.75
277.957	74.75
278.189	87.75
278.421	83.75
278.652	77.75
278.884	92.75
279.115	90.75
279.347	71.75
279.579	79.75
279.81	78.75
280.042	73.75
280.273	69.75
280.505	85.75
280.736	77.75
280.968	84.75
281.199	91.75
281.431	91.75
281.662	85.75
281.894	70.75
282.125	82.75
282.356	63.75
282.588	91.75
282.819	81.75
283.051	64.75
283.282	75.75
283.513	83.75
283.745	83.75
283.976	79.75
284.207	90.75
284.439	85.75
284.67	75.75
284.901	91.75
285.132	69.75
285.364	73.75
285.595	78.75
285.826	70.75
286.057	73.75
286.288	83.75
286.52	74.75
286.751	91.75
286.982	74.75
287.213	80.75
287.444	67.75
287.675	71.75
287.906	88.75
288.138	77.75
288.369	92.75
288.6	87.75
288.831	79.75
289.062	83.75
289.293	81.75
289.524	74.75
289.755	89.75
289.986	80.75
290.217	85.75
290.448	84.75
290.679	78.75
290.91	81.75
291.141	88.75
291.371	77.75
291.602	73.75
291.833	91.75
292.064	81.75
292.295	73.75
292.526	83.75
292.757	88.75
292.987	89.75
293.218	77.75
293.449	80.75
293.68	85.75
293.91	82.75
294.141	88.75
294.372	88.75
294.603	76.75
294.833	83.75
295.064	81.75
295.295	76.75
295.525	92.75
295.756	91.75
295.987	64.75
296.217	84.75
296.448	81.75
296.679	85.75
296.909	87.75
297.14	76.75
297.37	91.75
297.601	93.75
297.831	81.75
298.062	84.75
298.292	92.75
298.523	88.75
298.753	82.75
298.984	93.75
299.214	79.75
299.445	81.75
299.675	69.75
299.905	82.75
300.136	75.75
300.366	82.75
300.597	81.75
300.827	92.75
301.057	87.75
301.288	100.75
301.518	85.75
301.748	87.75
301.979	97.75
302.209	76.75
302.439	88.75
302.669	84.75
302.9	84.75
303.13	84.75
303.36	86.75
303.59	79.75
303.82	85.75
304.051	85.75
304.281	87.75
304.511	72.75
304.741	87.75
304.971	93.75
305.201	89.75
305.431	85.75
305.661	73.75
305.891	76.75
306.121	78.75
306.352	83.75
306.582	97.75
306.812	82.75
307.042	99.75
307.272	93.75
307.502	93.75
307.731	87.75
307.961	75.75
308.191	88.75
308.421	75.75
308.651	85.75
308.881	70.75
309.111	81.75
309.341	77.75
309.571	83.75
309.8	100.75
310.03	88.75
310.26	84.75
310.49	81.75
310.72	82.75
310.949	86.75
311.179	87.75
311.409	89.75
311.639	84.75
311.868	72.75
312.098	81.75
312.328	69.75
312.557	71.75
312.787	75.75
313.017	95.75
313.246	78.75
313.476	77.75
313.706	76.75
313.935	93.75
314.165	83.75
314.394	78.75
314.624	91.75
314.853	84.75
315.083	93.75
315.312	88.75
315.542	81.75
315.771	82.75
316.001	89.75
316.23	81.75
316.46	93.75
316.689	79.75
316.919	83.75
317.148	75.75
317.377	84.75
317.607	84.75
317.836	85.75
318.065	78.75
318.295	73.75
318.524	86.75
318.753	77.75
318.983	84.75
319.212	94.75
319.441	92.75
319.67	71.75
319.9	75.75
320.129	77.75
320.358	75.75
320.587	91.75
320.816	80.75
321.046	85.75
321.275	76.75
321.504	80.75
321.733	86.75
321.962	59.75
322.191	81.75
322.42	78.75
322.649	90.75
322.878	82.75
323.108	84.75
323.337	80.75
323.566	83.75
323.795	81.75
324.024	77.75
324.253	72.75
324.482	63.75
324.71	82.75
324.939	87.75
325.168	79.75
325.397	84.75
325.626	72.75
325.855	72.75
326.084	72.75
326.313	84.75
326.542	80.75
326.77	84.75
326.999	93.75
327.228	66.75
327.457	75.75
327.686	88.75
327.914	91.75
328.143	91.75
328.372	86.75
328.6	91.75
328.829	68.75
329.058	67.75
329.287	83.75
329.515	75.75
329.744	72.75
329.972	88.75
330.201	84.75
330.43	87.75
330.658	75.75
330.887	85.75
331.115	93.75
331.344	83.75
331.572	92.75
331.801	73.75
332.03	80.75
332.258	83.75
332.486	81.75
332.715	74.75
332.943	91.75
333.172	79.75
333.4	85.75
333.629	87.75
333.857	91.75
334.085	81.75
334.314	76.75
334.542	82.75
334.771	91.75
334.999	79.75
335.227	75.75
335.455	84.75
335.684	74.75
335.912	75.75
336.14	72.75
336.369	82.75
336.597	90.75
336.825	74.75
337.053	93.75
337.281	80.75
337.51	91.75
337.738	78.75
337.966	81.75
338.194	80.75
338.422	80.75
338.65	89.75
338.878	89.75
339.106	88.75
339.334	93.75
339.562	77.75
339.79	67.75
340.018	80.75
340.246	80.75
340.474	88.75
340.702	81.75
340.93	62.75
341.158	88.75
341.386	79.75
341.614	77.75
341.842	80.75
342.07	81.75
342.298	72.75
342.526	81.75
342.754	76.75
342.981	79.75
343.209	97.75
343.437	93.75
343.665	75.75
343.893	73.75
344.12	72.75
344.348	82.75
344.576	75.75
344.804	80.75
345.031	79.75
345.259	78.75
345.487	76.75
345.714	73.75
345.942	72.75
346.17	91.75
346.397	78.75
346.625	83.75
346.853	87.75
347.08	91.75
347.308	72.75
347.535	74.75
347.763	79.75
347.99	72.75
348.218	76.75
348.445	76.75
348.673	60.75
348.9	83.75
349.128	82.75
349.355	75.75
349.583	71.75
349.81	67.75
350.037	75.75
350.265	86.75
350.492	76.75
350.72	83.75
350.947	75.75
351.174	71.75
351.402	80.75
351.629	101.75
351.856	75.75
352.083	91.75
352.311	81.75
352.538	86.75
352.765	75.75
352.992	92.75
353.22	71.75
353.447	85.75
353.674	84.75
353.901	73.75
354.128	94.75
354.355	91.75
354.583	69.75
354.81	71.75
355.037	77.75
355.264	78.75
355.491	78.75
355.718	75.75
355.945	88.75
356.172	85.75
356.399	94.75
356.626	83.75
356.853	90.75
357.08	79.75
357.307	77.75
357.534	82.75
357.761	92.75
357.988	78.75
358.215	93.75
358.441	95.75
358.668	68.75
358.895	79.75
359.122	99.75
359.349	95.75
359.576	68.75
359.802	80.75
360.029	76.75
360.256	88.75
360.483	70.75
360.709	76.75
360.936	79.75
361.163	79.75
361.39	67.75
361.616	84.75
361.843	77.75
362.07	84.75
362.296	79.75
362.523	77.75
362.749	74.75
362.976	79.75
363.203	83.75
363.429	69.75
363.656	79.75
363.882	89.75
364.109	86.75
364.335	89.75
364.562	81.75
364.788	67.75
365.015	82.75
365.241	73.75
365.468	70.75
365.694	78.75
365.92	79.75
366.147	77.75
366.373	73.75
366.599	81.75
366.826	78.75
367.052	79.75
367.278	79.75
367.505	75.75
367.731	81.75
367.957	77.75
368.184	76.75
368.41	77.75
368.636	96.75
368.862	83.75
369.089	68.75
369.315	81.75
369.541	76.75
369.767	76.75
369.993	82.75
370.219	80.75
370.445	76.75
370.672	75.75
370.898	67.75
371.124	82.75
371.35	81.75
371.576	85.75
371.802	92.75
372.028	84.75
372.254	75.75
372.48	79.75
372.706	66.75
372.932	87.75
373.158	53.75
373.384	83.75
373.61	73.75
373.835	97.75
374.061	72.75
374.287	73.75
374.513	91.75
374.739	80.75
374.965	88.75
375.191	86.75
375.416	79.75
375.642	64.75
375.868	80.75
376.094	76.75
376.319	71.75
376.545	67.75
376.771	79.75
376.997	89.75
377.222	79.75
377.448	89.75
377.674	79.75
377.899	80.75
378.125	80.75
378.35	80.75
378.576	83.75
378.802	81.75
379.027	88.75
379.253	73.75
379.478	60.75
379.704	65.75
379.929	83.75
380.155	61.75
380.38	81.75
380.606	80.75
380.831	84.75
381.057	78.75
381.282	78.75
381.507	83.75
381.733	72.75
381.958	92.75
382.184	77.75
382.409	77.75
382.634	87.75
382.86	84.75
383.085	73.75
383.31	83.75
383.535	90.75
383.761	85.75
383.986	89.75
384.211	82.75
384.436	69.75
384.662	68.75
384.887	84.75
385.112	78.75
385.337	65.75
385.562	77.75
385.787	67.75
386.013	69.75
386.238	85.75
386.463	84.75
386.688	91.75
386.913	82.75
387.138	82.75
387.363	81.75
387.588	79.75
387.813	68.75
388.038	78.75
388.263	67.75
388.488	79.75
388.713	91.75
388.938	75.75
389.163	85.75
389.387	80.75
389.612	77.75
389.837	76.75
390.062	79.75
390.287	76.75
390.512	73.75
390.736	83.75
390.961	53.75
391.186	103.75
391.411	73.75
391.636	90.75
391.86	65.75
392.085	74.75
392.31	84.75
392.534	76.75
392.759	81.75
392.984	87.75
393.208	80.75
393.433	85.75
393.658	86.75
393.882	68.75
394.107	79.75
394.331	74.75
394.556	81.75
394.78	91.75
395.005	82.75
395.229	83.75
395.454	78.75
395.678	87.75
395.903	73.75
396.127	84.75
396.352	81.75
396.576	79.75
396.801	99.75
397.025	88.75
397.249	87.75
397.474	70.75
397.698	75.75
397.922	81.75
398.147	77.75
398.371	66.75
398.595	72.75
398.82	83.75
399.044	81.75
399.268	74.75
399.492	85.75
399.717	88.75
399.941	89.75
400.165	87.75
400.389	83.75
400.613	67.75
400.837	82.75
401.062	89.75
401.286	87.75
401.51	78.75
401.734	68.75
401.958	73.75
402.182	65.75
402.406	73.75
402.63	83.75
402.854	77.75
403.078	90.75
403.302	77.75
403.526	74.75
403.75	78.75
403.974	84.75
404.198	87.75
404.422	81.75
404.645	69.75
404.869	90.75
405.093	73.75
405.317	76.75
405.541	72.75
405.765	77.75
405.988	79.75
406.212	87.75
406.436	69.75
406.66	74.75
406.883	79.75
407.107	68.75
407.331	63.75
407.555	70.75
407.778	73.75
408.002	66.75
408.226	79.75
408.449	79.75
408.673	73.75
408.896	82.75
409.12	73.75
409.344	88.75
409.567	73.75
409.791	72.75
410.014	63.75
410.238	87.75
410.461	68.75
410.685	87.75
410.908	69.75
411.132	80.75
411.355	77.75
411.578	82.75
411.802	67.75
412.025	74.75
412.249	85.75
412.472	84.75
412.695	87.75
412.919	80.75
413.142	84.75
413.365	88.75
413.589	89.75
413.812	74.75
414.035	84.75
414.258	78.75
414.482	75.75
414.705	84.75
414.928	80.75
415.151	83.75
415.374	67.75
415.597	66.75
415.821	58.75
416.044	84.75
416.267	87.75
416.49	78.75
416.713	67.75
416.936	75.75
417.159	85.75
417.382	74.75
417.605	77.75
417.828	72.75
418.051	66.75
418.274	79.75
418.497	66.75
418.72	72.75
418.943	73.75
419.166	72.75
419.389	64.75
419.611	93.75
419.834	97.75
420.057	67.75
420.28	65.75
420.503	64.75
420.726	79.75
420.948	77.75
421.171	79.75
421.394	74.75
421.617	79.75
421.839	71.75
422.062	76.75
422.285	77.75
422.507	73.75
422.73	84.75
422.953	87.75
423.175	83.75
423.398	71.75
423.621	76.75
423.843	73.75
424.066	83.75
424.288	86.75
424.511	87.75
424.733	85.75
424.956	85.75
425.178	80.75
425.401	77.75
425.623	65.75
425.846	80.75
426.068	87.75
426.291	81.75
426.513	92.75
426.735	87.75
426.958	85.75
427.18	90.75
427.402	86.75
427.625	92.75
427.847	92.75
428.069	69.75
428.292	77.75
428.514	88.75
428.736	76.75
428.958	95.75
429.181	81.75
429.403	74.75
429.625	77.75
429.847	71.75
430.069	86.75
430.292	78.75
430.514	80.75
430.736	78.75
430.958	82.75
431.18	86.75
431.402	72.75
431.624	81.75
431.846	69.75
432.068	78.75
432.29	70.75
432.512	82.75
432.734	55.75
432.956	86.75
433.178	84.75
433.4	75.75
433.622	91.75
433.844	90.75
434.066	67.75
434.287	75.75
434.509	79.75
434.731	80.75
434.953	76.75
435.175	96.75
435.397	77.75
435.618	84.75
435.84	69.75
436.062	80.75
436.284	81.75
436.505	83.75
436.727	81.75
436.949	76.75
437.17	87.75
437.392	71.75
437.614	77.75
437.835	93.75
438.057	78.75
438.278	75.75
438.5	84.75
438.721	84.75
438.943	76.75
439.165	67.75
439.386	83.75
439.608	76.75
439.829	69.75
440.05	73.75
440.272	75.75
440.493	84.75
440.715	73.75
440.936	87.75
441.158	89.75
441.379	69.75
441.6	75.75
441.822	75.75
442.043	74.75
442.264	75.75
442.486	68.75
442.707	90.75
442.928	85.75
443.149	73.75
443.371	80.75
443.592	63.75
443.813	82.75
444.034	74.75
444.255	75.75
444.476	78.75
444.698	65.75
444.919	97.75
445.14	151.75
445.361	113.75
445.582	64.75
445.803	80.75
446.024	89.75
446.245	70.75
446.466	75.75
446.687	73.75
446.908	74.75
447.129	73.75
447.35	63.75
447.571	91.75
447.792	80.75
448.013	70.75
448.234	82.75
448.455	69.75
448.675	65.75
448.896	98.75
449.117	84.75
449.338	78.75
449.559	64.75
449.779	85.75
450	79.75
450.221	89.75
450.442	87.75
450.662	76.75
450.883	69.75
451.104	83.75
451.324	77.75
451.545	67.75
451.766	78.75
451.986	71.75
452.207	82.75
452.428	87.75
452.648	89.75
452.869	74.75
453.089	75.75
453.31	69.75
453.53	88.75
453.751	67.75
453.971	77.75
454.192	79.75
454.412	77.75
454.633	75.75
454.853	85.75
455.073	79.75
455.294	87.75
455.514	89.75
455.734	78.75
455.955	79.75
456.175	84.75
456.395	67.75
456.616	66.75
456.836	90.75
457.056	80.75
457.276	92.75
457.497	75.75
457.717	73.75
457.937	70.75
458.157	75.75
458.377	66.75
458.598	78.75
458.818	69.75
459.038	79.75
459.258	83.75
459.478	72.75
459.698	82.75
459.918	66.75
460.138	80.75
460.358	79.75
460.578	84.75
460.798	86.75
461.018	84.75
461.238	73.75
461.458	76.75
461.678	81.75
461.898	82.75
462.118	79.75
462.338	80.75
462.558	79.75
462.777	88.75
462.997	81.75
463.217	100.75
463.437	75.75
463.657	68.75
463.876	85.75
464.096	83.75
464.316	69.75
464.536	82.75
464.755	90.75
464.975	68.75
465.195	81.75
465.414	88.75
465.634	71.75
465.854	89.75
466.073	77.75
466.293	76.75
466.512	75.75
466.732	97.75
466.951	82.75
467.171	78.75
467.391	82.75
467.61	83.75
467.829	72.75
468.049	69.75
468.268	88.75
468.488	69.75
468.707	88.75
468.927	85.75
469.146	68.75
469.365	90.75
469.585	75.75
469.804	78.75
470.023	84.75
470.243	82.75
470.462	80.75
470.681	84.75
470.901	97.75
471.12	74.75
471.339	85.75
471.558	66.75
471.777	68.75
471.997	76.75
472.216	74.75
472.435	91.75
472.654	97.75
472.873	85.75
473.092	95.75
473.311	93.75
473.53	83.75
473.749	77.75
473.968	76.75
474.187	80.75
474.406	81.75
474.625	74.75
474.844	81.75
475.063	92.75
475.282	74.75
475.501	94.75
475.72	82.75
475.939	73.75
476.158	73.75
476.377	82.75
476.596	76.75
476.814	68.75
477.033	89.75
477.252	79.75
477.471	70.75
477.69	67.75
477.908	66.75
478.127	73.75
478.346	87.75
478.564	79.75
478.783	81.75
479.002	81.75
479.22	81.75
479.439	86.75
479.658	82.75
479.876	76.75
480.095	73.75
480.313	82.75
480.532	89.75
480.751	75.75
480.969	85.75
481.188	87.75
481.406	79.75
481.624	70.75
481.843	72.75
482.061	86.75
482.28	73.75
482.498	77.75
482.717	75.75
482.935	76.75
483.153	91.75
483.372	86.75
483.59	72.75
483.808	96.75
484.027	77.75
484.245	93.75
484.463	88.75
484.681	85.75
484.9	77.75
485.118	79.75
485.336	80.75
485.554	69.75
485.772	81.75
485.99	75.75
486.209	84.75
486.427	72.75
486.645	67.75
486.863	91.75
487.081	75.75
487.299	86.75
487.517	84.75
487.735	79.75
487.953	88.75
488.171	81.75
488.389	91.75
488.607	90.75
488.825	74.75
489.043	90.75
489.261	66.75
489.479	72.75
489.696	75.75
489.914	61.75
490.132	69.75
490.35	77.75
490.568	71.75
490.786	79.75
491.003	73.75
491.221	71.75
491.439	76.75
491.657	79.75
491.874	78.75
492.092	70.75
492.31	87.75
492.527	76.75
492.745	83.75
492.963	79.75
493.18	89.75
493.398	86.75
493.615	70.75
493.833	76.75
494.05	80.75
494.268	71.75
494.485	76.75
494.703	73.75
494.92	82.75
495.138	81.75
495.355	86.75
495.573	77.75
495.79	79.75
496.008	90.75
496.225	83.75
496.442	76.75
496.66	88.75
496.877	73.75
497.094	94.75
497.312	83.75
497.529	89.75
497.746	71.75
497.963	94.75
498.181	67.75
498.398	75.75
498.615	69.75
498.832	74.75
499.049	85.75
499.267	80.75
499.484	88.75
499.701	83.75
499.918	77.75
500.135	83.75
500.352	91.75
500.569	68.75
500.786	88.75
501.003	83.75
501.22	89.75
501.437	83.75
501.654	75.75
501.871	82.75
502.088	74.75
502.305	83.75
502.522	62.75
502.739	74.75
502.956	83.75
503.172	89.75
503.389	82.75
503.606	87.75
503.823	82.75
504.04	89.75
504.256	92.75
504.473	79.75
504.69	94.75
504.907	90.75
505.123	81.75
505.34	69.75
505.557	79.75
505.773	79.75
505.99	81.75
506.207	68.75
506.423	81.75
506.64	84.75
506.856	72.75
507.073	87.75
507.289	80.75
507.506	96.75
507.722	82.75
507.939	77.75
508.155	82.75
508.372	94.75
508.588	71.75
508.805	84.75
509.021	69.75
509.238	87.75
509.454	82.75
509.67	81.75
509.887	68.75
510.103	79.75
510.319	75.75
510.536	74.75
510.752	75.75
510.968	91.75
511.184	83.75
511.401	81.75
511.617	82.75
511.833	70.75
512.049	82.75
512.265	96.75
512.481	82.75
512.698	73.75
512.914	81.75
513.13	93.75
513.346	74.75
513.562	90.75
513.778	85.75
513.994	85.75
514.21	72.75
514.426	84.75
514.642	76.75
514.858	93.75
515.074	75.75
515.29	79.75
515.506	80.75
515.721	85.75
515.937	75.75
516.153	90.75
516.369	78.75
516.585	73.75
516.801	75.75
517.016	68.75
517.232	75.75
517.448	79.75
517.664	76.75
517.879	73.75
518.095	73.75
518.311	85.75
518.527	85.75
518.742	79.75
518.958	75.75
519.173	90.75
519.389	82.75
519.605	91.75
519.82	90.75
520.036	74.75
