Data from Background_3_HRD10591_00086.txt Node
Date: Wed Nov 05 14:50:02 EST 2025
User: Yrep
Spectrometer: HR+D1059
Trigger mode: 1
Integration Time (sec): 1.000000E-1
Scans to average: 1
Electric dark correction enabled: true
Nonlinearity correction enabled: false
Boxcar width: 0
XAxis mode: Wavelengths
Number of Pixels in Spectrum: 2048
>>>>>Begin Spectral Data<<<<<
223.165	-19.88
223.4	-19.88
223.635	-19.88
223.869	-21.88
224.104	-17.88
224.338	-18.88
224.573	-10.88
224.808	-14.88
225.042	3.12
225.277	-10.88
225.511	1.12
225.746	-4.88
225.98	9.12
226.215	10.12
226.449	20.12
226.683	14.12
226.918	22.12
227.152	40.12
227.387	33.12
227.621	41.12
227.856	36.12
228.09	33.12
228.324	51.12
228.559	68.12
228.793	51.12
229.027	65.12
229.262	62.12
229.496	64.12
229.73	56.12
229.964	63.12
230.199	74.12
230.433	75.12
230.667	82.12
230.901	84.12
231.136	78.12
231.37	81.12
231.604	83.12
231.838	78.12
232.072	81.12
232.306	84.12
232.541	86.12
232.775	83.12
233.009	78.12
233.243	82.12
233.477	81.12
233.711	90.12
233.945	76.12
234.179	86.12
234.413	72.12
234.647	75.12
234.881	84.12
235.115	81.12
235.349	79.12
235.583	65.12
235.817	85.12
236.051	74.12
236.285	73.12
236.519	72.12
236.753	87.12
236.987	62.12
237.221	72.12
237.455	71.12
237.689	85.12
237.922	67.12
238.156	76.12
238.39	76.12
238.624	73.12
238.858	73.12
239.091	81.12
239.325	81.12
239.559	72.12
239.793	80.12
240.027	70.12
240.26	87.12
240.494	80.12
240.728	80.12
240.961	71.12
241.195	74.12
241.429	71.12
241.662	73.12
241.896	77.12
242.13	63.12
242.363	72.12
242.597	72.12
242.83	68.12
243.064	78.12
243.298	81.12
243.531	89.12
243.765	95.12
243.998	77.12
244.232	94.12
244.465	75.12
244.699	68.12
244.932	78.12
245.166	74.12
245.399	84.12
245.633	70.12
245.866	81.12
246.099	77.12
246.333	89.12
246.566	75.12
246.8	86.12
247.033	73.12
247.266	83.12
247.5	79.12
247.733	81.12
247.966	75.12
248.2	84.12
248.433	77.12
248.666	80.12
248.899	62.12
249.133	84.12
249.366	83.12
249.599	76.12
249.832	72.12
250.066	82.12
250.299	83.12
250.532	89.12
250.765	76.12
250.998	92.12
251.231	97.12
251.465	87.12
251.698	93.12
251.931	99.12
252.164	92.12
252.397	86.12
252.63	82.12
252.863	81.12
253.096	58.12
253.329	71.12
253.562	82.12
253.795	69.12
254.028	67.12
254.261	75.12
254.494	95.12
254.727	81.12
254.96	82.12
255.193	79.12
255.426	74.12
255.659	86.12
255.892	85.12
256.124	79.12
256.357	91.12
256.59	79.12
256.823	84.12
257.056	80.12
257.289	74.12
257.521	77.12
257.754	86.12
257.987	83.12
258.22	77.12
258.452	78.12
258.685	75.12
258.918	76.12
259.151	95.12
259.383	72.12
259.616	75.12
259.849	87.12
260.081	80.12
260.314	80.12
260.547	91.12
260.779	76.12
261.012	81.12
261.244	88.12
261.477	84.12
261.71	87.12
261.942	80.12
262.175	81.12
262.407	68.12
262.64	82.12
262.872	80.12
263.105	89.12
263.337	87.12
263.57	74.12
263.802	87.12
264.035	78.12
264.267	90.12
264.499	92.12
264.732	95.12
264.964	88.12
265.197	70.12
265.429	87.12
265.661	82.12
265.894	86.12
266.126	87.12
266.358	98.12
266.591	88.12
266.823	57.12
267.055	75.12
267.287	72.12
267.52	81.12
267.752	80.12
267.984	83.12
268.216	90.12
268.448	95.12
268.681	101.12
268.913	96.12
269.145	94.12
269.377	62.12
269.609	75.12
269.841	76.12
270.073	72.12
270.306	95.12
270.538	92.12
270.77	98.12
271.002	88.12
271.234	88.12
271.466	79.12
271.698	91.12
271.93	81.12
272.162	102.12
272.394	80.12
272.626	85.12
272.858	78.12
273.09	79.12
273.322	93.12
273.553	89.12
273.785	84.12
274.017	95.12
274.249	82.12
274.481	94.12
274.713	96.12
274.945	86.12
275.176	93.12
275.408	91.12
275.64	90.12
275.872	78.12
276.104	93.12
276.335	94.12
276.567	84.12
276.799	82.12
277.031	76.12
277.262	98.12
277.494	78.12
277.726	81.12
277.957	86.12
278.189	91.12
278.421	78.12
278.652	85.12
278.884	84.12
279.115	86.12
279.347	94.12
279.579	82.12
279.81	75.12
280.042	84.12
280.273	81.12
280.505	71.12
280.736	86.12
280.968	78.12
281.199	91.12
281.431	88.12
281.662	88.12
281.894	92.12
282.125	83.12
282.356	71.12
282.588	90.12
282.819	91.12
283.051	90.12
283.282	89.12
283.513	76.12
283.745	78.12
283.976	87.12
284.207	86.12
284.439	78.12
284.67	82.12
284.901	78.12
285.132	77.12
285.364	82.12
285.595	87.12
285.826	86.12
286.057	76.12
286.288	89.12
286.52	98.12
286.751	87.12
286.982	104.12
287.213	92.12
287.444	84.12
287.675	89.12
287.906	90.12
288.138	89.12
288.369	91.12
288.6	94.12
288.831	76.12
289.062	81.12
289.293	96.12
289.524	94.12
289.755	89.12
289.986	82.12
290.217	84.12
290.448	94.12
290.679	84.12
290.91	84.12
291.141	95.12
291.371	92.12
291.602	80.12
291.833	90.12
292.064	84.12
292.295	101.12
292.526	89.12
292.757	81.12
292.987	77.12
293.218	97.12
293.449	102.12
293.68	92.12
293.91	90.12
294.141	95.12
294.372	85.12
294.603	97.12
294.833	84.12
295.064	88.12
295.295	95.12
295.525	78.12
295.756	76.12
295.987	88.12
296.217	101.12
296.448	91.12
296.679	96.12
296.909	79.12
297.14	94.12
297.37	80.12
297.601	86.12
297.831	93.12
298.062	90.12
298.292	93.12
298.523	98.12
298.753	80.12
298.984	90.12
299.214	78.12
299.445	85.12
299.675	87.12
299.905	77.12
300.136	93.12
300.366	92.12
300.597	71.12
300.827	86.12
301.057	89.12
301.288	92.12
301.518	99.12
301.748	89.12
301.979	88.12
302.209	90.12
302.439	90.12
302.669	82.12
302.9	93.12
303.13	87.12
303.36	98.12
303.59	79.12
303.82	83.12
304.051	92.12
304.281	102.12
304.511	89.12
304.741	82.12
304.971	90.12
305.201	75.12
305.431	74.12
305.661	83.12
305.891	96.12
306.121	97.12
306.352	79.12
306.582	81.12
306.812	70.12
307.042	77.12
307.272	75.12
307.502	92.12
307.731	86.12
307.961	88.12
308.191	87.12
308.421	70.12
308.651	75.12
308.881	98.12
309.111	96.12
309.341	91.12
309.571	95.12
309.8	84.12
310.03	96.12
310.26	88.12
310.49	103.12
310.72	96.12
310.949	93.12
311.179	95.12
311.409	74.12
311.639	92.12
311.868	67.12
312.098	89.12
312.328	92.12
312.557	94.12
312.787	75.12
313.017	82.12
313.246	82.12
313.476	91.12
313.706	85.12
313.935	79.12
314.165	74.12
314.394	83.12
314.624	84.12
314.853	88.12
315.083	86.12
315.312	85.12
315.542	84.12
315.771	80.12
316.001	81.12
316.23	89.12
316.46	92.12
316.689	94.12
316.919	81.12
317.148	88.12
317.377	97.12
317.607	91.12
317.836	81.12
318.065	100.12
318.295	78.12
318.524	79.12
318.753	87.12
318.983	93.12
319.212	96.12
319.441	104.12
319.67	93.12
319.9	93.12
320.129	85.12
320.358	92.12
320.587	81.12
320.816	81.12
321.046	79.12
321.275	84.12
321.504	81.12
321.733	84.12
321.962	96.12
322.191	79.12
322.42	81.12
322.649	79.12
322.878	85.12
323.108	87.12
323.337	94.12
323.566	90.12
323.795	79.12
324.024	89.12
324.253	80.12
324.482	70.12
324.71	86.12
324.939	89.12
325.168	95.12
325.397	101.12
325.626	74.12
325.855	77.12
326.084	95.12
326.313	87.12
326.542	82.12
326.77	85.12
326.999	96.12
327.228	84.12
327.457	81.12
327.686	85.12
327.914	86.12
328.143	102.12
328.372	92.12
328.6	88.12
328.829	87.12
329.058	92.12
329.287	93.12
329.515	100.12
329.744	100.12
329.972	90.12
330.201	96.12
330.43	88.12
330.658	95.12
330.887	88.12
331.115	75.12
331.344	89.12
331.572	90.12
331.801	79.12
332.03	93.12
332.258	83.12
332.486	85.12
332.715	96.12
332.943	94.12
333.172	105.12
333.4	93.12
333.629	94.12
333.857	93.12
334.085	73.12
334.314	89.12
334.542	80.12
334.771	78.12
334.999	80.12
335.227	88.12
335.455	95.12
335.684	80.12
335.912	84.12
336.14	80.12
336.369	87.12
336.597	80.12
336.825	84.12
337.053	88.12
337.281	93.12
337.51	90.12
337.738	100.12
337.966	80.12
338.194	85.12
338.422	90.12
338.65	85.12
338.878	98.12
339.106	90.12
339.334	95.12
339.562	78.12
339.79	76.12
340.018	89.12
340.246	69.12
340.474	75.12
340.702	93.12
340.93	76.12
341.158	84.12
341.386	93.12
341.614	96.12
341.842	83.12
342.07	82.12
342.298	110.12
342.526	92.12
342.754	82.12
342.981	93.12
343.209	84.12
343.437	98.12
343.665	88.12
343.893	90.12
344.12	82.12
344.348	95.12
344.576	80.12
344.804	84.12
345.031	88.12
345.259	81.12
345.487	94.12
345.714	89.12
345.942	77.12
346.17	88.12
346.397	81.12
346.625	93.12
346.853	89.12
347.08	90.12
347.308	83.12
347.535	105.12
347.763	94.12
347.99	90.12
348.218	90.12
348.445	79.12
348.673	84.12
348.9	96.12
349.128	83.12
349.355	88.12
349.583	85.12
349.81	93.12
350.037	74.12
350.265	84.12
350.492	83.12
350.72	80.12
350.947	85.12
351.174	81.12
351.402	91.12
351.629	95.12
351.856	93.12
352.083	87.12
352.311	95.12
352.538	89.12
352.765	85.12
352.992	96.12
353.22	88.12
353.447	82.12
353.674	89.12
353.901	80.12
354.128	80.12
354.355	85.12
354.583	86.12
354.81	98.12
355.037	88.12
355.264	98.12
355.491	76.12
355.718	84.12
355.945	81.12
356.172	96.12
356.399	84.12
356.626	92.12
356.853	93.12
357.08	82.12
357.307	66.12
357.534	77.12
357.761	98.12
357.988	95.12
358.215	79.12
358.441	90.12
358.668	82.12
358.895	96.12
359.122	87.12
359.349	75.12
359.576	85.12
359.802	68.12
360.029	98.12
360.256	88.12
360.483	82.12
360.709	82.12
360.936	97.12
361.163	92.12
361.39	90.12
361.616	62.12
361.843	88.12
362.07	89.12
362.296	89.12
362.523	88.12
362.749	89.12
362.976	85.12
363.203	78.12
363.429	92.12
363.656	85.12
363.882	97.12
364.109	88.12
364.335	85.12
364.562	98.12
364.788	78.12
365.015	85.12
365.241	88.12
365.468	87.12
365.694	74.12
365.92	93.12
366.147	76.12
366.373	72.12
366.599	88.12
366.826	80.12
367.052	75.12
367.278	88.12
367.505	89.12
367.731	91.12
367.957	88.12
368.184	85.12
368.41	83.12
368.636	78.12
368.862	84.12
369.089	86.12
369.315	81.12
369.541	82.12
369.767	73.12
369.993	74.12
370.219	83.12
370.445	81.12
370.672	75.12
370.898	78.12
371.124	78.12
371.35	90.12
371.576	86.12
371.802	81.12
372.028	75.12
372.254	69.12
372.48	75.12
372.706	72.12
372.932	81.12
373.158	95.12
373.384	80.12
373.61	96.12
373.835	69.12
374.061	75.12
374.287	92.12
374.513	79.12
374.739	80.12
374.965	77.12
375.191	83.12
375.416	92.12
375.642	103.12
375.868	87.12
376.094	79.12
376.319	82.12
376.545	85.12
376.771	86.12
376.997	77.12
377.222	68.12
377.448	82.12
377.674	87.12
377.899	75.12
378.125	85.12
378.35	86.12
378.576	93.12
378.802	84.12
379.027	85.12
379.253	86.12
379.478	81.12
379.704	87.12
379.929	89.12
380.155	75.12
380.38	84.12
380.606	76.12
380.831	83.12
381.057	84.12
381.282	99.12
381.507	92.12
381.733	87.12
381.958	92.12
382.184	85.12
382.409	87.12
382.634	77.12
382.86	82.12
383.085	70.12
383.31	73.12
383.535	74.12
383.761	88.12
383.986	103.12
384.211	77.12
384.436	80.12
384.662	88.12
384.887	92.12
385.112	98.12
385.337	86.12
385.562	98.12
385.787	72.12
386.013	75.12
386.238	94.12
386.463	87.12
386.688	87.12
386.913	81.12
387.138	92.12
387.363	84.12
387.588	86.12
387.813	72.12
388.038	93.12
388.263	104.12
388.488	88.12
388.713	88.12
388.938	87.12
389.163	88.12
389.387	97.12
389.612	88.12
389.837	84.12
390.062	90.12
390.287	88.12
390.512	94.12
390.736	88.12
390.961	78.12
391.186	86.12
391.411	81.12
391.636	75.12
391.86	89.12
392.085	87.12
392.31	87.12
392.534	92.12
392.759	81.12
392.984	73.12
393.208	86.12
393.433	84.12
393.658	88.12
393.882	84.12
394.107	82.12
394.331	84.12
394.556	86.12
394.78	87.12
395.005	83.12
395.229	76.12
395.454	78.12
395.678	83.12
395.903	81.12
396.127	84.12
396.352	85.12
396.576	76.12
396.801	97.12
397.025	82.12
397.249	85.12
397.474	90.12
397.698	77.12
397.922	84.12
398.147	78.12
398.371	79.12
398.595	94.12
398.82	85.12
399.044	74.12
399.268	71.12
399.492	80.12
399.717	89.12
399.941	78.12
400.165	89.12
400.389	68.12
400.613	92.12
400.837	81.12
401.062	95.12
401.286	95.12
401.51	80.12
401.734	78.12
401.958	77.12
402.182	80.12
402.406	86.12
402.63	87.12
402.854	78.12
403.078	85.12
403.302	87.12
403.526	87.12
403.75	84.12
403.974	80.12
404.198	73.12
404.422	85.12
404.645	77.12
404.869	76.12
405.093	78.12
405.317	83.12
405.541	78.12
405.765	67.12
405.988	94.12
406.212	95.12
406.436	83.12
406.66	105.12
406.883	92.12
407.107	84.12
407.331	78.12
407.555	74.12
407.778	88.12
408.002	82.12
408.226	81.12
408.449	90.12
408.673	69.12
408.896	75.12
409.12	80.12
409.344	68.12
409.567	79.12
409.791	85.12
410.014	93.12
410.238	73.12
410.461	87.12
410.685	82.12
410.908	92.12
411.132	86.12
411.355	76.12
411.578	87.12
411.802	90.12
412.025	79.12
412.249	92.12
412.472	64.12
412.695	89.12
412.919	75.12
413.142	87.12
413.365	81.12
413.589	74.12
413.812	83.12
414.035	85.12
414.258	84.12
414.482	83.12
414.705	81.12
414.928	71.12
415.151	79.12
415.374	76.12
415.597	87.12
415.821	73.12
416.044	98.12
416.267	83.12
416.49	78.12
416.713	85.12
416.936	78.12
417.159	83.12
417.382	90.12
417.605	79.12
417.828	88.12
418.051	75.12
418.274	89.12
418.497	98.12
418.72	84.12
418.943	81.12
419.166	85.12
419.389	86.12
419.611	72.12
419.834	75.12
420.057	93.12
420.28	94.12
420.503	77.12
420.726	78.12
420.948	79.12
421.171	87.12
421.394	83.12
421.617	86.12
421.839	85.12
422.062	79.12
422.285	77.12
422.507	75.12
422.73	86.12
422.953	94.12
423.175	85.12
423.398	88.12
423.621	89.12
423.843	89.12
424.066	79.12
424.288	72.12
424.511	80.12
424.733	82.12
424.956	79.12
425.178	76.12
425.401	84.12
425.623	84.12
425.846	72.12
426.068	97.12
426.291	76.12
426.513	90.12
426.735	85.12
426.958	78.12
427.18	82.12
427.402	77.12
427.625	75.12
427.847	83.12
428.069	80.12
428.292	77.12
428.514	88.12
428.736	77.12
428.958	82.12
429.181	84.12
429.403	74.12
429.625	84.12
429.847	92.12
430.069	71.12
430.292	76.12
430.514	82.12
430.736	82.12
430.958	81.12
431.18	84.12
431.402	82.12
431.624	80.12
431.846	80.12
432.068	83.12
432.29	80.12
432.512	96.12
432.734	74.12
432.956	101.12
433.178	79.12
433.4	84.12
433.622	73.12
433.844	80.12
434.066	73.12
434.287	80.12
434.509	88.12
434.731	84.12
434.953	80.12
435.175	80.12
435.397	86.12
435.618	73.12
435.84	84.12
436.062	86.12
436.284	73.12
436.505	83.12
436.727	82.12
436.949	79.12
437.17	77.12
437.392	72.12
437.614	90.12
437.835	79.12
438.057	69.12
438.278	80.12
438.5	96.12
438.721	88.12
438.943	85.12
439.165	78.12
439.386	77.12
439.608	99.12
439.829	71.12
440.05	88.12
440.272	78.12
440.493	89.12
440.715	81.12
440.936	81.12
441.158	84.12
441.379	88.12
441.6	77.12
441.822	90.12
442.043	80.12
442.264	82.12
442.486	99.12
442.707	76.12
442.928	86.12
443.149	82.12
443.371	70.12
443.592	94.12
443.813	80.12
444.034	84.12
444.255	91.12
444.476	79.12
444.698	66.12
444.919	72.12
445.14	165.12
445.361	119.12
445.582	84.12
445.803	82.12
446.024	93.12
446.245	84.12
446.466	78.12
446.687	73.12
446.908	82.12
447.129	82.12
447.35	78.12
447.571	72.12
447.792	68.12
448.013	83.12
448.234	84.12
448.455	68.12
448.675	75.12
448.896	80.12
449.117	89.12
449.338	85.12
449.559	81.12
449.779	94.12
450	94.12
450.221	81.12
450.442	74.12
450.662	88.12
450.883	71.12
451.104	89.12
451.324	87.12
451.545	85.12
451.766	86.12
451.986	83.12
452.207	105.12
452.428	89.12
452.648	88.12
452.869	105.12
453.089	82.12
453.31	88.12
453.53	84.12
453.751	89.12
453.971	68.12
454.192	80.12
454.412	91.12
454.633	89.12
454.853	88.12
455.073	86.12
455.294	72.12
455.514	89.12
455.734	84.12
455.955	80.12
456.175	75.12
456.395	95.12
456.616	86.12
456.836	86.12
457.056	77.12
457.276	84.12
457.497	78.12
457.717	84.12
457.937	79.12
458.157	77.12
458.377	86.12
458.598	85.12
458.818	95.12
459.038	94.12
459.258	60.12
459.478	76.12
459.698	96.12
459.918	78.12
460.138	79.12
460.358	83.12
460.578	79.12
460.798	88.12
461.018	85.12
461.238	92.12
461.458	72.12
461.678	78.12
461.898	86.12
462.118	90.12
462.338	95.12
462.558	74.12
462.777	73.12
462.997	75.12
463.217	80.12
463.437	93.12
463.657	80.12
463.876	82.12
464.096	86.12
464.316	77.12
464.536	78.12
464.755	82.12
464.975	75.12
465.195	68.12
465.414	86.12
465.634	82.12
465.854	79.12
466.073	81.12
466.293	81.12
466.512	70.12
466.732	70.12
466.951	87.12
467.171	82.12
467.391	86.12
467.61	83.12
467.829	85.12
468.049	80.12
468.268	88.12
468.488	78.12
468.707	92.12
468.927	70.12
469.146	75.12
469.365	71.12
469.585	82.12
469.804	94.12
470.023	80.12
470.243	77.12
470.462	73.12
470.681	86.12
470.901	69.12
471.12	64.12
471.339	92.12
471.558	86.12
471.777	81.12
471.997	95.12
472.216	80.12
472.435	84.12
472.654	80.12
472.873	89.12
473.092	84.12
473.311	88.12
473.53	92.12
473.749	79.12
473.968	89.12
474.187	89.12
474.406	88.12
474.625	81.12
474.844	73.12
475.063	65.12
475.282	70.12
475.501	71.12
475.72	87.12
475.939	84.12
476.158	94.12
476.377	75.12
476.596	90.12
476.814	81.12
477.033	84.12
477.252	85.12
477.471	81.12
477.69	90.12
477.908	84.12
478.127	69.12
478.346	77.12
478.564	84.12
478.783	93.12
479.002	72.12
479.22	75.12
479.439	85.12
479.658	69.12
479.876	92.12
480.095	84.12
480.313	87.12
480.532	92.12
480.751	96.12
480.969	72.12
481.188	85.12
481.406	90.12
481.624	83.12
481.843	82.12
482.061	69.12
482.28	79.12
482.498	78.12
482.717	67.12
482.935	86.12
483.153	78.12
483.372	89.12
483.59	74.12
483.808	77.12
484.027	80.12
484.245	85.12
484.463	81.12
484.681	98.12
484.9	86.12
485.118	76.12
485.336	78.12
485.554	74.12
485.772	76.12
485.99	99.12
486.209	98.12
486.427	89.12
486.645	80.12
486.863	70.12
487.081	88.12
487.299	80.12
487.517	85.12
487.735	80.12
487.953	78.12
488.171	94.12
488.389	81.12
488.607	78.12
488.825	86.12
489.043	67.12
489.261	97.12
489.479	75.12
489.696	79.12
489.914	82.12
490.132	90.12
490.35	71.12
490.568	92.12
490.786	72.12
491.003	71.12
491.221	94.12
491.439	72.12
491.657	69.12
491.874	88.12
492.092	84.12
492.31	90.12
492.527	73.12
492.745	84.12
492.963	94.12
493.18	86.12
493.398	83.12
493.615	86.12
493.833	87.12
494.05	82.12
494.268	82.12
494.485	74.12
494.703	66.12
494.92	68.12
495.138	87.12
495.355	84.12
495.573	73.12
495.79	75.12
496.008	87.12
496.225	79.12
496.442	75.12
496.66	81.12
496.877	86.12
497.094	78.12
497.312	80.12
497.529	81.12
497.746	86.12
497.963	85.12
498.181	81.12
498.398	100.12
498.615	79.12
498.832	83.12
499.049	81.12
499.267	97.12
499.484	87.12
499.701	72.12
499.918	70.12
500.135	84.12
500.352	87.12
500.569	80.12
500.786	73.12
501.003	86.12
501.22	94.12
501.437	89.12
501.654	89.12
501.871	74.12
502.088	104.12
502.305	81.12
502.522	70.12
502.739	93.12
502.956	70.12
503.172	77.12
503.389	104.12
503.606	94.12
503.823	79.12
504.04	92.12
504.256	93.12
504.473	89.12
504.69	79.12
504.907	93.12
505.123	80.12
505.34	76.12
505.557	82.12
505.773	87.12
505.99	90.12
506.207	57.12
506.423	81.12
506.64	83.12
506.856	87.12
507.073	101.12
507.289	87.12
507.506	90.12
507.722	79.12
507.939	69.12
508.155	68.12
508.372	90.12
508.588	72.12
508.805	88.12
509.021	84.12
509.238	84.12
509.454	93.12
509.67	96.12
509.887	71.12
510.103	86.12
510.319	84.12
510.536	87.12
510.752	80.12
510.968	91.12
511.184	77.12
511.401	95.12
511.617	93.12
511.833	94.12
512.049	73.12
512.265	85.12
512.481	82.12
512.698	91.12
512.914	82.12
513.13	92.12
513.346	78.12
513.562	100.12
513.778	83.12
513.994	86.12
514.21	84.12
514.426	87.12
514.642	73.12
514.858	96.12
515.074	78.12
515.29	91.12
515.506	76.12
515.721	92.12
515.937	90.12
516.153	77.12
516.369	80.12
516.585	89.12
516.801	93.12
517.016	81.12
517.232	89.12
517.448	89.12
517.664	83.12
517.879	80.12
518.095	76.12
518.311	87.12
518.527	83.12
518.742	73.12
518.958	81.12
519.173	87.12
519.389	79.12
519.605	84.12
519.82	85.12
