Data from Background_3_HRD10591_00014.txt Node
Date: Wed Nov 05 14:49:26 EST 2025
User: Yrep
Spectrometer: HR+D1059
Trigger mode: 1
Integration Time (sec): 1.000000E-1
Scans to average: 1
Electric dark correction enabled: true
Nonlinearity correction enabled: false
Boxcar width: 0
XAxis mode: Wavelengths
Number of Pixels in Spectrum: 2048
>>>>>Begin Spectral Data<<<<<
223.165	-18.81
223.4	-18.81
223.635	-18.81
223.869	-16.81
224.104	-20.81
224.338	-17.81
224.573	-14.81
224.808	-11.81
225.042	-8.81
225.277	-2.81
225.511	8.19
225.746	27.19
225.98	6.19
226.215	8.19
226.449	3.19
226.683	11.19
226.918	25.19
227.152	23.19
227.387	35.19
227.621	44.19
227.856	46.19
228.09	49.19
228.324	54.19
228.559	55.19
228.793	48.19
229.027	61.19
229.262	51.19
229.496	56.19
229.73	59.19
229.964	79.19
230.199	87.19
230.433	72.19
230.667	55.19
230.901	69.19
231.136	77.19
231.37	76.19
231.604	82.19
231.838	83.19
232.072	79.19
232.306	77.19
232.541	85.19
232.775	70.19
233.009	81.19
233.243	89.19
233.477	74.19
233.711	83.19
233.945	81.19
234.179	79.19
234.413	79.19
234.647	80.19
234.881	59.19
235.115	76.19
235.349	72.19
235.583	62.19
235.817	80.19
236.051	78.19
236.285	83.19
236.519	76.19
236.753	81.19
236.987	77.19
237.221	70.19
237.455	79.19
237.689	77.19
237.922	65.19
238.156	67.19
238.39	77.19
238.624	80.19
238.858	79.19
239.091	83.19
239.325	72.19
239.559	75.19
239.793	83.19
240.027	71.19
240.26	75.19
240.494	60.19
240.728	65.19
240.961	71.19
241.195	86.19
241.429	78.19
241.662	85.19
241.896	83.19
242.13	80.19
242.363	71.19
242.597	78.19
242.83	67.19
243.064	73.19
243.298	61.19
243.531	80.19
243.765	60.19
243.998	77.19
244.232	69.19
244.465	72.19
244.699	81.19
244.932	88.19
245.166	87.19
245.399	57.19
245.633	77.19
245.866	58.19
246.099	66.19
246.333	69.19
246.566	70.19
246.8	82.19
247.033	91.19
247.266	73.19
247.5	66.19
247.733	75.19
247.966	82.19
248.2	76.19
248.433	87.19
248.666	86.19
248.899	75.19
249.133	80.19
249.366	78.19
249.599	78.19
249.832	67.19
250.066	89.19
250.299	68.19
250.532	84.19
250.765	83.19
250.998	67.19
251.231	80.19
251.465	70.19
251.698	77.19
251.931	78.19
252.164	81.19
252.397	77.19
252.63	78.19
252.863	76.19
253.096	77.19
253.329	71.19
253.562	79.19
253.795	73.19
254.028	68.19
254.261	71.19
254.494	70.19
254.727	76.19
254.96	90.19
255.193	74.19
255.426	71.19
255.659	83.19
255.892	71.19
256.124	73.19
256.357	89.19
256.59	76.19
256.823	70.19
257.056	76.19
257.289	75.19
257.521	84.19
257.754	88.19
257.987	81.19
258.22	79.19
258.452	74.19
258.685	67.19
258.918	76.19
259.151	81.19
259.383	81.19
259.616	85.19
259.849	75.19
260.081	73.19
260.314	72.19
260.547	63.19
260.779	59.19
261.012	83.19
261.244	73.19
261.477	82.19
261.71	93.19
261.942	73.19
262.175	72.19
262.407	78.19
262.64	90.19
262.872	81.19
263.105	89.19
263.337	71.19
263.57	93.19
263.802	78.19
264.035	83.19
264.267	62.19
264.499	64.19
264.732	89.19
264.964	83.19
265.197	88.19
265.429	81.19
265.661	79.19
265.894	83.19
266.126	67.19
266.358	95.19
266.591	94.19
266.823	79.19
267.055	86.19
267.287	68.19
267.52	79.19
267.752	81.19
267.984	72.19
268.216	82.19
268.448	79.19
268.681	72.19
268.913	71.19
269.145	73.19
269.377	75.19
269.609	77.19
269.841	80.19
270.073	87.19
270.306	69.19
270.538	86.19
270.77	78.19
271.002	72.19
271.234	75.19
271.466	82.19
271.698	77.19
271.93	82.19
272.162	75.19
272.394	86.19
272.626	75.19
272.858	83.19
273.09	75.19
273.322	77.19
273.553	74.19
273.785	87.19
274.017	77.19
274.249	91.19
274.481	98.19
274.713	91.19
274.945	96.19
275.176	83.19
275.408	89.19
275.64	97.19
275.872	74.19
276.104	61.19
276.335	73.19
276.567	76.19
276.799	77.19
277.031	67.19
277.262	84.19
277.494	69.19
277.726	75.19
277.957	77.19
278.189	74.19
278.421	66.19
278.652	94.19
278.884	84.19
279.115	90.19
279.347	77.19
279.579	82.19
279.81	91.19
280.042	79.19
280.273	87.19
280.505	81.19
280.736	91.19
280.968	82.19
281.199	75.19
281.431	70.19
281.662	75.19
281.894	92.19
282.125	83.19
282.356	83.19
282.588	90.19
282.819	93.19
283.051	67.19
283.282	81.19
283.513	92.19
283.745	71.19
283.976	85.19
284.207	95.19
284.439	79.19
284.67	72.19
284.901	76.19
285.132	69.19
285.364	81.19
285.595	79.19
285.826	81.19
286.057	80.19
286.288	80.19
286.52	80.19
286.751	82.19
286.982	79.19
287.213	85.19
287.444	90.19
287.675	91.19
287.906	86.19
288.138	87.19
288.369	69.19
288.6	81.19
288.831	76.19
289.062	84.19
289.293	68.19
289.524	71.19
289.755	69.19
289.986	79.19
290.217	73.19
290.448	81.19
290.679	65.19
290.91	87.19
291.141	85.19
291.371	80.19
291.602	78.19
291.833	66.19
292.064	80.19
292.295	85.19
292.526	98.19
292.757	74.19
292.987	79.19
293.218	81.19
293.449	81.19
293.68	98.19
293.91	76.19
294.141	75.19
294.372	82.19
294.603	80.19
294.833	91.19
295.064	78.19
295.295	85.19
295.525	64.19
295.756	86.19
295.987	73.19
296.217	84.19
296.448	73.19
296.679	81.19
296.909	87.19
297.14	86.19
297.37	92.19
297.601	80.19
297.831	96.19
298.062	75.19
298.292	85.19
298.523	78.19
298.753	94.19
298.984	79.19
299.214	88.19
299.445	72.19
299.675	80.19
299.905	79.19
300.136	89.19
300.366	86.19
300.597	97.19
300.827	82.19
301.057	95.19
301.288	83.19
301.518	90.19
301.748	94.19
301.979	93.19
302.209	83.19
302.439	99.19
302.669	93.19
302.9	81.19
303.13	82.19
303.36	85.19
303.59	83.19
303.82	84.19
304.051	81.19
304.281	68.19
304.511	81.19
304.741	100.19
304.971	79.19
305.201	89.19
305.431	81.19
305.661	79.19
305.891	85.19
306.121	92.19
306.352	77.19
306.582	75.19
306.812	91.19
307.042	80.19
307.272	69.19
307.502	92.19
307.731	97.19
307.961	76.19
308.191	90.19
308.421	75.19
308.651	94.19
308.881	79.19
309.111	81.19
309.341	106.19
309.571	81.19
309.8	84.19
310.03	83.19
310.26	93.19
310.49	80.19
310.72	77.19
310.949	84.19
311.179	63.19
311.409	87.19
311.639	72.19
311.868	80.19
312.098	72.19
312.328	88.19
312.557	89.19
312.787	91.19
313.017	81.19
313.246	83.19
313.476	90.19
313.706	85.19
313.935	86.19
314.165	74.19
314.394	77.19
314.624	82.19
314.853	94.19
315.083	77.19
315.312	87.19
315.542	82.19
315.771	93.19
316.001	81.19
316.23	87.19
316.46	89.19
316.689	88.19
316.919	76.19
317.148	79.19
317.377	95.19
317.607	77.19
317.836	72.19
318.065	79.19
318.295	68.19
318.524	88.19
318.753	79.19
318.983	76.19
319.212	83.19
319.441	81.19
319.67	75.19
319.9	75.19
320.129	81.19
320.358	77.19
320.587	91.19
320.816	81.19
321.046	89.19
321.275	81.19
321.504	73.19
321.733	87.19
321.962	79.19
322.191	92.19
322.42	77.19
322.649	83.19
322.878	83.19
323.108	89.19
323.337	89.19
323.566	85.19
323.795	66.19
324.024	82.19
324.253	95.19
324.482	78.19
324.71	80.19
324.939	79.19
325.168	68.19
325.397	71.19
325.626	90.19
325.855	84.19
326.084	92.19
326.313	87.19
326.542	74.19
326.77	88.19
326.999	83.19
327.228	75.19
327.457	89.19
327.686	98.19
327.914	98.19
328.143	82.19
328.372	83.19
328.6	73.19
328.829	81.19
329.058	83.19
329.287	87.19
329.515	87.19
329.744	84.19
329.972	89.19
330.201	93.19
330.43	80.19
330.658	79.19
330.887	80.19
331.115	98.19
331.344	76.19
331.572	83.19
331.801	74.19
332.03	82.19
332.258	73.19
332.486	86.19
332.715	80.19
332.943	93.19
333.172	80.19
333.4	81.19
333.629	78.19
333.857	76.19
334.085	81.19
334.314	77.19
334.542	75.19
334.771	82.19
334.999	95.19
335.227	83.19
335.455	77.19
335.684	65.19
335.912	85.19
336.14	81.19
336.369	88.19
336.597	93.19
336.825	81.19
337.053	105.19
337.281	77.19
337.51	80.19
337.738	87.19
337.966	76.19
338.194	91.19
338.422	79.19
338.65	80.19
338.878	86.19
339.106	83.19
339.334	90.19
339.562	67.19
339.79	87.19
340.018	91.19
340.246	73.19
340.474	87.19
340.702	88.19
340.93	79.19
341.158	70.19
341.386	88.19
341.614	67.19
341.842	71.19
342.07	87.19
342.298	99.19
342.526	70.19
342.754	84.19
342.981	76.19
343.209	82.19
343.437	97.19
343.665	77.19
343.893	92.19
344.12	83.19
344.348	74.19
344.576	87.19
344.804	70.19
345.031	79.19
345.259	79.19
345.487	86.19
345.714	89.19
345.942	81.19
346.17	92.19
346.397	87.19
346.625	80.19
346.853	75.19
347.08	85.19
347.308	78.19
347.535	86.19
347.763	73.19
347.99	82.19
348.218	83.19
348.445	74.19
348.673	89.19
348.9	91.19
349.128	92.19
349.355	79.19
349.583	73.19
349.81	75.19
350.037	87.19
350.265	83.19
350.492	79.19
350.72	79.19
350.947	79.19
351.174	84.19
351.402	87.19
351.629	69.19
351.856	89.19
352.083	75.19
352.311	88.19
352.538	85.19
352.765	81.19
352.992	77.19
353.22	78.19
353.447	71.19
353.674	79.19
353.901	86.19
354.128	88.19
354.355	100.19
354.583	75.19
354.81	88.19
355.037	93.19
355.264	85.19
355.491	67.19
355.718	73.19
355.945	85.19
356.172	82.19
356.399	89.19
356.626	81.19
356.853	86.19
357.08	81.19
357.307	81.19
357.534	75.19
357.761	98.19
357.988	75.19
358.215	87.19
358.441	91.19
358.668	75.19
358.895	95.19
359.122	78.19
359.349	66.19
359.576	82.19
359.802	92.19
360.029	75.19
360.256	81.19
360.483	83.19
360.709	85.19
360.936	87.19
361.163	89.19
361.39	86.19
361.616	76.19
361.843	92.19
362.07	86.19
362.296	67.19
362.523	84.19
362.749	103.19
362.976	77.19
363.203	84.19
363.429	85.19
363.656	80.19
363.882	88.19
364.109	74.19
364.335	95.19
364.562	103.19
364.788	78.19
365.015	100.19
365.241	68.19
365.468	79.19
365.694	81.19
365.92	71.19
366.147	80.19
366.373	87.19
366.599	67.19
366.826	96.19
367.052	84.19
367.278	89.19
367.505	79.19
367.731	82.19
367.957	83.19
368.184	68.19
368.41	76.19
368.636	84.19
368.862	84.19
369.089	74.19
369.315	83.19
369.541	82.19
369.767	79.19
369.993	88.19
370.219	63.19
370.445	70.19
370.672	75.19
370.898	89.19
371.124	77.19
371.35	80.19
371.576	71.19
371.802	79.19
372.028	90.19
372.254	79.19
372.48	81.19
372.706	87.19
372.932	93.19
373.158	77.19
373.384	70.19
373.61	67.19
373.835	69.19
374.061	79.19
374.287	92.19
374.513	79.19
374.739	73.19
374.965	102.19
375.191	89.19
375.416	67.19
375.642	73.19
375.868	83.19
376.094	87.19
376.319	71.19
376.545	82.19
376.771	90.19
376.997	84.19
377.222	87.19
377.448	81.19
377.674	86.19
377.899	85.19
378.125	71.19
378.35	75.19
378.576	63.19
378.802	85.19
379.027	80.19
379.253	94.19
379.478	73.19
379.704	71.19
379.929	68.19
380.155	90.19
380.38	79.19
380.606	73.19
380.831	76.19
381.057	73.19
381.282	75.19
381.507	74.19
381.733	68.19
381.958	83.19
382.184	86.19
382.409	82.19
382.634	74.19
382.86	80.19
383.085	82.19
383.31	81.19
383.535	70.19
383.761	80.19
383.986	81.19
384.211	83.19
384.436	99.19
384.662	75.19
384.887	81.19
385.112	81.19
385.337	82.19
385.562	76.19
385.787	77.19
386.013	87.19
386.238	81.19
386.463	73.19
386.688	93.19
386.913	77.19
387.138	74.19
387.363	81.19
387.588	84.19
387.813	91.19
388.038	85.19
388.263	72.19
388.488	79.19
388.713	77.19
388.938	86.19
389.163	64.19
389.387	75.19
389.612	63.19
389.837	62.19
390.062	87.19
390.287	77.19
390.512	70.19
390.736	75.19
390.961	83.19
391.186	74.19
391.411	84.19
391.636	74.19
391.86	77.19
392.085	79.19
392.31	82.19
392.534	85.19
392.759	91.19
392.984	79.19
393.208	81.19
393.433	83.19
393.658	79.19
393.882	75.19
394.107	82.19
394.331	73.19
394.556	75.19
394.78	81.19
395.005	67.19
395.229	62.19
395.454	70.19
395.678	67.19
395.903	68.19
396.127	83.19
396.352	75.19
396.576	83.19
396.801	75.19
397.025	69.19
397.249	89.19
397.474	88.19
397.698	88.19
397.922	73.19
398.147	75.19
398.371	92.19
398.595	92.19
398.82	70.19
399.044	76.19
399.268	76.19
399.492	94.19
399.717	81.19
399.941	73.19
400.165	95.19
400.389	88.19
400.613	85.19
400.837	88.19
401.062	88.19
401.286	86.19
401.51	88.19
401.734	83.19
401.958	57.19
402.182	87.19
402.406	77.19
402.63	79.19
402.854	68.19
403.078	65.19
403.302	71.19
403.526	68.19
403.75	68.19
403.974	83.19
404.198	87.19
404.422	79.19
404.645	66.19
404.869	79.19
405.093	87.19
405.317	76.19
405.541	84.19
405.765	88.19
405.988	83.19
406.212	78.19
406.436	78.19
406.66	90.19
406.883	90.19
407.107	87.19
407.331	78.19
407.555	98.19
407.778	76.19
408.002	67.19
408.226	71.19
408.449	62.19
408.673	83.19
408.896	79.19
409.12	82.19
409.344	79.19
409.567	87.19
409.791	101.19
410.014	79.19
410.238	82.19
410.461	93.19
410.685	67.19
410.908	87.19
411.132	82.19
411.355	75.19
411.578	88.19
411.802	69.19
412.025	83.19
412.249	87.19
412.472	92.19
412.695	75.19
412.919	82.19
413.142	87.19
413.365	77.19
413.589	91.19
413.812	81.19
414.035	92.19
414.258	85.19
414.482	101.19
414.705	83.19
414.928	85.19
415.151	83.19
415.374	84.19
415.597	93.19
415.821	69.19
416.044	83.19
416.267	77.19
416.49	76.19
416.713	76.19
416.936	83.19
417.159	68.19
417.382	72.19
417.605	87.19
417.828	91.19
418.051	70.19
418.274	81.19
418.497	71.19
418.72	79.19
418.943	82.19
419.166	85.19
419.389	84.19
419.611	85.19
419.834	60.19
420.057	74.19
420.28	80.19
420.503	65.19
420.726	86.19
420.948	80.19
421.171	87.19
421.394	96.19
421.617	88.19
421.839	87.19
422.062	77.19
422.285	81.19
422.507	78.19
422.73	68.19
422.953	86.19
423.175	79.19
423.398	87.19
423.621	77.19
423.843	85.19
424.066	75.19
424.288	88.19
424.511	81.19
424.733	87.19
424.956	77.19
425.178	84.19
425.401	87.19
425.623	81.19
425.846	84.19
426.068	87.19
426.291	80.19
426.513	77.19
426.735	80.19
426.958	82.19
427.18	74.19
427.402	80.19
427.625	92.19
427.847	80.19
428.069	85.19
428.292	76.19
428.514	80.19
428.736	92.19
428.958	89.19
429.181	82.19
429.403	82.19
429.625	73.19
429.847	79.19
430.069	70.19
430.292	75.19
430.514	72.19
430.736	68.19
430.958	89.19
431.18	67.19
431.402	85.19
431.624	83.19
431.846	74.19
432.068	82.19
432.29	87.19
432.512	83.19
432.734	75.19
432.956	82.19
433.178	81.19
433.4	73.19
433.622	84.19
433.844	91.19
434.066	80.19
434.287	72.19
434.509	68.19
434.731	80.19
434.953	67.19
435.175	77.19
435.397	85.19
435.618	79.19
435.84	65.19
436.062	70.19
436.284	76.19
436.505	72.19
436.727	75.19
436.949	74.19
437.17	86.19
437.392	77.19
437.614	77.19
437.835	77.19
438.057	72.19
438.278	70.19
438.5	66.19
438.721	84.19
438.943	84.19
439.165	79.19
439.386	79.19
439.608	87.19
439.829	69.19
440.05	84.19
440.272	77.19
440.493	83.19
440.715	91.19
440.936	75.19
441.158	80.19
441.379	84.19
441.6	86.19
441.822	79.19
442.043	90.19
442.264	75.19
442.486	78.19
442.707	89.19
442.928	81.19
443.149	67.19
443.371	76.19
443.592	75.19
443.813	81.19
444.034	88.19
444.255	91.19
444.476	72.19
444.698	85.19
444.919	91.19
445.14	153.19
445.361	107.19
445.582	91.19
445.803	61.19
446.024	79.19
446.245	84.19
446.466	80.19
446.687	85.19
446.908	82.19
447.129	75.19
447.35	78.19
447.571	89.19
447.792	87.19
448.013	83.19
448.234	86.19
448.455	80.19
448.675	83.19
448.896	76.19
449.117	71.19
449.338	75.19
449.559	88.19
449.779	89.19
450	76.19
450.221	74.19
450.442	59.19
450.662	85.19
450.883	81.19
451.104	89.19
451.324	91.19
451.545	83.19
451.766	62.19
451.986	84.19
452.207	91.19
452.428	80.19
452.648	82.19
452.869	79.19
453.089	85.19
453.31	72.19
453.53	82.19
453.751	82.19
453.971	83.19
454.192	66.19
454.412	80.19
454.633	89.19
454.853	82.19
455.073	92.19
455.294	75.19
455.514	83.19
455.734	74.19
455.955	94.19
456.175	80.19
456.395	87.19
456.616	91.19
456.836	76.19
457.056	83.19
457.276	80.19
457.497	88.19
457.717	76.19
457.937	73.19
458.157	85.19
458.377	75.19
458.598	81.19
458.818	88.19
459.038	74.19
459.258	82.19
459.478	90.19
459.698	75.19
459.918	81.19
460.138	77.19
460.358	88.19
460.578	82.19
460.798	79.19
461.018	88.19
461.238	70.19
461.458	80.19
461.678	73.19
461.898	81.19
462.118	85.19
462.338	75.19
462.558	74.19
462.777	78.19
462.997	68.19
463.217	86.19
463.437	91.19
463.657	72.19
463.876	64.19
464.096	75.19
464.316	82.19
464.536	69.19
464.755	67.19
464.975	77.19
465.195	94.19
465.414	77.19
465.634	75.19
465.854	75.19
466.073	80.19
466.293	71.19
466.512	84.19
466.732	100.19
466.951	82.19
467.171	88.19
467.391	71.19
467.61	72.19
467.829	77.19
468.049	70.19
468.268	67.19
468.488	92.19
468.707	76.19
468.927	85.19
469.146	75.19
469.365	72.19
469.585	87.19
469.804	83.19
470.023	84.19
470.243	69.19
470.462	72.19
470.681	72.19
470.901	82.19
471.12	75.19
471.339	86.19
471.558	84.19
471.777	62.19
471.997	98.19
472.216	91.19
472.435	79.19
472.654	76.19
472.873	90.19
473.092	71.19
473.311	72.19
473.53	93.19
473.749	91.19
473.968	82.19
474.187	78.19
474.406	73.19
474.625	75.19
474.844	81.19
475.063	85.19
475.282	81.19
475.501	87.19
475.72	75.19
475.939	74.19
476.158	89.19
476.377	89.19
476.596	96.19
476.814	73.19
477.033	95.19
477.252	87.19
477.471	79.19
477.69	79.19
477.908	86.19
478.127	68.19
478.346	77.19
478.564	88.19
478.783	79.19
479.002	82.19
479.22	76.19
479.439	73.19
479.658	84.19
479.876	78.19
480.095	89.19
480.313	71.19
480.532	80.19
480.751	75.19
480.969	78.19
481.188	77.19
481.406	103.19
481.624	80.19
481.843	87.19
482.061	62.19
482.28	75.19
482.498	67.19
482.717	81.19
482.935	98.19
483.153	78.19
483.372	82.19
483.59	73.19
483.808	75.19
484.027	77.19
484.245	77.19
484.463	80.19
484.681	97.19
484.9	90.19
485.118	83.19
485.336	67.19
485.554	93.19
485.772	82.19
485.99	77.19
486.209	81.19
486.427	88.19
486.645	77.19
486.863	96.19
487.081	94.19
487.299	83.19
487.517	87.19
487.735	82.19
487.953	84.19
488.171	73.19
488.389	91.19
488.607	77.19
488.825	84.19
489.043	85.19
489.261	87.19
489.479	83.19
489.696	87.19
489.914	76.19
490.132	77.19
490.35	88.19
490.568	90.19
490.786	75.19
491.003	70.19
491.221	82.19
491.439	82.19
491.657	84.19
491.874	74.19
492.092	97.19
492.31	84.19
492.527	90.19
492.745	90.19
492.963	72.19
493.18	86.19
493.398	104.19
493.615	74.19
493.833	61.19
494.05	85.19
494.268	71.19
494.485	85.19
494.703	82.19
494.92	98.19
495.138	87.19
495.355	73.19
495.573	84.19
495.79	86.19
496.008	88.19
496.225	84.19
496.442	90.19
496.66	89.19
496.877	72.19
497.094	82.19
497.312	84.19
497.529	83.19
497.746	76.19
497.963	82.19
498.181	79.19
498.398	88.19
498.615	79.19
498.832	93.19
499.049	80.19
499.267	81.19
499.484	92.19
499.701	87.19
499.918	82.19
500.135	75.19
500.352	74.19
500.569	102.19
500.786	81.19
501.003	93.19
501.22	84.19
501.437	76.19
501.654	78.19
501.871	88.19
502.088	71.19
502.305	83.19
502.522	72.19
502.739	73.19
502.956	84.19
503.172	83.19
503.389	88.19
503.606	83.19
503.823	71.19
504.04	90.19
504.256	98.19
504.473	63.19
504.69	84.19
504.907	77.19
505.123	81.19
505.34	100.19
505.557	76.19
505.773	85.19
505.99	79.19
506.207	77.19
506.423	89.19
506.64	85.19
506.856	68.19
507.073	78.19
507.289	87.19
507.506	89.19
507.722	84.19
507.939	84.19
508.155	103.19
508.372	90.19
508.588	77.19
508.805	86.19
509.021	95.19
509.238	82.19
509.454	85.19
509.67	93.19
509.887	87.19
510.103	89.19
510.319	78.19
510.536	85.19
510.752	88.19
510.968	85.19
511.184	86.19
511.401	92.19
511.617	80.19
511.833	87.19
512.049	69.19
512.265	71.19
512.481	81.19
512.698	79.19
512.914	76.19
513.13	67.19
513.346	75.19
513.562	79.19
513.778	69.19
513.994	89.19
514.21	84.19
514.426	87.19
514.642	85.19
514.858	79.19
515.074	77.19
515.29	76.19
515.506	74.19
515.721	79.19
515.937	64.19
516.153	91.19
516.369	89.19
516.585	70.19
516.801	93.19
517.016	85.19
517.232	87.19
517.448	76.19
517.664	75.19
517.879	85.19
518.095	89.19
518.311	79.19
518.527	77.19
518.742	89.19
518.958	85.19
519.173	73.19
519.389	98.19
519.605	89.19
519.82	85.19
520.036	91.19
