Data from Background_3_HRD10591_00030.txt Node
Date: Wed Nov 05 14:49:34 EST 2025
User: Yrep
Spectrometer: HR+D1059
Trigger mode: 1
Integration Time (sec): 1.000000E-1
Scans to average: 1
Electric dark correction enabled: true
Nonlinearity correction enabled: false
Boxcar width: 0
XAxis mode: Wavelengths
Number of Pixels in Spectrum: 2048
>>>>>Begin Spectral Data<<<<<
223.165	-11.38
223.4	-11.38
223.635	-11.38
223.869	-22.38
224.104	-9.38
224.338	-9.38
224.573	-12.38
224.808	-23.38
225.042	-8.38
225.277	-5.38
225.511	-12.38
225.746	-3.38
225.98	4.62
226.215	11.62
226.449	15.62
226.683	25.62
226.918	24.62
227.152	35.62
227.387	30.62
227.621	47.62
227.856	54.62
228.09	38.62
228.324	54.62
228.559	41.62
228.793	47.62
229.027	73.62
229.262	69.62
229.496	64.62
229.73	76.62
229.964	62.62
230.199	49.62
230.433	76.62
230.667	64.62
230.901	79.62
231.136	77.62
231.37	81.62
231.604	79.62
231.838	76.62
232.072	85.62
232.306	85.62
232.541	76.62
232.775	63.62
233.009	85.62
233.243	72.62
233.477	91.62
233.711	84.62
233.945	76.62
234.179	78.62
234.413	78.62
234.647	91.62
234.881	83.62
235.115	86.62
235.349	77.62
235.583	68.62
235.817	78.62
236.051	72.62
236.285	58.62
236.519	81.62
236.753	91.62
236.987	72.62
237.221	68.62
237.455	69.62
237.689	70.62
237.922	66.62
238.156	81.62
238.39	87.62
238.624	71.62
238.858	64.62
239.091	64.62
239.325	66.62
239.559	78.62
239.793	84.62
240.027	87.62
240.26	66.62
240.494	80.62
240.728	89.62
240.961	80.62
241.195	80.62
241.429	73.62
241.662	78.62
241.896	73.62
242.13	62.62
242.363	59.62
242.597	74.62
242.83	74.62
243.064	74.62
243.298	75.62
243.531	76.62
243.765	74.62
243.998	64.62
244.232	83.62
244.465	75.62
244.699	77.62
244.932	77.62
245.166	85.62
245.399	86.62
245.633	69.62
245.866	80.62
246.099	74.62
246.333	66.62
246.566	74.62
246.8	83.62
247.033	74.62
247.266	83.62
247.5	76.62
247.733	83.62
247.966	61.62
248.2	69.62
248.433	62.62
248.666	81.62
248.899	71.62
249.133	73.62
249.366	91.62
249.599	84.62
249.832	74.62
250.066	74.62
250.299	81.62
250.532	71.62
250.765	83.62
250.998	69.62
251.231	64.62
251.465	76.62
251.698	80.62
251.931	62.62
252.164	82.62
252.397	75.62
252.63	88.62
252.863	76.62
253.096	76.62
253.329	70.62
253.562	86.62
253.795	80.62
254.028	78.62
254.261	79.62
254.494	81.62
254.727	75.62
254.96	71.62
255.193	69.62
255.426	68.62
255.659	80.62
255.892	90.62
256.124	64.62
256.357	74.62
256.59	83.62
256.823	82.62
257.056	79.62
257.289	70.62
257.521	78.62
257.754	79.62
257.987	84.62
258.22	74.62
258.452	71.62
258.685	68.62
258.918	71.62
259.151	72.62
259.383	83.62
259.616	68.62
259.849	77.62
260.081	77.62
260.314	67.62
260.547	84.62
260.779	72.62
261.012	78.62
261.244	78.62
261.477	62.62
261.71	68.62
261.942	76.62
262.175	65.62
262.407	66.62
262.64	84.62
262.872	80.62
263.105	80.62
263.337	88.62
263.57	72.62
263.802	82.62
264.035	80.62
264.267	80.62
264.499	68.62
264.732	60.62
264.964	75.62
265.197	74.62
265.429	79.62
265.661	67.62
265.894	72.62
266.126	88.62
266.358	78.62
266.591	82.62
266.823	58.62
267.055	80.62
267.287	75.62
267.52	84.62
267.752	64.62
267.984	82.62
268.216	76.62
268.448	74.62
268.681	89.62
268.913	82.62
269.145	82.62
269.377	61.62
269.609	80.62
269.841	74.62
270.073	82.62
270.306	72.62
270.538	75.62
270.77	74.62
271.002	90.62
271.234	79.62
271.466	78.62
271.698	71.62
271.93	66.62
272.162	76.62
272.394	75.62
272.626	72.62
272.858	66.62
273.09	78.62
273.322	83.62
273.553	89.62
273.785	80.62
274.017	78.62
274.249	65.62
274.481	74.62
274.713	71.62
274.945	83.62
275.176	74.62
275.408	82.62
275.64	76.62
275.872	68.62
276.104	82.62
276.335	86.62
276.567	88.62
276.799	56.62
277.031	81.62
277.262	92.62
277.494	69.62
277.726	75.62
277.957	74.62
278.189	94.62
278.421	62.62
278.652	64.62
278.884	79.62
279.115	74.62
279.347	86.62
279.579	71.62
279.81	82.62
280.042	72.62
280.273	67.62
280.505	77.62
280.736	91.62
280.968	81.62
281.199	81.62
281.431	91.62
281.662	88.62
281.894	71.62
282.125	66.62
282.356	82.62
282.588	74.62
282.819	81.62
283.051	89.62
283.282	79.62
283.513	106.62
283.745	77.62
283.976	80.62
284.207	85.62
284.439	76.62
284.67	92.62
284.901	76.62
285.132	76.62
285.364	81.62
285.595	93.62
285.826	68.62
286.057	98.62
286.288	94.62
286.52	78.62
286.751	67.62
286.982	83.62
287.213	76.62
287.444	89.62
287.675	88.62
287.906	89.62
288.138	84.62
288.369	78.62
288.6	70.62
288.831	70.62
289.062	81.62
289.293	83.62
289.524	79.62
289.755	83.62
289.986	88.62
290.217	86.62
290.448	77.62
290.679	87.62
290.91	80.62
291.141	80.62
291.371	80.62
291.602	79.62
291.833	77.62
292.064	88.62
292.295	75.62
292.526	76.62
292.757	80.62
292.987	81.62
293.218	86.62
293.449	74.62
293.68	82.62
293.91	90.62
294.141	66.62
294.372	61.62
294.603	90.62
294.833	66.62
295.064	71.62
295.295	96.62
295.525	75.62
295.756	76.62
295.987	96.62
296.217	93.62
296.448	86.62
296.679	82.62
296.909	85.62
297.14	82.62
297.37	91.62
297.601	71.62
297.831	75.62
298.062	73.62
298.292	79.62
298.523	94.62
298.753	75.62
298.984	83.62
299.214	78.62
299.445	84.62
299.675	79.62
299.905	80.62
300.136	93.62
300.366	85.62
300.597	80.62
300.827	70.62
301.057	82.62
301.288	89.62
301.518	69.62
301.748	80.62
301.979	83.62
302.209	86.62
302.439	86.62
302.669	98.62
302.9	75.62
303.13	78.62
303.36	90.62
303.59	73.62
303.82	79.62
304.051	74.62
304.281	74.62
304.511	74.62
304.741	97.62
304.971	82.62
305.201	84.62
305.431	80.62
305.661	70.62
305.891	86.62
306.121	80.62
306.352	90.62
306.582	72.62
306.812	68.62
307.042	79.62
307.272	87.62
307.502	69.62
307.731	76.62
307.961	76.62
308.191	79.62
308.421	79.62
308.651	90.62
308.881	81.62
309.111	74.62
309.341	72.62
309.571	83.62
309.8	74.62
310.03	88.62
310.26	96.62
310.49	87.62
310.72	81.62
310.949	81.62
311.179	61.62
311.409	77.62
311.639	87.62
311.868	78.62
312.098	86.62
312.328	81.62
312.557	88.62
312.787	69.62
313.017	86.62
313.246	77.62
313.476	85.62
313.706	86.62
313.935	83.62
314.165	87.62
314.394	90.62
314.624	81.62
314.853	87.62
315.083	91.62
315.312	80.62
315.542	80.62
315.771	87.62
316.001	79.62
316.23	82.62
316.46	76.62
316.689	87.62
316.919	79.62
317.148	75.62
317.377	76.62
317.607	72.62
317.836	83.62
318.065	86.62
318.295	84.62
318.524	85.62
318.753	91.62
318.983	83.62
319.212	86.62
319.441	78.62
319.67	85.62
319.9	83.62
320.129	84.62
320.358	91.62
320.587	81.62
320.816	76.62
321.046	75.62
321.275	82.62
321.504	80.62
321.733	69.62
321.962	76.62
322.191	82.62
322.42	72.62
322.649	68.62
322.878	84.62
323.108	88.62
323.337	82.62
323.566	78.62
323.795	89.62
324.024	90.62
324.253	82.62
324.482	95.62
324.71	87.62
324.939	84.62
325.168	80.62
325.397	76.62
325.626	76.62
325.855	82.62
326.084	84.62
326.313	77.62
326.542	89.62
326.77	70.62
326.999	92.62
327.228	74.62
327.457	65.62
327.686	76.62
327.914	88.62
328.143	83.62
328.372	72.62
328.6	72.62
328.829	89.62
329.058	86.62
329.287	93.62
329.515	78.62
329.744	79.62
329.972	68.62
330.201	80.62
330.43	86.62
330.658	93.62
330.887	81.62
331.115	71.62
331.344	93.62
331.572	77.62
331.801	76.62
332.03	73.62
332.258	94.62
332.486	79.62
332.715	79.62
332.943	73.62
333.172	80.62
333.4	81.62
333.629	64.62
333.857	88.62
334.085	87.62
334.314	78.62
334.542	88.62
334.771	87.62
334.999	80.62
335.227	84.62
335.455	83.62
335.684	90.62
335.912	83.62
336.14	79.62
336.369	76.62
336.597	96.62
336.825	100.62
337.053	75.62
337.281	76.62
337.51	69.62
337.738	73.62
337.966	83.62
338.194	88.62
338.422	79.62
338.65	86.62
338.878	76.62
339.106	90.62
339.334	86.62
339.562	80.62
339.79	70.62
340.018	88.62
340.246	75.62
340.474	86.62
340.702	82.62
340.93	90.62
341.158	81.62
341.386	80.62
341.614	86.62
341.842	60.62
342.07	79.62
342.298	78.62
342.526	72.62
342.754	87.62
342.981	74.62
343.209	78.62
343.437	92.62
343.665	81.62
343.893	83.62
344.12	79.62
344.348	76.62
344.576	76.62
344.804	96.62
345.031	68.62
345.259	88.62
345.487	68.62
345.714	79.62
345.942	91.62
346.17	82.62
346.397	80.62
346.625	87.62
346.853	84.62
347.08	73.62
347.308	69.62
347.535	83.62
347.763	70.62
347.99	66.62
348.218	73.62
348.445	70.62
348.673	86.62
348.9	70.62
349.128	76.62
349.355	74.62
349.583	75.62
349.81	72.62
350.037	76.62
350.265	85.62
350.492	99.62
350.72	78.62
350.947	69.62
351.174	76.62
351.402	68.62
351.629	88.62
351.856	92.62
352.083	79.62
352.311	92.62
352.538	87.62
352.765	87.62
352.992	83.62
353.22	78.62
353.447	80.62
353.674	71.62
353.901	76.62
354.128	74.62
354.355	93.62
354.583	80.62
354.81	93.62
355.037	83.62
355.264	70.62
355.491	65.62
355.718	74.62
355.945	76.62
356.172	81.62
356.399	91.62
356.626	89.62
356.853	73.62
357.08	78.62
357.307	102.62
357.534	89.62
357.761	76.62
357.988	78.62
358.215	80.62
358.441	92.62
358.668	88.62
358.895	81.62
359.122	78.62
359.349	68.62
359.576	89.62
359.802	81.62
360.029	92.62
360.256	84.62
360.483	75.62
360.709	89.62
360.936	95.62
361.163	80.62
361.39	76.62
361.616	92.62
361.843	83.62
362.07	75.62
362.296	74.62
362.523	94.62
362.749	86.62
362.976	58.62
363.203	86.62
363.429	85.62
363.656	80.62
363.882	99.62
364.109	79.62
364.335	76.62
364.562	83.62
364.788	81.62
365.015	72.62
365.241	77.62
365.468	95.62
365.694	93.62
365.92	91.62
366.147	72.62
366.373	80.62
366.599	79.62
366.826	88.62
367.052	75.62
367.278	79.62
367.505	73.62
367.731	87.62
367.957	92.62
368.184	74.62
368.41	79.62
368.636	81.62
368.862	78.62
369.089	66.62
369.315	82.62
369.541	63.62
369.767	95.62
369.993	93.62
370.219	73.62
370.445	84.62
370.672	81.62
370.898	81.62
371.124	80.62
371.35	88.62
371.576	72.62
371.802	77.62
372.028	74.62
372.254	82.62
372.48	79.62
372.706	80.62
372.932	88.62
373.158	71.62
373.384	76.62
373.61	103.62
373.835	66.62
374.061	105.62
374.287	84.62
374.513	55.62
374.739	81.62
374.965	89.62
375.191	63.62
375.416	72.62
375.642	79.62
375.868	86.62
376.094	69.62
376.319	88.62
376.545	79.62
376.771	86.62
376.997	89.62
377.222	88.62
377.448	80.62
377.674	85.62
377.899	96.62
378.125	84.62
378.35	68.62
378.576	87.62
378.802	83.62
379.027	86.62
379.253	84.62
379.478	76.62
379.704	72.62
379.929	66.62
380.155	86.62
380.38	76.62
380.606	84.62
380.831	74.62
381.057	102.62
381.282	81.62
381.507	78.62
381.733	90.62
381.958	88.62
382.184	75.62
382.409	67.62
382.634	81.62
382.86	89.62
383.085	80.62
383.31	77.62
383.535	95.62
383.761	79.62
383.986	74.62
384.211	66.62
384.436	72.62
384.662	65.62
384.887	94.62
385.112	86.62
385.337	81.62
385.562	86.62
385.787	74.62
386.013	79.62
386.238	87.62
386.463	80.62
386.688	94.62
386.913	87.62
387.138	87.62
387.363	108.62
387.588	68.62
387.813	86.62
388.038	74.62
388.263	89.62
388.488	75.62
388.713	68.62
388.938	86.62
389.163	75.62
389.387	78.62
389.612	66.62
389.837	81.62
390.062	92.62
390.287	78.62
390.512	71.62
390.736	68.62
390.961	84.62
391.186	74.62
391.411	91.62
391.636	81.62
391.86	71.62
392.085	68.62
392.31	74.62
392.534	88.62
392.759	78.62
392.984	90.62
393.208	80.62
393.433	80.62
393.658	78.62
393.882	86.62
394.107	86.62
394.331	72.62
394.556	73.62
394.78	71.62
395.005	78.62
395.229	93.62
395.454	85.62
395.678	68.62
395.903	72.62
396.127	86.62
396.352	85.62
396.576	77.62
396.801	79.62
397.025	84.62
397.249	63.62
397.474	66.62
397.698	71.62
397.922	76.62
398.147	70.62
398.371	78.62
398.595	77.62
398.82	76.62
399.044	69.62
399.268	77.62
399.492	72.62
399.717	80.62
399.941	65.62
400.165	79.62
400.389	69.62
400.613	71.62
400.837	66.62
401.062	81.62
401.286	62.62
401.51	90.62
401.734	88.62
401.958	84.62
402.182	68.62
402.406	86.62
402.63	79.62
402.854	80.62
403.078	80.62
403.302	56.62
403.526	80.62
403.75	74.62
403.974	74.62
404.198	76.62
404.422	94.62
404.645	64.62
404.869	79.62
405.093	89.62
405.317	79.62
405.541	87.62
405.765	83.62
405.988	86.62
406.212	79.62
406.436	75.62
406.66	85.62
406.883	76.62
407.107	86.62
407.331	81.62
407.555	74.62
407.778	78.62
408.002	77.62
408.226	82.62
408.449	73.62
408.673	81.62
408.896	75.62
409.12	92.62
409.344	64.62
409.567	77.62
409.791	72.62
410.014	84.62
410.238	82.62
410.461	86.62
410.685	66.62
410.908	68.62
411.132	85.62
411.355	82.62
411.578	83.62
411.802	65.62
412.025	70.62
412.249	89.62
412.472	86.62
412.695	76.62
412.919	74.62
413.142	78.62
413.365	63.62
413.589	65.62
413.812	84.62
414.035	91.62
414.258	74.62
414.482	83.62
414.705	93.62
414.928	74.62
415.151	75.62
415.374	75.62
415.597	71.62
415.821	62.62
416.044	74.62
416.267	79.62
416.49	75.62
416.713	78.62
416.936	84.62
417.159	74.62
417.382	66.62
417.605	72.62
417.828	76.62
418.051	81.62
418.274	84.62
418.497	87.62
418.72	64.62
418.943	85.62
419.166	87.62
419.389	79.62
419.611	61.62
419.834	82.62
420.057	79.62
420.28	67.62
420.503	76.62
420.726	72.62
420.948	83.62
421.171	82.62
421.394	69.62
421.617	73.62
421.839	65.62
422.062	81.62
422.285	99.62
422.507	86.62
422.73	73.62
422.953	67.62
423.175	72.62
423.398	79.62
423.621	81.62
423.843	86.62
424.066	87.62
424.288	76.62
424.511	82.62
424.733	71.62
424.956	91.62
425.178	96.62
425.401	70.62
425.623	72.62
425.846	82.62
426.068	81.62
426.291	65.62
426.513	79.62
426.735	83.62
426.958	75.62
427.18	68.62
427.402	77.62
427.625	76.62
427.847	78.62
428.069	68.62
428.292	63.62
428.514	95.62
428.736	89.62
428.958	76.62
429.181	85.62
429.403	78.62
429.625	78.62
429.847	81.62
430.069	79.62
430.292	91.62
430.514	75.62
430.736	83.62
430.958	87.62
431.18	71.62
431.402	76.62
431.624	75.62
431.846	83.62
432.068	73.62
432.29	79.62
432.512	76.62
432.734	74.62
432.956	82.62
433.178	74.62
433.4	83.62
433.622	75.62
433.844	82.62
434.066	76.62
434.287	87.62
434.509	78.62
434.731	76.62
434.953	79.62
435.175	78.62
435.397	80.62
435.618	88.62
435.84	75.62
436.062	78.62
436.284	92.62
436.505	82.62
436.727	76.62
436.949	87.62
437.17	72.62
437.392	72.62
437.614	79.62
437.835	81.62
438.057	66.62
438.278	71.62
438.5	76.62
438.721	75.62
438.943	70.62
439.165	72.62
439.386	72.62
439.608	73.62
439.829	80.62
440.05	70.62
440.272	80.62
440.493	74.62
440.715	86.62
440.936	64.62
441.158	89.62
441.379	67.62
441.6	84.62
441.822	68.62
442.043	64.62
442.264	84.62
442.486	74.62
442.707	75.62
442.928	78.62
443.149	58.62
443.371	73.62
443.592	90.62
443.813	87.62
444.034	82.62
444.255	80.62
444.476	72.62
444.698	94.62
444.919	76.62
445.14	135.62
445.361	88.62
445.582	72.62
445.803	69.62
446.024	82.62
446.245	78.62
446.466	91.62
446.687	82.62
446.908	87.62
447.129	83.62
447.35	70.62
447.571	64.62
447.792	94.62
448.013	83.62
448.234	79.62
448.455	75.62
448.675	82.62
448.896	91.62
449.117	81.62
449.338	66.62
449.559	76.62
449.779	71.62
450	76.62
450.221	74.62
450.442	79.62
450.662	74.62
450.883	80.62
451.104	81.62
451.324	79.62
451.545	75.62
451.766	95.62
451.986	73.62
452.207	93.62
452.428	59.62
452.648	86.62
452.869	84.62
453.089	78.62
453.31	52.62
453.53	91.62
453.751	96.62
453.971	80.62
454.192	86.62
454.412	79.62
454.633	64.62
454.853	74.62
455.073	70.62
455.294	71.62
455.514	98.62
455.734	81.62
455.955	81.62
456.175	77.62
456.395	87.62
456.616	81.62
456.836	74.62
457.056	64.62
457.276	62.62
457.497	80.62
457.717	75.62
457.937	88.62
458.157	95.62
458.377	78.62
458.598	90.62
458.818	69.62
459.038	72.62
459.258	66.62
459.478	71.62
459.698	73.62
459.918	61.62
460.138	79.62
460.358	72.62
460.578	83.62
460.798	91.62
461.018	72.62
461.238	72.62
461.458	77.62
461.678	66.62
461.898	74.62
462.118	79.62
462.338	67.62
462.558	75.62
462.777	62.62
462.997	82.62
463.217	73.62
463.437	85.62
463.657	77.62
463.876	79.62
464.096	69.62
464.316	82.62
464.536	68.62
464.755	81.62
464.975	84.62
465.195	56.62
465.414	85.62
465.634	72.62
465.854	83.62
466.073	73.62
466.293	84.62
466.512	69.62
466.732	86.62
466.951	75.62
467.171	74.62
467.391	72.62
467.61	87.62
467.829	87.62
468.049	90.62
468.268	72.62
468.488	68.62
468.707	79.62
468.927	82.62
469.146	77.62
469.365	75.62
469.585	65.62
469.804	64.62
470.023	79.62
470.243	86.62
470.462	78.62
470.681	76.62
470.901	71.62
471.12	79.62
471.339	80.62
471.558	83.62
471.777	76.62
471.997	76.62
472.216	81.62
472.435	72.62
472.654	80.62
472.873	77.62
473.092	59.62
473.311	86.62
473.53	78.62
473.749	81.62
473.968	82.62
474.187	81.62
474.406	80.62
474.625	71.62
474.844	74.62
475.063	64.62
475.282	72.62
475.501	94.62
475.72	78.62
475.939	89.62
476.158	74.62
476.377	86.62
476.596	77.62
476.814	86.62
477.033	62.62
477.252	84.62
477.471	74.62
477.69	76.62
477.908	82.62
478.127	75.62
478.346	78.62
478.564	77.62
478.783	98.62
479.002	82.62
479.22	82.62
479.439	78.62
479.658	80.62
479.876	95.62
480.095	77.62
480.313	68.62
480.532	79.62
480.751	74.62
480.969	68.62
481.188	82.62
481.406	84.62
481.624	70.62
481.843	65.62
482.061	69.62
482.28	93.62
482.498	85.62
482.717	75.62
482.935	75.62
483.153	75.62
483.372	75.62
483.59	79.62
483.808	82.62
484.027	74.62
484.245	67.62
484.463	76.62
484.681	71.62
484.9	71.62
485.118	82.62
485.336	62.62
485.554	66.62
485.772	74.62
485.99	78.62
486.209	65.62
486.427	78.62
486.645	77.62
486.863	82.62
487.081	85.62
487.299	85.62
487.517	73.62
487.735	73.62
487.953	90.62
488.171	76.62
488.389	72.62
488.607	83.62
488.825	78.62
489.043	68.62
489.261	68.62
489.479	80.62
489.696	89.62
489.914	83.62
490.132	72.62
490.35	83.62
490.568	67.62
490.786	75.62
491.003	78.62
491.221	77.62
491.439	76.62
491.657	78.62
491.874	87.62
492.092	74.62
492.31	74.62
492.527	87.62
492.745	78.62
492.963	76.62
493.18	81.62
493.398	74.62
493.615	76.62
493.833	76.62
494.05	78.62
494.268	71.62
494.485	91.62
494.703	76.62
494.92	82.62
495.138	80.62
495.355	80.62
495.573	86.62
495.79	67.62
496.008	83.62
496.225	81.62
496.442	76.62
496.66	66.62
496.877	71.62
497.094	67.62
497.312	86.62
497.529	72.62
497.746	80.62
497.963	69.62
498.181	78.62
498.398	94.62
498.615	96.62
498.832	92.62
499.049	74.62
499.267	72.62
499.484	91.62
499.701	77.62
499.918	73.62
500.135	78.62
500.352	88.62
500.569	68.62
500.786	68.62
501.003	71.62
501.22	78.62
501.437	85.62
501.654	80.62
501.871	78.62
502.088	91.62
502.305	78.62
502.522	78.62
502.739	82.62
502.956	73.62
503.172	64.62
503.389	74.62
503.606	66.62
503.823	90.62
504.04	81.62
504.256	88.62
504.473	66.62
504.69	59.62
504.907	91.62
505.123	80.62
505.34	86.62
505.557	88.62
505.773	86.62
505.99	77.62
506.207	82.62
506.423	76.62
506.64	77.62
506.856	80.62
507.073	72.62
507.289	93.62
507.506	72.62
507.722	92.62
507.939	89.62
508.155	75.62
508.372	57.62
508.588	68.62
508.805	86.62
509.021	83.62
509.238	80.62
509.454	76.62
509.67	76.62
509.887	79.62
510.103	78.62
510.319	67.62
510.536	91.62
510.752	73.62
510.968	76.62
511.184	76.62
511.401	83.62
511.617	80.62
511.833	94.62
512.049	81.62
512.265	72.62
512.481	79.62
512.698	79.62
512.914	73.62
513.13	68.62
513.346	74.62
513.562	74.62
513.778	89.62
513.994	75.62
514.21	79.62
514.426	86.62
514.642	78.62
514.858	72.62
515.074	64.62
515.29	70.62
515.506	81.62
515.721	72.62
515.937	90.62
516.153	81.62
516.369	73.62
516.585	72.62
516.801	73.62
517.016	72.62
517.232	76.62
517.448	84.62
517.664	73.62
517.879	79.62
518.095	90.62
518.311	80.62
518.527	83.62
518.742	87.62
518.958	89.62
519.173	80.62
519.389	77.62
519.605	88.62
519.82	73.62
520.036	61.62
