Data from Background_3_HRD10591_00010.txt Node
Date: Wed Nov 05 14:49:24 EST 2025
User: Yrep
Spectrometer: HR+D1059
Trigger mode: 1
Integration Time (sec): 1.000000E-1
Scans to average: 1
Electric dark correction enabled: true
Nonlinearity correction enabled: false
Boxcar width: 0
XAxis mode: Wavelengths
Number of Pixels in Spectrum: 2048
>>>>>Begin Spectral Data<<<<<
223.165	-22.12
223.4	-22.12
223.635	-22.12
223.869	-16.12
224.104	-20.12
224.338	-14.12
224.573	-12.12
224.808	-6.12
225.042	-15.12
225.277	-10.12
225.511	-11.12
225.746	1.88
225.98	9.88
226.215	10.88
226.449	14.88
226.683	20.88
226.918	36.88
227.152	31.88
227.387	28.88
227.621	37.88
227.856	41.88
228.09	43.88
228.324	44.88
228.559	51.88
228.793	63.88
229.027	55.88
229.262	77.88
229.496	68.88
229.73	66.88
229.964	71.88
230.199	74.88
230.433	71.88
230.667	73.88
230.901	81.88
231.136	84.88
231.37	87.88
231.604	85.88
231.838	93.88
232.072	79.88
232.306	75.88
232.541	97.88
232.775	79.88
233.009	84.88
233.243	91.88
233.477	77.88
233.711	89.88
233.945	95.88
234.179	82.88
234.413	87.88
234.647	85.88
234.881	73.88
235.115	72.88
235.349	89.88
235.583	82.88
235.817	81.88
236.051	80.88
236.285	60.88
236.519	84.88
236.753	65.88
236.987	85.88
237.221	91.88
237.455	78.88
237.689	67.88
237.922	60.88
238.156	70.88
238.39	76.88
238.624	72.88
238.858	80.88
239.091	81.88
239.325	60.88
239.559	72.88
239.793	62.88
240.027	71.88
240.26	77.88
240.494	82.88
240.728	66.88
240.961	57.88
241.195	81.88
241.429	82.88
241.662	73.88
241.896	87.88
242.13	86.88
242.363	78.88
242.597	73.88
242.83	82.88
243.064	79.88
243.298	85.88
243.531	80.88
243.765	86.88
243.998	68.88
244.232	66.88
244.465	83.88
244.699	74.88
244.932	74.88
245.166	69.88
245.399	55.88
245.633	72.88
245.866	83.88
246.099	74.88
246.333	71.88
246.566	75.88
246.8	72.88
247.033	59.88
247.266	83.88
247.5	79.88
247.733	76.88
247.966	69.88
248.2	91.88
248.433	69.88
248.666	83.88
248.899	73.88
249.133	84.88
249.366	75.88
249.599	79.88
249.832	76.88
250.066	82.88
250.299	83.88
250.532	65.88
250.765	82.88
250.998	75.88
251.231	83.88
251.465	83.88
251.698	74.88
251.931	91.88
252.164	63.88
252.397	70.88
252.63	83.88
252.863	87.88
253.096	72.88
253.329	77.88
253.562	77.88
253.795	64.88
254.028	75.88
254.261	67.88
254.494	61.88
254.727	78.88
254.96	79.88
255.193	84.88
255.426	95.88
255.659	73.88
255.892	72.88
256.124	87.88
256.357	76.88
256.59	79.88
256.823	72.88
257.056	79.88
257.289	74.88
257.521	78.88
257.754	68.88
257.987	82.88
258.22	85.88
258.452	65.88
258.685	92.88
258.918	75.88
259.151	84.88
259.383	86.88
259.616	80.88
259.849	80.88
260.081	76.88
260.314	87.88
260.547	72.88
260.779	93.88
261.012	82.88
261.244	73.88
261.477	105.88
261.71	79.88
261.942	73.88
262.175	75.88
262.407	73.88
262.64	72.88
262.872	73.88
263.105	79.88
263.337	80.88
263.57	87.88
263.802	83.88
264.035	79.88
264.267	73.88
264.499	87.88
264.732	81.88
264.964	88.88
265.197	79.88
265.429	76.88
265.661	89.88
265.894	95.88
266.126	77.88
266.358	87.88
266.591	81.88
266.823	86.88
267.055	75.88
267.287	90.88
267.52	81.88
267.752	79.88
267.984	84.88
268.216	65.88
268.448	75.88
268.681	81.88
268.913	95.88
269.145	77.88
269.377	81.88
269.609	74.88
269.841	91.88
270.073	96.88
270.306	80.88
270.538	82.88
270.77	94.88
271.002	66.88
271.234	76.88
271.466	76.88
271.698	77.88
271.93	78.88
272.162	68.88
272.394	76.88
272.626	80.88
272.858	77.88
273.09	77.88
273.322	75.88
273.553	82.88
273.785	81.88
274.017	72.88
274.249	79.88
274.481	78.88
274.713	74.88
274.945	70.88
275.176	65.88
275.408	78.88
275.64	83.88
275.872	104.88
276.104	86.88
276.335	98.88
276.567	80.88
276.799	87.88
277.031	79.88
277.262	76.88
277.494	82.88
277.726	86.88
277.957	76.88
278.189	80.88
278.421	85.88
278.652	83.88
278.884	79.88
279.115	88.88
279.347	75.88
279.579	76.88
279.81	77.88
280.042	87.88
280.273	85.88
280.505	87.88
280.736	91.88
280.968	94.88
281.199	80.88
281.431	97.88
281.662	105.88
281.894	73.88
282.125	73.88
282.356	81.88
282.588	81.88
282.819	90.88
283.051	92.88
283.282	81.88
283.513	99.88
283.745	75.88
283.976	79.88
284.207	77.88
284.439	87.88
284.67	91.88
284.901	79.88
285.132	82.88
285.364	75.88
285.595	76.88
285.826	97.88
286.057	85.88
286.288	68.88
286.52	82.88
286.751	93.88
286.982	84.88
287.213	72.88
287.444	89.88
287.675	69.88
287.906	79.88
288.138	77.88
288.369	81.88
288.6	76.88
288.831	78.88
289.062	76.88
289.293	82.88
289.524	67.88
289.755	84.88
289.986	80.88
290.217	72.88
290.448	91.88
290.679	76.88
290.91	87.88
291.141	84.88
291.371	89.88
291.602	81.88
291.833	68.88
292.064	83.88
292.295	89.88
292.526	79.88
292.757	86.88
292.987	85.88
293.218	91.88
293.449	83.88
293.68	70.88
293.91	66.88
294.141	86.88
294.372	73.88
294.603	77.88
294.833	83.88
295.064	83.88
295.295	87.88
295.525	77.88
295.756	103.88
295.987	75.88
296.217	85.88
296.448	73.88
296.679	91.88
296.909	88.88
297.14	89.88
297.37	89.88
297.601	70.88
297.831	74.88
298.062	78.88
298.292	76.88
298.523	85.88
298.753	76.88
298.984	96.88
299.214	76.88
299.445	90.88
299.675	80.88
299.905	76.88
300.136	83.88
300.366	77.88
300.597	66.88
300.827	80.88
301.057	81.88
301.288	81.88
301.518	88.88
301.748	93.88
301.979	103.88
302.209	89.88
302.439	79.88
302.669	82.88
302.9	83.88
303.13	79.88
303.36	89.88
303.59	68.88
303.82	84.88
304.051	93.88
304.281	79.88
304.511	85.88
304.741	81.88
304.971	79.88
305.201	80.88
305.431	88.88
305.661	91.88
305.891	96.88
306.121	79.88
306.352	74.88
306.582	84.88
306.812	76.88
307.042	82.88
307.272	98.88
307.502	84.88
307.731	78.88
307.961	82.88
308.191	79.88
308.421	64.88
308.651	69.88
308.881	83.88
309.111	91.88
309.341	91.88
309.571	93.88
309.8	98.88
310.03	77.88
310.26	84.88
310.49	79.88
310.72	84.88
310.949	73.88
311.179	87.88
311.409	87.88
311.639	77.88
311.868	77.88
312.098	92.88
312.328	98.88
312.557	61.88
312.787	77.88
313.017	85.88
313.246	82.88
313.476	91.88
313.706	78.88
313.935	90.88
314.165	96.88
314.394	79.88
314.624	89.88
314.853	92.88
315.083	89.88
315.312	81.88
315.542	82.88
315.771	85.88
316.001	62.88
316.23	81.88
316.46	95.88
316.689	90.88
316.919	80.88
317.148	90.88
317.377	92.88
317.607	96.88
317.836	87.88
318.065	85.88
318.295	80.88
318.524	74.88
318.753	78.88
318.983	77.88
319.212	83.88
319.441	87.88
319.67	91.88
319.9	81.88
320.129	81.88
320.358	89.88
320.587	86.88
320.816	80.88
321.046	87.88
321.275	89.88
321.504	90.88
321.733	81.88
321.962	92.88
322.191	79.88
322.42	89.88
322.649	90.88
322.878	77.88
323.108	89.88
323.337	87.88
323.566	76.88
323.795	81.88
324.024	92.88
324.253	75.88
324.482	76.88
324.71	83.88
324.939	75.88
325.168	80.88
325.397	72.88
325.626	84.88
325.855	66.88
326.084	93.88
326.313	80.88
326.542	79.88
326.77	91.88
326.999	72.88
327.228	83.88
327.457	79.88
327.686	89.88
327.914	87.88
328.143	84.88
328.372	99.88
328.6	82.88
328.829	61.88
329.058	77.88
329.287	80.88
329.515	87.88
329.744	82.88
329.972	87.88
330.201	75.88
330.43	83.88
330.658	74.88
330.887	88.88
331.115	100.88
331.344	95.88
331.572	85.88
331.801	75.88
332.03	67.88
332.258	75.88
332.486	87.88
332.715	85.88
332.943	69.88
333.172	70.88
333.4	94.88
333.629	82.88
333.857	91.88
334.085	88.88
334.314	86.88
334.542	74.88
334.771	76.88
334.999	78.88
335.227	76.88
335.455	83.88
335.684	97.88
335.912	64.88
336.14	74.88
336.369	86.88
336.597	99.88
336.825	93.88
337.053	86.88
337.281	80.88
337.51	81.88
337.738	88.88
337.966	71.88
338.194	80.88
338.422	67.88
338.65	88.88
338.878	91.88
339.106	83.88
339.334	87.88
339.562	81.88
339.79	97.88
340.018	96.88
340.246	99.88
340.474	92.88
340.702	85.88
340.93	90.88
341.158	79.88
341.386	68.88
341.614	77.88
341.842	76.88
342.07	73.88
342.298	94.88
342.526	108.88
342.754	81.88
342.981	87.88
343.209	76.88
343.437	89.88
343.665	79.88
343.893	90.88
344.12	86.88
344.348	78.88
344.576	83.88
344.804	81.88
345.031	78.88
345.259	78.88
345.487	87.88
345.714	93.88
345.942	80.88
346.17	79.88
346.397	68.88
346.625	81.88
346.853	91.88
347.08	80.88
347.308	85.88
347.535	76.88
347.763	71.88
347.99	91.88
348.218	89.88
348.445	73.88
348.673	70.88
348.9	84.88
349.128	80.88
349.355	87.88
349.583	73.88
349.81	75.88
350.037	79.88
350.265	89.88
350.492	89.88
350.72	73.88
350.947	73.88
351.174	79.88
351.402	92.88
351.629	85.88
351.856	81.88
352.083	88.88
352.311	96.88
352.538	84.88
352.765	85.88
352.992	87.88
353.22	83.88
353.447	73.88
353.674	64.88
353.901	91.88
354.128	91.88
354.355	82.88
354.583	75.88
354.81	84.88
355.037	74.88
355.264	84.88
355.491	90.88
355.718	68.88
355.945	86.88
356.172	79.88
356.399	80.88
356.626	73.88
356.853	77.88
357.08	85.88
357.307	91.88
357.534	80.88
357.761	69.88
357.988	79.88
358.215	88.88
358.441	82.88
358.668	83.88
358.895	82.88
359.122	88.88
359.349	79.88
359.576	69.88
359.802	89.88
360.029	73.88
360.256	73.88
360.483	59.88
360.709	86.88
360.936	86.88
361.163	89.88
361.39	84.88
361.616	96.88
361.843	80.88
362.07	83.88
362.296	89.88
362.523	82.88
362.749	82.88
362.976	80.88
363.203	69.88
363.429	82.88
363.656	87.88
363.882	76.88
364.109	92.88
364.335	91.88
364.562	75.88
364.788	81.88
365.015	91.88
365.241	79.88
365.468	72.88
365.694	87.88
365.92	93.88
366.147	77.88
366.373	79.88
366.599	79.88
366.826	92.88
367.052	72.88
367.278	83.88
367.505	69.88
367.731	79.88
367.957	83.88
368.184	93.88
368.41	86.88
368.636	73.88
368.862	82.88
369.089	81.88
369.315	75.88
369.541	100.88
369.767	84.88
369.993	77.88
370.219	91.88
370.445	82.88
370.672	73.88
370.898	75.88
371.124	77.88
371.35	75.88
371.576	87.88
371.802	84.88
372.028	73.88
372.254	83.88
372.48	83.88
372.706	87.88
372.932	86.88
373.158	68.88
373.384	77.88
373.61	91.88
373.835	85.88
374.061	84.88
374.287	72.88
374.513	63.88
374.739	77.88
374.965	83.88
375.191	79.88
375.416	74.88
375.642	92.88
375.868	85.88
376.094	86.88
376.319	85.88
376.545	73.88
376.771	91.88
376.997	79.88
377.222	91.88
377.448	89.88
377.674	85.88
377.899	90.88
378.125	72.88
378.35	80.88
378.576	66.88
378.802	72.88
379.027	83.88
379.253	83.88
379.478	81.88
379.704	92.88
379.929	84.88
380.155	65.88
380.38	73.88
380.606	80.88
380.831	73.88
381.057	86.88
381.282	83.88
381.507	82.88
381.733	81.88
381.958	75.88
382.184	73.88
382.409	76.88
382.634	84.88
382.86	72.88
383.085	82.88
383.31	83.88
383.535	83.88
383.761	83.88
383.986	89.88
384.211	69.88
384.436	84.88
384.662	69.88
384.887	73.88
385.112	71.88
385.337	66.88
385.562	77.88
385.787	84.88
386.013	74.88
386.238	87.88
386.463	81.88
386.688	81.88
386.913	99.88
387.138	75.88
387.363	86.88
387.588	84.88
387.813	97.88
388.038	75.88
388.263	70.88
388.488	69.88
388.713	70.88
388.938	77.88
389.163	80.88
389.387	83.88
389.612	70.88
389.837	82.88
390.062	79.88
390.287	80.88
390.512	83.88
390.736	77.88
390.961	74.88
391.186	76.88
391.411	81.88
391.636	67.88
391.86	69.88
392.085	82.88
392.31	72.88
392.534	70.88
392.759	79.88
392.984	82.88
393.208	84.88
393.433	95.88
393.658	82.88
393.882	72.88
394.107	78.88
394.331	68.88
394.556	77.88
394.78	78.88
395.005	83.88
395.229	96.88
395.454	91.88
395.678	72.88
395.903	78.88
396.127	81.88
396.352	93.88
396.576	85.88
396.801	61.88
397.025	87.88
397.249	87.88
397.474	67.88
397.698	79.88
397.922	63.88
398.147	72.88
398.371	77.88
398.595	84.88
398.82	74.88
399.044	76.88
399.268	82.88
399.492	86.88
399.717	77.88
399.941	76.88
400.165	80.88
400.389	84.88
400.613	72.88
400.837	80.88
401.062	72.88
401.286	88.88
401.51	91.88
401.734	86.88
401.958	84.88
402.182	83.88
402.406	58.88
402.63	86.88
402.854	83.88
403.078	87.88
403.302	76.88
403.526	76.88
403.75	92.88
403.974	85.88
404.198	84.88
404.422	81.88
404.645	82.88
404.869	75.88
405.093	89.88
405.317	92.88
405.541	88.88
405.765	74.88
405.988	87.88
406.212	90.88
406.436	77.88
406.66	86.88
406.883	84.88
407.107	79.88
407.331	73.88
407.555	75.88
407.778	82.88
408.002	78.88
408.226	82.88
408.449	87.88
408.673	91.88
408.896	76.88
409.12	82.88
409.344	86.88
409.567	87.88
409.791	79.88
410.014	75.88
410.238	77.88
410.461	74.88
410.685	87.88
410.908	92.88
411.132	89.88
411.355	82.88
411.578	77.88
411.802	77.88
412.025	69.88
412.249	81.88
412.472	83.88
412.695	84.88
412.919	74.88
413.142	72.88
413.365	92.88
413.589	84.88
413.812	105.88
414.035	79.88
414.258	78.88
414.482	83.88
414.705	80.88
414.928	85.88
415.151	88.88
415.374	77.88
415.597	84.88
415.821	74.88
416.044	83.88
416.267	83.88
416.49	74.88
416.713	78.88
416.936	83.88
417.159	78.88
417.382	79.88
417.605	94.88
417.828	73.88
418.051	87.88
418.274	75.88
418.497	76.88
418.72	73.88
418.943	75.88
419.166	75.88
419.389	83.88
419.611	80.88
419.834	86.88
420.057	96.88
420.28	82.88
420.503	75.88
420.726	82.88
420.948	92.88
421.171	91.88
421.394	83.88
421.617	77.88
421.839	80.88
422.062	88.88
422.285	85.88
422.507	80.88
422.73	78.88
422.953	79.88
423.175	84.88
423.398	84.88
423.621	76.88
423.843	86.88
424.066	59.88
424.288	75.88
424.511	89.88
424.733	83.88
424.956	86.88
425.178	68.88
425.401	81.88
425.623	84.88
425.846	82.88
426.068	80.88
426.291	78.88
426.513	83.88
426.735	76.88
426.958	77.88
427.18	82.88
427.402	79.88
427.625	73.88
427.847	87.88
428.069	78.88
428.292	70.88
428.514	81.88
428.736	77.88
428.958	74.88
429.181	77.88
429.403	77.88
429.625	74.88
429.847	79.88
430.069	81.88
430.292	76.88
430.514	76.88
430.736	81.88
430.958	83.88
431.18	83.88
431.402	76.88
431.624	88.88
431.846	80.88
432.068	72.88
432.29	78.88
432.512	77.88
432.734	75.88
432.956	85.88
433.178	91.88
433.4	82.88
433.622	77.88
433.844	100.88
434.066	76.88
434.287	76.88
434.509	75.88
434.731	97.88
434.953	79.88
435.175	80.88
435.397	83.88
435.618	74.88
435.84	93.88
436.062	68.88
436.284	84.88
436.505	75.88
436.727	70.88
436.949	74.88
437.17	80.88
437.392	70.88
437.614	81.88
437.835	71.88
438.057	79.88
438.278	81.88
438.5	70.88
438.721	74.88
438.943	85.88
439.165	86.88
439.386	71.88
439.608	75.88
439.829	75.88
440.05	80.88
440.272	83.88
440.493	66.88
440.715	80.88
440.936	82.88
441.158	73.88
441.379	82.88
441.6	82.88
441.822	86.88
442.043	81.88
442.264	78.88
442.486	65.88
442.707	69.88
442.928	83.88
443.149	76.88
443.371	79.88
443.592	56.88
443.813	77.88
444.034	83.88
444.255	80.88
444.476	82.88
444.698	81.88
444.919	71.88
445.14	152.88
445.361	119.88
445.582	70.88
445.803	84.88
446.024	87.88
446.245	79.88
446.466	84.88
446.687	66.88
446.908	76.88
447.129	82.88
447.35	77.88
447.571	75.88
447.792	89.88
448.013	88.88
448.234	96.88
448.455	72.88
448.675	92.88
448.896	79.88
449.117	82.88
449.338	80.88
449.559	85.88
449.779	75.88
450	67.88
450.221	76.88
450.442	77.88
450.662	83.88
450.883	89.88
451.104	72.88
451.324	86.88
451.545	73.88
451.766	91.88
451.986	73.88
452.207	87.88
452.428	69.88
452.648	78.88
452.869	77.88
453.089	80.88
453.31	85.88
453.53	92.88
453.751	91.88
453.971	91.88
454.192	83.88
454.412	79.88
454.633	88.88
454.853	74.88
455.073	65.88
455.294	79.88
455.514	80.88
455.734	75.88
455.955	81.88
456.175	90.88
456.395	85.88
456.616	86.88
456.836	75.88
457.056	84.88
457.276	67.88
457.497	69.88
457.717	78.88
457.937	78.88
458.157	76.88
458.377	75.88
458.598	75.88
458.818	76.88
459.038	86.88
459.258	88.88
459.478	90.88
459.698	76.88
459.918	85.88
460.138	81.88
460.358	91.88
460.578	89.88
460.798	74.88
461.018	77.88
461.238	86.88
461.458	75.88
461.678	79.88
461.898	83.88
462.118	84.88
462.338	75.88
462.558	72.88
462.777	83.88
462.997	75.88
463.217	86.88
463.437	91.88
463.657	88.88
463.876	85.88
464.096	77.88
464.316	80.88
464.536	76.88
464.755	77.88
464.975	75.88
465.195	75.88
465.414	83.88
465.634	72.88
465.854	78.88
466.073	77.88
466.293	84.88
466.512	84.88
466.732	87.88
466.951	66.88
467.171	85.88
467.391	79.88
467.61	83.88
467.829	91.88
468.049	79.88
468.268	70.88
468.488	76.88
468.707	80.88
468.927	90.88
469.146	74.88
469.365	67.88
469.585	85.88
469.804	75.88
470.023	88.88
470.243	70.88
470.462	88.88
470.681	85.88
470.901	85.88
471.12	89.88
471.339	87.88
471.558	83.88
471.777	68.88
471.997	87.88
472.216	84.88
472.435	77.88
472.654	87.88
472.873	74.88
473.092	88.88
473.311	80.88
473.53	71.88
473.749	88.88
473.968	83.88
474.187	65.88
474.406	97.88
474.625	79.88
474.844	86.88
475.063	70.88
475.282	86.88
475.501	84.88
475.72	89.88
475.939	86.88
476.158	79.88
476.377	79.88
476.596	78.88
476.814	80.88
477.033	91.88
477.252	89.88
477.471	74.88
477.69	84.88
477.908	76.88
478.127	66.88
478.346	83.88
478.564	79.88
478.783	82.88
479.002	92.88
479.22	83.88
479.439	83.88
479.658	95.88
479.876	78.88
480.095	84.88
480.313	80.88
480.532	88.88
480.751	78.88
480.969	97.88
481.188	81.88
481.406	76.88
481.624	80.88
481.843	87.88
482.061	84.88
482.28	71.88
482.498	82.88
482.717	84.88
482.935	84.88
483.153	68.88
483.372	75.88
483.59	88.88
483.808	79.88
484.027	93.88
484.245	79.88
484.463	79.88
484.681	80.88
484.9	68.88
485.118	80.88
485.336	83.88
485.554	95.88
485.772	87.88
485.99	81.88
486.209	95.88
486.427	74.88
486.645	77.88
486.863	84.88
487.081	80.88
487.299	71.88
487.517	79.88
487.735	75.88
487.953	86.88
488.171	80.88
488.389	73.88
488.607	85.88
488.825	81.88
489.043	88.88
489.261	78.88
489.479	69.88
489.696	78.88
489.914	79.88
490.132	77.88
490.35	87.88
490.568	80.88
490.786	75.88
491.003	76.88
491.221	85.88
491.439	81.88
491.657	90.88
491.874	79.88
492.092	79.88
492.31	77.88
492.527	85.88
492.745	87.88
492.963	92.88
493.18	86.88
493.398	97.88
493.615	87.88
493.833	83.88
494.05	73.88
494.268	73.88
494.485	83.88
494.703	76.88
494.92	82.88
495.138	86.88
495.355	78.88
495.573	91.88
495.79	86.88
496.008	87.88
496.225	82.88
496.442	77.88
496.66	76.88
496.877	83.88
497.094	90.88
497.312	87.88
497.529	78.88
497.746	95.88
497.963	86.88
498.181	92.88
498.398	85.88
498.615	83.88
498.832	73.88
499.049	68.88
499.267	85.88
499.484	61.88
499.701	69.88
499.918	88.88
500.135	78.88
500.352	80.88
500.569	81.88
500.786	81.88
501.003	91.88
501.22	78.88
501.437	87.88
501.654	58.88
501.871	83.88
502.088	84.88
502.305	74.88
502.522	94.88
502.739	90.88
502.956	81.88
503.172	89.88
503.389	73.88
503.606	75.88
503.823	86.88
504.04	81.88
504.256	71.88
504.473	87.88
504.69	83.88
504.907	97.88
505.123	89.88
505.34	85.88
505.557	85.88
505.773	73.88
505.99	68.88
506.207	76.88
506.423	85.88
506.64	88.88
506.856	92.88
507.073	72.88
507.289	84.88
507.506	83.88
507.722	79.88
507.939	88.88
508.155	78.88
508.372	89.88
508.588	73.88
508.805	88.88
509.021	85.88
509.238	75.88
509.454	65.88
509.67	89.88
509.887	83.88
510.103	68.88
510.319	78.88
510.536	82.88
510.752	75.88
510.968	95.88
511.184	83.88
511.401	91.88
511.617	82.88
511.833	90.88
512.049	95.88
512.265	64.88
512.481	83.88
512.698	83.88
512.914	68.88
513.13	76.88
513.346	77.88
513.562	88.88
513.778	76.88
513.994	83.88
514.21	76.88
514.426	99.88
514.642	86.88
514.858	86.88
515.074	79.88
515.29	92.88
515.506	85.88
515.721	68.88
515.937	81.88
516.153	83.88
516.369	83.88
516.585	93.88
516.801	68.88
517.016	79.88
517.232	95.88
517.448	78.88
517.664	87.88
517.879	71.88
518.095	80.88
518.311	79.88
518.527	73.88
518.742	87.88
518.958	87.88
519.173	79.88
519.389	80.88
519.605	79.88
519.82	69.88
520.036	89.88
