Data from Background_3_HRD10591_00043.txt Node
Date: Wed Nov 05 14:49:41 EST 2025
User: Yrep
Spectrometer: HR+D1059
Trigger mode: 1
Integration Time (sec): 1.000000E-1
Scans to average: 1
Electric dark correction enabled: true
Nonlinearity correction enabled: false
Boxcar width: 0
XAxis mode: Wavelengths
Number of Pixels in Spectrum: 2048
>>>>>Begin Spectral Data<<<<<
223.165	-20.88
223.4	-20.88
223.635	-20.88
223.869	-21.88
224.104	-20.88
224.338	-3.88
224.573	-12.88
224.808	-12.88
225.042	-10.88
225.277	-16.88
225.511	5.12
225.746	-0.88
225.98	10.12
226.215	12.12
226.449	15.12
226.683	24.12
226.918	25.12
227.152	30.12
227.387	36.12
227.621	46.12
227.856	31.12
228.09	57.12
228.324	54.12
228.559	58.12
228.793	48.12
229.027	59.12
229.262	78.12
229.496	63.12
229.73	70.12
229.964	65.12
230.199	73.12
230.433	66.12
230.667	81.12
230.901	70.12
231.136	83.12
231.37	84.12
231.604	89.12
231.838	78.12
232.072	88.12
232.306	88.12
232.541	80.12
232.775	84.12
233.009	88.12
233.243	83.12
233.477	84.12
233.711	85.12
233.945	98.12
234.179	78.12
234.413	110.12
234.647	87.12
234.881	86.12
235.115	89.12
235.349	83.12
235.583	75.12
235.817	89.12
236.051	65.12
236.285	72.12
236.519	85.12
236.753	70.12
236.987	75.12
237.221	85.12
237.455	66.12
237.689	79.12
237.922	80.12
238.156	79.12
238.39	81.12
238.624	88.12
238.858	67.12
239.091	76.12
239.325	81.12
239.559	82.12
239.793	82.12
240.027	80.12
240.26	83.12
240.494	80.12
240.728	75.12
240.961	86.12
241.195	72.12
241.429	68.12
241.662	85.12
241.896	81.12
242.13	71.12
242.363	70.12
242.597	71.12
242.83	85.12
243.064	91.12
243.298	69.12
243.531	90.12
243.765	81.12
243.998	75.12
244.232	95.12
244.465	80.12
244.699	81.12
244.932	86.12
245.166	85.12
245.399	89.12
245.633	81.12
245.866	72.12
246.099	91.12
246.333	75.12
246.566	94.12
246.8	75.12
247.033	83.12
247.266	79.12
247.5	79.12
247.733	82.12
247.966	90.12
248.2	67.12
248.433	79.12
248.666	80.12
248.899	82.12
249.133	83.12
249.366	88.12
249.599	80.12
249.832	77.12
250.066	77.12
250.299	82.12
250.532	74.12
250.765	67.12
250.998	75.12
251.231	90.12
251.465	81.12
251.698	81.12
251.931	62.12
252.164	79.12
252.397	72.12
252.63	89.12
252.863	82.12
253.096	91.12
253.329	94.12
253.562	71.12
253.795	92.12
254.028	86.12
254.261	86.12
254.494	86.12
254.727	86.12
254.96	87.12
255.193	89.12
255.426	93.12
255.659	79.12
255.892	74.12
256.124	73.12
256.357	79.12
256.59	65.12
256.823	74.12
257.056	83.12
257.289	76.12
257.521	83.12
257.754	86.12
257.987	78.12
258.22	88.12
258.452	83.12
258.685	81.12
258.918	84.12
259.151	77.12
259.383	78.12
259.616	88.12
259.849	85.12
260.081	80.12
260.314	79.12
260.547	79.12
260.779	82.12
261.012	93.12
261.244	95.12
261.477	85.12
261.71	86.12
261.942	87.12
262.175	81.12
262.407	80.12
262.64	80.12
262.872	73.12
263.105	85.12
263.337	81.12
263.57	87.12
263.802	71.12
264.035	84.12
264.267	94.12
264.499	88.12
264.732	88.12
264.964	90.12
265.197	81.12
265.429	72.12
265.661	76.12
265.894	79.12
266.126	92.12
266.358	89.12
266.591	72.12
266.823	76.12
267.055	87.12
267.287	85.12
267.52	78.12
267.752	85.12
267.984	79.12
268.216	87.12
268.448	82.12
268.681	88.12
268.913	93.12
269.145	89.12
269.377	93.12
269.609	94.12
269.841	83.12
270.073	91.12
270.306	76.12
270.538	87.12
270.77	86.12
271.002	86.12
271.234	87.12
271.466	101.12
271.698	92.12
271.93	73.12
272.162	89.12
272.394	79.12
272.626	74.12
272.858	93.12
273.09	78.12
273.322	79.12
273.553	73.12
273.785	90.12
274.017	81.12
274.249	82.12
274.481	83.12
274.713	93.12
274.945	83.12
275.176	88.12
275.408	88.12
275.64	88.12
275.872	89.12
276.104	86.12
276.335	79.12
276.567	96.12
276.799	109.12
277.031	98.12
277.262	91.12
277.494	75.12
277.726	91.12
277.957	96.12
278.189	98.12
278.421	89.12
278.652	85.12
278.884	80.12
279.115	93.12
279.347	75.12
279.579	98.12
279.81	93.12
280.042	80.12
280.273	69.12
280.505	92.12
280.736	80.12
280.968	101.12
281.199	99.12
281.431	93.12
281.662	86.12
281.894	85.12
282.125	79.12
282.356	109.12
282.588	86.12
282.819	83.12
283.051	74.12
283.282	65.12
283.513	76.12
283.745	85.12
283.976	82.12
284.207	83.12
284.439	82.12
284.67	80.12
284.901	79.12
285.132	89.12
285.364	73.12
285.595	81.12
285.826	91.12
286.057	90.12
286.288	85.12
286.52	91.12
286.751	75.12
286.982	90.12
287.213	78.12
287.444	73.12
287.675	85.12
287.906	103.12
288.138	101.12
288.369	67.12
288.6	87.12
288.831	80.12
289.062	94.12
289.293	89.12
289.524	97.12
289.755	70.12
289.986	93.12
290.217	88.12
290.448	78.12
290.679	82.12
290.91	85.12
291.141	74.12
291.371	93.12
291.602	98.12
291.833	90.12
292.064	87.12
292.295	87.12
292.526	91.12
292.757	100.12
292.987	98.12
293.218	70.12
293.449	82.12
293.68	89.12
293.91	96.12
294.141	88.12
294.372	88.12
294.603	82.12
294.833	79.12
295.064	86.12
295.295	98.12
295.525	87.12
295.756	106.12
295.987	80.12
296.217	86.12
296.448	81.12
296.679	76.12
296.909	82.12
297.14	79.12
297.37	81.12
297.601	91.12
297.831	86.12
298.062	88.12
298.292	75.12
298.523	95.12
298.753	63.12
298.984	75.12
299.214	88.12
299.445	101.12
299.675	87.12
299.905	81.12
300.136	98.12
300.366	93.12
300.597	87.12
300.827	92.12
301.057	85.12
301.288	95.12
301.518	76.12
301.748	95.12
301.979	96.12
302.209	88.12
302.439	81.12
302.669	89.12
302.9	89.12
303.13	69.12
303.36	89.12
303.59	99.12
303.82	78.12
304.051	78.12
304.281	73.12
304.511	101.12
304.741	95.12
304.971	93.12
305.201	89.12
305.431	78.12
305.661	90.12
305.891	82.12
306.121	79.12
306.352	81.12
306.582	73.12
306.812	93.12
307.042	93.12
307.272	97.12
307.502	83.12
307.731	83.12
307.961	82.12
308.191	87.12
308.421	91.12
308.651	93.12
308.881	93.12
309.111	96.12
309.341	88.12
309.571	90.12
309.8	93.12
310.03	77.12
310.26	94.12
310.49	92.12
310.72	86.12
310.949	88.12
311.179	77.12
311.409	83.12
311.639	91.12
311.868	76.12
312.098	95.12
312.328	88.12
312.557	87.12
312.787	76.12
313.017	95.12
313.246	91.12
313.476	93.12
313.706	93.12
313.935	79.12
314.165	91.12
314.394	94.12
314.624	75.12
314.853	89.12
315.083	73.12
315.312	80.12
315.542	85.12
315.771	102.12
316.001	81.12
316.23	87.12
316.46	85.12
316.689	73.12
316.919	89.12
317.148	93.12
317.377	88.12
317.607	90.12
317.836	86.12
318.065	86.12
318.295	76.12
318.524	84.12
318.753	98.12
318.983	87.12
319.212	97.12
319.441	67.12
319.67	82.12
319.9	96.12
320.129	85.12
320.358	87.12
320.587	79.12
320.816	92.12
321.046	100.12
321.275	80.12
321.504	89.12
321.733	90.12
321.962	91.12
322.191	91.12
322.42	90.12
322.649	83.12
322.878	95.12
323.108	96.12
323.337	105.12
323.566	94.12
323.795	83.12
324.024	99.12
324.253	85.12
324.482	96.12
324.71	88.12
324.939	87.12
325.168	88.12
325.397	87.12
325.626	93.12
325.855	90.12
326.084	101.12
326.313	84.12
326.542	86.12
326.77	88.12
326.999	102.12
327.228	92.12
327.457	109.12
327.686	92.12
327.914	81.12
328.143	99.12
328.372	102.12
328.6	96.12
328.829	81.12
329.058	92.12
329.287	91.12
329.515	103.12
329.744	76.12
329.972	76.12
330.201	78.12
330.43	85.12
330.658	85.12
330.887	90.12
331.115	96.12
331.344	76.12
331.572	89.12
331.801	90.12
332.03	87.12
332.258	92.12
332.486	98.12
332.715	95.12
332.943	94.12
333.172	82.12
333.4	82.12
333.629	102.12
333.857	80.12
334.085	89.12
334.314	80.12
334.542	83.12
334.771	79.12
334.999	79.12
335.227	74.12
335.455	97.12
335.684	91.12
335.912	100.12
336.14	101.12
336.369	93.12
336.597	88.12
336.825	73.12
337.053	72.12
337.281	83.12
337.51	81.12
337.738	88.12
337.966	74.12
338.194	83.12
338.422	98.12
338.65	86.12
338.878	94.12
339.106	87.12
339.334	78.12
339.562	89.12
339.79	85.12
340.018	84.12
340.246	87.12
340.474	97.12
340.702	88.12
340.93	88.12
341.158	86.12
341.386	96.12
341.614	97.12
341.842	88.12
342.07	90.12
342.298	80.12
342.526	92.12
342.754	89.12
342.981	82.12
343.209	86.12
343.437	96.12
343.665	83.12
343.893	81.12
344.12	102.12
344.348	79.12
344.576	89.12
344.804	79.12
345.031	93.12
345.259	86.12
345.487	79.12
345.714	81.12
345.942	101.12
346.17	84.12
346.397	82.12
346.625	89.12
346.853	86.12
347.08	83.12
347.308	88.12
347.535	83.12
347.763	87.12
347.99	79.12
348.218	64.12
348.445	83.12
348.673	95.12
348.9	80.12
349.128	114.12
349.355	87.12
349.583	87.12
349.81	93.12
350.037	95.12
350.265	89.12
350.492	81.12
350.72	90.12
350.947	92.12
351.174	85.12
351.402	86.12
351.629	99.12
351.856	71.12
352.083	88.12
352.311	97.12
352.538	81.12
352.765	86.12
352.992	81.12
353.22	81.12
353.447	103.12
353.674	94.12
353.901	98.12
354.128	94.12
354.355	88.12
354.583	101.12
354.81	83.12
355.037	90.12
355.264	93.12
355.491	97.12
355.718	78.12
355.945	79.12
356.172	86.12
356.399	94.12
356.626	87.12
356.853	88.12
357.08	89.12
357.307	89.12
357.534	83.12
357.761	81.12
357.988	92.12
358.215	76.12
358.441	88.12
358.668	90.12
358.895	94.12
359.122	80.12
359.349	93.12
359.576	79.12
359.802	86.12
360.029	75.12
360.256	93.12
360.483	88.12
360.709	79.12
360.936	94.12
361.163	89.12
361.39	91.12
361.616	77.12
361.843	90.12
362.07	87.12
362.296	91.12
362.523	75.12
362.749	87.12
362.976	93.12
363.203	87.12
363.429	102.12
363.656	93.12
363.882	86.12
364.109	84.12
364.335	81.12
364.562	87.12
364.788	89.12
365.015	79.12
365.241	89.12
365.468	98.12
365.694	93.12
365.92	90.12
366.147	88.12
366.373	92.12
366.599	78.12
366.826	86.12
367.052	99.12
367.278	98.12
367.505	78.12
367.731	92.12
367.957	80.12
368.184	93.12
368.41	86.12
368.636	83.12
368.862	82.12
369.089	79.12
369.315	81.12
369.541	83.12
369.767	83.12
369.993	80.12
370.219	85.12
370.445	87.12
370.672	75.12
370.898	70.12
371.124	83.12
371.35	87.12
371.576	82.12
371.802	90.12
372.028	74.12
372.254	80.12
372.48	88.12
372.706	88.12
372.932	88.12
373.158	88.12
373.384	81.12
373.61	90.12
373.835	86.12
374.061	87.12
374.287	86.12
374.513	79.12
374.739	88.12
374.965	81.12
375.191	79.12
375.416	82.12
375.642	79.12
375.868	99.12
376.094	77.12
376.319	72.12
376.545	92.12
376.771	75.12
376.997	82.12
377.222	81.12
377.448	93.12
377.674	79.12
377.899	84.12
378.125	111.12
378.35	78.12
378.576	86.12
378.802	73.12
379.027	71.12
379.253	81.12
379.478	70.12
379.704	82.12
379.929	83.12
380.155	89.12
380.38	89.12
380.606	74.12
380.831	87.12
381.057	95.12
381.282	78.12
381.507	89.12
381.733	79.12
381.958	87.12
382.184	85.12
382.409	93.12
382.634	81.12
382.86	76.12
383.085	91.12
383.31	81.12
383.535	83.12
383.761	96.12
383.986	88.12
384.211	83.12
384.436	82.12
384.662	89.12
384.887	92.12
385.112	93.12
385.337	91.12
385.562	81.12
385.787	101.12
386.013	83.12
386.238	80.12
386.463	90.12
386.688	104.12
386.913	89.12
387.138	89.12
387.363	82.12
387.588	89.12
387.813	91.12
388.038	73.12
388.263	90.12
388.488	90.12
388.713	89.12
388.938	72.12
389.163	77.12
389.387	88.12
389.612	66.12
389.837	80.12
390.062	86.12
390.287	80.12
390.512	94.12
390.736	81.12
390.961	81.12
391.186	88.12
391.411	96.12
391.636	72.12
391.86	69.12
392.085	86.12
392.31	75.12
392.534	90.12
392.759	95.12
392.984	110.12
393.208	91.12
393.433	85.12
393.658	72.12
393.882	93.12
394.107	87.12
394.331	90.12
394.556	76.12
394.78	87.12
395.005	86.12
395.229	79.12
395.454	83.12
395.678	95.12
395.903	85.12
396.127	89.12
396.352	79.12
396.576	82.12
396.801	87.12
397.025	96.12
397.249	93.12
397.474	86.12
397.698	83.12
397.922	81.12
398.147	91.12
398.371	83.12
398.595	96.12
398.82	91.12
399.044	81.12
399.268	81.12
399.492	80.12
399.717	95.12
399.941	87.12
400.165	79.12
400.389	88.12
400.613	85.12
400.837	105.12
401.062	92.12
401.286	79.12
401.51	87.12
401.734	87.12
401.958	80.12
402.182	83.12
402.406	79.12
402.63	93.12
402.854	100.12
403.078	81.12
403.302	89.12
403.526	80.12
403.75	78.12
403.974	75.12
404.198	83.12
404.422	82.12
404.645	76.12
404.869	77.12
405.093	95.12
405.317	90.12
405.541	89.12
405.765	73.12
405.988	90.12
406.212	95.12
406.436	81.12
406.66	80.12
406.883	79.12
407.107	96.12
407.331	79.12
407.555	101.12
407.778	98.12
408.002	79.12
408.226	84.12
408.449	74.12
408.673	90.12
408.896	92.12
409.12	85.12
409.344	90.12
409.567	82.12
409.791	86.12
410.014	94.12
410.238	87.12
410.461	90.12
410.685	78.12
410.908	82.12
411.132	92.12
411.355	87.12
411.578	78.12
411.802	85.12
412.025	90.12
412.249	93.12
412.472	94.12
412.695	83.12
412.919	94.12
413.142	87.12
413.365	97.12
413.589	91.12
413.812	69.12
414.035	98.12
414.258	80.12
414.482	85.12
414.705	86.12
414.928	82.12
415.151	81.12
415.374	84.12
415.597	98.12
415.821	80.12
416.044	86.12
416.267	87.12
416.49	70.12
416.713	75.12
416.936	90.12
417.159	90.12
417.382	68.12
417.605	83.12
417.828	86.12
418.051	101.12
418.274	79.12
418.497	82.12
418.72	91.12
418.943	87.12
419.166	73.12
419.389	81.12
419.611	84.12
419.834	81.12
420.057	82.12
420.28	73.12
420.503	70.12
420.726	94.12
420.948	102.12
421.171	86.12
421.394	98.12
421.617	95.12
421.839	85.12
422.062	75.12
422.285	81.12
422.507	74.12
422.73	101.12
422.953	85.12
423.175	90.12
423.398	82.12
423.621	85.12
423.843	73.12
424.066	92.12
424.288	79.12
424.511	83.12
424.733	77.12
424.956	83.12
425.178	77.12
425.401	78.12
425.623	89.12
425.846	77.12
426.068	93.12
426.291	96.12
426.513	87.12
426.735	73.12
426.958	79.12
427.18	81.12
427.402	95.12
427.625	87.12
427.847	91.12
428.069	84.12
428.292	83.12
428.514	74.12
428.736	90.12
428.958	94.12
429.181	90.12
429.403	89.12
429.625	75.12
429.847	66.12
430.069	62.12
430.292	85.12
430.514	82.12
430.736	76.12
430.958	79.12
431.18	91.12
431.402	83.12
431.624	80.12
431.846	60.12
432.068	103.12
432.29	82.12
432.512	71.12
432.734	77.12
432.956	81.12
433.178	81.12
433.4	86.12
433.622	86.12
433.844	68.12
434.066	71.12
434.287	71.12
434.509	81.12
434.731	83.12
434.953	101.12
435.175	82.12
435.397	93.12
435.618	80.12
435.84	80.12
436.062	84.12
436.284	83.12
436.505	95.12
436.727	78.12
436.949	84.12
437.17	86.12
437.392	91.12
437.614	83.12
437.835	81.12
438.057	77.12
438.278	88.12
438.5	92.12
438.721	79.12
438.943	77.12
439.165	82.12
439.386	81.12
439.608	101.12
439.829	91.12
440.05	90.12
440.272	75.12
440.493	81.12
440.715	82.12
440.936	90.12
441.158	87.12
441.379	81.12
441.6	90.12
441.822	83.12
442.043	91.12
442.264	71.12
442.486	93.12
442.707	92.12
442.928	99.12
443.149	86.12
443.371	85.12
443.592	87.12
443.813	86.12
444.034	87.12
444.255	88.12
444.476	78.12
444.698	81.12
444.919	73.12
445.14	138.12
445.361	115.12
445.582	84.12
445.803	67.12
446.024	81.12
446.245	67.12
446.466	74.12
446.687	95.12
446.908	90.12
447.129	80.12
447.35	94.12
447.571	93.12
447.792	85.12
448.013	77.12
448.234	62.12
448.455	69.12
448.675	77.12
448.896	84.12
449.117	91.12
449.338	86.12
449.559	85.12
449.779	83.12
450	92.12
450.221	103.12
450.442	81.12
450.662	74.12
450.883	85.12
451.104	94.12
451.324	94.12
451.545	96.12
451.766	92.12
451.986	98.12
452.207	88.12
452.428	102.12
452.648	79.12
452.869	80.12
453.089	71.12
453.31	81.12
453.53	74.12
453.751	71.12
453.971	90.12
454.192	80.12
454.412	84.12
454.633	85.12
454.853	89.12
455.073	83.12
455.294	79.12
455.514	84.12
455.734	78.12
455.955	82.12
456.175	81.12
456.395	75.12
456.616	71.12
456.836	80.12
457.056	87.12
457.276	71.12
457.497	84.12
457.717	69.12
457.937	88.12
458.157	87.12
458.377	80.12
458.598	89.12
458.818	81.12
459.038	76.12
459.258	80.12
459.478	70.12
459.698	94.12
459.918	79.12
460.138	81.12
460.358	85.12
460.578	75.12
460.798	77.12
461.018	83.12
461.238	86.12
461.458	94.12
461.678	81.12
461.898	77.12
462.118	89.12
462.338	84.12
462.558	87.12
462.777	88.12
462.997	71.12
463.217	78.12
463.437	69.12
463.657	80.12
463.876	82.12
464.096	71.12
464.316	69.12
464.536	87.12
464.755	82.12
464.975	83.12
465.195	80.12
465.414	83.12
465.634	78.12
465.854	94.12
466.073	85.12
466.293	79.12
466.512	85.12
466.732	73.12
466.951	85.12
467.171	90.12
467.391	80.12
467.61	71.12
467.829	81.12
468.049	82.12
468.268	82.12
468.488	91.12
468.707	86.12
468.927	76.12
469.146	76.12
469.365	97.12
469.585	82.12
469.804	91.12
470.023	85.12
470.243	86.12
470.462	88.12
470.681	88.12
470.901	86.12
471.12	89.12
471.339	89.12
471.558	81.12
471.777	85.12
471.997	86.12
472.216	89.12
472.435	89.12
472.654	89.12
472.873	90.12
473.092	83.12
473.311	103.12
473.53	67.12
473.749	78.12
473.968	82.12
474.187	85.12
474.406	68.12
474.625	86.12
474.844	70.12
475.063	81.12
475.282	79.12
475.501	81.12
475.72	83.12
475.939	82.12
476.158	94.12
476.377	94.12
476.596	89.12
476.814	89.12
477.033	94.12
477.252	85.12
477.471	87.12
477.69	70.12
477.908	75.12
478.127	69.12
478.346	81.12
478.564	79.12
478.783	70.12
479.002	72.12
479.22	85.12
479.439	83.12
479.658	83.12
479.876	90.12
480.095	76.12
480.313	85.12
480.532	85.12
480.751	79.12
480.969	89.12
481.188	81.12
481.406	59.12
481.624	74.12
481.843	72.12
482.061	83.12
482.28	73.12
482.498	88.12
482.717	91.12
482.935	79.12
483.153	78.12
483.372	84.12
483.59	86.12
483.808	80.12
484.027	86.12
484.245	79.12
484.463	97.12
484.681	76.12
484.9	80.12
485.118	97.12
485.336	90.12
485.554	83.12
485.772	86.12
485.99	87.12
486.209	94.12
486.427	99.12
486.645	86.12
486.863	85.12
487.081	75.12
487.299	71.12
487.517	86.12
487.735	82.12
487.953	93.12
488.171	86.12
488.389	86.12
488.607	94.12
488.825	81.12
489.043	80.12
489.261	66.12
489.479	82.12
489.696	80.12
489.914	88.12
490.132	97.12
490.35	95.12
490.568	67.12
490.786	88.12
491.003	89.12
491.221	67.12
491.439	83.12
491.657	79.12
491.874	86.12
492.092	84.12
492.31	89.12
492.527	90.12
492.745	97.12
492.963	76.12
493.18	73.12
493.398	101.12
493.615	81.12
493.833	88.12
494.05	69.12
494.268	95.12
494.485	83.12
494.703	99.12
494.92	88.12
495.138	95.12
495.355	71.12
495.573	85.12
495.79	79.12
496.008	86.12
496.225	83.12
496.442	93.12
496.66	83.12
496.877	97.12
497.094	82.12
497.312	93.12
497.529	83.12
497.746	85.12
497.963	82.12
498.181	89.12
498.398	69.12
498.615	89.12
498.832	91.12
499.049	89.12
499.267	90.12
499.484	79.12
499.701	91.12
499.918	93.12
500.135	91.12
500.352	89.12
500.569	96.12
500.786	94.12
501.003	66.12
501.22	85.12
501.437	83.12
501.654	80.12
501.871	106.12
502.088	87.12
502.305	79.12
502.522	86.12
502.739	74.12
502.956	73.12
503.172	93.12
503.389	86.12
503.606	73.12
503.823	90.12
504.04	86.12
504.256	73.12
504.473	72.12
504.69	82.12
504.907	72.12
505.123	85.12
505.34	87.12
505.557	78.12
505.773	88.12
505.99	79.12
506.207	85.12
506.423	73.12
506.64	78.12
506.856	80.12
507.073	81.12
507.289	85.12
507.506	82.12
507.722	86.12
507.939	87.12
508.155	87.12
508.372	95.12
508.588	89.12
508.805	74.12
509.021	89.12
509.238	83.12
509.454	88.12
509.67	77.12
509.887	82.12
510.103	86.12
510.319	92.12
510.536	85.12
510.752	61.12
510.968	71.12
511.184	80.12
511.401	69.12
511.617	83.12
511.833	83.12
512.049	90.12
512.265	95.12
512.481	85.12
512.698	67.12
512.914	83.12
513.13	80.12
513.346	76.12
513.562	92.12
513.778	82.12
513.994	95.12
514.21	93.12
514.426	85.12
514.642	78.12
514.858	90.12
515.074	97.12
515.29	79.12
515.506	83.12
515.721	87.12
515.937	95.12
516.153	86.12
516.369	84.12
516.585	83.12
516.801	86.12
517.016	81.12
517.232	84.12
517.448	78.12
517.664	88.12
517.879	88.12
518.095	97.12
518.311	100.12
518.527	84.12
518.742	84.12
518.958	82.12
519.173	89.12
519.389	97.12
