Data from Background_3_HRD10591_00052.txt Node
Date: Wed Nov 05 14:49:45 EST 2025
User: Yrep
Spectrometer: HR+D1059
Trigger mode: 1
Integration Time (sec): 1.000000E-1
Scans to average: 1
Electric dark correction enabled: true
Nonlinearity correction enabled: false
Boxcar width: 0
XAxis mode: Wavelengths
Number of Pixels in Spectrum: 2048
>>>>>Begin Spectral Data<<<<<
223.165	-18.75
223.4	-18.75
223.635	-18.75
223.869	-22.75
224.104	-13.75
224.338	-2.75
224.573	-3.75
224.808	-5.75
225.042	1.25
225.277	-16.75
225.511	-26.75
225.746	2.25
225.98	-5.75
226.215	12.25
226.449	21.25
226.683	33.25
226.918	16.25
227.152	30.25
227.387	30.25
227.621	34.25
227.856	42.25
228.09	34.25
228.324	38.25
228.559	65.25
228.793	60.25
229.027	67.25
229.262	56.25
229.496	70.25
229.73	71.25
229.964	62.25
230.199	66.25
230.433	87.25
230.667	64.25
230.901	80.25
231.136	81.25
231.37	80.25
231.604	86.25
231.838	92.25
232.072	80.25
232.306	88.25
232.541	82.25
232.775	82.25
233.009	101.25
233.243	79.25
233.477	78.25
233.711	77.25
233.945	67.25
234.179	64.25
234.413	81.25
234.647	75.25
234.881	75.25
235.115	68.25
235.349	67.25
235.583	72.25
235.817	75.25
236.051	74.25
236.285	65.25
236.519	60.25
236.753	76.25
236.987	67.25
237.221	77.25
237.455	76.25
237.689	69.25
237.922	72.25
238.156	71.25
238.39	79.25
238.624	76.25
238.858	66.25
239.091	85.25
239.325	68.25
239.559	56.25
239.793	80.25
240.027	68.25
240.26	63.25
240.494	74.25
240.728	82.25
240.961	62.25
241.195	79.25
241.429	78.25
241.662	72.25
241.896	64.25
242.13	76.25
242.363	95.25
242.597	86.25
242.83	67.25
243.064	64.25
243.298	70.25
243.531	88.25
243.765	74.25
243.998	72.25
244.232	84.25
244.465	64.25
244.699	76.25
244.932	67.25
245.166	79.25
245.399	80.25
245.633	91.25
245.866	66.25
246.099	81.25
246.333	75.25
246.566	68.25
246.8	81.25
247.033	67.25
247.266	85.25
247.5	70.25
247.733	75.25
247.966	73.25
248.2	77.25
248.433	70.25
248.666	88.25
248.899	84.25
249.133	82.25
249.366	58.25
249.599	77.25
249.832	74.25
250.066	84.25
250.299	76.25
250.532	84.25
250.765	87.25
250.998	71.25
251.231	77.25
251.465	86.25
251.698	79.25
251.931	79.25
252.164	66.25
252.397	83.25
252.63	89.25
252.863	81.25
253.096	71.25
253.329	91.25
253.562	81.25
253.795	80.25
254.028	83.25
254.261	79.25
254.494	73.25
254.727	88.25
254.96	92.25
255.193	74.25
255.426	82.25
255.659	84.25
255.892	69.25
256.124	87.25
256.357	82.25
256.59	73.25
256.823	72.25
257.056	70.25
257.289	94.25
257.521	92.25
257.754	71.25
257.987	56.25
258.22	92.25
258.452	77.25
258.685	71.25
258.918	76.25
259.151	73.25
259.383	88.25
259.616	81.25
259.849	77.25
260.081	78.25
260.314	83.25
260.547	76.25
260.779	80.25
261.012	83.25
261.244	83.25
261.477	86.25
261.71	83.25
261.942	93.25
262.175	70.25
262.407	71.25
262.64	90.25
262.872	84.25
263.105	85.25
263.337	90.25
263.57	79.25
263.802	78.25
264.035	88.25
264.267	79.25
264.499	83.25
264.732	95.25
264.964	61.25
265.197	86.25
265.429	88.25
265.661	91.25
265.894	83.25
266.126	91.25
266.358	73.25
266.591	77.25
266.823	91.25
267.055	70.25
267.287	70.25
267.52	80.25
267.752	80.25
267.984	68.25
268.216	86.25
268.448	81.25
268.681	81.25
268.913	73.25
269.145	75.25
269.377	75.25
269.609	81.25
269.841	90.25
270.073	83.25
270.306	80.25
270.538	97.25
270.77	89.25
271.002	77.25
271.234	89.25
271.466	87.25
271.698	73.25
271.93	73.25
272.162	81.25
272.394	67.25
272.626	77.25
272.858	72.25
273.09	82.25
273.322	70.25
273.553	81.25
273.785	78.25
274.017	81.25
274.249	71.25
274.481	77.25
274.713	73.25
274.945	85.25
275.176	80.25
275.408	83.25
275.64	92.25
275.872	82.25
276.104	76.25
276.335	75.25
276.567	69.25
276.799	76.25
277.031	67.25
277.262	76.25
277.494	79.25
277.726	80.25
277.957	80.25
278.189	85.25
278.421	77.25
278.652	80.25
278.884	70.25
279.115	80.25
279.347	74.25
279.579	85.25
279.81	85.25
280.042	72.25
280.273	84.25
280.505	84.25
280.736	94.25
280.968	84.25
281.199	90.25
281.431	92.25
281.662	88.25
281.894	77.25
282.125	69.25
282.356	60.25
282.588	86.25
282.819	80.25
283.051	80.25
283.282	87.25
283.513	80.25
283.745	82.25
283.976	83.25
284.207	90.25
284.439	90.25
284.67	67.25
284.901	80.25
285.132	93.25
285.364	76.25
285.595	78.25
285.826	93.25
286.057	83.25
286.288	86.25
286.52	93.25
286.751	77.25
286.982	76.25
287.213	85.25
287.444	90.25
287.675	84.25
287.906	81.25
288.138	73.25
288.369	81.25
288.6	74.25
288.831	78.25
289.062	85.25
289.293	77.25
289.524	78.25
289.755	89.25
289.986	65.25
290.217	89.25
290.448	76.25
290.679	90.25
290.91	85.25
291.141	88.25
291.371	75.25
291.602	87.25
291.833	78.25
292.064	77.25
292.295	80.25
292.526	87.25
292.757	85.25
292.987	88.25
293.218	81.25
293.449	83.25
293.68	90.25
293.91	77.25
294.141	73.25
294.372	85.25
294.603	89.25
294.833	80.25
295.064	80.25
295.295	104.25
295.525	91.25
295.756	83.25
295.987	93.25
296.217	82.25
296.448	81.25
296.679	86.25
296.909	76.25
297.14	70.25
297.37	97.25
297.601	85.25
297.831	81.25
298.062	84.25
298.292	79.25
298.523	88.25
298.753	86.25
298.984	79.25
299.214	66.25
299.445	86.25
299.675	88.25
299.905	81.25
300.136	85.25
300.366	83.25
300.597	80.25
300.827	105.25
301.057	106.25
301.288	86.25
301.518	80.25
301.748	99.25
301.979	93.25
302.209	86.25
302.439	66.25
302.669	74.25
302.9	93.25
303.13	82.25
303.36	80.25
303.59	78.25
303.82	100.25
304.051	82.25
304.281	77.25
304.511	76.25
304.741	71.25
304.971	73.25
305.201	87.25
305.431	81.25
305.661	76.25
305.891	67.25
306.121	97.25
306.352	76.25
306.582	74.25
306.812	81.25
307.042	86.25
307.272	92.25
307.502	75.25
307.731	69.25
307.961	86.25
308.191	76.25
308.421	77.25
308.651	83.25
308.881	80.25
309.111	75.25
309.341	69.25
309.571	94.25
309.8	73.25
310.03	85.25
310.26	84.25
310.49	88.25
310.72	89.25
310.949	86.25
311.179	65.25
311.409	67.25
311.639	81.25
311.868	84.25
312.098	93.25
312.328	75.25
312.557	74.25
312.787	68.25
313.017	97.25
313.246	94.25
313.476	93.25
313.706	74.25
313.935	86.25
314.165	83.25
314.394	82.25
314.624	82.25
314.853	78.25
315.083	92.25
315.312	81.25
315.542	81.25
315.771	94.25
316.001	70.25
316.23	82.25
316.46	84.25
316.689	90.25
316.919	91.25
317.148	97.25
317.377	85.25
317.607	78.25
317.836	88.25
318.065	75.25
318.295	77.25
318.524	86.25
318.753	75.25
318.983	90.25
319.212	93.25
319.441	76.25
319.67	88.25
319.9	77.25
320.129	88.25
320.358	93.25
320.587	93.25
320.816	89.25
321.046	84.25
321.275	90.25
321.504	91.25
321.733	90.25
321.962	82.25
322.191	77.25
322.42	84.25
322.649	91.25
322.878	67.25
323.108	80.25
323.337	88.25
323.566	91.25
323.795	80.25
324.024	88.25
324.253	77.25
324.482	85.25
324.71	82.25
324.939	95.25
325.168	80.25
325.397	92.25
325.626	92.25
325.855	75.25
326.084	84.25
326.313	83.25
326.542	77.25
326.77	86.25
326.999	77.25
327.228	89.25
327.457	92.25
327.686	94.25
327.914	85.25
328.143	98.25
328.372	80.25
328.6	77.25
328.829	83.25
329.058	92.25
329.287	89.25
329.515	84.25
329.744	80.25
329.972	82.25
330.201	82.25
330.43	79.25
330.658	71.25
330.887	81.25
331.115	77.25
331.344	100.25
331.572	95.25
331.801	79.25
332.03	94.25
332.258	87.25
332.486	79.25
332.715	70.25
332.943	81.25
333.172	76.25
333.4	80.25
333.629	96.25
333.857	81.25
334.085	80.25
334.314	74.25
334.542	59.25
334.771	80.25
334.999	82.25
335.227	81.25
335.455	76.25
335.684	85.25
335.912	81.25
336.14	73.25
336.369	90.25
336.597	79.25
336.825	100.25
337.053	91.25
337.281	88.25
337.51	94.25
337.738	100.25
337.966	84.25
338.194	78.25
338.422	86.25
338.65	73.25
338.878	93.25
339.106	84.25
339.334	92.25
339.562	89.25
339.79	76.25
340.018	78.25
340.246	85.25
340.474	75.25
340.702	76.25
340.93	93.25
341.158	85.25
341.386	82.25
341.614	81.25
341.842	66.25
342.07	82.25
342.298	75.25
342.526	83.25
342.754	81.25
342.981	88.25
343.209	80.25
343.437	100.25
343.665	83.25
343.893	84.25
344.12	73.25
344.348	82.25
344.576	69.25
344.804	68.25
345.031	79.25
345.259	74.25
345.487	94.25
345.714	77.25
345.942	82.25
346.17	81.25
346.397	81.25
346.625	85.25
346.853	87.25
347.08	80.25
347.308	89.25
347.535	75.25
347.763	86.25
347.99	79.25
348.218	86.25
348.445	75.25
348.673	81.25
348.9	83.25
349.128	84.25
349.355	80.25
349.583	81.25
349.81	88.25
350.037	76.25
350.265	80.25
350.492	84.25
350.72	74.25
350.947	91.25
351.174	80.25
351.402	92.25
351.629	83.25
351.856	77.25
352.083	79.25
352.311	78.25
352.538	77.25
352.765	83.25
352.992	92.25
353.22	94.25
353.447	78.25
353.674	89.25
353.901	84.25
354.128	70.25
354.355	92.25
354.583	86.25
354.81	80.25
355.037	63.25
355.264	76.25
355.491	77.25
355.718	91.25
355.945	93.25
356.172	76.25
356.399	85.25
356.626	83.25
356.853	86.25
357.08	81.25
357.307	82.25
357.534	91.25
357.761	88.25
357.988	89.25
358.215	73.25
358.441	80.25
358.668	86.25
358.895	77.25
359.122	78.25
359.349	68.25
359.576	77.25
359.802	82.25
360.029	87.25
360.256	65.25
360.483	77.25
360.709	86.25
360.936	86.25
361.163	78.25
361.39	82.25
361.616	85.25
361.843	72.25
362.07	84.25
362.296	76.25
362.523	76.25
362.749	81.25
362.976	79.25
363.203	81.25
363.429	75.25
363.656	99.25
363.882	81.25
364.109	84.25
364.335	68.25
364.562	90.25
364.788	80.25
365.015	82.25
365.241	71.25
365.468	72.25
365.694	72.25
365.92	83.25
366.147	79.25
366.373	76.25
366.599	70.25
366.826	84.25
367.052	93.25
367.278	96.25
367.505	78.25
367.731	97.25
367.957	74.25
368.184	85.25
368.41	80.25
368.636	85.25
368.862	93.25
369.089	102.25
369.315	80.25
369.541	78.25
369.767	78.25
369.993	84.25
370.219	84.25
370.445	74.25
370.672	71.25
370.898	92.25
371.124	80.25
371.35	71.25
371.576	81.25
371.802	94.25
372.028	74.25
372.254	83.25
372.48	81.25
372.706	76.25
372.932	83.25
373.158	77.25
373.384	71.25
373.61	75.25
373.835	82.25
374.061	76.25
374.287	81.25
374.513	68.25
374.739	78.25
374.965	86.25
375.191	64.25
375.416	77.25
375.642	67.25
375.868	80.25
376.094	85.25
376.319	69.25
376.545	75.25
376.771	85.25
376.997	87.25
377.222	79.25
377.448	79.25
377.674	97.25
377.899	81.25
378.125	72.25
378.35	68.25
378.576	91.25
378.802	74.25
379.027	82.25
379.253	89.25
379.478	84.25
379.704	92.25
379.929	94.25
380.155	82.25
380.38	77.25
380.606	77.25
380.831	68.25
381.057	69.25
381.282	84.25
381.507	90.25
381.733	76.25
381.958	76.25
382.184	70.25
382.409	64.25
382.634	86.25
382.86	86.25
383.085	85.25
383.31	84.25
383.535	83.25
383.761	79.25
383.986	84.25
384.211	88.25
384.436	60.25
384.662	80.25
384.887	81.25
385.112	77.25
385.337	79.25
385.562	71.25
385.787	77.25
386.013	75.25
386.238	70.25
386.463	86.25
386.688	79.25
386.913	88.25
387.138	80.25
387.363	73.25
387.588	79.25
387.813	72.25
388.038	67.25
388.263	78.25
388.488	82.25
388.713	68.25
388.938	65.25
389.163	65.25
389.387	83.25
389.612	77.25
389.837	79.25
390.062	82.25
390.287	80.25
390.512	74.25
390.736	82.25
390.961	68.25
391.186	71.25
391.411	80.25
391.636	85.25
391.86	79.25
392.085	80.25
392.31	87.25
392.534	71.25
392.759	67.25
392.984	67.25
393.208	81.25
393.433	94.25
393.658	74.25
393.882	95.25
394.107	88.25
394.331	65.25
394.556	76.25
394.78	87.25
395.005	80.25
395.229	84.25
395.454	81.25
395.678	85.25
395.903	74.25
396.127	81.25
396.352	82.25
396.576	72.25
396.801	78.25
397.025	85.25
397.249	76.25
397.474	76.25
397.698	84.25
397.922	89.25
398.147	90.25
398.371	89.25
398.595	97.25
398.82	81.25
399.044	87.25
399.268	88.25
399.492	64.25
399.717	78.25
399.941	71.25
400.165	75.25
400.389	91.25
400.613	67.25
400.837	75.25
401.062	83.25
401.286	85.25
401.51	86.25
401.734	91.25
401.958	93.25
402.182	75.25
402.406	73.25
402.63	75.25
402.854	74.25
403.078	75.25
403.302	81.25
403.526	81.25
403.75	77.25
403.974	69.25
404.198	74.25
404.422	71.25
404.645	80.25
404.869	93.25
405.093	74.25
405.317	84.25
405.541	80.25
405.765	66.25
405.988	81.25
406.212	88.25
406.436	83.25
406.66	81.25
406.883	93.25
407.107	73.25
407.331	78.25
407.555	78.25
407.778	73.25
408.002	80.25
408.226	74.25
408.449	85.25
408.673	80.25
408.896	74.25
409.12	70.25
409.344	77.25
409.567	81.25
409.791	82.25
410.014	81.25
410.238	83.25
410.461	84.25
410.685	83.25
410.908	85.25
411.132	74.25
411.355	71.25
411.578	90.25
411.802	79.25
412.025	84.25
412.249	82.25
412.472	79.25
412.695	78.25
412.919	70.25
413.142	78.25
413.365	69.25
413.589	68.25
413.812	70.25
414.035	86.25
414.258	66.25
414.482	79.25
414.705	80.25
414.928	92.25
415.151	62.25
415.374	78.25
415.597	82.25
415.821	85.25
416.044	68.25
416.267	84.25
416.49	78.25
416.713	73.25
416.936	84.25
417.159	76.25
417.382	83.25
417.605	71.25
417.828	74.25
418.051	70.25
418.274	78.25
418.497	82.25
418.72	80.25
418.943	68.25
419.166	79.25
419.389	73.25
419.611	106.25
419.834	68.25
420.057	71.25
420.28	82.25
420.503	80.25
420.726	72.25
420.948	88.25
421.171	81.25
421.394	73.25
421.617	74.25
421.839	86.25
422.062	65.25
422.285	73.25
422.507	59.25
422.73	78.25
422.953	84.25
423.175	71.25
423.398	74.25
423.621	81.25
423.843	59.25
424.066	70.25
424.288	80.25
424.511	77.25
424.733	84.25
424.956	77.25
425.178	70.25
425.401	74.25
425.623	71.25
425.846	93.25
426.068	74.25
426.291	88.25
426.513	76.25
426.735	77.25
426.958	82.25
427.18	72.25
427.402	91.25
427.625	82.25
427.847	81.25
428.069	64.25
428.292	67.25
428.514	78.25
428.736	78.25
428.958	90.25
429.181	80.25
429.403	77.25
429.625	92.25
429.847	80.25
430.069	85.25
430.292	71.25
430.514	70.25
430.736	78.25
430.958	89.25
431.18	67.25
431.402	81.25
431.624	70.25
431.846	74.25
432.068	86.25
432.29	78.25
432.512	101.25
432.734	79.25
432.956	67.25
433.178	79.25
433.4	73.25
433.622	84.25
433.844	79.25
434.066	70.25
434.287	66.25
434.509	81.25
434.731	89.25
434.953	81.25
435.175	82.25
435.397	73.25
435.618	81.25
435.84	79.25
436.062	73.25
436.284	89.25
436.505	81.25
436.727	73.25
436.949	81.25
437.17	76.25
437.392	68.25
437.614	75.25
437.835	83.25
438.057	73.25
438.278	74.25
438.5	78.25
438.721	81.25
438.943	84.25
439.165	86.25
439.386	85.25
439.608	94.25
439.829	88.25
440.05	80.25
440.272	76.25
440.493	84.25
440.715	82.25
440.936	75.25
441.158	77.25
441.379	84.25
441.6	75.25
441.822	82.25
442.043	69.25
442.264	73.25
442.486	70.25
442.707	74.25
442.928	83.25
443.149	69.25
443.371	79.25
443.592	84.25
443.813	73.25
444.034	62.25
444.255	82.25
444.476	84.25
444.698	62.25
444.919	82.25
445.14	145.25
445.361	115.25
445.582	89.25
445.803	70.25
446.024	84.25
446.245	73.25
446.466	84.25
446.687	75.25
446.908	85.25
447.129	80.25
447.35	74.25
447.571	82.25
447.792	77.25
448.013	77.25
448.234	71.25
448.455	60.25
448.675	88.25
448.896	73.25
449.117	71.25
449.338	86.25
449.559	86.25
449.779	84.25
450	82.25
450.221	81.25
450.442	69.25
450.662	79.25
450.883	82.25
451.104	88.25
451.324	95.25
451.545	77.25
451.766	66.25
451.986	76.25
452.207	68.25
452.428	84.25
452.648	84.25
452.869	84.25
453.089	68.25
453.31	77.25
453.53	71.25
453.751	73.25
453.971	76.25
454.192	85.25
454.412	74.25
454.633	74.25
454.853	71.25
455.073	71.25
455.294	71.25
455.514	84.25
455.734	76.25
455.955	71.25
456.175	94.25
456.395	86.25
456.616	83.25
456.836	86.25
457.056	100.25
457.276	76.25
457.497	80.25
457.717	83.25
457.937	81.25
458.157	74.25
458.377	78.25
458.598	70.25
458.818	92.25
459.038	83.25
459.258	78.25
459.478	72.25
459.698	73.25
459.918	76.25
460.138	77.25
460.358	81.25
460.578	81.25
460.798	81.25
461.018	79.25
461.238	77.25
461.458	93.25
461.678	82.25
461.898	85.25
462.118	76.25
462.338	71.25
462.558	84.25
462.777	84.25
462.997	90.25
463.217	76.25
463.437	84.25
463.657	78.25
463.876	68.25
464.096	66.25
464.316	92.25
464.536	71.25
464.755	73.25
464.975	75.25
465.195	78.25
465.414	82.25
465.634	80.25
465.854	91.25
466.073	78.25
466.293	75.25
466.512	68.25
466.732	77.25
466.951	86.25
467.171	85.25
467.391	76.25
467.61	89.25
467.829	84.25
468.049	88.25
468.268	73.25
468.488	80.25
468.707	78.25
468.927	82.25
469.146	71.25
469.365	68.25
469.585	77.25
469.804	82.25
470.023	69.25
470.243	77.25
470.462	79.25
470.681	94.25
470.901	86.25
471.12	74.25
471.339	67.25
471.558	81.25
471.777	80.25
471.997	85.25
472.216	75.25
472.435	75.25
472.654	76.25
472.873	81.25
473.092	71.25
473.311	68.25
473.53	77.25
473.749	69.25
473.968	79.25
474.187	100.25
474.406	67.25
474.625	94.25
474.844	76.25
475.063	76.25
475.282	79.25
475.501	74.25
475.72	88.25
475.939	81.25
476.158	77.25
476.377	73.25
476.596	72.25
476.814	76.25
477.033	81.25
477.252	67.25
477.471	79.25
477.69	90.25
477.908	71.25
478.127	83.25
478.346	60.25
478.564	83.25
478.783	75.25
479.002	72.25
479.22	78.25
479.439	80.25
479.658	74.25
479.876	77.25
480.095	73.25
480.313	67.25
480.532	84.25
480.751	88.25
480.969	73.25
481.188	72.25
481.406	78.25
481.624	82.25
481.843	75.25
482.061	68.25
482.28	74.25
482.498	70.25
482.717	66.25
482.935	75.25
483.153	86.25
483.372	72.25
483.59	87.25
483.808	76.25
484.027	73.25
484.245	77.25
484.463	76.25
484.681	92.25
484.9	69.25
485.118	84.25
485.336	86.25
485.554	85.25
485.772	85.25
485.99	70.25
486.209	75.25
486.427	76.25
486.645	84.25
486.863	74.25
487.081	74.25
487.299	75.25
487.517	72.25
487.735	85.25
487.953	73.25
488.171	70.25
488.389	81.25
488.607	59.25
488.825	82.25
489.043	84.25
489.261	79.25
489.479	91.25
489.696	82.25
489.914	77.25
490.132	73.25
490.35	78.25
490.568	81.25
490.786	86.25
491.003	81.25
491.221	75.25
491.439	82.25
491.657	93.25
491.874	94.25
492.092	70.25
492.31	80.25
492.527	68.25
492.745	85.25
492.963	89.25
493.18	82.25
493.398	64.25
493.615	85.25
493.833	84.25
494.05	90.25
494.268	83.25
494.485	81.25
494.703	63.25
494.92	67.25
495.138	90.25
495.355	84.25
495.573	78.25
495.79	79.25
496.008	77.25
496.225	88.25
496.442	71.25
496.66	80.25
496.877	71.25
497.094	74.25
497.312	82.25
497.529	86.25
497.746	86.25
497.963	84.25
498.181	74.25
498.398	82.25
498.615	90.25
498.832	89.25
499.049	68.25
499.267	70.25
499.484	82.25
499.701	76.25
499.918	77.25
500.135	75.25
500.352	70.25
500.569	76.25
500.786	83.25
501.003	99.25
501.22	85.25
501.437	88.25
501.654	77.25
501.871	81.25
502.088	78.25
502.305	74.25
502.522	79.25
502.739	91.25
502.956	85.25
503.172	85.25
503.389	80.25
503.606	90.25
503.823	78.25
504.04	77.25
504.256	67.25
504.473	84.25
504.69	87.25
504.907	96.25
505.123	81.25
505.34	86.25
505.557	80.25
505.773	75.25
505.99	80.25
506.207	78.25
506.423	79.25
506.64	75.25
506.856	74.25
507.073	83.25
507.289	79.25
507.506	80.25
507.722	78.25
507.939	83.25
508.155	79.25
508.372	65.25
508.588	77.25
508.805	76.25
509.021	68.25
509.238	84.25
509.454	74.25
509.67	84.25
509.887	75.25
510.103	83.25
510.319	80.25
510.536	83.25
510.752	85.25
510.968	85.25
511.184	69.25
511.401	71.25
511.617	81.25
511.833	83.25
512.049	73.25
512.265	68.25
512.481	78.25
512.698	79.25
512.914	97.25
513.13	87.25
513.346	82.25
513.562	86.25
513.778	76.25
513.994	76.25
514.21	77.25
514.426	80.25
514.642	90.25
514.858	64.25
515.074	75.25
515.29	80.25
515.506	85.25
515.721	91.25
515.937	87.25
516.153	80.25
516.369	80.25
516.585	89.25
516.801	73.25
517.016	73.25
517.232	78.25
517.448	78.25
517.664	86.25
517.879	81.25
518.095	84.25
518.311	76.25
518.527	74.25
518.742	70.25
518.958	100.25
519.173	77.25
519.389	82.25
519.605	80.25
519.82	77.25
520.036	84.25
