Data from Background_3_HRD10591_00053.txt Node
Date: Wed Nov 05 14:49:46 EST 2025
User: Yrep
Spectrometer: HR+D1059
Trigger mode: 1
Integration Time (sec): 1.000000E-1
Scans to average: 1
Electric dark correction enabled: true
Nonlinearity correction enabled: false
Boxcar width: 0
XAxis mode: Wavelengths
Number of Pixels in Spectrum: 2048
>>>>>Begin Spectral Data<<<<<
223.165	-7.19
223.4	-7.19
223.635	-7.19
223.869	-16.19
224.104	-34.19
224.338	-20.19
224.573	-23.19
224.808	-8.19
225.042	-8.19
225.277	-4.19
225.511	2.81
225.746	5.81
225.98	5.81
226.215	26.81
226.449	27.81
226.683	16.81
226.918	26.81
227.152	8.81
227.387	27.81
227.621	35.81
227.856	39.81
228.09	51.81
228.324	62.81
228.559	56.81
228.793	62.81
229.027	61.81
229.262	66.81
229.496	55.81
229.73	72.81
229.964	71.81
230.199	77.81
230.433	66.81
230.667	77.81
230.901	58.81
231.136	81.81
231.37	77.81
231.604	78.81
231.838	69.81
232.072	76.81
232.306	77.81
232.541	87.81
232.775	73.81
233.009	91.81
233.243	85.81
233.477	80.81
233.711	83.81
233.945	75.81
234.179	82.81
234.413	86.81
234.647	82.81
234.881	70.81
235.115	76.81
235.349	83.81
235.583	78.81
235.817	74.81
236.051	75.81
236.285	82.81
236.519	90.81
236.753	85.81
236.987	72.81
237.221	70.81
237.455	87.81
237.689	76.81
237.922	69.81
238.156	82.81
238.39	74.81
238.624	65.81
238.858	68.81
239.091	67.81
239.325	83.81
239.559	79.81
239.793	81.81
240.027	98.81
240.26	85.81
240.494	79.81
240.728	80.81
240.961	61.81
241.195	87.81
241.429	76.81
241.662	60.81
241.896	65.81
242.13	76.81
242.363	81.81
242.597	82.81
242.83	85.81
243.064	76.81
243.298	82.81
243.531	80.81
243.765	80.81
243.998	68.81
244.232	68.81
244.465	55.81
244.699	63.81
244.932	81.81
245.166	70.81
245.399	78.81
245.633	72.81
245.866	76.81
246.099	67.81
246.333	73.81
246.566	72.81
246.8	80.81
247.033	90.81
247.266	69.81
247.5	83.81
247.733	68.81
247.966	84.81
248.2	81.81
248.433	85.81
248.666	76.81
248.899	75.81
249.133	84.81
249.366	79.81
249.599	57.81
249.832	76.81
250.066	73.81
250.299	68.81
250.532	68.81
250.765	75.81
250.998	84.81
251.231	86.81
251.465	75.81
251.698	91.81
251.931	84.81
252.164	83.81
252.397	66.81
252.63	69.81
252.863	87.81
253.096	81.81
253.329	74.81
253.562	93.81
253.795	86.81
254.028	86.81
254.261	87.81
254.494	95.81
254.727	83.81
254.96	76.81
255.193	79.81
255.426	72.81
255.659	72.81
255.892	85.81
256.124	80.81
256.357	84.81
256.59	81.81
256.823	80.81
257.056	71.81
257.289	70.81
257.521	80.81
257.754	92.81
257.987	86.81
258.22	79.81
258.452	69.81
258.685	82.81
258.918	78.81
259.151	77.81
259.383	80.81
259.616	96.81
259.849	79.81
260.081	73.81
260.314	75.81
260.547	79.81
260.779	70.81
261.012	85.81
261.244	56.81
261.477	72.81
261.71	90.81
261.942	76.81
262.175	81.81
262.407	71.81
262.64	75.81
262.872	76.81
263.105	75.81
263.337	78.81
263.57	80.81
263.802	94.81
264.035	101.81
264.267	87.81
264.499	75.81
264.732	83.81
264.964	78.81
265.197	73.81
265.429	69.81
265.661	91.81
265.894	79.81
266.126	98.81
266.358	84.81
266.591	78.81
266.823	75.81
267.055	86.81
267.287	86.81
267.52	75.81
267.752	85.81
267.984	82.81
268.216	92.81
268.448	82.81
268.681	94.81
268.913	81.81
269.145	86.81
269.377	88.81
269.609	72.81
269.841	68.81
270.073	76.81
270.306	72.81
270.538	76.81
270.77	78.81
271.002	86.81
271.234	80.81
271.466	72.81
271.698	73.81
271.93	78.81
272.162	86.81
272.394	95.81
272.626	69.81
272.858	77.81
273.09	95.81
273.322	89.81
273.553	69.81
273.785	72.81
274.017	82.81
274.249	61.81
274.481	85.81
274.713	94.81
274.945	85.81
275.176	92.81
275.408	82.81
275.64	79.81
275.872	73.81
276.104	94.81
276.335	72.81
276.567	83.81
276.799	70.81
277.031	80.81
277.262	88.81
277.494	84.81
277.726	62.81
277.957	78.81
278.189	79.81
278.421	85.81
278.652	75.81
278.884	78.81
279.115	93.81
279.347	99.81
279.579	77.81
279.81	78.81
280.042	93.81
280.273	98.81
280.505	85.81
280.736	89.81
280.968	70.81
281.199	87.81
281.431	64.81
281.662	75.81
281.894	75.81
282.125	84.81
282.356	86.81
282.588	84.81
282.819	80.81
283.051	90.81
283.282	68.81
283.513	92.81
283.745	82.81
283.976	81.81
284.207	71.81
284.439	95.81
284.67	81.81
284.901	91.81
285.132	89.81
285.364	78.81
285.595	86.81
285.826	73.81
286.057	75.81
286.288	73.81
286.52	75.81
286.751	85.81
286.982	65.81
287.213	93.81
287.444	98.81
287.675	83.81
287.906	77.81
288.138	90.81
288.369	78.81
288.6	79.81
288.831	81.81
289.062	94.81
289.293	85.81
289.524	89.81
289.755	78.81
289.986	93.81
290.217	86.81
290.448	78.81
290.679	95.81
290.91	86.81
291.141	82.81
291.371	82.81
291.602	69.81
291.833	73.81
292.064	90.81
292.295	84.81
292.526	78.81
292.757	77.81
292.987	85.81
293.218	85.81
293.449	97.81
293.68	86.81
293.91	92.81
294.141	97.81
294.372	91.81
294.603	83.81
294.833	88.81
295.064	86.81
295.295	82.81
295.525	86.81
295.756	89.81
295.987	78.81
296.217	92.81
296.448	96.81
296.679	78.81
296.909	88.81
297.14	83.81
297.37	91.81
297.601	77.81
297.831	88.81
298.062	93.81
298.292	83.81
298.523	88.81
298.753	83.81
298.984	84.81
299.214	87.81
299.445	92.81
299.675	85.81
299.905	94.81
300.136	81.81
300.366	80.81
300.597	72.81
300.827	80.81
301.057	82.81
301.288	82.81
301.518	83.81
301.748	78.81
301.979	97.81
302.209	90.81
302.439	85.81
302.669	81.81
302.9	86.81
303.13	91.81
303.36	91.81
303.59	88.81
303.82	81.81
304.051	83.81
304.281	88.81
304.511	75.81
304.741	80.81
304.971	68.81
305.201	95.81
305.431	95.81
305.661	89.81
305.891	76.81
306.121	103.81
306.352	80.81
306.582	82.81
306.812	84.81
307.042	69.81
307.272	86.81
307.502	78.81
307.731	91.81
307.961	90.81
308.191	80.81
308.421	83.81
308.651	87.81
308.881	80.81
309.111	69.81
309.341	76.81
309.571	83.81
309.8	83.81
310.03	74.81
310.26	101.81
310.49	91.81
310.72	89.81
310.949	82.81
311.179	84.81
311.409	90.81
311.639	74.81
311.868	89.81
312.098	88.81
312.328	91.81
312.557	83.81
312.787	81.81
313.017	95.81
313.246	79.81
313.476	85.81
313.706	90.81
313.935	90.81
314.165	84.81
314.394	85.81
314.624	68.81
314.853	101.81
315.083	87.81
315.312	79.81
315.542	81.81
315.771	84.81
316.001	93.81
316.23	80.81
316.46	88.81
316.689	85.81
316.919	90.81
317.148	79.81
317.377	99.81
317.607	87.81
317.836	87.81
318.065	88.81
318.295	82.81
318.524	83.81
318.753	91.81
318.983	72.81
319.212	84.81
319.441	94.81
319.67	94.81
319.9	83.81
320.129	92.81
320.358	78.81
320.587	74.81
320.816	87.81
321.046	79.81
321.275	82.81
321.504	86.81
321.733	87.81
321.962	78.81
322.191	84.81
322.42	82.81
322.649	91.81
322.878	84.81
323.108	92.81
323.337	88.81
323.566	76.81
323.795	87.81
324.024	86.81
324.253	72.81
324.482	90.81
324.71	75.81
324.939	71.81
325.168	96.81
325.397	77.81
325.626	71.81
325.855	93.81
326.084	66.81
326.313	81.81
326.542	90.81
326.77	75.81
326.999	87.81
327.228	92.81
327.457	78.81
327.686	82.81
327.914	98.81
328.143	92.81
328.372	87.81
328.6	74.81
328.829	70.81
329.058	93.81
329.287	90.81
329.515	77.81
329.744	99.81
329.972	96.81
330.201	78.81
330.43	78.81
330.658	87.81
330.887	95.81
331.115	90.81
331.344	87.81
331.572	80.81
331.801	83.81
332.03	89.81
332.258	70.81
332.486	83.81
332.715	75.81
332.943	97.81
333.172	82.81
333.4	93.81
333.629	87.81
333.857	92.81
334.085	74.81
334.314	72.81
334.542	84.81
334.771	96.81
334.999	98.81
335.227	83.81
335.455	96.81
335.684	98.81
335.912	86.81
336.14	93.81
336.369	91.81
336.597	83.81
336.825	73.81
337.053	90.81
337.281	78.81
337.51	92.81
337.738	84.81
337.966	66.81
338.194	77.81
338.422	93.81
338.65	72.81
338.878	73.81
339.106	88.81
339.334	79.81
339.562	70.81
339.79	90.81
340.018	82.81
340.246	84.81
340.474	91.81
340.702	93.81
340.93	86.81
341.158	83.81
341.386	91.81
341.614	79.81
341.842	86.81
342.07	82.81
342.298	87.81
342.526	79.81
342.754	81.81
342.981	81.81
343.209	77.81
343.437	88.81
343.665	77.81
343.893	80.81
344.12	91.81
344.348	86.81
344.576	83.81
344.804	78.81
345.031	91.81
345.259	80.81
345.487	87.81
345.714	78.81
345.942	87.81
346.17	75.81
346.397	84.81
346.625	84.81
346.853	70.81
347.08	89.81
347.308	75.81
347.535	84.81
347.763	89.81
347.99	86.81
348.218	69.81
348.445	90.81
348.673	80.81
348.9	88.81
349.128	83.81
349.355	87.81
349.583	91.81
349.81	67.81
350.037	76.81
350.265	82.81
350.492	83.81
350.72	86.81
350.947	82.81
351.174	91.81
351.402	88.81
351.629	82.81
351.856	82.81
352.083	86.81
352.311	78.81
352.538	93.81
352.765	79.81
352.992	81.81
353.22	75.81
353.447	72.81
353.674	88.81
353.901	90.81
354.128	88.81
354.355	78.81
354.583	82.81
354.81	101.81
355.037	78.81
355.264	81.81
355.491	103.81
355.718	80.81
355.945	78.81
356.172	87.81
356.399	90.81
356.626	80.81
356.853	78.81
357.08	92.81
357.307	82.81
357.534	90.81
357.761	84.81
357.988	82.81
358.215	78.81
358.441	71.81
358.668	77.81
358.895	84.81
359.122	89.81
359.349	81.81
359.576	84.81
359.802	80.81
360.029	88.81
360.256	76.81
360.483	69.81
360.709	84.81
360.936	82.81
361.163	70.81
361.39	88.81
361.616	79.81
361.843	77.81
362.07	83.81
362.296	91.81
362.523	87.81
362.749	81.81
362.976	78.81
363.203	79.81
363.429	82.81
363.656	70.81
363.882	75.81
364.109	86.81
364.335	76.81
364.562	79.81
364.788	75.81
365.015	77.81
365.241	86.81
365.468	93.81
365.694	100.81
365.92	86.81
366.147	82.81
366.373	89.81
366.599	76.81
366.826	82.81
367.052	86.81
367.278	87.81
367.505	88.81
367.731	89.81
367.957	86.81
368.184	71.81
368.41	83.81
368.636	78.81
368.862	85.81
369.089	82.81
369.315	87.81
369.541	70.81
369.767	90.81
369.993	86.81
370.219	84.81
370.445	71.81
370.672	82.81
370.898	59.81
371.124	75.81
371.35	91.81
371.576	73.81
371.802	91.81
372.028	81.81
372.254	72.81
372.48	81.81
372.706	70.81
372.932	82.81
373.158	89.81
373.384	88.81
373.61	88.81
373.835	96.81
374.061	88.81
374.287	76.81
374.513	87.81
374.739	77.81
374.965	94.81
375.191	84.81
375.416	70.81
375.642	96.81
375.868	80.81
376.094	75.81
376.319	67.81
376.545	75.81
376.771	59.81
376.997	76.81
377.222	76.81
377.448	93.81
377.674	85.81
377.899	82.81
378.125	82.81
378.35	88.81
378.576	84.81
378.802	100.81
379.027	78.81
379.253	78.81
379.478	96.81
379.704	92.81
379.929	81.81
380.155	89.81
380.38	83.81
380.606	75.81
380.831	70.81
381.057	92.81
381.282	72.81
381.507	74.81
381.733	91.81
381.958	88.81
382.184	90.81
382.409	79.81
382.634	84.81
382.86	80.81
383.085	80.81
383.31	80.81
383.535	84.81
383.761	80.81
383.986	87.81
384.211	83.81
384.436	77.81
384.662	82.81
384.887	80.81
385.112	72.81
385.337	83.81
385.562	82.81
385.787	76.81
386.013	93.81
386.238	74.81
386.463	63.81
386.688	82.81
386.913	67.81
387.138	80.81
387.363	68.81
387.588	94.81
387.813	93.81
388.038	83.81
388.263	76.81
388.488	85.81
388.713	92.81
388.938	62.81
389.163	82.81
389.387	78.81
389.612	82.81
389.837	91.81
390.062	80.81
390.287	98.81
390.512	83.81
390.736	86.81
390.961	84.81
391.186	93.81
391.411	87.81
391.636	74.81
391.86	90.81
392.085	77.81
392.31	76.81
392.534	77.81
392.759	97.81
392.984	58.81
393.208	78.81
393.433	82.81
393.658	84.81
393.882	91.81
394.107	75.81
394.331	69.81
394.556	76.81
394.78	81.81
395.005	81.81
395.229	68.81
395.454	83.81
395.678	74.81
395.903	90.81
396.127	81.81
396.352	75.81
396.576	83.81
396.801	78.81
397.025	87.81
397.249	74.81
397.474	76.81
397.698	68.81
397.922	78.81
398.147	68.81
398.371	82.81
398.595	84.81
398.82	71.81
399.044	67.81
399.268	73.81
399.492	74.81
399.717	74.81
399.941	80.81
400.165	72.81
400.389	88.81
400.613	82.81
400.837	84.81
401.062	81.81
401.286	95.81
401.51	80.81
401.734	86.81
401.958	94.81
402.182	84.81
402.406	83.81
402.63	79.81
402.854	81.81
403.078	79.81
403.302	69.81
403.526	74.81
403.75	77.81
403.974	73.81
404.198	67.81
404.422	84.81
404.645	87.81
404.869	76.81
405.093	73.81
405.317	94.81
405.541	82.81
405.765	80.81
405.988	78.81
406.212	71.81
406.436	83.81
406.66	83.81
406.883	85.81
407.107	87.81
407.331	91.81
407.555	90.81
407.778	90.81
408.002	90.81
408.226	92.81
408.449	83.81
408.673	72.81
408.896	88.81
409.12	76.81
409.344	81.81
409.567	81.81
409.791	85.81
410.014	82.81
410.238	87.81
410.461	68.81
410.685	79.81
410.908	75.81
411.132	96.81
411.355	80.81
411.578	82.81
411.802	81.81
412.025	91.81
412.249	80.81
412.472	78.81
412.695	72.81
412.919	88.81
413.142	85.81
413.365	86.81
413.589	69.81
413.812	80.81
414.035	87.81
414.258	90.81
414.482	84.81
414.705	83.81
414.928	77.81
415.151	82.81
415.374	85.81
415.597	86.81
415.821	76.81
416.044	91.81
416.267	89.81
416.49	79.81
416.713	90.81
416.936	88.81
417.159	73.81
417.382	73.81
417.605	91.81
417.828	84.81
418.051	88.81
418.274	79.81
418.497	72.81
418.72	85.81
418.943	82.81
419.166	71.81
419.389	73.81
419.611	77.81
419.834	75.81
420.057	93.81
420.28	65.81
420.503	74.81
420.726	78.81
420.948	78.81
421.171	77.81
421.394	87.81
421.617	84.81
421.839	82.81
422.062	79.81
422.285	81.81
422.507	97.81
422.73	77.81
422.953	72.81
423.175	76.81
423.398	87.81
423.621	81.81
423.843	80.81
424.066	71.81
424.288	91.81
424.511	86.81
424.733	91.81
424.956	86.81
425.178	74.81
425.401	94.81
425.623	78.81
425.846	78.81
426.068	88.81
426.291	85.81
426.513	81.81
426.735	97.81
426.958	72.81
427.18	84.81
427.402	73.81
427.625	86.81
427.847	82.81
428.069	81.81
428.292	64.81
428.514	77.81
428.736	84.81
428.958	83.81
429.181	85.81
429.403	86.81
429.625	89.81
429.847	81.81
430.069	85.81
430.292	75.81
430.514	74.81
430.736	76.81
430.958	91.81
431.18	72.81
431.402	77.81
431.624	74.81
431.846	78.81
432.068	78.81
432.29	79.81
432.512	80.81
432.734	83.81
432.956	79.81
433.178	88.81
433.4	75.81
433.622	73.81
433.844	78.81
434.066	72.81
434.287	88.81
434.509	64.81
434.731	77.81
434.953	78.81
435.175	83.81
435.397	84.81
435.618	92.81
435.84	80.81
436.062	92.81
436.284	83.81
436.505	83.81
436.727	85.81
436.949	80.81
437.17	71.81
437.392	85.81
437.614	83.81
437.835	88.81
438.057	84.81
438.278	76.81
438.5	69.81
438.721	74.81
438.943	78.81
439.165	90.81
439.386	88.81
439.608	81.81
439.829	81.81
440.05	97.81
440.272	85.81
440.493	86.81
440.715	75.81
440.936	89.81
441.158	81.81
441.379	80.81
441.6	85.81
441.822	87.81
442.043	89.81
442.264	71.81
442.486	72.81
442.707	85.81
442.928	80.81
443.149	75.81
443.371	59.81
443.592	80.81
443.813	85.81
444.034	89.81
444.255	93.81
444.476	83.81
444.698	96.81
444.919	80.81
445.14	135.81
445.361	101.81
445.582	79.81
445.803	73.81
446.024	74.81
446.245	93.81
446.466	75.81
446.687	97.81
446.908	79.81
447.129	78.81
447.35	87.81
447.571	87.81
447.792	98.81
448.013	92.81
448.234	82.81
448.455	84.81
448.675	79.81
448.896	84.81
449.117	81.81
449.338	69.81
449.559	97.81
449.779	78.81
450	73.81
450.221	84.81
450.442	80.81
450.662	87.81
450.883	88.81
451.104	82.81
451.324	71.81
451.545	77.81
451.766	91.81
451.986	86.81
452.207	83.81
452.428	89.81
452.648	81.81
452.869	72.81
453.089	69.81
453.31	75.81
453.53	70.81
453.751	84.81
453.971	80.81
454.192	80.81
454.412	87.81
454.633	74.81
454.853	79.81
455.073	83.81
455.294	69.81
455.514	69.81
455.734	81.81
455.955	82.81
456.175	86.81
456.395	90.81
456.616	74.81
456.836	87.81
457.056	81.81
457.276	78.81
457.497	78.81
457.717	85.81
457.937	80.81
458.157	75.81
458.377	86.81
458.598	86.81
458.818	80.81
459.038	78.81
459.258	84.81
459.478	86.81
459.698	77.81
459.918	90.81
460.138	94.81
460.358	81.81
460.578	66.81
460.798	65.81
461.018	73.81
461.238	90.81
461.458	71.81
461.678	78.81
461.898	82.81
462.118	79.81
462.338	78.81
462.558	94.81
462.777	83.81
462.997	80.81
463.217	90.81
463.437	83.81
463.657	78.81
463.876	78.81
464.096	79.81
464.316	91.81
464.536	95.81
464.755	77.81
464.975	76.81
465.195	91.81
465.414	83.81
465.634	88.81
465.854	86.81
466.073	85.81
466.293	83.81
466.512	75.81
466.732	90.81
466.951	89.81
467.171	84.81
467.391	70.81
467.61	81.81
467.829	87.81
468.049	78.81
468.268	69.81
468.488	93.81
468.707	78.81
468.927	72.81
469.146	83.81
469.365	78.81
469.585	72.81
469.804	79.81
470.023	84.81
470.243	71.81
470.462	85.81
470.681	67.81
470.901	61.81
471.12	85.81
471.339	86.81
471.558	85.81
471.777	95.81
471.997	87.81
472.216	81.81
472.435	83.81
472.654	86.81
472.873	94.81
473.092	86.81
473.311	69.81
473.53	92.81
473.749	76.81
473.968	77.81
474.187	76.81
474.406	84.81
474.625	82.81
474.844	84.81
475.063	88.81
475.282	88.81
475.501	77.81
475.72	103.81
475.939	82.81
476.158	68.81
476.377	82.81
476.596	84.81
476.814	81.81
477.033	77.81
477.252	80.81
477.471	75.81
477.69	87.81
477.908	81.81
478.127	94.81
478.346	76.81
478.564	76.81
478.783	78.81
479.002	82.81
479.22	82.81
479.439	92.81
479.658	92.81
479.876	67.81
480.095	86.81
480.313	95.81
480.532	74.81
480.751	75.81
480.969	79.81
481.188	72.81
481.406	94.81
481.624	83.81
481.843	82.81
482.061	58.81
482.28	92.81
482.498	89.81
482.717	72.81
482.935	78.81
483.153	76.81
483.372	68.81
483.59	79.81
483.808	81.81
484.027	77.81
484.245	93.81
484.463	70.81
484.681	81.81
484.9	84.81
485.118	73.81
485.336	88.81
485.554	77.81
485.772	82.81
485.99	72.81
486.209	66.81
486.427	81.81
486.645	91.81
486.863	78.81
487.081	92.81
487.299	89.81
487.517	86.81
487.735	76.81
487.953	77.81
488.171	86.81
488.389	75.81
488.607	73.81
488.825	81.81
489.043	76.81
489.261	88.81
489.479	70.81
489.696	85.81
489.914	92.81
490.132	92.81
490.35	80.81
490.568	83.81
490.786	75.81
491.003	82.81
491.221	80.81
491.439	96.81
491.657	84.81
491.874	85.81
492.092	76.81
492.31	93.81
492.527	74.81
492.745	78.81
492.963	85.81
493.18	73.81
493.398	77.81
493.615	90.81
493.833	97.81
494.05	91.81
494.268	88.81
494.485	93.81
494.703	76.81
494.92	86.81
495.138	79.81
495.355	99.81
495.573	89.81
495.79	81.81
496.008	96.81
496.225	70.81
496.442	75.81
496.66	74.81
496.877	76.81
497.094	91.81
497.312	85.81
497.529	95.81
497.746	84.81
497.963	78.81
498.181	87.81
498.398	76.81
498.615	90.81
498.832	83.81
499.049	78.81
499.267	91.81
499.484	84.81
499.701	84.81
499.918	96.81
500.135	93.81
500.352	87.81
500.569	82.81
500.786	71.81
501.003	95.81
501.22	84.81
501.437	87.81
501.654	80.81
501.871	71.81
502.088	81.81
502.305	85.81
502.522	77.81
502.739	92.81
502.956	70.81
503.172	94.81
503.389	86.81
503.606	86.81
503.823	98.81
504.04	86.81
504.256	83.81
504.473	84.81
504.69	77.81
504.907	91.81
505.123	71.81
505.34	79.81
505.557	80.81
505.773	75.81
505.99	83.81
506.207	72.81
506.423	78.81
506.64	88.81
506.856	77.81
507.073	78.81
507.289	91.81
507.506	87.81
507.722	83.81
507.939	74.81
508.155	85.81
508.372	81.81
508.588	83.81
508.805	95.81
509.021	90.81
509.238	80.81
509.454	86.81
509.67	90.81
509.887	86.81
510.103	73.81
510.319	62.81
510.536	76.81
510.752	85.81
510.968	90.81
511.184	73.81
511.401	82.81
511.617	85.81
511.833	94.81
512.049	82.81
512.265	94.81
512.481	75.81
512.698	79.81
512.914	94.81
513.13	86.81
513.346	83.81
513.562	88.81
513.778	88.81
513.994	86.81
514.21	80.81
514.426	95.81
514.642	91.81
514.858	81.81
515.074	82.81
515.29	79.81
515.506	72.81
515.721	92.81
515.937	95.81
516.153	68.81
516.369	99.81
516.585	81.81
516.801	70.81
517.016	85.81
517.232	79.81
517.448	90.81
517.664	82.81
517.879	75.81
518.095	84.81
518.311	84.81
518.527	82.81
518.742	89.81
518.958	78.81
519.173	76.81
519.389	76.81
519.605	88.81
519.82	72.81
520.036	83.81
520.251	79.81
