Data from Background_3_HRD10591_00085.txt Node
Date: Wed Nov 05 14:50:02 EST 2025
User: Yrep
Spectrometer: HR+D1059
Trigger mode: 1
Integration Time (sec): 1.000000E-1
Scans to average: 1
Electric dark correction enabled: true
Nonlinearity correction enabled: false
Boxcar width: 0
XAxis mode: Wavelengths
Number of Pixels in Spectrum: 2048
>>>>>Begin Spectral Data<<<<<
223.165	-18.5
223.4	-18.5
223.635	-18.5
223.869	-14.5
224.104	-7.5
224.338	-12.5
224.573	-8.5
224.808	-3.5
225.042	-11.5
225.277	-21.5
225.511	-5.5
225.746	9.5
225.98	-0.5
226.215	5.5
226.449	14.5
226.683	13.5
226.918	27.5
227.152	33.5
227.387	31.5
227.621	42.5
227.856	52.5
228.09	46.5
228.324	45.5
228.559	56.5
228.793	57.5
229.027	53.5
229.262	59.5
229.496	53.5
229.73	68.5
229.964	55.5
230.199	68.5
230.433	84.5
230.667	85.5
230.901	92.5
231.136	83.5
231.37	72.5
231.604	84.5
231.838	85.5
232.072	78.5
232.306	69.5
232.541	85.5
232.775	81.5
233.009	79.5
233.243	78.5
233.477	79.5
233.711	96.5
233.945	77.5
234.179	72.5
234.413	80.5
234.647	80.5
234.881	83.5
235.115	100.5
235.349	81.5
235.583	85.5
235.817	81.5
236.051	71.5
236.285	64.5
236.519	82.5
236.753	85.5
236.987	73.5
237.221	74.5
237.455	65.5
237.689	83.5
237.922	70.5
238.156	71.5
238.39	90.5
238.624	80.5
238.858	79.5
239.091	81.5
239.325	74.5
239.559	71.5
239.793	79.5
240.027	70.5
240.26	82.5
240.494	86.5
240.728	79.5
240.961	87.5
241.195	86.5
241.429	71.5
241.662	74.5
241.896	73.5
242.13	86.5
242.363	87.5
242.597	73.5
242.83	77.5
243.064	83.5
243.298	81.5
243.531	69.5
243.765	88.5
243.998	76.5
244.232	83.5
244.465	87.5
244.699	83.5
244.932	77.5
245.166	74.5
245.399	94.5
245.633	83.5
245.866	69.5
246.099	75.5
246.333	77.5
246.566	69.5
246.8	84.5
247.033	71.5
247.266	69.5
247.5	63.5
247.733	87.5
247.966	75.5
248.2	75.5
248.433	91.5
248.666	78.5
248.899	77.5
249.133	79.5
249.366	79.5
249.599	81.5
249.832	77.5
250.066	80.5
250.299	79.5
250.532	92.5
250.765	85.5
250.998	85.5
251.231	86.5
251.465	75.5
251.698	84.5
251.931	85.5
252.164	100.5
252.397	94.5
252.63	69.5
252.863	81.5
253.096	86.5
253.329	82.5
253.562	88.5
253.795	88.5
254.028	82.5
254.261	82.5
254.494	81.5
254.727	79.5
254.96	76.5
255.193	85.5
255.426	84.5
255.659	82.5
255.892	79.5
256.124	69.5
256.357	69.5
256.59	70.5
256.823	77.5
257.056	81.5
257.289	80.5
257.521	62.5
257.754	76.5
257.987	76.5
258.22	96.5
258.452	86.5
258.685	76.5
258.918	85.5
259.151	76.5
259.383	82.5
259.616	86.5
259.849	67.5
260.081	73.5
260.314	85.5
260.547	84.5
260.779	70.5
261.012	83.5
261.244	75.5
261.477	92.5
261.71	83.5
261.942	79.5
262.175	82.5
262.407	77.5
262.64	79.5
262.872	91.5
263.105	72.5
263.337	94.5
263.57	92.5
263.802	82.5
264.035	91.5
264.267	93.5
264.499	79.5
264.732	99.5
264.964	78.5
265.197	85.5
265.429	74.5
265.661	71.5
265.894	73.5
266.126	86.5
266.358	77.5
266.591	82.5
266.823	82.5
267.055	76.5
267.287	83.5
267.52	78.5
267.752	82.5
267.984	96.5
268.216	83.5
268.448	85.5
268.681	82.5
268.913	88.5
269.145	73.5
269.377	92.5
269.609	75.5
269.841	74.5
270.073	88.5
270.306	78.5
270.538	74.5
270.77	87.5
271.002	86.5
271.234	74.5
271.466	78.5
271.698	90.5
271.93	98.5
272.162	87.5
272.394	85.5
272.626	81.5
272.858	80.5
273.09	81.5
273.322	84.5
273.553	84.5
273.785	89.5
274.017	67.5
274.249	79.5
274.481	78.5
274.713	89.5
274.945	91.5
275.176	84.5
275.408	77.5
275.64	72.5
275.872	81.5
276.104	87.5
276.335	77.5
276.567	67.5
276.799	69.5
277.031	79.5
277.262	74.5
277.494	77.5
277.726	81.5
277.957	81.5
278.189	93.5
278.421	81.5
278.652	88.5
278.884	96.5
279.115	83.5
279.347	92.5
279.579	69.5
279.81	92.5
280.042	84.5
280.273	76.5
280.505	74.5
280.736	88.5
280.968	88.5
281.199	73.5
281.431	84.5
281.662	79.5
281.894	88.5
282.125	85.5
282.356	82.5
282.588	86.5
282.819	76.5
283.051	93.5
283.282	80.5
283.513	88.5
283.745	85.5
283.976	75.5
284.207	92.5
284.439	86.5
284.67	92.5
284.901	79.5
285.132	81.5
285.364	87.5
285.595	79.5
285.826	81.5
286.057	92.5
286.288	105.5
286.52	89.5
286.751	96.5
286.982	92.5
287.213	99.5
287.444	84.5
287.675	93.5
287.906	88.5
288.138	88.5
288.369	101.5
288.6	84.5
288.831	82.5
289.062	90.5
289.293	86.5
289.524	96.5
289.755	99.5
289.986	89.5
290.217	89.5
290.448	91.5
290.679	73.5
290.91	100.5
291.141	84.5
291.371	83.5
291.602	87.5
291.833	78.5
292.064	81.5
292.295	76.5
292.526	75.5
292.757	81.5
292.987	81.5
293.218	79.5
293.449	93.5
293.68	91.5
293.91	93.5
294.141	83.5
294.372	82.5
294.603	87.5
294.833	74.5
295.064	80.5
295.295	79.5
295.525	85.5
295.756	89.5
295.987	57.5
296.217	81.5
296.448	87.5
296.679	69.5
296.909	91.5
297.14	100.5
297.37	88.5
297.601	94.5
297.831	96.5
298.062	86.5
298.292	70.5
298.523	93.5
298.753	73.5
298.984	73.5
299.214	90.5
299.445	94.5
299.675	85.5
299.905	91.5
300.136	72.5
300.366	97.5
300.597	91.5
300.827	73.5
301.057	91.5
301.288	92.5
301.518	88.5
301.748	80.5
301.979	93.5
302.209	84.5
302.439	70.5
302.669	76.5
302.9	85.5
303.13	92.5
303.36	72.5
303.59	91.5
303.82	92.5
304.051	97.5
304.281	88.5
304.511	89.5
304.741	94.5
304.971	87.5
305.201	83.5
305.431	93.5
305.661	88.5
305.891	83.5
306.121	87.5
306.352	89.5
306.582	79.5
306.812	81.5
307.042	80.5
307.272	89.5
307.502	77.5
307.731	85.5
307.961	95.5
308.191	89.5
308.421	99.5
308.651	95.5
308.881	85.5
309.111	93.5
309.341	75.5
309.571	93.5
309.8	94.5
310.03	85.5
310.26	72.5
310.49	86.5
310.72	79.5
310.949	85.5
311.179	81.5
311.409	74.5
311.639	73.5
311.868	94.5
312.098	79.5
312.328	91.5
312.557	91.5
312.787	81.5
313.017	83.5
313.246	88.5
313.476	83.5
313.706	79.5
313.935	78.5
314.165	93.5
314.394	85.5
314.624	83.5
314.853	69.5
315.083	82.5
315.312	68.5
315.542	87.5
315.771	104.5
316.001	77.5
316.23	92.5
316.46	100.5
316.689	86.5
316.919	75.5
317.148	83.5
317.377	81.5
317.607	76.5
317.836	83.5
318.065	70.5
318.295	97.5
318.524	78.5
318.753	91.5
318.983	85.5
319.212	88.5
319.441	81.5
319.67	80.5
319.9	87.5
320.129	92.5
320.358	91.5
320.587	83.5
320.816	77.5
321.046	93.5
321.275	80.5
321.504	68.5
321.733	85.5
321.962	94.5
322.191	73.5
322.42	81.5
322.649	89.5
322.878	85.5
323.108	76.5
323.337	84.5
323.566	84.5
323.795	87.5
324.024	92.5
324.253	94.5
324.482	73.5
324.71	95.5
324.939	87.5
325.168	83.5
325.397	79.5
325.626	94.5
325.855	98.5
326.084	86.5
326.313	92.5
326.542	81.5
326.77	110.5
326.999	96.5
327.228	95.5
327.457	86.5
327.686	79.5
327.914	93.5
328.143	83.5
328.372	79.5
328.6	81.5
328.829	96.5
329.058	73.5
329.287	74.5
329.515	89.5
329.744	77.5
329.972	76.5
330.201	98.5
330.43	77.5
330.658	83.5
330.887	82.5
331.115	85.5
331.344	92.5
331.572	87.5
331.801	81.5
332.03	90.5
332.258	88.5
332.486	95.5
332.715	98.5
332.943	96.5
333.172	83.5
333.4	83.5
333.629	89.5
333.857	99.5
334.085	85.5
334.314	84.5
334.542	78.5
334.771	108.5
334.999	85.5
335.227	72.5
335.455	79.5
335.684	87.5
335.912	72.5
336.14	92.5
336.369	84.5
336.597	92.5
336.825	81.5
337.053	93.5
337.281	71.5
337.51	91.5
337.738	83.5
337.966	75.5
338.194	96.5
338.422	85.5
338.65	81.5
338.878	63.5
339.106	79.5
339.334	91.5
339.562	73.5
339.79	73.5
340.018	73.5
340.246	84.5
340.474	81.5
340.702	82.5
340.93	75.5
341.158	78.5
341.386	73.5
341.614	80.5
341.842	92.5
342.07	94.5
342.298	80.5
342.526	89.5
342.754	96.5
342.981	75.5
343.209	83.5
343.437	99.5
343.665	84.5
343.893	78.5
344.12	90.5
344.348	87.5
344.576	90.5
344.804	99.5
345.031	92.5
345.259	78.5
345.487	87.5
345.714	78.5
345.942	93.5
346.17	91.5
346.397	81.5
346.625	88.5
346.853	91.5
347.08	80.5
347.308	88.5
347.535	91.5
347.763	81.5
347.99	99.5
348.218	91.5
348.445	78.5
348.673	79.5
348.9	91.5
349.128	91.5
349.355	74.5
349.583	83.5
349.81	90.5
350.037	80.5
350.265	83.5
350.492	84.5
350.72	97.5
350.947	86.5
351.174	89.5
351.402	91.5
351.629	78.5
351.856	80.5
352.083	78.5
352.311	79.5
352.538	82.5
352.765	92.5
352.992	78.5
353.22	90.5
353.447	89.5
353.674	88.5
353.901	85.5
354.128	102.5
354.355	77.5
354.583	83.5
354.81	86.5
355.037	89.5
355.264	87.5
355.491	89.5
355.718	79.5
355.945	86.5
356.172	70.5
356.399	85.5
356.626	77.5
356.853	91.5
357.08	90.5
357.307	86.5
357.534	79.5
357.761	91.5
357.988	72.5
358.215	93.5
358.441	87.5
358.668	86.5
358.895	90.5
359.122	80.5
359.349	84.5
359.576	87.5
359.802	83.5
360.029	84.5
360.256	86.5
360.483	75.5
360.709	87.5
360.936	83.5
361.163	79.5
361.39	79.5
361.616	87.5
361.843	74.5
362.07	85.5
362.296	85.5
362.523	84.5
362.749	92.5
362.976	82.5
363.203	88.5
363.429	83.5
363.656	91.5
363.882	82.5
364.109	80.5
364.335	79.5
364.562	74.5
364.788	101.5
365.015	83.5
365.241	79.5
365.468	94.5
365.694	81.5
365.92	93.5
366.147	83.5
366.373	85.5
366.599	90.5
366.826	79.5
367.052	99.5
367.278	89.5
367.505	72.5
367.731	75.5
367.957	83.5
368.184	96.5
368.41	98.5
368.636	87.5
368.862	79.5
369.089	82.5
369.315	72.5
369.541	79.5
369.767	87.5
369.993	77.5
370.219	97.5
370.445	80.5
370.672	83.5
370.898	85.5
371.124	78.5
371.35	80.5
371.576	88.5
371.802	74.5
372.028	91.5
372.254	78.5
372.48	82.5
372.706	83.5
372.932	79.5
373.158	100.5
373.384	86.5
373.61	91.5
373.835	78.5
374.061	88.5
374.287	95.5
374.513	87.5
374.739	86.5
374.965	91.5
375.191	79.5
375.416	80.5
375.642	83.5
375.868	105.5
376.094	92.5
376.319	81.5
376.545	85.5
376.771	77.5
376.997	74.5
377.222	82.5
377.448	95.5
377.674	79.5
377.899	68.5
378.125	80.5
378.35	72.5
378.576	100.5
378.802	79.5
379.027	92.5
379.253	78.5
379.478	83.5
379.704	81.5
379.929	73.5
380.155	83.5
380.38	68.5
380.606	83.5
380.831	79.5
381.057	94.5
381.282	93.5
381.507	77.5
381.733	79.5
381.958	91.5
382.184	79.5
382.409	80.5
382.634	94.5
382.86	86.5
383.085	79.5
383.31	78.5
383.535	88.5
383.761	77.5
383.986	90.5
384.211	74.5
384.436	76.5
384.662	76.5
384.887	73.5
385.112	78.5
385.337	87.5
385.562	75.5
385.787	81.5
386.013	92.5
386.238	72.5
386.463	86.5
386.688	95.5
386.913	73.5
387.138	90.5
387.363	81.5
387.588	80.5
387.813	73.5
388.038	88.5
388.263	93.5
388.488	93.5
388.713	87.5
388.938	79.5
389.163	91.5
389.387	95.5
389.612	86.5
389.837	84.5
390.062	101.5
390.287	71.5
390.512	80.5
390.736	86.5
390.961	84.5
391.186	96.5
391.411	84.5
391.636	96.5
391.86	89.5
392.085	87.5
392.31	91.5
392.534	87.5
392.759	97.5
392.984	77.5
393.208	77.5
393.433	73.5
393.658	78.5
393.882	80.5
394.107	83.5
394.331	81.5
394.556	85.5
394.78	80.5
395.005	92.5
395.229	97.5
395.454	91.5
395.678	82.5
395.903	78.5
396.127	87.5
396.352	85.5
396.576	89.5
396.801	77.5
397.025	93.5
397.249	81.5
397.474	81.5
397.698	84.5
397.922	85.5
398.147	85.5
398.371	79.5
398.595	92.5
398.82	77.5
399.044	79.5
399.268	77.5
399.492	81.5
399.717	76.5
399.941	71.5
400.165	85.5
400.389	83.5
400.613	91.5
400.837	91.5
401.062	80.5
401.286	86.5
401.51	76.5
401.734	88.5
401.958	63.5
402.182	84.5
402.406	81.5
402.63	88.5
402.854	84.5
403.078	78.5
403.302	84.5
403.526	91.5
403.75	72.5
403.974	93.5
404.198	87.5
404.422	80.5
404.645	77.5
404.869	84.5
405.093	87.5
405.317	81.5
405.541	89.5
405.765	74.5
405.988	70.5
406.212	78.5
406.436	80.5
406.66	89.5
406.883	107.5
407.107	82.5
407.331	74.5
407.555	87.5
407.778	78.5
408.002	68.5
408.226	92.5
408.449	70.5
408.673	88.5
408.896	82.5
409.12	85.5
409.344	79.5
409.567	84.5
409.791	84.5
410.014	80.5
410.238	89.5
410.461	68.5
410.685	91.5
410.908	94.5
411.132	85.5
411.355	81.5
411.578	75.5
411.802	61.5
412.025	92.5
412.249	93.5
412.472	87.5
412.695	81.5
412.919	78.5
413.142	75.5
413.365	71.5
413.589	80.5
413.812	77.5
414.035	87.5
414.258	108.5
414.482	64.5
414.705	69.5
414.928	64.5
415.151	78.5
415.374	80.5
415.597	92.5
415.821	79.5
416.044	83.5
416.267	81.5
416.49	71.5
416.713	86.5
416.936	79.5
417.159	68.5
417.382	87.5
417.605	84.5
417.828	96.5
418.051	69.5
418.274	92.5
418.497	75.5
418.72	83.5
418.943	81.5
419.166	73.5
419.389	85.5
419.611	85.5
419.834	73.5
420.057	83.5
420.28	79.5
420.503	78.5
420.726	76.5
420.948	85.5
421.171	74.5
421.394	79.5
421.617	81.5
421.839	68.5
422.062	87.5
422.285	91.5
422.507	94.5
422.73	73.5
422.953	75.5
423.175	74.5
423.398	79.5
423.621	94.5
423.843	72.5
424.066	76.5
424.288	84.5
424.511	84.5
424.733	78.5
424.956	99.5
425.178	84.5
425.401	84.5
425.623	92.5
425.846	75.5
426.068	87.5
426.291	94.5
426.513	93.5
426.735	84.5
426.958	86.5
427.18	93.5
427.402	78.5
427.625	77.5
427.847	84.5
428.069	77.5
428.292	86.5
428.514	87.5
428.736	76.5
428.958	70.5
429.181	79.5
429.403	68.5
429.625	95.5
429.847	85.5
430.069	79.5
430.292	87.5
430.514	78.5
430.736	80.5
430.958	80.5
431.18	83.5
431.402	71.5
431.624	83.5
431.846	87.5
432.068	84.5
432.29	87.5
432.512	92.5
432.734	71.5
432.956	85.5
433.178	93.5
433.4	82.5
433.622	88.5
433.844	82.5
434.066	80.5
434.287	71.5
434.509	83.5
434.731	86.5
434.953	74.5
435.175	81.5
435.397	72.5
435.618	87.5
435.84	70.5
436.062	88.5
436.284	83.5
436.505	81.5
436.727	79.5
436.949	91.5
437.17	80.5
437.392	73.5
437.614	67.5
437.835	81.5
438.057	75.5
438.278	78.5
438.5	68.5
438.721	71.5
438.943	95.5
439.165	87.5
439.386	77.5
439.608	81.5
439.829	69.5
440.05	77.5
440.272	83.5
440.493	70.5
440.715	93.5
440.936	73.5
441.158	70.5
441.379	82.5
441.6	85.5
441.822	82.5
442.043	90.5
442.264	69.5
442.486	74.5
442.707	87.5
442.928	81.5
443.149	72.5
443.371	89.5
443.592	92.5
443.813	87.5
444.034	85.5
444.255	84.5
444.476	72.5
444.698	84.5
444.919	95.5
445.14	157.5
445.361	102.5
445.582	88.5
445.803	73.5
446.024	77.5
446.245	82.5
446.466	87.5
446.687	82.5
446.908	71.5
447.129	89.5
447.35	79.5
447.571	94.5
447.792	84.5
448.013	92.5
448.234	89.5
448.455	90.5
448.675	87.5
448.896	78.5
449.117	74.5
449.338	77.5
449.559	101.5
449.779	72.5
450	84.5
450.221	70.5
450.442	79.5
450.662	76.5
450.883	72.5
451.104	80.5
451.324	82.5
451.545	95.5
451.766	79.5
451.986	84.5
452.207	101.5
452.428	80.5
452.648	83.5
452.869	83.5
453.089	89.5
453.31	88.5
453.53	90.5
453.751	83.5
453.971	79.5
454.192	77.5
454.412	68.5
454.633	83.5
454.853	75.5
455.073	87.5
455.294	79.5
455.514	87.5
455.734	77.5
455.955	68.5
456.175	86.5
456.395	93.5
456.616	77.5
456.836	88.5
457.056	69.5
457.276	78.5
457.497	84.5
457.717	75.5
457.937	65.5
458.157	78.5
458.377	81.5
458.598	89.5
458.818	97.5
459.038	72.5
459.258	79.5
459.478	74.5
459.698	91.5
459.918	92.5
460.138	70.5
460.358	89.5
460.578	87.5
460.798	72.5
461.018	76.5
461.238	87.5
461.458	76.5
461.678	77.5
461.898	89.5
462.118	77.5
462.338	63.5
462.558	80.5
462.777	97.5
462.997	80.5
463.217	72.5
463.437	84.5
463.657	79.5
463.876	87.5
464.096	88.5
464.316	86.5
464.536	79.5
464.755	79.5
464.975	74.5
465.195	89.5
465.414	77.5
465.634	84.5
465.854	93.5
466.073	63.5
466.293	84.5
466.512	100.5
466.732	90.5
466.951	89.5
467.171	83.5
467.391	79.5
467.61	91.5
467.829	71.5
468.049	84.5
468.268	83.5
468.488	91.5
468.707	85.5
468.927	91.5
469.146	77.5
469.365	82.5
469.585	73.5
469.804	70.5
470.023	95.5
470.243	94.5
470.462	88.5
470.681	83.5
470.901	76.5
471.12	77.5
471.339	81.5
471.558	68.5
471.777	82.5
471.997	87.5
472.216	79.5
472.435	84.5
472.654	76.5
472.873	81.5
473.092	88.5
473.311	95.5
473.53	75.5
473.749	85.5
473.968	77.5
474.187	79.5
474.406	79.5
474.625	88.5
474.844	97.5
475.063	84.5
475.282	79.5
475.501	93.5
475.72	80.5
475.939	70.5
476.158	81.5
476.377	86.5
476.596	78.5
476.814	91.5
477.033	78.5
477.252	73.5
477.471	83.5
477.69	86.5
477.908	81.5
478.127	76.5
478.346	76.5
478.564	89.5
478.783	84.5
479.002	90.5
479.22	95.5
479.439	93.5
479.658	79.5
479.876	79.5
480.095	79.5
480.313	86.5
480.532	87.5
480.751	82.5
480.969	86.5
481.188	93.5
481.406	75.5
481.624	78.5
481.843	85.5
482.061	70.5
482.28	74.5
482.498	82.5
482.717	74.5
482.935	78.5
483.153	101.5
483.372	83.5
483.59	92.5
483.808	92.5
484.027	77.5
484.245	74.5
484.463	93.5
484.681	70.5
484.9	83.5
485.118	97.5
485.336	77.5
485.554	83.5
485.772	78.5
485.99	73.5
486.209	69.5
486.427	79.5
486.645	87.5
486.863	88.5
487.081	83.5
487.299	74.5
487.517	89.5
487.735	80.5
487.953	99.5
488.171	91.5
488.389	91.5
488.607	82.5
488.825	83.5
489.043	76.5
489.261	85.5
489.479	87.5
489.696	72.5
489.914	79.5
490.132	95.5
490.35	89.5
490.568	81.5
490.786	83.5
491.003	81.5
491.221	80.5
491.439	83.5
491.657	76.5
491.874	81.5
492.092	73.5
492.31	94.5
492.527	76.5
492.745	76.5
492.963	84.5
493.18	97.5
493.398	86.5
493.615	87.5
493.833	82.5
494.05	79.5
494.268	85.5
494.485	82.5
494.703	90.5
494.92	69.5
495.138	75.5
495.355	73.5
495.573	77.5
495.79	89.5
496.008	83.5
496.225	80.5
496.442	81.5
496.66	97.5
496.877	81.5
497.094	84.5
497.312	84.5
497.529	93.5
497.746	90.5
497.963	84.5
498.181	85.5
498.398	92.5
498.615	88.5
498.832	85.5
499.049	78.5
499.267	87.5
499.484	81.5
499.701	84.5
499.918	85.5
500.135	86.5
500.352	85.5
500.569	83.5
500.786	80.5
501.003	97.5
501.22	79.5
501.437	77.5
501.654	82.5
501.871	77.5
502.088	78.5
502.305	85.5
502.522	83.5
502.739	75.5
502.956	91.5
503.172	91.5
503.389	85.5
503.606	65.5
503.823	79.5
504.04	97.5
504.256	64.5
504.473	76.5
504.69	74.5
504.907	75.5
505.123	87.5
505.34	84.5
505.557	91.5
505.773	82.5
505.99	76.5
506.207	76.5
506.423	71.5
506.64	94.5
506.856	105.5
507.073	82.5
507.289	85.5
507.506	73.5
507.722	74.5
507.939	87.5
508.155	77.5
508.372	76.5
508.588	77.5
508.805	90.5
509.021	87.5
509.238	85.5
509.454	79.5
509.67	81.5
509.887	94.5
510.103	86.5
510.319	86.5
510.536	78.5
510.752	84.5
510.968	83.5
511.184	79.5
511.401	93.5
511.617	97.5
511.833	83.5
512.049	74.5
512.265	84.5
512.481	85.5
512.698	95.5
512.914	87.5
513.13	68.5
513.346	82.5
513.562	91.5
513.778	85.5
513.994	79.5
514.21	91.5
514.426	78.5
514.642	81.5
514.858	76.5
515.074	89.5
515.29	90.5
515.506	77.5
515.721	89.5
515.937	75.5
516.153	76.5
516.369	79.5
516.585	79.5
516.801	96.5
517.016	84.5
517.232	85.5
517.448	78.5
517.664	87.5
517.879	77.5
518.095	79.5
518.311	75.5
518.527	78.5
518.742	82.5
518.958	88.5
519.173	96.5
519.389	77.5
519.605	89.5
519.82	85.5
520.036	71.5
520.251	89.5
520.467	75.5
520.682	80.5
520.898	85.5
521.113	84.5
521.329	82.5
521.544	83.5
521.76	86.5
521.975	89.5
522.19	73.5
522.406	81.5
522.621	86.5
522.836	88.5
523.052	88.5
523.267	87.5
523.482	85.5
523.698	67.5
523.913	77.5
524.128	83.5
524.343	86.5
524.559	83.5
524.774	83.5
524.989	96.5
525.204	97.5
525.419	84.5
525.634	89.5
525.849	86.5
526.064	102.5
526.28	96.5
526.495	95.5
526.71	95.5
526.925	92.5
527.14	84.5
527.355	92.5
527.57	84.5
527.785	81.5
527.999	79.5
528.214	92.5
528.429	78.5
528.644	77.5
528.859	85.5
529.074	71.5
529.289	83.5
529.503	80.5
529.718	85.5
529.933	91.5
530.148	77.5
530.363	73.5
530.577	86.5
530.792	86.5
531.007	83.5
531.221	81.5
531.436	73.5
531.651	90.5
531.865	95.5
532.08	93.5
532.295	91.5
532.509	77.5
532.724	65.5
532.938	78.5
533.153	98.5
533.367	100.5
533.582	94.5
533.796	99.5
534.011	93.5
534.225	74.5
534.44	81.5
534.654	89.5
534.868	96.5
535.083	98.5
535.297	82.5
535.511	76.5
535.726	77.5
535.94	76.5
536.154	89.5
536.369	93.5
536.583	73.5
536.797	96.5
537.011	85.5
537.225	81.5
537.44	86.5
537.654	91.5
537.868	76.5
538.082	89.5
538.296	87.5
538.51	88.5
538.724	82.5
538.938	99.5
539.153	84.5
539.367	74.5
539.581	81.5
539.795	83.5
540.009	98.5
540.222	72.5
