Data from Background_3_HRD10591_00045.txt Node
Date: Wed Nov 05 14:49:42 EST 2025
User: Yrep
Spectrometer: HR+D1059
Trigger mode: 1
Integration Time (sec): 1.000000E-1
Scans to average: 1
Electric dark correction enabled: true
Nonlinearity correction enabled: false
Boxcar width: 0
XAxis mode: Wavelengths
Number of Pixels in Spectrum: 2048
>>>>>Begin Spectral Data<<<<<
223.165	-5.06
223.4	-5.06
223.635	-5.06
223.869	-17.06
224.104	-7.06
224.338	-14.06
224.573	-14.06
224.808	-17.06
225.042	-22.06
225.277	-10.06
225.511	-13.06
225.746	11.94
225.98	-2.06
226.215	-2.06
226.449	10.94
226.683	31.94
226.918	37.94
227.152	30.94
227.387	31.94
227.621	47.94
227.856	54.94
228.09	50.94
228.324	52.94
228.559	63.94
228.793	66.94
229.027	64.94
229.262	59.94
229.496	65.94
229.73	81.94
229.964	71.94
230.199	64.94
230.433	71.94
230.667	84.94
230.901	73.94
231.136	75.94
231.37	86.94
231.604	83.94
231.838	80.94
232.072	79.94
232.306	82.94
232.541	85.94
232.775	78.94
233.009	75.94
233.243	77.94
233.477	85.94
233.711	89.94
233.945	86.94
234.179	68.94
234.413	87.94
234.647	79.94
234.881	83.94
235.115	70.94
235.349	78.94
235.583	71.94
235.817	86.94
236.051	70.94
236.285	64.94
236.519	72.94
236.753	73.94
236.987	90.94
237.221	77.94
237.455	78.94
237.689	64.94
237.922	71.94
238.156	81.94
238.39	84.94
238.624	80.94
238.858	78.94
239.091	72.94
239.325	78.94
239.559	66.94
239.793	72.94
240.027	86.94
240.26	77.94
240.494	80.94
240.728	82.94
240.961	86.94
241.195	100.94
241.429	76.94
241.662	89.94
241.896	60.94
242.13	77.94
242.363	77.94
242.597	76.94
242.83	78.94
243.064	76.94
243.298	81.94
243.531	82.94
243.765	84.94
243.998	71.94
244.232	83.94
244.465	70.94
244.699	78.94
244.932	71.94
245.166	65.94
245.399	87.94
245.633	72.94
245.866	79.94
246.099	76.94
246.333	77.94
246.566	72.94
246.8	73.94
247.033	66.94
247.266	72.94
247.5	81.94
247.733	77.94
247.966	73.94
248.2	72.94
248.433	80.94
248.666	68.94
248.899	70.94
249.133	85.94
249.366	72.94
249.599	67.94
249.832	65.94
250.066	79.94
250.299	81.94
250.532	80.94
250.765	87.94
250.998	71.94
251.231	99.94
251.465	70.94
251.698	61.94
251.931	97.94
252.164	89.94
252.397	85.94
252.63	78.94
252.863	76.94
253.096	67.94
253.329	77.94
253.562	87.94
253.795	83.94
254.028	81.94
254.261	85.94
254.494	63.94
254.727	73.94
254.96	63.94
255.193	75.94
255.426	73.94
255.659	77.94
255.892	75.94
256.124	71.94
256.357	85.94
256.59	77.94
256.823	77.94
257.056	71.94
257.289	61.94
257.521	79.94
257.754	94.94
257.987	84.94
258.22	98.94
258.452	81.94
258.685	75.94
258.918	77.94
259.151	80.94
259.383	83.94
259.616	89.94
259.849	77.94
260.081	94.94
260.314	98.94
260.547	86.94
260.779	71.94
261.012	74.94
261.244	74.94
261.477	83.94
261.71	75.94
261.942	75.94
262.175	77.94
262.407	77.94
262.64	80.94
262.872	83.94
263.105	79.94
263.337	83.94
263.57	76.94
263.802	91.94
264.035	77.94
264.267	74.94
264.499	91.94
264.732	81.94
264.964	94.94
265.197	87.94
265.429	82.94
265.661	96.94
265.894	79.94
266.126	77.94
266.358	89.94
266.591	69.94
266.823	99.94
267.055	67.94
267.287	77.94
267.52	94.94
267.752	69.94
267.984	95.94
268.216	88.94
268.448	85.94
268.681	86.94
268.913	85.94
269.145	90.94
269.377	79.94
269.609	86.94
269.841	82.94
270.073	95.94
270.306	66.94
270.538	96.94
270.77	85.94
271.002	77.94
271.234	66.94
271.466	89.94
271.698	83.94
271.93	86.94
272.162	73.94
272.394	77.94
272.626	70.94
272.858	80.94
273.09	83.94
273.322	82.94
273.553	85.94
273.785	88.94
274.017	68.94
274.249	80.94
274.481	88.94
274.713	75.94
274.945	83.94
275.176	85.94
275.408	77.94
275.64	71.94
275.872	88.94
276.104	86.94
276.335	85.94
276.567	79.94
276.799	86.94
277.031	79.94
277.262	94.94
277.494	79.94
277.726	79.94
277.957	92.94
278.189	77.94
278.421	89.94
278.652	84.94
278.884	75.94
279.115	79.94
279.347	87.94
279.579	77.94
279.81	68.94
280.042	77.94
280.273	84.94
280.505	78.94
280.736	64.94
280.968	75.94
281.199	77.94
281.431	77.94
281.662	81.94
281.894	83.94
282.125	93.94
282.356	85.94
282.588	75.94
282.819	89.94
283.051	85.94
283.282	82.94
283.513	82.94
283.745	73.94
283.976	80.94
284.207	94.94
284.439	94.94
284.67	86.94
284.901	94.94
285.132	87.94
285.364	90.94
285.595	95.94
285.826	91.94
286.057	77.94
286.288	93.94
286.52	82.94
286.751	89.94
286.982	81.94
287.213	70.94
287.444	85.94
287.675	81.94
287.906	58.94
288.138	85.94
288.369	80.94
288.6	82.94
288.831	93.94
289.062	91.94
289.293	86.94
289.524	69.94
289.755	77.94
289.986	80.94
290.217	79.94
290.448	71.94
290.679	65.94
290.91	91.94
291.141	96.94
291.371	85.94
291.602	86.94
291.833	91.94
292.064	82.94
292.295	90.94
292.526	81.94
292.757	87.94
292.987	79.94
293.218	83.94
293.449	83.94
293.68	93.94
293.91	93.94
294.141	79.94
294.372	96.94
294.603	86.94
294.833	85.94
295.064	90.94
295.295	83.94
295.525	84.94
295.756	93.94
295.987	96.94
296.217	60.94
296.448	79.94
296.679	85.94
296.909	108.94
297.14	83.94
297.37	90.94
297.601	79.94
297.831	92.94
298.062	85.94
298.292	87.94
298.523	108.94
298.753	103.94
298.984	86.94
299.214	89.94
299.445	73.94
299.675	91.94
299.905	84.94
300.136	85.94
300.366	77.94
300.597	84.94
300.827	79.94
301.057	88.94
301.288	85.94
301.518	85.94
301.748	84.94
301.979	87.94
302.209	98.94
302.439	83.94
302.669	89.94
302.9	80.94
303.13	83.94
303.36	91.94
303.59	89.94
303.82	77.94
304.051	92.94
304.281	89.94
304.511	81.94
304.741	85.94
304.971	70.94
305.201	91.94
305.431	74.94
305.661	96.94
305.891	89.94
306.121	67.94
306.352	88.94
306.582	87.94
306.812	85.94
307.042	80.94
307.272	85.94
307.502	76.94
307.731	94.94
307.961	90.94
308.191	86.94
308.421	82.94
308.651	72.94
308.881	74.94
309.111	82.94
309.341	93.94
309.571	84.94
309.8	76.94
310.03	76.94
310.26	88.94
310.49	88.94
310.72	67.94
310.949	81.94
311.179	77.94
311.409	74.94
311.639	84.94
311.868	84.94
312.098	80.94
312.328	76.94
312.557	84.94
312.787	82.94
313.017	78.94
313.246	92.94
313.476	79.94
313.706	73.94
313.935	71.94
314.165	82.94
314.394	81.94
314.624	69.94
314.853	91.94
315.083	90.94
315.312	84.94
315.542	86.94
315.771	85.94
316.001	67.94
316.23	85.94
316.46	77.94
316.689	86.94
316.919	68.94
317.148	78.94
317.377	89.94
317.607	93.94
317.836	79.94
318.065	76.94
318.295	78.94
318.524	77.94
318.753	77.94
318.983	86.94
319.212	88.94
319.441	84.94
319.67	72.94
319.9	97.94
320.129	82.94
320.358	67.94
320.587	87.94
320.816	70.94
321.046	64.94
321.275	82.94
321.504	92.94
321.733	77.94
321.962	89.94
322.191	85.94
322.42	85.94
322.649	98.94
322.878	86.94
323.108	95.94
323.337	77.94
323.566	80.94
323.795	83.94
324.024	85.94
324.253	91.94
324.482	93.94
324.71	87.94
324.939	94.94
325.168	66.94
325.397	83.94
325.626	84.94
325.855	90.94
326.084	85.94
326.313	81.94
326.542	86.94
326.77	82.94
326.999	81.94
327.228	79.94
327.457	82.94
327.686	73.94
327.914	86.94
328.143	102.94
328.372	91.94
328.6	71.94
328.829	86.94
329.058	83.94
329.287	83.94
329.515	68.94
329.744	81.94
329.972	72.94
330.201	84.94
330.43	74.94
330.658	84.94
330.887	70.94
331.115	90.94
331.344	80.94
331.572	72.94
331.801	81.94
332.03	84.94
332.258	77.94
332.486	83.94
332.715	77.94
332.943	77.94
333.172	92.94
333.4	84.94
333.629	80.94
333.857	84.94
334.085	76.94
334.314	87.94
334.542	81.94
334.771	83.94
334.999	89.94
335.227	89.94
335.455	90.94
335.684	87.94
335.912	77.94
336.14	81.94
336.369	80.94
336.597	84.94
336.825	81.94
337.053	83.94
337.281	84.94
337.51	81.94
337.738	86.94
337.966	70.94
338.194	86.94
338.422	83.94
338.65	71.94
338.878	99.94
339.106	98.94
339.334	92.94
339.562	75.94
339.79	84.94
340.018	86.94
340.246	79.94
340.474	80.94
340.702	95.94
340.93	73.94
341.158	79.94
341.386	84.94
341.614	77.94
341.842	82.94
342.07	84.94
342.298	90.94
342.526	83.94
342.754	76.94
342.981	81.94
343.209	77.94
343.437	90.94
343.665	72.94
343.893	94.94
344.12	90.94
344.348	89.94
344.576	70.94
344.804	91.94
345.031	86.94
345.259	72.94
345.487	87.94
345.714	78.94
345.942	82.94
346.17	67.94
346.397	86.94
346.625	88.94
346.853	79.94
347.08	73.94
347.308	82.94
347.535	85.94
347.763	91.94
347.99	85.94
348.218	84.94
348.445	71.94
348.673	77.94
348.9	86.94
349.128	82.94
349.355	82.94
349.583	78.94
349.81	77.94
350.037	79.94
350.265	89.94
350.492	93.94
350.72	82.94
350.947	78.94
351.174	84.94
351.402	94.94
351.629	79.94
351.856	64.94
352.083	80.94
352.311	89.94
352.538	65.94
352.765	86.94
352.992	76.94
353.22	93.94
353.447	94.94
353.674	80.94
353.901	72.94
354.128	85.94
354.355	78.94
354.583	71.94
354.81	89.94
355.037	79.94
355.264	85.94
355.491	88.94
355.718	86.94
355.945	79.94
356.172	68.94
356.399	81.94
356.626	81.94
356.853	87.94
357.08	72.94
357.307	89.94
357.534	89.94
357.761	84.94
357.988	76.94
358.215	94.94
358.441	94.94
358.668	70.94
358.895	83.94
359.122	88.94
359.349	84.94
359.576	88.94
359.802	80.94
360.029	68.94
360.256	91.94
360.483	78.94
360.709	75.94
360.936	89.94
361.163	97.94
361.39	86.94
361.616	88.94
361.843	87.94
362.07	76.94
362.296	81.94
362.523	72.94
362.749	88.94
362.976	78.94
363.203	82.94
363.429	81.94
363.656	62.94
363.882	79.94
364.109	82.94
364.335	75.94
364.562	79.94
364.788	74.94
365.015	79.94
365.241	91.94
365.468	85.94
365.694	89.94
365.92	81.94
366.147	71.94
366.373	86.94
366.599	88.94
366.826	90.94
367.052	81.94
367.278	74.94
367.505	85.94
367.731	90.94
367.957	91.94
368.184	79.94
368.41	75.94
368.636	86.94
368.862	80.94
369.089	69.94
369.315	89.94
369.541	76.94
369.767	90.94
369.993	82.94
370.219	84.94
370.445	85.94
370.672	87.94
370.898	74.94
371.124	73.94
371.35	77.94
371.576	83.94
371.802	73.94
372.028	76.94
372.254	83.94
372.48	88.94
372.706	74.94
372.932	80.94
373.158	74.94
373.384	87.94
373.61	74.94
373.835	92.94
374.061	70.94
374.287	86.94
374.513	89.94
374.739	78.94
374.965	91.94
375.191	84.94
375.416	71.94
375.642	81.94
375.868	78.94
376.094	82.94
376.319	91.94
376.545	94.94
376.771	86.94
376.997	83.94
377.222	92.94
377.448	84.94
377.674	85.94
377.899	93.94
378.125	89.94
378.35	61.94
378.576	88.94
378.802	79.94
379.027	86.94
379.253	83.94
379.478	88.94
379.704	89.94
379.929	91.94
380.155	78.94
380.38	81.94
380.606	65.94
380.831	80.94
381.057	79.94
381.282	89.94
381.507	80.94
381.733	79.94
381.958	84.94
382.184	78.94
382.409	67.94
382.634	82.94
382.86	80.94
383.085	78.94
383.31	89.94
383.535	79.94
383.761	73.94
383.986	94.94
384.211	88.94
384.436	85.94
384.662	95.94
384.887	79.94
385.112	92.94
385.337	87.94
385.562	67.94
385.787	81.94
386.013	77.94
386.238	77.94
386.463	65.94
386.688	86.94
386.913	85.94
387.138	90.94
387.363	84.94
387.588	59.94
387.813	86.94
388.038	81.94
388.263	65.94
388.488	70.94
388.713	77.94
388.938	83.94
389.163	68.94
389.387	85.94
389.612	82.94
389.837	74.94
390.062	92.94
390.287	89.94
390.512	74.94
390.736	70.94
390.961	74.94
391.186	83.94
391.411	94.94
391.636	79.94
391.86	66.94
392.085	69.94
392.31	66.94
392.534	71.94
392.759	92.94
392.984	75.94
393.208	66.94
393.433	69.94
393.658	70.94
393.882	82.94
394.107	87.94
394.331	70.94
394.556	65.94
394.78	75.94
395.005	75.94
395.229	94.94
395.454	79.94
395.678	80.94
395.903	87.94
396.127	77.94
396.352	103.94
396.576	83.94
396.801	67.94
397.025	83.94
397.249	82.94
397.474	89.94
397.698	86.94
397.922	77.94
398.147	85.94
398.371	68.94
398.595	63.94
398.82	86.94
399.044	76.94
399.268	73.94
399.492	85.94
399.717	81.94
399.941	75.94
400.165	84.94
400.389	80.94
400.613	81.94
400.837	82.94
401.062	70.94
401.286	72.94
401.51	85.94
401.734	71.94
401.958	55.94
402.182	79.94
402.406	71.94
402.63	74.94
402.854	87.94
403.078	78.94
403.302	86.94
403.526	73.94
403.75	69.94
403.974	79.94
404.198	62.94
404.422	97.94
404.645	77.94
404.869	81.94
405.093	84.94
405.317	68.94
405.541	69.94
405.765	85.94
405.988	76.94
406.212	85.94
406.436	80.94
406.66	63.94
406.883	77.94
407.107	68.94
407.331	74.94
407.555	78.94
407.778	71.94
408.002	95.94
408.226	85.94
408.449	82.94
408.673	81.94
408.896	86.94
409.12	83.94
409.344	89.94
409.567	91.94
409.791	70.94
410.014	71.94
410.238	83.94
410.461	89.94
410.685	82.94
410.908	83.94
411.132	63.94
411.355	88.94
411.578	81.94
411.802	88.94
412.025	77.94
412.249	85.94
412.472	83.94
412.695	85.94
412.919	86.94
413.142	78.94
413.365	95.94
413.589	82.94
413.812	83.94
414.035	93.94
414.258	79.94
414.482	86.94
414.705	83.94
414.928	79.94
415.151	92.94
415.374	76.94
415.597	73.94
415.821	92.94
416.044	82.94
416.267	75.94
416.49	75.94
416.713	78.94
416.936	83.94
417.159	80.94
417.382	67.94
417.605	99.94
417.828	96.94
418.051	78.94
418.274	83.94
418.497	87.94
418.72	84.94
418.943	88.94
419.166	79.94
419.389	78.94
419.611	84.94
419.834	79.94
420.057	91.94
420.28	78.94
420.503	77.94
420.726	81.94
420.948	89.94
421.171	71.94
421.394	69.94
421.617	77.94
421.839	81.94
422.062	80.94
422.285	79.94
422.507	80.94
422.73	77.94
422.953	79.94
423.175	75.94
423.398	83.94
423.621	71.94
423.843	82.94
424.066	85.94
424.288	73.94
424.511	75.94
424.733	84.94
424.956	77.94
425.178	64.94
425.401	78.94
425.623	85.94
425.846	73.94
426.068	68.94
426.291	76.94
426.513	82.94
426.735	75.94
426.958	80.94
427.18	82.94
427.402	85.94
427.625	80.94
427.847	72.94
428.069	86.94
428.292	81.94
428.514	81.94
428.736	68.94
428.958	65.94
429.181	73.94
429.403	70.94
429.625	94.94
429.847	82.94
430.069	75.94
430.292	84.94
430.514	61.94
430.736	75.94
430.958	68.94
431.18	65.94
431.402	91.94
431.624	71.94
431.846	97.94
432.068	84.94
432.29	86.94
432.512	86.94
432.734	71.94
432.956	71.94
433.178	69.94
433.4	77.94
433.622	75.94
433.844	77.94
434.066	80.94
434.287	83.94
434.509	75.94
434.731	75.94
434.953	74.94
435.175	82.94
435.397	83.94
435.618	85.94
435.84	94.94
436.062	79.94
436.284	69.94
436.505	78.94
436.727	81.94
436.949	86.94
437.17	78.94
437.392	88.94
437.614	68.94
437.835	73.94
438.057	91.94
438.278	77.94
438.5	68.94
438.721	78.94
438.943	91.94
439.165	83.94
439.386	74.94
439.608	89.94
439.829	72.94
440.05	86.94
440.272	60.94
440.493	76.94
440.715	73.94
440.936	84.94
441.158	77.94
441.379	76.94
441.6	85.94
441.822	72.94
442.043	90.94
442.264	91.94
442.486	71.94
442.707	89.94
442.928	83.94
443.149	69.94
443.371	74.94
443.592	67.94
443.813	75.94
444.034	87.94
444.255	99.94
444.476	71.94
444.698	71.94
444.919	93.94
445.14	131.94
445.361	101.94
445.582	83.94
445.803	76.94
446.024	91.94
446.245	68.94
446.466	79.94
446.687	72.94
446.908	75.94
447.129	90.94
447.35	88.94
447.571	76.94
447.792	79.94
448.013	77.94
448.234	84.94
448.455	71.94
448.675	70.94
448.896	80.94
449.117	65.94
449.338	70.94
449.559	93.94
449.779	81.94
450	85.94
450.221	98.94
450.442	78.94
450.662	66.94
450.883	73.94
451.104	77.94
451.324	71.94
451.545	79.94
451.766	100.94
451.986	77.94
452.207	90.94
452.428	81.94
452.648	83.94
452.869	78.94
453.089	98.94
453.31	65.94
453.53	89.94
453.751	77.94
453.971	89.94
454.192	83.94
454.412	75.94
454.633	85.94
454.853	75.94
455.073	88.94
455.294	89.94
455.514	103.94
455.734	71.94
455.955	73.94
456.175	93.94
456.395	87.94
456.616	79.94
456.836	92.94
457.056	77.94
457.276	74.94
457.497	80.94
457.717	68.94
457.937	74.94
458.157	81.94
458.377	79.94
458.598	76.94
458.818	76.94
459.038	66.94
459.258	76.94
459.478	80.94
459.698	78.94
459.918	81.94
460.138	90.94
460.358	84.94
460.578	81.94
460.798	78.94
461.018	83.94
461.238	81.94
461.458	76.94
461.678	83.94
461.898	80.94
462.118	84.94
462.338	78.94
462.558	82.94
462.777	81.94
462.997	77.94
463.217	90.94
463.437	85.94
463.657	84.94
463.876	78.94
464.096	84.94
464.316	80.94
464.536	81.94
464.755	83.94
464.975	81.94
465.195	77.94
465.414	82.94
465.634	73.94
465.854	78.94
466.073	79.94
466.293	78.94
466.512	70.94
466.732	93.94
466.951	67.94
467.171	75.94
467.391	77.94
467.61	77.94
467.829	88.94
468.049	93.94
468.268	72.94
468.488	84.94
468.707	64.94
468.927	77.94
469.146	79.94
469.365	83.94
469.585	84.94
469.804	81.94
470.023	61.94
470.243	85.94
470.462	92.94
470.681	76.94
470.901	74.94
471.12	76.94
471.339	96.94
471.558	83.94
471.777	84.94
471.997	96.94
472.216	87.94
472.435	94.94
472.654	75.94
472.873	81.94
473.092	77.94
473.311	73.94
473.53	65.94
473.749	77.94
473.968	84.94
474.187	91.94
474.406	75.94
474.625	78.94
474.844	74.94
475.063	84.94
475.282	79.94
475.501	81.94
475.72	78.94
475.939	87.94
476.158	80.94
476.377	72.94
476.596	97.94
476.814	91.94
477.033	79.94
477.252	68.94
477.471	78.94
477.69	73.94
477.908	89.94
478.127	84.94
478.346	77.94
478.564	79.94
478.783	75.94
479.002	82.94
479.22	87.94
479.439	86.94
479.658	75.94
479.876	95.94
480.095	86.94
480.313	81.94
480.532	79.94
480.751	93.94
480.969	81.94
481.188	92.94
481.406	77.94
481.624	82.94
481.843	80.94
482.061	81.94
482.28	79.94
482.498	77.94
482.717	83.94
482.935	72.94
483.153	81.94
483.372	75.94
483.59	82.94
483.808	94.94
484.027	89.94
484.245	79.94
484.463	79.94
484.681	86.94
484.9	84.94
485.118	87.94
485.336	80.94
485.554	81.94
485.772	87.94
485.99	82.94
486.209	75.94
486.427	98.94
486.645	86.94
486.863	82.94
487.081	77.94
487.299	89.94
487.517	81.94
487.735	87.94
487.953	85.94
488.171	88.94
488.389	86.94
488.607	77.94
488.825	73.94
489.043	89.94
489.261	83.94
489.479	84.94
489.696	90.94
489.914	75.94
490.132	75.94
490.35	83.94
490.568	78.94
490.786	77.94
491.003	84.94
491.221	82.94
491.439	78.94
491.657	82.94
491.874	88.94
492.092	98.94
492.31	78.94
492.527	79.94
492.745	64.94
492.963	81.94
493.18	88.94
493.398	85.94
493.615	88.94
493.833	83.94
494.05	68.94
494.268	86.94
494.485	82.94
494.703	85.94
494.92	80.94
495.138	76.94
495.355	86.94
495.573	89.94
495.79	85.94
496.008	76.94
496.225	91.94
496.442	81.94
496.66	91.94
496.877	89.94
497.094	92.94
497.312	82.94
497.529	95.94
497.746	95.94
497.963	92.94
498.181	82.94
498.398	89.94
498.615	75.94
498.832	67.94
499.049	85.94
499.267	72.94
499.484	94.94
499.701	96.94
499.918	86.94
500.135	71.94
500.352	85.94
500.569	76.94
500.786	82.94
501.003	75.94
501.22	82.94
501.437	95.94
501.654	75.94
501.871	89.94
502.088	86.94
502.305	90.94
502.522	97.94
502.739	93.94
502.956	88.94
503.172	79.94
503.389	79.94
503.606	78.94
503.823	91.94
504.04	79.94
504.256	77.94
504.473	79.94
504.69	94.94
504.907	92.94
505.123	83.94
505.34	95.94
505.557	97.94
505.773	80.94
505.99	80.94
506.207	77.94
506.423	93.94
506.64	79.94
506.856	86.94
507.073	75.94
507.289	83.94
507.506	82.94
507.722	77.94
507.939	67.94
508.155	85.94
508.372	89.94
508.588	83.94
508.805	80.94
509.021	85.94
509.238	90.94
509.454	87.94
509.67	86.94
509.887	86.94
510.103	81.94
510.319	79.94
510.536	90.94
510.752	82.94
510.968	91.94
511.184	83.94
511.401	88.94
511.617	83.94
511.833	81.94
512.049	70.94
512.265	75.94
512.481	80.94
512.698	69.94
512.914	79.94
513.13	87.94
513.346	80.94
513.562	86.94
513.778	95.94
513.994	81.94
514.21	94.94
514.426	97.94
514.642	98.94
514.858	93.94
515.074	76.94
515.29	79.94
515.506	79.94
515.721	93.94
515.937	90.94
516.153	87.94
516.369	78.94
516.585	92.94
516.801	79.94
517.016	82.94
517.232	80.94
517.448	88.94
517.664	83.94
517.879	77.94
518.095	84.94
518.311	89.94
518.527	82.94
518.742	96.94
518.958	102.94
519.173	76.94
519.389	89.94
519.605	89.94
519.82	75.94
520.036	81.94
