Data from Background_3_HRD10591_00071.txt Node
Date: Wed Nov 05 14:49:55 EST 2025
User: Yrep
Spectrometer: HR+D1059
Trigger mode: 1
Integration Time (sec): 1.000000E-1
Scans to average: 1
Electric dark correction enabled: true
Nonlinearity correction enabled: false
Boxcar width: 0
XAxis mode: Wavelengths
Number of Pixels in Spectrum: 2048
>>>>>Begin Spectral Data<<<<<
223.165	-13.81
223.4	-13.81
223.635	-13.81
223.869	-34.81
224.104	-6.81
224.338	-10.81
224.573	-16.81
224.808	-7.81
225.042	-15.81
225.277	-18.81
225.511	4.19
225.746	11.19
225.98	-7.81
226.215	9.19
226.449	12.19
226.683	24.19
226.918	27.19
227.152	45.19
227.387	32.19
227.621	41.19
227.856	45.19
228.09	46.19
228.324	56.19
228.559	41.19
228.793	56.19
229.027	52.19
229.262	51.19
229.496	51.19
229.73	59.19
229.964	69.19
230.199	84.19
230.433	90.19
230.667	69.19
230.901	82.19
231.136	79.19
231.37	78.19
231.604	78.19
231.838	67.19
232.072	75.19
232.306	71.19
232.541	84.19
232.775	81.19
233.009	83.19
233.243	74.19
233.477	70.19
233.711	89.19
233.945	71.19
234.179	75.19
234.413	83.19
234.647	90.19
234.881	84.19
235.115	74.19
235.349	87.19
235.583	76.19
235.817	68.19
236.051	70.19
236.285	77.19
236.519	75.19
236.753	77.19
236.987	61.19
237.221	71.19
237.455	66.19
237.689	67.19
237.922	65.19
238.156	79.19
238.39	76.19
238.624	85.19
238.858	73.19
239.091	70.19
239.325	74.19
239.559	73.19
239.793	84.19
240.027	79.19
240.26	80.19
240.494	73.19
240.728	72.19
240.961	79.19
241.195	71.19
241.429	73.19
241.662	84.19
241.896	78.19
242.13	60.19
242.363	82.19
242.597	61.19
242.83	62.19
243.064	75.19
243.298	68.19
243.531	61.19
243.765	66.19
243.998	66.19
244.232	89.19
244.465	63.19
244.699	65.19
244.932	77.19
245.166	58.19
245.399	74.19
245.633	73.19
245.866	81.19
246.099	75.19
246.333	70.19
246.566	79.19
246.8	78.19
247.033	80.19
247.266	83.19
247.5	82.19
247.733	76.19
247.966	87.19
248.2	75.19
248.433	75.19
248.666	80.19
248.899	75.19
249.133	82.19
249.366	85.19
249.599	69.19
249.832	88.19
250.066	81.19
250.299	79.19
250.532	80.19
250.765	72.19
250.998	81.19
251.231	68.19
251.465	82.19
251.698	77.19
251.931	85.19
252.164	74.19
252.397	87.19
252.63	80.19
252.863	85.19
253.096	79.19
253.329	65.19
253.562	91.19
253.795	74.19
254.028	82.19
254.261	72.19
254.494	83.19
254.727	65.19
254.96	81.19
255.193	74.19
255.426	90.19
255.659	75.19
255.892	72.19
256.124	82.19
256.357	66.19
256.59	77.19
256.823	77.19
257.056	82.19
257.289	67.19
257.521	61.19
257.754	71.19
257.987	69.19
258.22	69.19
258.452	72.19
258.685	81.19
258.918	80.19
259.151	67.19
259.383	64.19
259.616	63.19
259.849	75.19
260.081	85.19
260.314	89.19
260.547	68.19
260.779	91.19
261.012	77.19
261.244	89.19
261.477	85.19
261.71	76.19
261.942	79.19
262.175	92.19
262.407	78.19
262.64	84.19
262.872	83.19
263.105	70.19
263.337	79.19
263.57	71.19
263.802	83.19
264.035	83.19
264.267	81.19
264.499	81.19
264.732	77.19
264.964	72.19
265.197	84.19
265.429	75.19
265.661	93.19
265.894	84.19
266.126	107.19
266.358	89.19
266.591	71.19
266.823	77.19
267.055	86.19
267.287	63.19
267.52	85.19
267.752	71.19
267.984	78.19
268.216	95.19
268.448	79.19
268.681	75.19
268.913	75.19
269.145	88.19
269.377	80.19
269.609	79.19
269.841	83.19
270.073	90.19
270.306	82.19
270.538	85.19
270.77	82.19
271.002	80.19
271.234	74.19
271.466	80.19
271.698	99.19
271.93	90.19
272.162	79.19
272.394	79.19
272.626	90.19
272.858	82.19
273.09	83.19
273.322	73.19
273.553	88.19
273.785	86.19
274.017	83.19
274.249	79.19
274.481	77.19
274.713	78.19
274.945	80.19
275.176	76.19
275.408	91.19
275.64	83.19
275.872	81.19
276.104	82.19
276.335	80.19
276.567	79.19
276.799	86.19
277.031	85.19
277.262	81.19
277.494	82.19
277.726	81.19
277.957	84.19
278.189	78.19
278.421	88.19
278.652	88.19
278.884	98.19
279.115	89.19
279.347	78.19
279.579	74.19
279.81	77.19
280.042	73.19
280.273	90.19
280.505	98.19
280.736	86.19
280.968	89.19
281.199	97.19
281.431	92.19
281.662	88.19
281.894	83.19
282.125	77.19
282.356	98.19
282.588	85.19
282.819	88.19
283.051	84.19
283.282	90.19
283.513	79.19
283.745	80.19
283.976	67.19
284.207	89.19
284.439	69.19
284.67	82.19
284.901	95.19
285.132	71.19
285.364	77.19
285.595	85.19
285.826	85.19
286.057	99.19
286.288	89.19
286.52	80.19
286.751	76.19
286.982	84.19
287.213	81.19
287.444	75.19
287.675	78.19
287.906	83.19
288.138	91.19
288.369	74.19
288.6	76.19
288.831	82.19
289.062	81.19
289.293	76.19
289.524	85.19
289.755	75.19
289.986	85.19
290.217	79.19
290.448	78.19
290.679	75.19
290.91	75.19
291.141	90.19
291.371	82.19
291.602	78.19
291.833	91.19
292.064	79.19
292.295	63.19
292.526	87.19
292.757	87.19
292.987	84.19
293.218	85.19
293.449	75.19
293.68	76.19
293.91	73.19
294.141	88.19
294.372	66.19
294.603	91.19
294.833	90.19
295.064	76.19
295.295	84.19
295.525	86.19
295.756	92.19
295.987	62.19
296.217	90.19
296.448	83.19
296.679	92.19
296.909	84.19
297.14	95.19
297.37	98.19
297.601	96.19
297.831	76.19
298.062	87.19
298.292	84.19
298.523	85.19
298.753	86.19
298.984	92.19
299.214	79.19
299.445	83.19
299.675	84.19
299.905	79.19
300.136	77.19
300.366	79.19
300.597	99.19
300.827	76.19
301.057	73.19
301.288	84.19
301.518	90.19
301.748	80.19
301.979	83.19
302.209	92.19
302.439	85.19
302.669	85.19
302.9	74.19
303.13	83.19
303.36	79.19
303.59	90.19
303.82	77.19
304.051	91.19
304.281	85.19
304.511	79.19
304.741	88.19
304.971	75.19
305.201	96.19
305.431	85.19
305.661	85.19
305.891	80.19
306.121	79.19
306.352	75.19
306.582	95.19
306.812	94.19
307.042	97.19
307.272	75.19
307.502	73.19
307.731	80.19
307.961	87.19
308.191	94.19
308.421	93.19
308.651	89.19
308.881	74.19
309.111	80.19
309.341	93.19
309.571	63.19
309.8	80.19
310.03	85.19
310.26	74.19
310.49	78.19
310.72	83.19
310.949	75.19
311.179	72.19
311.409	92.19
311.639	89.19
311.868	82.19
312.098	92.19
312.328	84.19
312.557	95.19
312.787	89.19
313.017	91.19
313.246	96.19
313.476	85.19
313.706	67.19
313.935	81.19
314.165	90.19
314.394	77.19
314.624	80.19
314.853	85.19
315.083	71.19
315.312	77.19
315.542	88.19
315.771	68.19
316.001	81.19
316.23	88.19
316.46	77.19
316.689	85.19
316.919	83.19
317.148	92.19
317.377	85.19
317.607	82.19
317.836	78.19
318.065	92.19
318.295	85.19
318.524	84.19
318.753	78.19
318.983	86.19
319.212	85.19
319.441	87.19
319.67	90.19
319.9	81.19
320.129	93.19
320.358	77.19
320.587	89.19
320.816	92.19
321.046	72.19
321.275	85.19
321.504	85.19
321.733	86.19
321.962	84.19
322.191	94.19
322.42	93.19
322.649	67.19
322.878	89.19
323.108	81.19
323.337	69.19
323.566	79.19
323.795	89.19
324.024	60.19
324.253	88.19
324.482	79.19
324.71	89.19
324.939	83.19
325.168	73.19
325.397	69.19
325.626	75.19
325.855	82.19
326.084	76.19
326.313	87.19
326.542	81.19
326.77	79.19
326.999	74.19
327.228	87.19
327.457	97.19
327.686	91.19
327.914	74.19
328.143	80.19
328.372	79.19
328.6	71.19
328.829	83.19
329.058	81.19
329.287	79.19
329.515	81.19
329.744	96.19
329.972	81.19
330.201	77.19
330.43	84.19
330.658	76.19
330.887	85.19
331.115	90.19
331.344	95.19
331.572	81.19
331.801	68.19
332.03	75.19
332.258	89.19
332.486	91.19
332.715	88.19
332.943	75.19
333.172	86.19
333.4	92.19
333.629	87.19
333.857	81.19
334.085	76.19
334.314	81.19
334.542	83.19
334.771	88.19
334.999	80.19
335.227	90.19
335.455	83.19
335.684	76.19
335.912	92.19
336.14	76.19
336.369	95.19
336.597	79.19
336.825	90.19
337.053	79.19
337.281	99.19
337.51	80.19
337.738	80.19
337.966	80.19
338.194	84.19
338.422	79.19
338.65	77.19
338.878	69.19
339.106	83.19
339.334	97.19
339.562	91.19
339.79	92.19
340.018	79.19
340.246	82.19
340.474	70.19
340.702	77.19
340.93	87.19
341.158	94.19
341.386	81.19
341.614	84.19
341.842	82.19
342.07	82.19
342.298	95.19
342.526	75.19
342.754	77.19
342.981	84.19
343.209	73.19
343.437	82.19
343.665	84.19
343.893	80.19
344.12	83.19
344.348	75.19
344.576	74.19
344.804	75.19
345.031	75.19
345.259	89.19
345.487	73.19
345.714	82.19
345.942	68.19
346.17	76.19
346.397	66.19
346.625	74.19
346.853	76.19
347.08	55.19
347.308	76.19
347.535	92.19
347.763	87.19
347.99	78.19
348.218	80.19
348.445	83.19
348.673	73.19
348.9	96.19
349.128	88.19
349.355	92.19
349.583	87.19
349.81	82.19
350.037	97.19
350.265	79.19
350.492	77.19
350.72	75.19
350.947	86.19
351.174	90.19
351.402	88.19
351.629	83.19
351.856	75.19
352.083	93.19
352.311	99.19
352.538	72.19
352.765	82.19
352.992	93.19
353.22	89.19
353.447	74.19
353.674	90.19
353.901	89.19
354.128	88.19
354.355	82.19
354.583	96.19
354.81	79.19
355.037	75.19
355.264	90.19
355.491	80.19
355.718	89.19
355.945	79.19
356.172	92.19
356.399	82.19
356.626	73.19
356.853	74.19
357.08	88.19
357.307	82.19
357.534	72.19
357.761	87.19
357.988	88.19
358.215	71.19
358.441	81.19
358.668	77.19
358.895	86.19
359.122	83.19
359.349	69.19
359.576	74.19
359.802	72.19
360.029	97.19
360.256	82.19
360.483	81.19
360.709	76.19
360.936	79.19
361.163	77.19
361.39	85.19
361.616	81.19
361.843	77.19
362.07	76.19
362.296	95.19
362.523	85.19
362.749	84.19
362.976	77.19
363.203	90.19
363.429	73.19
363.656	85.19
363.882	96.19
364.109	81.19
364.335	72.19
364.562	80.19
364.788	78.19
365.015	72.19
365.241	78.19
365.468	92.19
365.694	77.19
365.92	75.19
366.147	69.19
366.373	81.19
366.599	75.19
366.826	77.19
367.052	72.19
367.278	80.19
367.505	81.19
367.731	91.19
367.957	84.19
368.184	77.19
368.41	92.19
368.636	76.19
368.862	68.19
369.089	73.19
369.315	81.19
369.541	88.19
369.767	77.19
369.993	78.19
370.219	81.19
370.445	81.19
370.672	70.19
370.898	77.19
371.124	88.19
371.35	80.19
371.576	70.19
371.802	84.19
372.028	89.19
372.254	83.19
372.48	75.19
372.706	83.19
372.932	79.19
373.158	67.19
373.384	77.19
373.61	73.19
373.835	81.19
374.061	72.19
374.287	86.19
374.513	80.19
374.739	87.19
374.965	98.19
375.191	88.19
375.416	75.19
375.642	83.19
375.868	79.19
376.094	88.19
376.319	90.19
376.545	86.19
376.771	72.19
376.997	87.19
377.222	75.19
377.448	71.19
377.674	87.19
377.899	85.19
378.125	76.19
378.35	70.19
378.576	81.19
378.802	78.19
379.027	90.19
379.253	68.19
379.478	78.19
379.704	82.19
379.929	68.19
380.155	72.19
380.38	74.19
380.606	80.19
380.831	79.19
381.057	77.19
381.282	81.19
381.507	85.19
381.733	92.19
381.958	83.19
382.184	73.19
382.409	69.19
382.634	74.19
382.86	79.19
383.085	64.19
383.31	75.19
383.535	87.19
383.761	82.19
383.986	93.19
384.211	81.19
384.436	81.19
384.662	73.19
384.887	85.19
385.112	70.19
385.337	69.19
385.562	65.19
385.787	80.19
386.013	78.19
386.238	61.19
386.463	87.19
386.688	83.19
386.913	103.19
387.138	79.19
387.363	75.19
387.588	92.19
387.813	73.19
388.038	79.19
388.263	83.19
388.488	82.19
388.713	93.19
388.938	77.19
389.163	66.19
389.387	63.19
389.612	84.19
389.837	65.19
390.062	87.19
390.287	80.19
390.512	84.19
390.736	81.19
390.961	88.19
391.186	83.19
391.411	74.19
391.636	87.19
391.86	73.19
392.085	82.19
392.31	75.19
392.534	95.19
392.759	75.19
392.984	84.19
393.208	91.19
393.433	78.19
393.658	86.19
393.882	93.19
394.107	87.19
394.331	80.19
394.556	70.19
394.78	87.19
395.005	75.19
395.229	69.19
395.454	81.19
395.678	82.19
395.903	82.19
396.127	82.19
396.352	72.19
396.576	79.19
396.801	75.19
397.025	87.19
397.249	88.19
397.474	78.19
397.698	70.19
397.922	75.19
398.147	88.19
398.371	73.19
398.595	77.19
398.82	79.19
399.044	95.19
399.268	78.19
399.492	74.19
399.717	81.19
399.941	79.19
400.165	72.19
400.389	69.19
400.613	81.19
400.837	81.19
401.062	75.19
401.286	76.19
401.51	87.19
401.734	83.19
401.958	81.19
402.182	80.19
402.406	75.19
402.63	80.19
402.854	75.19
403.078	73.19
403.302	80.19
403.526	74.19
403.75	70.19
403.974	67.19
404.198	75.19
404.422	69.19
404.645	78.19
404.869	87.19
405.093	74.19
405.317	66.19
405.541	72.19
405.765	90.19
405.988	75.19
406.212	88.19
406.436	85.19
406.66	90.19
406.883	97.19
407.107	95.19
407.331	65.19
407.555	76.19
407.778	80.19
408.002	92.19
408.226	73.19
408.449	68.19
408.673	80.19
408.896	88.19
409.12	77.19
409.344	79.19
409.567	77.19
409.791	65.19
410.014	78.19
410.238	81.19
410.461	77.19
410.685	77.19
410.908	69.19
411.132	83.19
411.355	79.19
411.578	63.19
411.802	64.19
412.025	77.19
412.249	83.19
412.472	77.19
412.695	91.19
412.919	81.19
413.142	84.19
413.365	88.19
413.589	81.19
413.812	84.19
414.035	65.19
414.258	75.19
414.482	79.19
414.705	74.19
414.928	87.19
415.151	76.19
415.374	69.19
415.597	82.19
415.821	83.19
416.044	77.19
416.267	82.19
416.49	94.19
416.713	71.19
416.936	92.19
417.159	73.19
417.382	66.19
417.605	78.19
417.828	73.19
418.051	84.19
418.274	76.19
418.497	75.19
418.72	72.19
418.943	68.19
419.166	90.19
419.389	79.19
419.611	67.19
419.834	90.19
420.057	75.19
420.28	78.19
420.503	81.19
420.726	76.19
420.948	78.19
421.171	87.19
421.394	68.19
421.617	66.19
421.839	70.19
422.062	84.19
422.285	81.19
422.507	68.19
422.73	80.19
422.953	70.19
423.175	73.19
423.398	84.19
423.621	67.19
423.843	80.19
424.066	88.19
424.288	68.19
424.511	101.19
424.733	74.19
424.956	89.19
425.178	85.19
425.401	79.19
425.623	59.19
425.846	67.19
426.068	87.19
426.291	90.19
426.513	78.19
426.735	75.19
426.958	81.19
427.18	59.19
427.402	87.19
427.625	62.19
427.847	78.19
428.069	79.19
428.292	76.19
428.514	79.19
428.736	65.19
428.958	70.19
429.181	83.19
429.403	84.19
429.625	79.19
429.847	81.19
430.069	71.19
430.292	86.19
430.514	82.19
430.736	76.19
430.958	73.19
431.18	93.19
431.402	67.19
431.624	78.19
431.846	77.19
432.068	82.19
432.29	78.19
432.512	97.19
432.734	70.19
432.956	80.19
433.178	93.19
433.4	69.19
433.622	60.19
433.844	83.19
434.066	81.19
434.287	87.19
434.509	91.19
434.731	74.19
434.953	72.19
435.175	79.19
435.397	79.19
435.618	81.19
435.84	85.19
436.062	80.19
436.284	79.19
436.505	93.19
436.727	81.19
436.949	87.19
437.17	85.19
437.392	73.19
437.614	70.19
437.835	74.19
438.057	73.19
438.278	73.19
438.5	90.19
438.721	95.19
438.943	93.19
439.165	79.19
439.386	74.19
439.608	81.19
439.829	77.19
440.05	97.19
440.272	74.19
440.493	85.19
440.715	83.19
440.936	81.19
441.158	90.19
441.379	80.19
441.6	72.19
441.822	63.19
442.043	73.19
442.264	81.19
442.486	91.19
442.707	78.19
442.928	87.19
443.149	75.19
443.371	81.19
443.592	69.19
443.813	82.19
444.034	75.19
444.255	82.19
444.476	77.19
444.698	67.19
444.919	85.19
445.14	152.19
445.361	124.19
445.582	63.19
445.803	87.19
446.024	81.19
446.245	81.19
446.466	83.19
446.687	85.19
446.908	76.19
447.129	76.19
447.35	83.19
447.571	75.19
447.792	69.19
448.013	91.19
448.234	78.19
448.455	73.19
448.675	79.19
448.896	87.19
449.117	87.19
449.338	75.19
449.559	75.19
449.779	77.19
450	80.19
450.221	80.19
450.442	90.19
450.662	73.19
450.883	79.19
451.104	71.19
451.324	82.19
451.545	73.19
451.766	77.19
451.986	80.19
452.207	73.19
452.428	71.19
452.648	70.19
452.869	79.19
453.089	84.19
453.31	74.19
453.53	79.19
453.751	91.19
453.971	93.19
454.192	72.19
454.412	77.19
454.633	73.19
454.853	84.19
455.073	72.19
455.294	77.19
455.514	94.19
455.734	92.19
455.955	75.19
456.175	84.19
456.395	75.19
456.616	75.19
456.836	88.19
457.056	74.19
457.276	77.19
457.497	76.19
457.717	80.19
457.937	86.19
458.157	82.19
458.377	81.19
458.598	89.19
458.818	84.19
459.038	75.19
459.258	87.19
459.478	80.19
459.698	83.19
459.918	89.19
460.138	68.19
460.358	79.19
460.578	95.19
460.798	70.19
461.018	83.19
461.238	76.19
461.458	77.19
461.678	74.19
461.898	70.19
462.118	81.19
462.338	94.19
462.558	85.19
462.777	76.19
462.997	83.19
463.217	87.19
463.437	81.19
463.657	84.19
463.876	85.19
464.096	77.19
464.316	73.19
464.536	75.19
464.755	69.19
464.975	88.19
465.195	89.19
465.414	52.19
465.634	78.19
465.854	70.19
466.073	79.19
466.293	78.19
466.512	80.19
466.732	75.19
466.951	80.19
467.171	77.19
467.391	89.19
467.61	73.19
467.829	94.19
468.049	81.19
468.268	78.19
468.488	87.19
468.707	75.19
468.927	75.19
469.146	81.19
469.365	79.19
469.585	80.19
469.804	82.19
470.023	90.19
470.243	75.19
470.462	82.19
470.681	88.19
470.901	80.19
471.12	81.19
471.339	77.19
471.558	82.19
471.777	67.19
471.997	85.19
472.216	72.19
472.435	70.19
472.654	74.19
472.873	76.19
473.092	85.19
473.311	78.19
473.53	90.19
473.749	76.19
473.968	91.19
474.187	88.19
474.406	75.19
474.625	83.19
474.844	94.19
475.063	67.19
475.282	73.19
475.501	77.19
475.72	80.19
475.939	81.19
476.158	79.19
476.377	81.19
476.596	78.19
476.814	85.19
477.033	90.19
477.252	80.19
477.471	69.19
477.69	79.19
477.908	81.19
478.127	80.19
478.346	84.19
478.564	84.19
478.783	76.19
479.002	80.19
479.22	72.19
479.439	84.19
479.658	80.19
479.876	73.19
480.095	79.19
480.313	68.19
480.532	85.19
480.751	93.19
480.969	86.19
481.188	80.19
481.406	88.19
481.624	76.19
481.843	82.19
482.061	75.19
482.28	85.19
482.498	77.19
482.717	77.19
482.935	81.19
483.153	63.19
483.372	80.19
483.59	67.19
483.808	75.19
484.027	89.19
484.245	67.19
484.463	77.19
484.681	82.19
484.9	75.19
485.118	81.19
485.336	73.19
485.554	83.19
485.772	92.19
485.99	77.19
486.209	77.19
486.427	72.19
486.645	95.19
486.863	87.19
487.081	70.19
487.299	79.19
487.517	79.19
487.735	81.19
487.953	72.19
488.171	90.19
488.389	86.19
488.607	76.19
488.825	84.19
489.043	64.19
489.261	89.19
489.479	61.19
489.696	68.19
489.914	77.19
490.132	85.19
490.35	93.19
490.568	82.19
490.786	84.19
491.003	77.19
491.221	73.19
491.439	87.19
491.657	79.19
491.874	85.19
492.092	90.19
492.31	78.19
492.527	87.19
492.745	81.19
492.963	70.19
493.18	85.19
493.398	75.19
493.615	80.19
493.833	66.19
494.05	80.19
494.268	72.19
494.485	85.19
494.703	85.19
494.92	82.19
495.138	86.19
495.355	88.19
495.573	87.19
495.79	95.19
496.008	79.19
496.225	80.19
496.442	78.19
496.66	100.19
496.877	75.19
497.094	87.19
497.312	73.19
497.529	76.19
497.746	68.19
497.963	63.19
498.181	81.19
498.398	79.19
498.615	84.19
498.832	83.19
499.049	88.19
499.267	84.19
499.484	85.19
499.701	94.19
499.918	95.19
500.135	76.19
500.352	82.19
500.569	77.19
500.786	80.19
501.003	83.19
501.22	80.19
501.437	68.19
501.654	77.19
501.871	73.19
502.088	84.19
502.305	81.19
502.522	76.19
502.739	91.19
502.956	76.19
503.172	92.19
503.389	75.19
503.606	85.19
503.823	79.19
504.04	80.19
504.256	87.19
504.473	81.19
504.69	80.19
504.907	87.19
505.123	81.19
505.34	88.19
505.557	84.19
505.773	81.19
505.99	93.19
506.207	87.19
506.423	76.19
506.64	85.19
506.856	77.19
507.073	81.19
507.289	70.19
507.506	87.19
507.722	87.19
507.939	84.19
508.155	81.19
508.372	76.19
508.588	81.19
508.805	79.19
509.021	75.19
509.238	80.19
509.454	84.19
509.67	71.19
509.887	75.19
510.103	80.19
510.319	83.19
510.536	80.19
510.752	81.19
510.968	73.19
511.184	92.19
511.401	91.19
511.617	79.19
511.833	71.19
512.049	89.19
512.265	83.19
512.481	77.19
512.698	68.19
512.914	67.19
513.13	75.19
513.346	91.19
513.562	91.19
513.778	84.19
513.994	91.19
514.21	83.19
514.426	82.19
514.642	82.19
514.858	81.19
515.074	68.19
515.29	85.19
515.506	70.19
515.721	87.19
515.937	79.19
516.153	82.19
516.369	62.19
516.585	75.19
516.801	89.19
517.016	85.19
517.232	85.19
517.448	77.19
517.664	90.19
517.879	75.19
518.095	92.19
518.311	76.19
518.527	80.19
518.742	73.19
518.958	72.19
519.173	98.19
519.389	85.19
519.605	91.19
519.82	74.19
520.036	80.19
520.251	68.19
