Data from Background_3_HRD10591_00034.txt Node
Date: Wed Nov 05 14:49:36 EST 2025
User: Yrep
Spectrometer: HR+D1059
Trigger mode: 1
Integration Time (sec): 1.000000E-1
Scans to average: 1
Electric dark correction enabled: true
Nonlinearity correction enabled: false
Boxcar width: 0
XAxis mode: Wavelengths
Number of Pixels in Spectrum: 2048
>>>>>Begin Spectral Data<<<<<
223.165	-18.88
223.4	-18.88
223.635	-18.88
223.869	-28.88
224.104	-18.88
224.338	-1.88
224.573	-30.88
224.808	-5.88
225.042	-9.88
225.277	-8.88
225.511	7.12
225.746	7.12
225.98	3.12
226.215	10.12
226.449	6.12
226.683	20.12
226.918	33.12
227.152	37.12
227.387	33.12
227.621	39.12
227.856	44.12
228.09	37.12
228.324	51.12
228.559	67.12
228.793	59.12
229.027	63.12
229.262	56.12
229.496	61.12
229.73	57.12
229.964	65.12
230.199	76.12
230.433	74.12
230.667	79.12
230.901	76.12
231.136	74.12
231.37	77.12
231.604	81.12
231.838	90.12
232.072	77.12
232.306	80.12
232.541	82.12
232.775	71.12
233.009	77.12
233.243	82.12
233.477	78.12
233.711	73.12
233.945	82.12
234.179	79.12
234.413	81.12
234.647	73.12
234.881	64.12
235.115	66.12
235.349	73.12
235.583	70.12
235.817	92.12
236.051	69.12
236.285	76.12
236.519	64.12
236.753	75.12
236.987	82.12
237.221	76.12
237.455	72.12
237.689	80.12
237.922	81.12
238.156	70.12
238.39	75.12
238.624	71.12
238.858	86.12
239.091	85.12
239.325	69.12
239.559	71.12
239.793	61.12
240.027	84.12
240.26	68.12
240.494	69.12
240.728	83.12
240.961	73.12
241.195	81.12
241.429	62.12
241.662	73.12
241.896	66.12
242.13	78.12
242.363	64.12
242.597	73.12
242.83	70.12
243.064	81.12
243.298	64.12
243.531	77.12
243.765	72.12
243.998	77.12
244.232	89.12
244.465	67.12
244.699	76.12
244.932	71.12
245.166	74.12
245.399	70.12
245.633	72.12
245.866	69.12
246.099	68.12
246.333	83.12
246.566	86.12
246.8	85.12
247.033	75.12
247.266	86.12
247.5	81.12
247.733	75.12
247.966	95.12
248.2	83.12
248.433	77.12
248.666	79.12
248.899	76.12
249.133	81.12
249.366	85.12
249.599	78.12
249.832	65.12
250.066	75.12
250.299	92.12
250.532	77.12
250.765	85.12
250.998	84.12
251.231	54.12
251.465	64.12
251.698	85.12
251.931	88.12
252.164	81.12
252.397	74.12
252.63	81.12
252.863	85.12
253.096	83.12
253.329	80.12
253.562	78.12
253.795	65.12
254.028	66.12
254.261	78.12
254.494	70.12
254.727	81.12
254.96	78.12
255.193	76.12
255.426	71.12
255.659	91.12
255.892	75.12
256.124	72.12
256.357	85.12
256.59	78.12
256.823	77.12
257.056	61.12
257.289	84.12
257.521	66.12
257.754	71.12
257.987	65.12
258.22	78.12
258.452	70.12
258.685	81.12
258.918	89.12
259.151	80.12
259.383	78.12
259.616	77.12
259.849	75.12
260.081	72.12
260.314	78.12
260.547	67.12
260.779	71.12
261.012	71.12
261.244	79.12
261.477	73.12
261.71	71.12
261.942	66.12
262.175	73.12
262.407	71.12
262.64	72.12
262.872	80.12
263.105	69.12
263.337	71.12
263.57	63.12
263.802	81.12
264.035	84.12
264.267	85.12
264.499	86.12
264.732	81.12
264.964	61.12
265.197	80.12
265.429	80.12
265.661	74.12
265.894	71.12
266.126	78.12
266.358	82.12
266.591	78.12
266.823	77.12
267.055	78.12
267.287	68.12
267.52	67.12
267.752	69.12
267.984	85.12
268.216	83.12
268.448	78.12
268.681	75.12
268.913	77.12
269.145	75.12
269.377	78.12
269.609	73.12
269.841	74.12
270.073	61.12
270.306	79.12
270.538	79.12
270.77	74.12
271.002	78.12
271.234	75.12
271.466	73.12
271.698	80.12
271.93	71.12
272.162	87.12
272.394	78.12
272.626	69.12
272.858	73.12
273.09	69.12
273.322	83.12
273.553	88.12
273.785	69.12
274.017	89.12
274.249	74.12
274.481	75.12
274.713	79.12
274.945	84.12
275.176	89.12
275.408	91.12
275.64	92.12
275.872	91.12
276.104	81.12
276.335	79.12
276.567	75.12
276.799	78.12
277.031	72.12
277.262	67.12
277.494	97.12
277.726	85.12
277.957	99.12
278.189	80.12
278.421	73.12
278.652	73.12
278.884	83.12
279.115	82.12
279.347	64.12
279.579	79.12
279.81	65.12
280.042	80.12
280.273	89.12
280.505	81.12
280.736	81.12
280.968	77.12
281.199	68.12
281.431	77.12
281.662	86.12
281.894	74.12
282.125	76.12
282.356	87.12
282.588	91.12
282.819	84.12
283.051	81.12
283.282	77.12
283.513	86.12
283.745	91.12
283.976	80.12
284.207	80.12
284.439	84.12
284.67	82.12
284.901	72.12
285.132	93.12
285.364	68.12
285.595	82.12
285.826	87.12
286.057	73.12
286.288	80.12
286.52	82.12
286.751	65.12
286.982	80.12
287.213	81.12
287.444	65.12
287.675	83.12
287.906	77.12
288.138	74.12
288.369	78.12
288.6	87.12
288.831	70.12
289.062	72.12
289.293	81.12
289.524	87.12
289.755	64.12
289.986	74.12
290.217	64.12
290.448	79.12
290.679	61.12
290.91	79.12
291.141	79.12
291.371	81.12
291.602	77.12
291.833	86.12
292.064	87.12
292.295	76.12
292.526	88.12
292.757	84.12
292.987	89.12
293.218	66.12
293.449	65.12
293.68	88.12
293.91	77.12
294.141	76.12
294.372	83.12
294.603	83.12
294.833	78.12
295.064	71.12
295.295	77.12
295.525	73.12
295.756	95.12
295.987	74.12
296.217	85.12
296.448	76.12
296.679	88.12
296.909	89.12
297.14	83.12
297.37	84.12
297.601	90.12
297.831	78.12
298.062	75.12
298.292	90.12
298.523	80.12
298.753	89.12
298.984	92.12
299.214	82.12
299.445	89.12
299.675	73.12
299.905	80.12
300.136	82.12
300.366	76.12
300.597	77.12
300.827	82.12
301.057	75.12
301.288	74.12
301.518	79.12
301.748	89.12
301.979	87.12
302.209	89.12
302.439	77.12
302.669	77.12
302.9	78.12
303.13	78.12
303.36	77.12
303.59	85.12
303.82	95.12
304.051	79.12
304.281	91.12
304.511	91.12
304.741	91.12
304.971	66.12
305.201	79.12
305.431	71.12
305.661	77.12
305.891	82.12
306.121	101.12
306.352	90.12
306.582	67.12
306.812	81.12
307.042	86.12
307.272	91.12
307.502	64.12
307.731	81.12
307.961	82.12
308.191	67.12
308.421	77.12
308.651	79.12
308.881	89.12
309.111	77.12
309.341	73.12
309.571	96.12
309.8	89.12
310.03	89.12
310.26	78.12
310.49	72.12
310.72	82.12
310.949	56.12
311.179	82.12
311.409	75.12
311.639	82.12
311.868	81.12
312.098	78.12
312.328	87.12
312.557	103.12
312.787	73.12
313.017	87.12
313.246	72.12
313.476	92.12
313.706	79.12
313.935	84.12
314.165	82.12
314.394	80.12
314.624	85.12
314.853	89.12
315.083	77.12
315.312	90.12
315.542	77.12
315.771	74.12
316.001	85.12
316.23	74.12
316.46	90.12
316.689	74.12
316.919	87.12
317.148	76.12
317.377	91.12
317.607	97.12
317.836	81.12
318.065	82.12
318.295	85.12
318.524	89.12
318.753	79.12
318.983	81.12
319.212	86.12
319.441	91.12
319.67	80.12
319.9	71.12
320.129	78.12
320.358	79.12
320.587	82.12
320.816	63.12
321.046	83.12
321.275	79.12
321.504	73.12
321.733	73.12
321.962	85.12
322.191	86.12
322.42	85.12
322.649	79.12
322.878	88.12
323.108	88.12
323.337	82.12
323.566	75.12
323.795	90.12
324.024	86.12
324.253	80.12
324.482	86.12
324.71	67.12
324.939	88.12
325.168	80.12
325.397	69.12
325.626	89.12
325.855	72.12
326.084	70.12
326.313	77.12
326.542	85.12
326.77	79.12
326.999	87.12
327.228	94.12
327.457	77.12
327.686	86.12
327.914	79.12
328.143	63.12
328.372	73.12
328.6	64.12
328.829	86.12
329.058	89.12
329.287	73.12
329.515	66.12
329.744	85.12
329.972	81.12
330.201	78.12
330.43	75.12
330.658	94.12
330.887	80.12
331.115	83.12
331.344	72.12
331.572	92.12
331.801	73.12
332.03	76.12
332.258	80.12
332.486	66.12
332.715	72.12
332.943	69.12
333.172	62.12
333.4	80.12
333.629	85.12
333.857	87.12
334.085	82.12
334.314	68.12
334.542	64.12
334.771	81.12
334.999	82.12
335.227	97.12
335.455	77.12
335.684	75.12
335.912	75.12
336.14	75.12
336.369	76.12
336.597	81.12
336.825	77.12
337.053	78.12
337.281	88.12
337.51	74.12
337.738	79.12
337.966	94.12
338.194	75.12
338.422	71.12
338.65	79.12
338.878	85.12
339.106	77.12
339.334	81.12
339.562	70.12
339.79	85.12
340.018	71.12
340.246	80.12
340.474	77.12
340.702	78.12
340.93	81.12
341.158	84.12
341.386	79.12
341.614	79.12
341.842	88.12
342.07	69.12
342.298	89.12
342.526	74.12
342.754	75.12
342.981	82.12
343.209	79.12
343.437	91.12
343.665	93.12
343.893	90.12
344.12	95.12
344.348	77.12
344.576	77.12
344.804	82.12
345.031	73.12
345.259	71.12
345.487	101.12
345.714	80.12
345.942	77.12
346.17	83.12
346.397	78.12
346.625	90.12
346.853	89.12
347.08	79.12
347.308	97.12
347.535	72.12
347.763	85.12
347.99	88.12
348.218	91.12
348.445	87.12
348.673	83.12
348.9	78.12
349.128	75.12
349.355	67.12
349.583	79.12
349.81	87.12
350.037	87.12
350.265	65.12
350.492	70.12
350.72	82.12
350.947	87.12
351.174	76.12
351.402	73.12
351.629	81.12
351.856	65.12
352.083	75.12
352.311	87.12
352.538	74.12
352.765	86.12
352.992	83.12
353.22	82.12
353.447	83.12
353.674	72.12
353.901	74.12
354.128	71.12
354.355	63.12
354.583	81.12
354.81	83.12
355.037	82.12
355.264	73.12
355.491	66.12
355.718	88.12
355.945	98.12
356.172	88.12
356.399	74.12
356.626	65.12
356.853	81.12
357.08	88.12
357.307	71.12
357.534	71.12
357.761	70.12
357.988	73.12
358.215	83.12
358.441	78.12
358.668	79.12
358.895	73.12
359.122	69.12
359.349	78.12
359.576	90.12
359.802	91.12
360.029	79.12
360.256	81.12
360.483	79.12
360.709	85.12
360.936	76.12
361.163	61.12
361.39	79.12
361.616	79.12
361.843	80.12
362.07	85.12
362.296	85.12
362.523	67.12
362.749	77.12
362.976	84.12
363.203	93.12
363.429	67.12
363.656	59.12
363.882	81.12
364.109	83.12
364.335	90.12
364.562	76.12
364.788	91.12
365.015	79.12
365.241	80.12
365.468	81.12
365.694	83.12
365.92	95.12
366.147	81.12
366.373	65.12
366.599	81.12
366.826	97.12
367.052	71.12
367.278	85.12
367.505	80.12
367.731	78.12
367.957	82.12
368.184	72.12
368.41	82.12
368.636	65.12
368.862	73.12
369.089	63.12
369.315	75.12
369.541	69.12
369.767	81.12
369.993	99.12
370.219	85.12
370.445	68.12
370.672	73.12
370.898	71.12
371.124	89.12
371.35	59.12
371.576	85.12
371.802	86.12
372.028	73.12
372.254	87.12
372.48	71.12
372.706	68.12
372.932	87.12
373.158	66.12
373.384	76.12
373.61	71.12
373.835	79.12
374.061	72.12
374.287	75.12
374.513	88.12
374.739	80.12
374.965	81.12
375.191	83.12
375.416	93.12
375.642	73.12
375.868	73.12
376.094	67.12
376.319	72.12
376.545	81.12
376.771	85.12
376.997	93.12
377.222	85.12
377.448	79.12
377.674	74.12
377.899	91.12
378.125	89.12
378.35	78.12
378.576	82.12
378.802	81.12
379.027	79.12
379.253	73.12
379.478	96.12
379.704	73.12
379.929	80.12
380.155	80.12
380.38	69.12
380.606	73.12
380.831	78.12
381.057	90.12
381.282	84.12
381.507	92.12
381.733	78.12
381.958	83.12
382.184	68.12
382.409	76.12
382.634	62.12
382.86	84.12
383.085	54.12
383.31	74.12
383.535	95.12
383.761	66.12
383.986	86.12
384.211	92.12
384.436	82.12
384.662	79.12
384.887	86.12
385.112	69.12
385.337	71.12
385.562	59.12
385.787	81.12
386.013	77.12
386.238	87.12
386.463	83.12
386.688	82.12
386.913	88.12
387.138	65.12
387.363	86.12
387.588	89.12
387.813	74.12
388.038	82.12
388.263	84.12
388.488	90.12
388.713	81.12
388.938	75.12
389.163	80.12
389.387	70.12
389.612	75.12
389.837	71.12
390.062	91.12
390.287	84.12
390.512	75.12
390.736	87.12
390.961	73.12
391.186	77.12
391.411	82.12
391.636	91.12
391.86	82.12
392.085	71.12
392.31	90.12
392.534	85.12
392.759	74.12
392.984	75.12
393.208	81.12
393.433	75.12
393.658	76.12
393.882	70.12
394.107	79.12
394.331	80.12
394.556	80.12
394.78	85.12
395.005	89.12
395.229	95.12
395.454	88.12
395.678	82.12
395.903	73.12
396.127	73.12
396.352	76.12
396.576	87.12
396.801	80.12
397.025	61.12
397.249	81.12
397.474	75.12
397.698	76.12
397.922	75.12
398.147	73.12
398.371	85.12
398.595	86.12
398.82	88.12
399.044	74.12
399.268	64.12
399.492	73.12
399.717	86.12
399.941	93.12
400.165	77.12
400.389	66.12
400.613	79.12
400.837	89.12
401.062	95.12
401.286	78.12
401.51	64.12
401.734	87.12
401.958	73.12
402.182	72.12
402.406	91.12
402.63	88.12
402.854	74.12
403.078	89.12
403.302	73.12
403.526	73.12
403.75	73.12
403.974	93.12
404.198	80.12
404.422	80.12
404.645	77.12
404.869	71.12
405.093	74.12
405.317	75.12
405.541	78.12
405.765	78.12
405.988	71.12
406.212	83.12
406.436	74.12
406.66	83.12
406.883	64.12
407.107	68.12
407.331	83.12
407.555	83.12
407.778	75.12
408.002	70.12
408.226	73.12
408.449	78.12
408.673	82.12
408.896	78.12
409.12	89.12
409.344	64.12
409.567	74.12
409.791	78.12
410.014	71.12
410.238	82.12
410.461	82.12
410.685	65.12
410.908	73.12
411.132	83.12
411.355	91.12
411.578	74.12
411.802	74.12
412.025	76.12
412.249	61.12
412.472	66.12
412.695	79.12
412.919	80.12
413.142	81.12
413.365	73.12
413.589	81.12
413.812	87.12
414.035	74.12
414.258	61.12
414.482	79.12
414.705	87.12
414.928	82.12
415.151	79.12
415.374	86.12
415.597	73.12
415.821	73.12
416.044	79.12
416.267	88.12
416.49	77.12
416.713	77.12
416.936	79.12
417.159	71.12
417.382	86.12
417.605	84.12
417.828	85.12
418.051	76.12
418.274	79.12
418.497	56.12
418.72	75.12
418.943	75.12
419.166	87.12
419.389	67.12
419.611	73.12
419.834	71.12
420.057	81.12
420.28	78.12
420.503	73.12
420.726	79.12
420.948	86.12
421.171	101.12
421.394	74.12
421.617	54.12
421.839	73.12
422.062	76.12
422.285	64.12
422.507	63.12
422.73	82.12
422.953	73.12
423.175	79.12
423.398	71.12
423.621	54.12
423.843	75.12
424.066	81.12
424.288	85.12
424.511	83.12
424.733	79.12
424.956	83.12
425.178	91.12
425.401	80.12
425.623	87.12
425.846	80.12
426.068	69.12
426.291	81.12
426.513	81.12
426.735	83.12
426.958	79.12
427.18	81.12
427.402	82.12
427.625	101.12
427.847	58.12
428.069	78.12
428.292	79.12
428.514	78.12
428.736	65.12
428.958	78.12
429.181	79.12
429.403	79.12
429.625	62.12
429.847	80.12
430.069	84.12
430.292	88.12
430.514	87.12
430.736	83.12
430.958	74.12
431.18	67.12
431.402	92.12
431.624	78.12
431.846	75.12
432.068	68.12
432.29	77.12
432.512	102.12
432.734	83.12
432.956	71.12
433.178	78.12
433.4	76.12
433.622	82.12
433.844	92.12
434.066	69.12
434.287	78.12
434.509	88.12
434.731	80.12
434.953	82.12
435.175	74.12
435.397	89.12
435.618	85.12
435.84	81.12
436.062	81.12
436.284	73.12
436.505	81.12
436.727	95.12
436.949	83.12
437.17	69.12
437.392	85.12
437.614	72.12
437.835	75.12
438.057	77.12
438.278	90.12
438.5	75.12
438.721	73.12
438.943	78.12
439.165	87.12
439.386	75.12
439.608	89.12
439.829	73.12
440.05	67.12
440.272	65.12
440.493	69.12
440.715	79.12
440.936	100.12
441.158	75.12
441.379	86.12
441.6	73.12
441.822	77.12
442.043	81.12
442.264	68.12
442.486	87.12
442.707	89.12
442.928	81.12
443.149	87.12
443.371	85.12
443.592	86.12
443.813	81.12
444.034	77.12
444.255	92.12
444.476	78.12
444.698	85.12
444.919	83.12
445.14	133.12
445.361	98.12
445.582	64.12
445.803	77.12
446.024	58.12
446.245	78.12
446.466	77.12
446.687	85.12
446.908	66.12
447.129	77.12
447.35	80.12
447.571	85.12
447.792	82.12
448.013	80.12
448.234	77.12
448.455	89.12
448.675	69.12
448.896	67.12
449.117	71.12
449.338	80.12
449.559	82.12
449.779	74.12
450	81.12
450.221	90.12
450.442	57.12
450.662	77.12
450.883	71.12
451.104	82.12
451.324	88.12
451.545	81.12
451.766	86.12
451.986	86.12
452.207	80.12
452.428	90.12
452.648	73.12
452.869	88.12
453.089	79.12
453.31	79.12
453.53	78.12
453.751	67.12
453.971	85.12
454.192	68.12
454.412	81.12
454.633	71.12
454.853	76.12
455.073	77.12
455.294	72.12
455.514	67.12
455.734	81.12
455.955	77.12
456.175	70.12
456.395	80.12
456.616	73.12
456.836	78.12
457.056	79.12
457.276	75.12
457.497	70.12
457.717	73.12
457.937	75.12
458.157	88.12
458.377	84.12
458.598	59.12
458.818	82.12
459.038	68.12
459.258	71.12
459.478	79.12
459.698	86.12
459.918	80.12
460.138	78.12
460.358	81.12
460.578	84.12
460.798	94.12
461.018	74.12
461.238	71.12
461.458	73.12
461.678	79.12
461.898	77.12
462.118	81.12
462.338	80.12
462.558	73.12
462.777	80.12
462.997	89.12
463.217	88.12
463.437	75.12
463.657	74.12
463.876	77.12
464.096	83.12
464.316	70.12
464.536	83.12
464.755	78.12
464.975	80.12
465.195	74.12
465.414	79.12
465.634	73.12
465.854	74.12
466.073	82.12
466.293	77.12
466.512	89.12
466.732	89.12
466.951	78.12
467.171	75.12
467.391	79.12
467.61	85.12
467.829	82.12
468.049	90.12
468.268	74.12
468.488	66.12
468.707	78.12
468.927	82.12
469.146	71.12
469.365	75.12
469.585	78.12
469.804	82.12
470.023	70.12
470.243	88.12
470.462	88.12
470.681	92.12
470.901	87.12
471.12	91.12
471.339	75.12
471.558	98.12
471.777	89.12
471.997	82.12
472.216	75.12
472.435	72.12
472.654	93.12
472.873	89.12
473.092	85.12
473.311	63.12
473.53	77.12
473.749	65.12
473.968	79.12
474.187	83.12
474.406	68.12
474.625	82.12
474.844	70.12
475.063	68.12
475.282	75.12
475.501	70.12
475.72	67.12
475.939	79.12
476.158	81.12
476.377	95.12
476.596	98.12
476.814	89.12
477.033	80.12
477.252	69.12
477.471	81.12
477.69	79.12
477.908	81.12
478.127	88.12
478.346	65.12
478.564	91.12
478.783	77.12
479.002	77.12
479.22	64.12
479.439	83.12
479.658	75.12
479.876	63.12
480.095	85.12
480.313	79.12
480.532	95.12
480.751	87.12
480.969	85.12
481.188	77.12
481.406	87.12
481.624	71.12
481.843	78.12
482.061	72.12
482.28	83.12
482.498	74.12
482.717	72.12
482.935	81.12
483.153	74.12
483.372	78.12
483.59	87.12
483.808	75.12
484.027	88.12
484.245	91.12
484.463	72.12
484.681	74.12
484.9	82.12
485.118	80.12
485.336	73.12
485.554	63.12
485.772	81.12
485.99	85.12
486.209	70.12
486.427	81.12
486.645	92.12
486.863	90.12
487.081	80.12
487.299	72.12
487.517	85.12
487.735	85.12
487.953	82.12
488.171	82.12
488.389	83.12
488.607	72.12
488.825	83.12
489.043	63.12
489.261	59.12
489.479	77.12
489.696	87.12
489.914	68.12
490.132	78.12
490.35	72.12
490.568	82.12
490.786	75.12
491.003	79.12
491.221	75.12
491.439	84.12
491.657	85.12
491.874	86.12
492.092	69.12
492.31	79.12
492.527	85.12
492.745	73.12
492.963	65.12
493.18	79.12
493.398	85.12
493.615	87.12
493.833	85.12
494.05	81.12
494.268	72.12
494.485	89.12
494.703	73.12
494.92	62.12
495.138	80.12
495.355	75.12
495.573	83.12
495.79	74.12
496.008	70.12
496.225	83.12
496.442	73.12
496.66	68.12
496.877	75.12
497.094	84.12
497.312	76.12
497.529	93.12
497.746	71.12
497.963	78.12
498.181	85.12
498.398	84.12
498.615	79.12
498.832	83.12
499.049	78.12
499.267	79.12
499.484	67.12
499.701	76.12
499.918	90.12
500.135	93.12
500.352	74.12
500.569	64.12
500.786	73.12
501.003	84.12
501.22	72.12
501.437	79.12
501.654	75.12
501.871	95.12
502.088	82.12
502.305	82.12
502.522	79.12
502.739	72.12
502.956	86.12
503.172	72.12
503.389	64.12
503.606	83.12
503.823	76.12
504.04	76.12
504.256	66.12
504.473	69.12
504.69	64.12
504.907	75.12
505.123	72.12
505.34	76.12
505.557	69.12
505.773	69.12
505.99	66.12
506.207	96.12
506.423	75.12
506.64	78.12
506.856	81.12
507.073	85.12
507.289	73.12
507.506	93.12
507.722	77.12
507.939	59.12
508.155	78.12
508.372	92.12
508.588	77.12
508.805	79.12
509.021	74.12
509.238	84.12
509.454	83.12
509.67	92.12
509.887	77.12
510.103	73.12
510.319	89.12
510.536	89.12
510.752	78.12
510.968	85.12
511.184	73.12
511.401	89.12
511.617	69.12
511.833	75.12
512.049	78.12
512.265	60.12
512.481	65.12
512.698	80.12
512.914	73.12
513.13	89.12
513.346	85.12
513.562	73.12
513.778	67.12
513.994	81.12
514.21	85.12
514.426	66.12
514.642	77.12
514.858	83.12
515.074	83.12
515.29	79.12
515.506	80.12
515.721	97.12
515.937	78.12
516.153	72.12
516.369	73.12
516.585	83.12
516.801	69.12
517.016	73.12
517.232	73.12
517.448	80.12
517.664	79.12
517.879	79.12
518.095	89.12
518.311	81.12
518.527	71.12
518.742	91.12
518.958	74.12
519.173	77.12
519.389	92.12
519.605	77.12
519.82	80.12
520.036	77.12
520.251	70.12
