Data from Background_3_HRD10591_00007.txt Node
Date: Wed Nov 05 14:49:23 EST 2025
User: Yrep
Spectrometer: HR+D1059
Trigger mode: 1
Integration Time (sec): 1.000000E-1
Scans to average: 1
Electric dark correction enabled: true
Nonlinearity correction enabled: false
Boxcar width: 0
XAxis mode: Wavelengths
Number of Pixels in Spectrum: 2048
>>>>>Begin Spectral Data<<<<<
223.165	-27.31
223.4	-27.31
223.635	-27.31
223.869	-26.31
224.104	-22.31
224.338	-18.31
224.573	-17.31
224.808	-4.31
225.042	-6.31
225.277	-0.31
225.511	1.69
225.746	8.69
225.98	1.69
226.215	3.69
226.449	21.69
226.683	22.69
226.918	22.69
227.152	39.69
227.387	25.69
227.621	41.69
227.856	30.69
228.09	53.69
228.324	41.69
228.559	47.69
228.793	58.69
229.027	52.69
229.262	62.69
229.496	58.69
229.73	65.69
229.964	69.69
230.199	61.69
230.433	69.69
230.667	81.69
230.901	81.69
231.136	70.69
231.37	75.69
231.604	71.69
231.838	80.69
232.072	71.69
232.306	77.69
232.541	77.69
232.775	86.69
233.009	71.69
233.243	73.69
233.477	82.69
233.711	66.69
233.945	80.69
234.179	89.69
234.413	80.69
234.647	76.69
234.881	77.69
235.115	82.69
235.349	70.69
235.583	84.69
235.817	69.69
236.051	73.69
236.285	97.69
236.519	84.69
236.753	79.69
236.987	75.69
237.221	78.69
237.455	79.69
237.689	74.69
237.922	62.69
238.156	90.69
238.39	85.69
238.624	73.69
238.858	64.69
239.091	73.69
239.325	65.69
239.559	83.69
239.793	79.69
240.027	86.69
240.26	73.69
240.494	81.69
240.728	65.69
240.961	70.69
241.195	79.69
241.429	65.69
241.662	67.69
241.896	80.69
242.13	88.69
242.363	78.69
242.597	83.69
242.83	67.69
243.064	83.69
243.298	66.69
243.531	72.69
243.765	70.69
243.998	62.69
244.232	70.69
244.465	68.69
244.699	77.69
244.932	80.69
245.166	80.69
245.399	86.69
245.633	70.69
245.866	85.69
246.099	75.69
246.333	81.69
246.566	80.69
246.8	81.69
247.033	76.69
247.266	92.69
247.5	68.69
247.733	86.69
247.966	67.69
248.2	78.69
248.433	85.69
248.666	69.69
248.899	80.69
249.133	74.69
249.366	77.69
249.599	86.69
249.832	67.69
250.066	72.69
250.299	76.69
250.532	94.69
250.765	60.69
250.998	80.69
251.231	70.69
251.465	64.69
251.698	87.69
251.931	71.69
252.164	69.69
252.397	76.69
252.63	84.69
252.863	74.69
253.096	86.69
253.329	79.69
253.562	78.69
253.795	77.69
254.028	82.69
254.261	82.69
254.494	82.69
254.727	77.69
254.96	87.69
255.193	80.69
255.426	81.69
255.659	77.69
255.892	85.69
256.124	82.69
256.357	73.69
256.59	78.69
256.823	74.69
257.056	66.69
257.289	74.69
257.521	78.69
257.754	75.69
257.987	74.69
258.22	66.69
258.452	80.69
258.685	81.69
258.918	75.69
259.151	77.69
259.383	83.69
259.616	62.69
259.849	73.69
260.081	82.69
260.314	73.69
260.547	89.69
260.779	86.69
261.012	89.69
261.244	82.69
261.477	81.69
261.71	71.69
261.942	75.69
262.175	93.69
262.407	68.69
262.64	79.69
262.872	70.69
263.105	65.69
263.337	82.69
263.57	78.69
263.802	65.69
264.035	67.69
264.267	68.69
264.499	75.69
264.732	97.69
264.964	87.69
265.197	82.69
265.429	62.69
265.661	67.69
265.894	84.69
266.126	93.69
266.358	66.69
266.591	85.69
266.823	69.69
267.055	85.69
267.287	80.69
267.52	87.69
267.752	82.69
267.984	67.69
268.216	71.69
268.448	86.69
268.681	88.69
268.913	78.69
269.145	83.69
269.377	73.69
269.609	61.69
269.841	83.69
270.073	78.69
270.306	81.69
270.538	74.69
270.77	77.69
271.002	72.69
271.234	71.69
271.466	72.69
271.698	82.69
271.93	79.69
272.162	91.69
272.394	75.69
272.626	72.69
272.858	84.69
273.09	86.69
273.322	80.69
273.553	73.69
273.785	74.69
274.017	87.69
274.249	95.69
274.481	70.69
274.713	73.69
274.945	94.69
275.176	82.69
275.408	83.69
275.64	82.69
275.872	79.69
276.104	71.69
276.335	78.69
276.567	82.69
276.799	81.69
277.031	74.69
277.262	83.69
277.494	77.69
277.726	85.69
277.957	86.69
278.189	79.69
278.421	72.69
278.652	63.69
278.884	74.69
279.115	81.69
279.347	97.69
279.579	84.69
279.81	59.69
280.042	93.69
280.273	73.69
280.505	74.69
280.736	80.69
280.968	72.69
281.199	85.69
281.431	79.69
281.662	89.69
281.894	75.69
282.125	85.69
282.356	82.69
282.588	79.69
282.819	81.69
283.051	81.69
283.282	66.69
283.513	96.69
283.745	93.69
283.976	79.69
284.207	90.69
284.439	80.69
284.67	83.69
284.901	81.69
285.132	96.69
285.364	81.69
285.595	85.69
285.826	83.69
286.057	91.69
286.288	81.69
286.52	90.69
286.751	77.69
286.982	77.69
287.213	77.69
287.444	93.69
287.675	79.69
287.906	85.69
288.138	73.69
288.369	82.69
288.6	102.69
288.831	95.69
289.062	74.69
289.293	59.69
289.524	77.69
289.755	78.69
289.986	79.69
290.217	85.69
290.448	93.69
290.679	73.69
290.91	96.69
291.141	82.69
291.371	77.69
291.602	81.69
291.833	72.69
292.064	83.69
292.295	80.69
292.526	80.69
292.757	97.69
292.987	81.69
293.218	77.69
293.449	73.69
293.68	85.69
293.91	79.69
294.141	103.69
294.372	77.69
294.603	79.69
294.833	92.69
295.064	85.69
295.295	86.69
295.525	78.69
295.756	72.69
295.987	82.69
296.217	83.69
296.448	77.69
296.679	87.69
296.909	91.69
297.14	91.69
297.37	73.69
297.601	76.69
297.831	83.69
298.062	93.69
298.292	80.69
298.523	88.69
298.753	85.69
298.984	69.69
299.214	79.69
299.445	91.69
299.675	83.69
299.905	73.69
300.136	80.69
300.366	67.69
300.597	91.69
300.827	89.69
301.057	80.69
301.288	78.69
301.518	83.69
301.748	81.69
301.979	94.69
302.209	71.69
302.439	88.69
302.669	82.69
302.9	92.69
303.13	86.69
303.36	88.69
303.59	76.69
303.82	87.69
304.051	87.69
304.281	82.69
304.511	78.69
304.741	74.69
304.971	64.69
305.201	80.69
305.431	85.69
305.661	86.69
305.891	82.69
306.121	79.69
306.352	77.69
306.582	91.69
306.812	70.69
307.042	69.69
307.272	98.69
307.502	78.69
307.731	75.69
307.961	70.69
308.191	85.69
308.421	85.69
308.651	86.69
308.881	78.69
309.111	80.69
309.341	79.69
309.571	81.69
309.8	71.69
310.03	79.69
310.26	81.69
310.49	69.69
310.72	98.69
310.949	88.69
311.179	83.69
311.409	73.69
311.639	85.69
311.868	95.69
312.098	81.69
312.328	92.69
312.557	77.69
312.787	79.69
313.017	78.69
313.246	79.69
313.476	89.69
313.706	90.69
313.935	78.69
314.165	86.69
314.394	81.69
314.624	86.69
314.853	80.69
315.083	77.69
315.312	93.69
315.542	86.69
315.771	78.69
316.001	80.69
316.23	66.69
316.46	80.69
316.689	79.69
316.919	79.69
317.148	88.69
317.377	77.69
317.607	86.69
317.836	83.69
318.065	85.69
318.295	81.69
318.524	80.69
318.753	73.69
318.983	88.69
319.212	79.69
319.441	65.69
319.67	89.69
319.9	92.69
320.129	91.69
320.358	94.69
320.587	87.69
320.816	90.69
321.046	89.69
321.275	77.69
321.504	79.69
321.733	87.69
321.962	91.69
322.191	81.69
322.42	83.69
322.649	84.69
322.878	93.69
323.108	82.69
323.337	87.69
323.566	72.69
323.795	64.69
324.024	84.69
324.253	88.69
324.482	79.69
324.71	72.69
324.939	67.69
325.168	77.69
325.397	83.69
325.626	94.69
325.855	78.69
326.084	71.69
326.313	85.69
326.542	93.69
326.77	87.69
326.999	81.69
327.228	83.69
327.457	87.69
327.686	74.69
327.914	65.69
328.143	85.69
328.372	66.69
328.6	83.69
328.829	65.69
329.058	91.69
329.287	81.69
329.515	77.69
329.744	89.69
329.972	75.69
330.201	79.69
330.43	86.69
330.658	83.69
330.887	71.69
331.115	61.69
331.344	95.69
331.572	88.69
331.801	74.69
332.03	79.69
332.258	75.69
332.486	73.69
332.715	75.69
332.943	78.69
333.172	79.69
333.4	71.69
333.629	86.69
333.857	92.69
334.085	89.69
334.314	90.69
334.542	76.69
334.771	77.69
334.999	82.69
335.227	88.69
335.455	88.69
335.684	83.69
335.912	79.69
336.14	70.69
336.369	82.69
336.597	93.69
336.825	87.69
337.053	85.69
337.281	82.69
337.51	84.69
337.738	76.69
337.966	94.69
338.194	73.69
338.422	83.69
338.65	80.69
338.878	90.69
339.106	77.69
339.334	82.69
339.562	90.69
339.79	85.69
340.018	79.69
340.246	87.69
340.474	80.69
340.702	97.69
340.93	89.69
341.158	84.69
341.386	72.69
341.614	84.69
341.842	76.69
342.07	85.69
342.298	103.69
342.526	92.69
342.754	95.69
342.981	90.69
343.209	86.69
343.437	90.69
343.665	92.69
343.893	78.69
344.12	68.69
344.348	81.69
344.576	77.69
344.804	75.69
345.031	67.69
345.259	74.69
345.487	86.69
345.714	77.69
345.942	69.69
346.17	93.69
346.397	90.69
346.625	81.69
346.853	86.69
347.08	79.69
347.308	71.69
347.535	84.69
347.763	78.69
347.99	75.69
348.218	82.69
348.445	79.69
348.673	82.69
348.9	66.69
349.128	86.69
349.355	74.69
349.583	74.69
349.81	72.69
350.037	79.69
350.265	61.69
350.492	78.69
350.72	79.69
350.947	80.69
351.174	65.69
351.402	76.69
351.629	89.69
351.856	91.69
352.083	86.69
352.311	71.69
352.538	82.69
352.765	75.69
352.992	77.69
353.22	77.69
353.447	76.69
353.674	83.69
353.901	86.69
354.128	74.69
354.355	78.69
354.583	80.69
354.81	75.69
355.037	76.69
355.264	77.69
355.491	76.69
355.718	85.69
355.945	84.69
356.172	79.69
356.399	81.69
356.626	74.69
356.853	86.69
357.08	81.69
357.307	82.69
357.534	77.69
357.761	81.69
357.988	84.69
358.215	69.69
358.441	67.69
358.668	80.69
358.895	77.69
359.122	64.69
359.349	82.69
359.576	71.69
359.802	68.69
360.029	78.69
360.256	66.69
360.483	89.69
360.709	78.69
360.936	71.69
361.163	76.69
361.39	86.69
361.616	83.69
361.843	90.69
362.07	85.69
362.296	85.69
362.523	87.69
362.749	80.69
362.976	69.69
363.203	92.69
363.429	69.69
363.656	77.69
363.882	74.69
364.109	87.69
364.335	77.69
364.562	81.69
364.788	77.69
365.015	80.69
365.241	74.69
365.468	93.69
365.694	85.69
365.92	73.69
366.147	77.69
366.373	86.69
366.599	75.69
366.826	84.69
367.052	81.69
367.278	90.69
367.505	64.69
367.731	77.69
367.957	76.69
368.184	60.69
368.41	69.69
368.636	69.69
368.862	78.69
369.089	78.69
369.315	73.69
369.541	77.69
369.767	72.69
369.993	76.69
370.219	79.69
370.445	87.69
370.672	79.69
370.898	83.69
371.124	77.69
371.35	90.69
371.576	78.69
371.802	63.69
372.028	78.69
372.254	76.69
372.48	86.69
372.706	68.69
372.932	77.69
373.158	76.69
373.384	76.69
373.61	76.69
373.835	81.69
374.061	67.69
374.287	73.69
374.513	68.69
374.739	81.69
374.965	72.69
375.191	82.69
375.416	69.69
375.642	89.69
375.868	78.69
376.094	77.69
376.319	85.69
376.545	90.69
376.771	83.69
376.997	78.69
377.222	74.69
377.448	79.69
377.674	85.69
377.899	79.69
378.125	80.69
378.35	69.69
378.576	77.69
378.802	82.69
379.027	74.69
379.253	78.69
379.478	83.69
379.704	74.69
379.929	71.69
380.155	77.69
380.38	80.69
380.606	77.69
380.831	68.69
381.057	83.69
381.282	93.69
381.507	90.69
381.733	77.69
381.958	82.69
382.184	81.69
382.409	71.69
382.634	83.69
382.86	79.69
383.085	78.69
383.31	73.69
383.535	75.69
383.761	92.69
383.986	79.69
384.211	78.69
384.436	57.69
384.662	83.69
384.887	75.69
385.112	73.69
385.337	74.69
385.562	79.69
385.787	67.69
386.013	87.69
386.238	81.69
386.463	80.69
386.688	93.69
386.913	76.69
387.138	66.69
387.363	67.69
387.588	88.69
387.813	83.69
388.038	84.69
388.263	79.69
388.488	69.69
388.713	80.69
388.938	89.69
389.163	71.69
389.387	66.69
389.612	81.69
389.837	64.69
390.062	76.69
390.287	77.69
390.512	80.69
390.736	78.69
390.961	82.69
391.186	72.69
391.411	70.69
391.636	92.69
391.86	66.69
392.085	73.69
392.31	76.69
392.534	75.69
392.759	67.69
392.984	64.69
393.208	93.69
393.433	67.69
393.658	75.69
393.882	77.69
394.107	75.69
394.331	80.69
394.556	62.69
394.78	75.69
395.005	91.69
395.229	72.69
395.454	88.69
395.678	67.69
395.903	73.69
396.127	87.69
396.352	75.69
396.576	90.69
396.801	85.69
397.025	78.69
397.249	68.69
397.474	79.69
397.698	73.69
397.922	82.69
398.147	79.69
398.371	81.69
398.595	89.69
398.82	74.69
399.044	82.69
399.268	91.69
399.492	73.69
399.717	77.69
399.941	80.69
400.165	81.69
400.389	76.69
400.613	73.69
400.837	66.69
401.062	76.69
401.286	72.69
401.51	64.69
401.734	65.69
401.958	70.69
402.182	67.69
402.406	77.69
402.63	74.69
402.854	84.69
403.078	86.69
403.302	91.69
403.526	68.69
403.75	71.69
403.974	66.69
404.198	89.69
404.422	83.69
404.645	74.69
404.869	79.69
405.093	75.69
405.317	79.69
405.541	79.69
405.765	66.69
405.988	73.69
406.212	81.69
406.436	66.69
406.66	77.69
406.883	86.69
407.107	85.69
407.331	80.69
407.555	67.69
407.778	73.69
408.002	73.69
408.226	91.69
408.449	71.69
408.673	81.69
408.896	66.69
409.12	67.69
409.344	68.69
409.567	83.69
409.791	72.69
410.014	85.69
410.238	73.69
410.461	79.69
410.685	92.69
410.908	74.69
411.132	69.69
411.355	85.69
411.578	74.69
411.802	79.69
412.025	79.69
412.249	62.69
412.472	74.69
412.695	70.69
412.919	67.69
413.142	86.69
413.365	79.69
413.589	72.69
413.812	65.69
414.035	91.69
414.258	67.69
414.482	66.69
414.705	80.69
414.928	74.69
415.151	73.69
415.374	73.69
415.597	78.69
415.821	77.69
416.044	73.69
416.267	88.69
416.49	75.69
416.713	83.69
416.936	80.69
417.159	80.69
417.382	64.69
417.605	69.69
417.828	75.69
418.051	80.69
418.274	64.69
418.497	74.69
418.72	80.69
418.943	68.69
419.166	73.69
419.389	88.69
419.611	75.69
419.834	61.69
420.057	77.69
420.28	89.69
420.503	71.69
420.726	76.69
420.948	77.69
421.171	83.69
421.394	77.69
421.617	74.69
421.839	69.69
422.062	69.69
422.285	63.69
422.507	64.69
422.73	86.69
422.953	96.69
423.175	80.69
423.398	85.69
423.621	69.69
423.843	86.69
424.066	80.69
424.288	88.69
424.511	76.69
424.733	82.69
424.956	76.69
425.178	84.69
425.401	79.69
425.623	71.69
425.846	71.69
426.068	84.69
426.291	63.69
426.513	77.69
426.735	85.69
426.958	82.69
427.18	74.69
427.402	68.69
427.625	78.69
427.847	77.69
428.069	71.69
428.292	78.69
428.514	76.69
428.736	80.69
428.958	78.69
429.181	75.69
429.403	83.69
429.625	76.69
429.847	76.69
430.069	76.69
430.292	72.69
430.514	66.69
430.736	78.69
430.958	64.69
431.18	74.69
431.402	84.69
431.624	86.69
431.846	81.69
432.068	95.69
432.29	63.69
432.512	75.69
432.734	65.69
432.956	71.69
433.178	83.69
433.4	77.69
433.622	77.69
433.844	73.69
434.066	67.69
434.287	66.69
434.509	64.69
434.731	79.69
434.953	80.69
435.175	85.69
435.397	73.69
435.618	65.69
435.84	75.69
436.062	79.69
436.284	87.69
436.505	65.69
436.727	65.69
436.949	70.69
437.17	61.69
437.392	85.69
437.614	85.69
437.835	70.69
438.057	86.69
438.278	63.69
438.5	91.69
438.721	77.69
438.943	86.69
439.165	77.69
439.386	73.69
439.608	70.69
439.829	69.69
440.05	73.69
440.272	78.69
440.493	73.69
440.715	77.69
440.936	85.69
441.158	87.69
441.379	80.69
441.6	74.69
441.822	74.69
442.043	86.69
442.264	81.69
442.486	71.69
442.707	70.69
442.928	73.69
443.149	78.69
443.371	81.69
443.592	82.69
443.813	66.69
444.034	83.69
444.255	64.69
444.476	79.69
444.698	75.69
444.919	82.69
445.14	143.69
445.361	106.69
445.582	88.69
445.803	84.69
446.024	87.69
446.245	71.69
446.466	80.69
446.687	73.69
446.908	77.69
447.129	82.69
447.35	80.69
447.571	81.69
447.792	68.69
448.013	81.69
448.234	69.69
448.455	80.69
448.675	82.69
448.896	75.69
449.117	78.69
449.338	73.69
449.559	82.69
449.779	74.69
450	76.69
450.221	73.69
450.442	71.69
450.662	74.69
450.883	82.69
451.104	79.69
451.324	77.69
451.545	65.69
451.766	67.69
451.986	64.69
452.207	73.69
452.428	87.69
452.648	69.69
452.869	82.69
453.089	67.69
453.31	81.69
453.53	72.69
453.751	81.69
453.971	78.69
454.192	62.69
454.412	71.69
454.633	75.69
454.853	77.69
455.073	83.69
455.294	85.69
455.514	67.69
455.734	78.69
455.955	88.69
456.175	76.69
456.395	76.69
456.616	81.69
456.836	67.69
457.056	90.69
457.276	70.69
457.497	73.69
457.717	76.69
457.937	85.69
458.157	76.69
458.377	71.69
458.598	77.69
458.818	80.69
459.038	78.69
459.258	75.69
459.478	70.69
459.698	75.69
459.918	74.69
460.138	67.69
460.358	90.69
460.578	85.69
460.798	90.69
461.018	77.69
461.238	73.69
461.458	70.69
461.678	79.69
461.898	67.69
462.118	67.69
462.338	60.69
462.558	70.69
462.777	78.69
462.997	74.69
463.217	76.69
463.437	86.69
463.657	75.69
463.876	62.69
464.096	84.69
464.316	82.69
464.536	69.69
464.755	67.69
464.975	76.69
465.195	70.69
465.414	84.69
465.634	90.69
465.854	72.69
466.073	82.69
466.293	71.69
466.512	77.69
466.732	76.69
466.951	76.69
467.171	84.69
467.391	67.69
467.61	72.69
467.829	75.69
468.049	78.69
468.268	82.69
468.488	78.69
468.707	75.69
468.927	88.69
469.146	97.69
469.365	73.69
469.585	81.69
469.804	81.69
470.023	67.69
470.243	85.69
470.462	79.69
470.681	79.69
470.901	74.69
471.12	79.69
471.339	73.69
471.558	57.69
471.777	70.69
471.997	83.69
472.216	87.69
472.435	74.69
472.654	82.69
472.873	81.69
473.092	93.69
473.311	87.69
473.53	59.69
473.749	82.69
473.968	75.69
474.187	74.69
474.406	93.69
474.625	67.69
474.844	69.69
475.063	75.69
475.282	72.69
475.501	58.69
475.72	63.69
475.939	77.69
476.158	74.69
476.377	74.69
476.596	79.69
476.814	89.69
477.033	63.69
477.252	85.69
477.471	71.69
477.69	76.69
477.908	92.69
478.127	77.69
478.346	71.69
478.564	79.69
478.783	73.69
479.002	75.69
479.22	75.69
479.439	84.69
479.658	94.69
479.876	86.69
480.095	86.69
480.313	88.69
480.532	72.69
480.751	88.69
480.969	94.69
481.188	83.69
481.406	81.69
481.624	73.69
481.843	74.69
482.061	77.69
482.28	67.69
482.498	75.69
482.717	82.69
482.935	61.69
483.153	66.69
483.372	73.69
483.59	77.69
483.808	70.69
484.027	79.69
484.245	77.69
484.463	79.69
484.681	70.69
484.9	87.69
485.118	70.69
485.336	73.69
485.554	71.69
485.772	72.69
485.99	82.69
486.209	89.69
486.427	56.69
486.645	79.69
486.863	83.69
487.081	71.69
487.299	81.69
487.517	78.69
487.735	83.69
487.953	77.69
488.171	76.69
488.389	83.69
488.607	78.69
488.825	77.69
489.043	71.69
489.261	78.69
489.479	80.69
489.696	85.69
489.914	68.69
490.132	67.69
490.35	86.69
490.568	68.69
490.786	80.69
491.003	71.69
491.221	77.69
491.439	79.69
491.657	70.69
491.874	82.69
492.092	79.69
492.31	79.69
492.527	77.69
492.745	88.69
492.963	88.69
493.18	90.69
493.398	75.69
493.615	76.69
493.833	81.69
494.05	93.69
494.268	82.69
494.485	90.69
494.703	75.69
494.92	81.69
495.138	86.69
495.355	79.69
495.573	89.69
495.79	85.69
496.008	99.69
496.225	66.69
496.442	88.69
496.66	87.69
496.877	77.69
497.094	79.69
497.312	70.69
497.529	78.69
497.746	78.69
497.963	89.69
498.181	77.69
498.398	85.69
498.615	91.69
498.832	72.69
499.049	86.69
499.267	69.69
499.484	78.69
499.701	74.69
499.918	77.69
500.135	83.69
500.352	90.69
500.569	84.69
500.786	84.69
501.003	85.69
501.22	85.69
501.437	82.69
501.654	72.69
501.871	72.69
502.088	65.69
502.305	73.69
502.522	77.69
502.739	92.69
502.956	80.69
503.172	80.69
503.389	82.69
503.606	81.69
503.823	78.69
504.04	81.69
504.256	79.69
504.473	81.69
504.69	78.69
504.907	79.69
505.123	73.69
505.34	74.69
505.557	70.69
505.773	81.69
505.99	82.69
506.207	74.69
506.423	80.69
506.64	81.69
506.856	83.69
507.073	90.69
507.289	99.69
507.506	77.69
507.722	72.69
507.939	78.69
508.155	94.69
508.372	82.69
508.588	80.69
508.805	88.69
509.021	79.69
509.238	78.69
509.454	79.69
509.67	66.69
509.887	87.69
510.103	85.69
510.319	80.69
510.536	73.69
510.752	85.69
510.968	83.69
511.184	79.69
511.401	83.69
511.617	82.69
511.833	74.69
512.049	88.69
512.265	78.69
512.481	77.69
512.698	83.69
512.914	85.69
513.13	72.69
513.346	79.69
513.562	84.69
513.778	77.69
513.994	83.69
514.21	78.69
514.426	61.69
514.642	89.69
514.858	78.69
515.074	75.69
515.29	93.69
515.506	79.69
515.721	82.69
515.937	77.69
516.153	86.69
516.369	85.69
516.585	83.69
516.801	75.69
517.016	90.69
517.232	90.69
517.448	89.69
517.664	79.69
517.879	87.69
518.095	80.69
518.311	71.69
518.527	86.69
518.742	79.69
518.958	81.69
519.173	72.69
519.389	96.69
519.605	79.69
519.82	81.69
520.036	80.69
520.251	75.69
