Data from Background_3_HRD10591_00019.txt Node
Date: Wed Nov 05 14:49:29 EST 2025
User: Yrep
Spectrometer: HR+D1059
Trigger mode: 1
Integration Time (sec): 1.000000E-1
Scans to average: 1
Electric dark correction enabled: true
Nonlinearity correction enabled: false
Boxcar width: 0
XAxis mode: Wavelengths
Number of Pixels in Spectrum: 2048
>>>>>Begin Spectral Data<<<<<
223.165	-19.06
223.4	-19.06
223.635	-19.06
223.869	-17.06
224.104	-26.06
224.338	-4.06
224.573	-22.06
224.808	-19.06
225.042	-10.06
225.277	-23.06
225.511	-10.06
225.746	9.94
225.98	13.94
226.215	19.94
226.449	24.94
226.683	23.94
226.918	28.94
227.152	28.94
227.387	25.94
227.621	29.94
227.856	52.94
228.09	53.94
228.324	46.94
228.559	56.94
228.793	55.94
229.027	65.94
229.262	60.94
229.496	61.94
229.73	56.94
229.964	63.94
230.199	90.94
230.433	72.94
230.667	54.94
230.901	83.94
231.136	81.94
231.37	61.94
231.604	79.94
231.838	72.94
232.072	73.94
232.306	87.94
232.541	76.94
232.775	68.94
233.009	80.94
233.243	66.94
233.477	61.94
233.711	63.94
233.945	88.94
234.179	88.94
234.413	79.94
234.647	72.94
234.881	75.94
235.115	67.94
235.349	71.94
235.583	80.94
235.817	75.94
236.051	79.94
236.285	72.94
236.519	86.94
236.753	85.94
236.987	79.94
237.221	82.94
237.455	77.94
237.689	81.94
237.922	69.94
238.156	73.94
238.39	86.94
238.624	82.94
238.858	73.94
239.091	74.94
239.325	76.94
239.559	76.94
239.793	64.94
240.027	64.94
240.26	75.94
240.494	83.94
240.728	64.94
240.961	70.94
241.195	72.94
241.429	75.94
241.662	70.94
241.896	63.94
242.13	72.94
242.363	61.94
242.597	85.94
242.83	76.94
243.064	70.94
243.298	80.94
243.531	72.94
243.765	85.94
243.998	74.94
244.232	68.94
244.465	78.94
244.699	65.94
244.932	71.94
245.166	67.94
245.399	70.94
245.633	73.94
245.866	77.94
246.099	67.94
246.333	70.94
246.566	68.94
246.8	78.94
247.033	82.94
247.266	86.94
247.5	66.94
247.733	74.94
247.966	74.94
248.2	65.94
248.433	82.94
248.666	87.94
248.899	84.94
249.133	80.94
249.366	77.94
249.599	93.94
249.832	84.94
250.066	77.94
250.299	68.94
250.532	76.94
250.765	72.94
250.998	85.94
251.231	90.94
251.465	73.94
251.698	64.94
251.931	76.94
252.164	64.94
252.397	61.94
252.63	64.94
252.863	65.94
253.096	67.94
253.329	80.94
253.562	85.94
253.795	82.94
254.028	77.94
254.261	64.94
254.494	50.94
254.727	72.94
254.96	70.94
255.193	78.94
255.426	74.94
255.659	67.94
255.892	82.94
256.124	82.94
256.357	92.94
256.59	83.94
256.823	81.94
257.056	73.94
257.289	63.94
257.521	69.94
257.754	62.94
257.987	82.94
258.22	77.94
258.452	84.94
258.685	63.94
258.918	66.94
259.151	77.94
259.383	92.94
259.616	72.94
259.849	79.94
260.081	73.94
260.314	76.94
260.547	63.94
260.779	84.94
261.012	78.94
261.244	75.94
261.477	69.94
261.71	66.94
261.942	75.94
262.175	88.94
262.407	90.94
262.64	64.94
262.872	42.94
263.105	83.94
263.337	80.94
263.57	67.94
263.802	67.94
264.035	78.94
264.267	74.94
264.499	78.94
264.732	71.94
264.964	73.94
265.197	84.94
265.429	85.94
265.661	62.94
265.894	79.94
266.126	80.94
266.358	77.94
266.591	80.94
266.823	72.94
267.055	53.94
267.287	62.94
267.52	70.94
267.752	87.94
267.984	71.94
268.216	79.94
268.448	80.94
268.681	82.94
268.913	88.94
269.145	71.94
269.377	78.94
269.609	78.94
269.841	67.94
270.073	66.94
270.306	82.94
270.538	65.94
270.77	70.94
271.002	87.94
271.234	56.94
271.466	87.94
271.698	82.94
271.93	73.94
272.162	76.94
272.394	80.94
272.626	69.94
272.858	78.94
273.09	84.94
273.322	72.94
273.553	86.94
273.785	84.94
274.017	79.94
274.249	79.94
274.481	86.94
274.713	80.94
274.945	80.94
275.176	74.94
275.408	74.94
275.64	75.94
275.872	82.94
276.104	83.94
276.335	84.94
276.567	95.94
276.799	93.94
277.031	71.94
277.262	76.94
277.494	73.94
277.726	85.94
277.957	81.94
278.189	91.94
278.421	84.94
278.652	73.94
278.884	73.94
279.115	84.94
279.347	90.94
279.579	70.94
279.81	75.94
280.042	81.94
280.273	91.94
280.505	90.94
280.736	78.94
280.968	81.94
281.199	85.94
281.431	76.94
281.662	72.94
281.894	92.94
282.125	75.94
282.356	94.94
282.588	79.94
282.819	85.94
283.051	78.94
283.282	80.94
283.513	77.94
283.745	65.94
283.976	89.94
284.207	69.94
284.439	76.94
284.67	75.94
284.901	66.94
285.132	79.94
285.364	70.94
285.595	83.94
285.826	53.94
286.057	94.94
286.288	78.94
286.52	78.94
286.751	86.94
286.982	84.94
287.213	76.94
287.444	92.94
287.675	63.94
287.906	78.94
288.138	80.94
288.369	86.94
288.6	80.94
288.831	79.94
289.062	87.94
289.293	82.94
289.524	85.94
289.755	85.94
289.986	79.94
290.217	80.94
290.448	75.94
290.679	82.94
290.91	78.94
291.141	72.94
291.371	79.94
291.602	78.94
291.833	77.94
292.064	81.94
292.295	87.94
292.526	78.94
292.757	70.94
292.987	77.94
293.218	76.94
293.449	85.94
293.68	82.94
293.91	77.94
294.141	76.94
294.372	82.94
294.603	74.94
294.833	82.94
295.064	74.94
295.295	82.94
295.525	80.94
295.756	80.94
295.987	79.94
296.217	69.94
296.448	84.94
296.679	81.94
296.909	85.94
297.14	80.94
297.37	76.94
297.601	71.94
297.831	76.94
298.062	83.94
298.292	81.94
298.523	72.94
298.753	79.94
298.984	82.94
299.214	81.94
299.445	86.94
299.675	84.94
299.905	81.94
300.136	76.94
300.366	79.94
300.597	88.94
300.827	66.94
301.057	89.94
301.288	77.94
301.518	87.94
301.748	74.94
301.979	102.94
302.209	92.94
302.439	76.94
302.669	79.94
302.9	76.94
303.13	80.94
303.36	75.94
303.59	82.94
303.82	88.94
304.051	81.94
304.281	82.94
304.511	74.94
304.741	66.94
304.971	78.94
305.201	92.94
305.431	95.94
305.661	91.94
305.891	66.94
306.121	75.94
306.352	80.94
306.582	78.94
306.812	68.94
307.042	79.94
307.272	79.94
307.502	70.94
307.731	92.94
307.961	83.94
308.191	90.94
308.421	90.94
308.651	69.94
308.881	82.94
309.111	76.94
309.341	73.94
309.571	70.94
309.8	86.94
310.03	78.94
310.26	77.94
310.49	79.94
310.72	89.94
310.949	74.94
311.179	85.94
311.409	62.94
311.639	86.94
311.868	82.94
312.098	87.94
312.328	71.94
312.557	97.94
312.787	57.94
313.017	66.94
313.246	73.94
313.476	84.94
313.706	89.94
313.935	75.94
314.165	85.94
314.394	82.94
314.624	93.94
314.853	91.94
315.083	81.94
315.312	85.94
315.542	81.94
315.771	94.94
316.001	82.94
316.23	80.94
316.46	80.94
316.689	85.94
316.919	70.94
317.148	76.94
317.377	88.94
317.607	100.94
317.836	87.94
318.065	94.94
318.295	87.94
318.524	91.94
318.753	84.94
318.983	72.94
319.212	87.94
319.441	77.94
319.67	83.94
319.9	73.94
320.129	80.94
320.358	91.94
320.587	89.94
320.816	92.94
321.046	72.94
321.275	86.94
321.504	68.94
321.733	80.94
321.962	81.94
322.191	91.94
322.42	80.94
322.649	74.94
322.878	74.94
323.108	87.94
323.337	79.94
323.566	78.94
323.795	78.94
324.024	65.94
324.253	74.94
324.482	83.94
324.71	72.94
324.939	85.94
325.168	74.94
325.397	78.94
325.626	70.94
325.855	69.94
326.084	86.94
326.313	82.94
326.542	63.94
326.77	82.94
326.999	87.94
327.228	84.94
327.457	77.94
327.686	88.94
327.914	82.94
328.143	88.94
328.372	74.94
328.6	74.94
328.829	82.94
329.058	78.94
329.287	72.94
329.515	82.94
329.744	67.94
329.972	66.94
330.201	94.94
330.43	82.94
330.658	82.94
330.887	77.94
331.115	85.94
331.344	77.94
331.572	81.94
331.801	78.94
332.03	80.94
332.258	102.94
332.486	77.94
332.715	88.94
332.943	83.94
333.172	82.94
333.4	72.94
333.629	75.94
333.857	76.94
334.085	79.94
334.314	86.94
334.542	79.94
334.771	90.94
334.999	72.94
335.227	77.94
335.455	91.94
335.684	95.94
335.912	71.94
336.14	80.94
336.369	89.94
336.597	76.94
336.825	91.94
337.053	88.94
337.281	80.94
337.51	81.94
337.738	76.94
337.966	93.94
338.194	70.94
338.422	86.94
338.65	100.94
338.878	70.94
339.106	79.94
339.334	81.94
339.562	77.94
339.79	79.94
340.018	85.94
340.246	90.94
340.474	80.94
340.702	84.94
340.93	72.94
341.158	84.94
341.386	79.94
341.614	71.94
341.842	81.94
342.07	79.94
342.298	72.94
342.526	86.94
342.754	88.94
342.981	92.94
343.209	78.94
343.437	84.94
343.665	76.94
343.893	71.94
344.12	87.94
344.348	78.94
344.576	77.94
344.804	90.94
345.031	80.94
345.259	76.94
345.487	78.94
345.714	79.94
345.942	82.94
346.17	72.94
346.397	76.94
346.625	91.94
346.853	80.94
347.08	72.94
347.308	88.94
347.535	75.94
347.763	87.94
347.99	77.94
348.218	84.94
348.445	59.94
348.673	77.94
348.9	70.94
349.128	78.94
349.355	81.94
349.583	87.94
349.81	84.94
350.037	94.94
350.265	61.94
350.492	79.94
350.72	72.94
350.947	74.94
351.174	67.94
351.402	92.94
351.629	67.94
351.856	66.94
352.083	82.94
352.311	86.94
352.538	81.94
352.765	88.94
352.992	79.94
353.22	81.94
353.447	81.94
353.674	80.94
353.901	82.94
354.128	91.94
354.355	88.94
354.583	64.94
354.81	75.94
355.037	89.94
355.264	86.94
355.491	72.94
355.718	82.94
355.945	71.94
356.172	76.94
356.399	90.94
356.626	86.94
356.853	94.94
357.08	88.94
357.307	87.94
357.534	80.94
357.761	89.94
357.988	76.94
358.215	80.94
358.441	76.94
358.668	69.94
358.895	72.94
359.122	80.94
359.349	82.94
359.576	84.94
359.802	77.94
360.029	67.94
360.256	81.94
360.483	76.94
360.709	77.94
360.936	72.94
361.163	71.94
361.39	88.94
361.616	83.94
361.843	79.94
362.07	80.94
362.296	79.94
362.523	66.94
362.749	82.94
362.976	71.94
363.203	79.94
363.429	66.94
363.656	83.94
363.882	66.94
364.109	80.94
364.335	64.94
364.562	66.94
364.788	68.94
365.015	84.94
365.241	85.94
365.468	78.94
365.694	75.94
365.92	80.94
366.147	81.94
366.373	79.94
366.599	84.94
366.826	68.94
367.052	90.94
367.278	88.94
367.505	76.94
367.731	88.94
367.957	91.94
368.184	77.94
368.41	82.94
368.636	80.94
368.862	70.94
369.089	81.94
369.315	76.94
369.541	90.94
369.767	69.94
369.993	76.94
370.219	77.94
370.445	84.94
370.672	80.94
370.898	76.94
371.124	80.94
371.35	81.94
371.576	63.94
371.802	73.94
372.028	87.94
372.254	87.94
372.48	72.94
372.706	72.94
372.932	74.94
373.158	82.94
373.384	93.94
373.61	84.94
373.835	90.94
374.061	81.94
374.287	72.94
374.513	90.94
374.739	81.94
374.965	76.94
375.191	79.94
375.416	73.94
375.642	63.94
375.868	87.94
376.094	79.94
376.319	66.94
376.545	88.94
376.771	77.94
376.997	70.94
377.222	77.94
377.448	75.94
377.674	73.94
377.899	96.94
378.125	77.94
378.35	72.94
378.576	65.94
378.802	70.94
379.027	81.94
379.253	87.94
379.478	81.94
379.704	76.94
379.929	79.94
380.155	77.94
380.38	85.94
380.606	80.94
380.831	80.94
381.057	80.94
381.282	68.94
381.507	100.94
381.733	76.94
381.958	62.94
382.184	58.94
382.409	79.94
382.634	74.94
382.86	64.94
383.085	64.94
383.31	89.94
383.535	70.94
383.761	77.94
383.986	69.94
384.211	79.94
384.436	71.94
384.662	76.94
384.887	76.94
385.112	77.94
385.337	81.94
385.562	78.94
385.787	74.94
386.013	82.94
386.238	72.94
386.463	63.94
386.688	93.94
386.913	76.94
387.138	80.94
387.363	86.94
387.588	89.94
387.813	57.94
388.038	73.94
388.263	86.94
388.488	74.94
388.713	64.94
388.938	53.94
389.163	78.94
389.387	70.94
389.612	74.94
389.837	81.94
390.062	79.94
390.287	76.94
390.512	91.94
390.736	87.94
390.961	63.94
391.186	74.94
391.411	63.94
391.636	68.94
391.86	66.94
392.085	94.94
392.31	72.94
392.534	83.94
392.759	76.94
392.984	87.94
393.208	84.94
393.433	91.94
393.658	74.94
393.882	78.94
394.107	76.94
394.331	76.94
394.556	76.94
394.78	73.94
395.005	85.94
395.229	74.94
395.454	93.94
395.678	85.94
395.903	60.94
396.127	73.94
396.352	65.94
396.576	81.94
396.801	93.94
397.025	81.94
397.249	70.94
397.474	84.94
397.698	94.94
397.922	77.94
398.147	78.94
398.371	73.94
398.595	63.94
398.82	74.94
399.044	73.94
399.268	58.94
399.492	72.94
399.717	73.94
399.941	74.94
400.165	92.94
400.389	84.94
400.613	82.94
400.837	71.94
401.062	90.94
401.286	70.94
401.51	88.94
401.734	83.94
401.958	81.94
402.182	67.94
402.406	73.94
402.63	62.94
402.854	78.94
403.078	75.94
403.302	71.94
403.526	78.94
403.75	70.94
403.974	78.94
404.198	65.94
404.422	63.94
404.645	80.94
404.869	73.94
405.093	73.94
405.317	79.94
405.541	73.94
405.765	85.94
405.988	72.94
406.212	83.94
406.436	63.94
406.66	81.94
406.883	76.94
407.107	72.94
407.331	72.94
407.555	81.94
407.778	87.94
408.002	80.94
408.226	73.94
408.449	81.94
408.673	84.94
408.896	72.94
409.12	75.94
409.344	73.94
409.567	61.94
409.791	93.94
410.014	84.94
410.238	81.94
410.461	56.94
410.685	78.94
410.908	84.94
411.132	72.94
411.355	89.94
411.578	75.94
411.802	81.94
412.025	72.94
412.249	77.94
412.472	69.94
412.695	72.94
412.919	77.94
413.142	80.94
413.365	82.94
413.589	72.94
413.812	96.94
414.035	72.94
414.258	67.94
414.482	84.94
414.705	85.94
414.928	94.94
415.151	84.94
415.374	70.94
415.597	73.94
415.821	80.94
416.044	81.94
416.267	81.94
416.49	76.94
416.713	77.94
416.936	85.94
417.159	55.94
417.382	80.94
417.605	81.94
417.828	79.94
418.051	73.94
418.274	74.94
418.497	83.94
418.72	74.94
418.943	63.94
419.166	60.94
419.389	81.94
419.611	81.94
419.834	78.94
420.057	79.94
420.28	72.94
420.503	79.94
420.726	78.94
420.948	88.94
421.171	65.94
421.394	80.94
421.617	74.94
421.839	75.94
422.062	74.94
422.285	66.94
422.507	77.94
422.73	66.94
422.953	72.94
423.175	71.94
423.398	73.94
423.621	81.94
423.843	64.94
424.066	72.94
424.288	70.94
424.511	89.94
424.733	81.94
424.956	67.94
425.178	89.94
425.401	76.94
425.623	68.94
425.846	78.94
426.068	81.94
426.291	70.94
426.513	78.94
426.735	78.94
426.958	82.94
427.18	77.94
427.402	64.94
427.625	82.94
427.847	68.94
428.069	77.94
428.292	88.94
428.514	72.94
428.736	76.94
428.958	68.94
429.181	80.94
429.403	76.94
429.625	85.94
429.847	80.94
430.069	67.94
430.292	77.94
430.514	72.94
430.736	64.94
430.958	62.94
431.18	77.94
431.402	72.94
431.624	77.94
431.846	72.94
432.068	74.94
432.29	72.94
432.512	88.94
432.734	66.94
432.956	68.94
433.178	86.94
433.4	73.94
433.622	77.94
433.844	72.94
434.066	83.94
434.287	72.94
434.509	69.94
434.731	82.94
434.953	76.94
435.175	76.94
435.397	88.94
435.618	81.94
435.84	82.94
436.062	77.94
436.284	59.94
436.505	77.94
436.727	65.94
436.949	80.94
437.17	77.94
437.392	87.94
437.614	84.94
437.835	75.94
438.057	89.94
438.278	84.94
438.5	83.94
438.721	71.94
438.943	76.94
439.165	80.94
439.386	82.94
439.608	80.94
439.829	78.94
440.05	80.94
440.272	87.94
440.493	72.94
440.715	78.94
440.936	71.94
441.158	79.94
441.379	71.94
441.6	89.94
441.822	76.94
442.043	68.94
442.264	79.94
442.486	67.94
442.707	65.94
442.928	64.94
443.149	66.94
443.371	76.94
443.592	71.94
443.813	83.94
444.034	70.94
444.255	87.94
444.476	81.94
444.698	82.94
444.919	71.94
445.14	139.94
445.361	114.94
445.582	86.94
445.803	81.94
446.024	93.94
446.245	93.94
446.466	75.94
446.687	80.94
446.908	85.94
447.129	68.94
447.35	84.94
447.571	66.94
447.792	75.94
448.013	63.94
448.234	76.94
448.455	80.94
448.675	83.94
448.896	77.94
449.117	84.94
449.338	81.94
449.559	90.94
449.779	76.94
450	78.94
450.221	88.94
450.442	69.94
450.662	76.94
450.883	68.94
451.104	73.94
451.324	71.94
451.545	68.94
451.766	81.94
451.986	84.94
452.207	74.94
452.428	65.94
452.648	80.94
452.869	70.94
453.089	71.94
453.31	85.94
453.53	85.94
453.751	78.94
453.971	76.94
454.192	82.94
454.412	67.94
454.633	72.94
454.853	73.94
455.073	82.94
455.294	75.94
455.514	70.94
455.734	79.94
455.955	92.94
456.175	81.94
456.395	69.94
456.616	82.94
456.836	62.94
457.056	68.94
457.276	70.94
457.497	77.94
457.717	74.94
457.937	76.94
458.157	71.94
458.377	81.94
458.598	62.94
458.818	73.94
459.038	79.94
459.258	77.94
459.478	80.94
459.698	74.94
459.918	76.94
460.138	72.94
460.358	73.94
460.578	87.94
460.798	69.94
461.018	75.94
461.238	82.94
461.458	73.94
461.678	62.94
461.898	86.94
462.118	72.94
462.338	76.94
462.558	72.94
462.777	72.94
462.997	85.94
463.217	64.94
463.437	78.94
463.657	73.94
463.876	80.94
464.096	67.94
464.316	67.94
464.536	85.94
464.755	85.94
464.975	74.94
465.195	88.94
465.414	75.94
465.634	80.94
465.854	79.94
466.073	81.94
466.293	74.94
466.512	65.94
466.732	62.94
466.951	74.94
467.171	77.94
467.391	84.94
467.61	74.94
467.829	80.94
468.049	76.94
468.268	71.94
468.488	73.94
468.707	83.94
468.927	81.94
469.146	73.94
469.365	70.94
469.585	76.94
469.804	70.94
470.023	67.94
470.243	72.94
470.462	75.94
470.681	82.94
470.901	78.94
471.12	68.94
471.339	76.94
471.558	76.94
471.777	77.94
471.997	76.94
472.216	74.94
472.435	72.94
472.654	58.94
472.873	76.94
473.092	70.94
473.311	72.94
473.53	84.94
473.749	73.94
473.968	81.94
474.187	77.94
474.406	86.94
474.625	72.94
474.844	84.94
475.063	93.94
475.282	76.94
475.501	74.94
475.72	68.94
475.939	72.94
476.158	87.94
476.377	71.94
476.596	72.94
476.814	70.94
477.033	84.94
477.252	74.94
477.471	66.94
477.69	79.94
477.908	85.94
478.127	88.94
478.346	57.94
478.564	71.94
478.783	79.94
479.002	74.94
479.22	68.94
479.439	78.94
479.658	74.94
479.876	83.94
480.095	74.94
480.313	82.94
480.532	71.94
480.751	89.94
480.969	76.94
481.188	72.94
481.406	89.94
481.624	72.94
481.843	70.94
482.061	70.94
482.28	70.94
482.498	59.94
482.717	68.94
482.935	82.94
483.153	77.94
483.372	89.94
483.59	81.94
483.808	83.94
484.027	87.94
484.245	76.94
484.463	68.94
484.681	79.94
484.9	86.94
485.118	75.94
485.336	80.94
485.554	83.94
485.772	89.94
485.99	77.94
486.209	96.94
486.427	93.94
486.645	87.94
486.863	72.94
487.081	72.94
487.299	73.94
487.517	78.94
487.735	97.94
487.953	85.94
488.171	86.94
488.389	72.94
488.607	76.94
488.825	69.94
489.043	76.94
489.261	71.94
489.479	78.94
489.696	80.94
489.914	78.94
490.132	69.94
490.35	70.94
490.568	87.94
490.786	84.94
491.003	82.94
491.221	73.94
491.439	84.94
491.657	87.94
491.874	70.94
492.092	76.94
492.31	86.94
492.527	95.94
492.745	88.94
492.963	74.94
493.18	84.94
493.398	90.94
493.615	76.94
493.833	74.94
494.05	81.94
494.268	83.94
494.485	67.94
494.703	88.94
494.92	77.94
495.138	80.94
495.355	70.94
495.573	76.94
495.79	75.94
496.008	72.94
496.225	80.94
496.442	78.94
496.66	77.94
496.877	75.94
497.094	87.94
497.312	77.94
497.529	74.94
497.746	81.94
497.963	78.94
498.181	73.94
498.398	77.94
498.615	75.94
498.832	67.94
499.049	70.94
499.267	89.94
499.484	88.94
499.701	70.94
499.918	81.94
500.135	77.94
500.352	71.94
500.569	85.94
500.786	78.94
501.003	70.94
501.22	80.94
501.437	73.94
501.654	74.94
501.871	64.94
502.088	78.94
502.305	70.94
502.522	75.94
502.739	75.94
502.956	68.94
503.172	79.94
503.389	70.94
503.606	73.94
503.823	80.94
504.04	83.94
504.256	79.94
504.473	70.94
504.69	80.94
504.907	82.94
505.123	65.94
505.34	86.94
505.557	65.94
505.773	77.94
505.99	69.94
506.207	70.94
506.423	87.94
506.64	86.94
506.856	76.94
507.073	73.94
507.289	90.94
507.506	72.94
507.722	70.94
507.939	70.94
508.155	75.94
508.372	85.94
508.588	75.94
508.805	85.94
509.021	90.94
509.238	84.94
509.454	69.94
509.67	59.94
509.887	74.94
510.103	86.94
510.319	69.94
510.536	90.94
510.752	89.94
510.968	64.94
511.184	80.94
511.401	76.94
511.617	80.94
511.833	65.94
512.049	74.94
512.265	66.94
512.481	72.94
512.698	84.94
512.914	93.94
513.13	80.94
513.346	82.94
513.562	80.94
513.778	63.94
513.994	84.94
514.21	60.94
514.426	90.94
514.642	84.94
514.858	81.94
515.074	89.94
515.29	68.94
515.506	78.94
515.721	79.94
515.937	76.94
516.153	62.94
516.369	76.94
516.585	79.94
516.801	84.94
517.016	91.94
517.232	72.94
517.448	88.94
517.664	101.94
517.879	95.94
518.095	74.94
518.311	92.94
518.527	75.94
518.742	78.94
518.958	80.94
519.173	77.94
519.389	76.94
519.605	73.94
519.82	68.94
520.036	83.94
