Data from Background_3_HRD10591_00017.txt Node
Date: Wed Nov 05 14:49:28 EST 2025
User: Yrep
Spectrometer: HR+D1059
Trigger mode: 1
Integration Time (sec): 1.000000E-1
Scans to average: 1
Electric dark correction enabled: true
Nonlinearity correction enabled: false
Boxcar width: 0
XAxis mode: Wavelengths
Number of Pixels in Spectrum: 2048
>>>>>Begin Spectral Data<<<<<
223.165	-12.12
223.4	-12.12
223.635	-12.12
223.869	-24.12
224.104	-34.12
224.338	-2.12
224.573	-18.12
224.808	-5.12
225.042	-18.12
225.277	-1.12
225.511	3.88
225.746	-0.12
225.98	12.88
226.215	17.88
226.449	4.88
226.683	17.88
226.918	29.88
227.152	27.88
227.387	28.88
227.621	43.88
227.856	48.88
228.09	58.88
228.324	62.88
228.559	70.88
228.793	49.88
229.027	56.88
229.262	68.88
229.496	69.88
229.73	67.88
229.964	70.88
230.199	55.88
230.433	83.88
230.667	70.88
230.901	79.88
231.136	81.88
231.37	93.88
231.604	82.88
231.838	78.88
232.072	93.88
232.306	72.88
232.541	71.88
232.775	79.88
233.009	84.88
233.243	88.88
233.477	93.88
233.711	83.88
233.945	86.88
234.179	80.88
234.413	82.88
234.647	73.88
234.881	74.88
235.115	79.88
235.349	89.88
235.583	84.88
235.817	77.88
236.051	83.88
236.285	73.88
236.519	71.88
236.753	87.88
236.987	83.88
237.221	83.88
237.455	88.88
237.689	72.88
237.922	81.88
238.156	86.88
238.39	91.88
238.624	81.88
238.858	72.88
239.091	70.88
239.325	77.88
239.559	85.88
239.793	75.88
240.027	85.88
240.26	64.88
240.494	85.88
240.728	73.88
240.961	78.88
241.195	81.88
241.429	72.88
241.662	79.88
241.896	62.88
242.13	87.88
242.363	75.88
242.597	81.88
242.83	96.88
243.064	71.88
243.298	72.88
243.531	73.88
243.765	81.88
243.998	73.88
244.232	88.88
244.465	84.88
244.699	87.88
244.932	72.88
245.166	79.88
245.399	83.88
245.633	78.88
245.866	75.88
246.099	93.88
246.333	75.88
246.566	86.88
246.8	79.88
247.033	86.88
247.266	71.88
247.5	70.88
247.733	72.88
247.966	85.88
248.2	91.88
248.433	81.88
248.666	83.88
248.899	74.88
249.133	80.88
249.366	88.88
249.599	88.88
249.832	86.88
250.066	78.88
250.299	94.88
250.532	56.88
250.765	60.88
250.998	82.88
251.231	96.88
251.465	83.88
251.698	70.88
251.931	93.88
252.164	65.88
252.397	76.88
252.63	70.88
252.863	75.88
253.096	83.88
253.329	77.88
253.562	83.88
253.795	71.88
254.028	87.88
254.261	62.88
254.494	85.88
254.727	84.88
254.96	88.88
255.193	72.88
255.426	82.88
255.659	68.88
255.892	94.88
256.124	83.88
256.357	82.88
256.59	69.88
256.823	73.88
257.056	86.88
257.289	73.88
257.521	89.88
257.754	87.88
257.987	84.88
258.22	91.88
258.452	79.88
258.685	81.88
258.918	85.88
259.151	79.88
259.383	74.88
259.616	93.88
259.849	83.88
260.081	77.88
260.314	83.88
260.547	91.88
260.779	84.88
261.012	83.88
261.244	85.88
261.477	98.88
261.71	76.88
261.942	87.88
262.175	91.88
262.407	83.88
262.64	81.88
262.872	89.88
263.105	83.88
263.337	88.88
263.57	93.88
263.802	85.88
264.035	80.88
264.267	97.88
264.499	83.88
264.732	88.88
264.964	78.88
265.197	76.88
265.429	74.88
265.661	70.88
265.894	80.88
266.126	91.88
266.358	97.88
266.591	79.88
266.823	80.88
267.055	92.88
267.287	80.88
267.52	92.88
267.752	81.88
267.984	70.88
268.216	96.88
268.448	87.88
268.681	96.88
268.913	87.88
269.145	88.88
269.377	86.88
269.609	72.88
269.841	78.88
270.073	88.88
270.306	86.88
270.538	98.88
270.77	93.88
271.002	79.88
271.234	101.88
271.466	82.88
271.698	84.88
271.93	90.88
272.162	74.88
272.394	95.88
272.626	79.88
272.858	84.88
273.09	83.88
273.322	84.88
273.553	84.88
273.785	76.88
274.017	78.88
274.249	91.88
274.481	80.88
274.713	89.88
274.945	77.88
275.176	79.88
275.408	79.88
275.64	72.88
275.872	78.88
276.104	77.88
276.335	77.88
276.567	85.88
276.799	89.88
277.031	93.88
277.262	83.88
277.494	81.88
277.726	89.88
277.957	99.88
278.189	94.88
278.421	93.88
278.652	96.88
278.884	83.88
279.115	79.88
279.347	67.88
279.579	83.88
279.81	69.88
280.042	82.88
280.273	79.88
280.505	85.88
280.736	91.88
280.968	76.88
281.199	83.88
281.431	74.88
281.662	102.88
281.894	74.88
282.125	73.88
282.356	90.88
282.588	91.88
282.819	79.88
283.051	109.88
283.282	82.88
283.513	73.88
283.745	74.88
283.976	73.88
284.207	88.88
284.439	95.88
284.67	83.88
284.901	94.88
285.132	83.88
285.364	82.88
285.595	90.88
285.826	103.88
286.057	84.88
286.288	92.88
286.52	89.88
286.751	81.88
286.982	77.88
287.213	73.88
287.444	95.88
287.675	87.88
287.906	80.88
288.138	92.88
288.369	72.88
288.6	82.88
288.831	94.88
289.062	88.88
289.293	81.88
289.524	72.88
289.755	73.88
289.986	84.88
290.217	84.88
290.448	89.88
290.679	78.88
290.91	91.88
291.141	83.88
291.371	93.88
291.602	85.88
291.833	93.88
292.064	97.88
292.295	83.88
292.526	79.88
292.757	80.88
292.987	69.88
293.218	75.88
293.449	91.88
293.68	76.88
293.91	82.88
294.141	84.88
294.372	79.88
294.603	81.88
294.833	83.88
295.064	91.88
295.295	108.88
295.525	94.88
295.756	97.88
295.987	86.88
296.217	81.88
296.448	86.88
296.679	90.88
296.909	90.88
297.14	88.88
297.37	95.88
297.601	80.88
297.831	88.88
298.062	95.88
298.292	78.88
298.523	64.88
298.753	84.88
298.984	77.88
299.214	86.88
299.445	73.88
299.675	83.88
299.905	81.88
300.136	92.88
300.366	87.88
300.597	74.88
300.827	86.88
301.057	77.88
301.288	93.88
301.518	88.88
301.748	81.88
301.979	99.88
302.209	93.88
302.439	81.88
302.669	95.88
302.9	88.88
303.13	94.88
303.36	87.88
303.59	90.88
303.82	77.88
304.051	96.88
304.281	88.88
304.511	88.88
304.741	92.88
304.971	86.88
305.201	78.88
305.431	87.88
305.661	85.88
305.891	79.88
306.121	78.88
306.352	84.88
306.582	88.88
306.812	93.88
307.042	79.88
307.272	79.88
307.502	90.88
307.731	92.88
307.961	92.88
308.191	80.88
308.421	82.88
308.651	85.88
308.881	86.88
309.111	93.88
309.341	93.88
309.571	101.88
309.8	94.88
310.03	102.88
310.26	98.88
310.49	87.88
310.72	91.88
310.949	78.88
311.179	77.88
311.409	72.88
311.639	82.88
311.868	81.88
312.098	101.88
312.328	89.88
312.557	83.88
312.787	75.88
313.017	93.88
313.246	77.88
313.476	88.88
313.706	77.88
313.935	82.88
314.165	89.88
314.394	93.88
314.624	93.88
314.853	81.88
315.083	90.88
315.312	80.88
315.542	101.88
315.771	85.88
316.001	91.88
316.23	76.88
316.46	95.88
316.689	85.88
316.919	100.88
317.148	74.88
317.377	82.88
317.607	94.88
317.836	85.88
318.065	79.88
318.295	83.88
318.524	74.88
318.753	73.88
318.983	85.88
319.212	81.88
319.441	88.88
319.67	74.88
319.9	80.88
320.129	79.88
320.358	88.88
320.587	99.88
320.816	95.88
321.046	81.88
321.275	93.88
321.504	80.88
321.733	89.88
321.962	81.88
322.191	88.88
322.42	93.88
322.649	72.88
322.878	94.88
323.108	82.88
323.337	83.88
323.566	82.88
323.795	87.88
324.024	96.88
324.253	88.88
324.482	89.88
324.71	103.88
324.939	80.88
325.168	88.88
325.397	96.88
325.626	83.88
325.855	87.88
326.084	87.88
326.313	80.88
326.542	87.88
326.77	101.88
326.999	72.88
327.228	81.88
327.457	84.88
327.686	74.88
327.914	94.88
328.143	87.88
328.372	74.88
328.6	88.88
328.829	81.88
329.058	88.88
329.287	92.88
329.515	89.88
329.744	91.88
329.972	71.88
330.201	78.88
330.43	90.88
330.658	84.88
330.887	79.88
331.115	93.88
331.344	97.88
331.572	82.88
331.801	81.88
332.03	80.88
332.258	83.88
332.486	78.88
332.715	76.88
332.943	88.88
333.172	86.88
333.4	87.88
333.629	97.88
333.857	85.88
334.085	79.88
334.314	79.88
334.542	78.88
334.771	90.88
334.999	77.88
335.227	86.88
335.455	96.88
335.684	87.88
335.912	85.88
336.14	93.88
336.369	88.88
336.597	73.88
336.825	83.88
337.053	92.88
337.281	84.88
337.51	86.88
337.738	88.88
337.966	90.88
338.194	80.88
338.422	88.88
338.65	84.88
338.878	92.88
339.106	90.88
339.334	94.88
339.562	79.88
339.79	70.88
340.018	74.88
340.246	80.88
340.474	73.88
340.702	91.88
340.93	89.88
341.158	91.88
341.386	94.88
341.614	91.88
341.842	87.88
342.07	81.88
342.298	75.88
342.526	80.88
342.754	76.88
342.981	90.88
343.209	91.88
343.437	92.88
343.665	83.88
343.893	86.88
344.12	88.88
344.348	80.88
344.576	86.88
344.804	82.88
345.031	80.88
345.259	97.88
345.487	80.88
345.714	91.88
345.942	87.88
346.17	84.88
346.397	79.88
346.625	101.88
346.853	72.88
347.08	69.88
347.308	83.88
347.535	82.88
347.763	84.88
347.99	87.88
348.218	91.88
348.445	81.88
348.673	72.88
348.9	71.88
349.128	75.88
349.355	83.88
349.583	87.88
349.81	78.88
350.037	80.88
350.265	101.88
350.492	86.88
350.72	93.88
350.947	78.88
351.174	101.88
351.402	87.88
351.629	100.88
351.856	86.88
352.083	71.88
352.311	86.88
352.538	94.88
352.765	78.88
352.992	97.88
353.22	92.88
353.447	98.88
353.674	91.88
353.901	104.88
354.128	91.88
354.355	79.88
354.583	77.88
354.81	89.88
355.037	86.88
355.264	86.88
355.491	79.88
355.718	83.88
355.945	80.88
356.172	75.88
356.399	84.88
356.626	80.88
356.853	81.88
357.08	95.88
357.307	82.88
357.534	101.88
357.761	89.88
357.988	80.88
358.215	96.88
358.441	94.88
358.668	86.88
358.895	98.88
359.122	81.88
359.349	75.88
359.576	81.88
359.802	76.88
360.029	89.88
360.256	80.88
360.483	86.88
360.709	74.88
360.936	88.88
361.163	85.88
361.39	80.88
361.616	92.88
361.843	79.88
362.07	88.88
362.296	75.88
362.523	79.88
362.749	91.88
362.976	77.88
363.203	88.88
363.429	80.88
363.656	84.88
363.882	76.88
364.109	94.88
364.335	81.88
364.562	88.88
364.788	81.88
365.015	78.88
365.241	87.88
365.468	90.88
365.694	86.88
365.92	93.88
366.147	71.88
366.373	80.88
366.599	80.88
366.826	79.88
367.052	83.88
367.278	78.88
367.505	84.88
367.731	84.88
367.957	78.88
368.184	81.88
368.41	88.88
368.636	89.88
368.862	90.88
369.089	73.88
369.315	88.88
369.541	100.88
369.767	85.88
369.993	96.88
370.219	89.88
370.445	86.88
370.672	84.88
370.898	67.88
371.124	89.88
371.35	93.88
371.576	90.88
371.802	88.88
372.028	79.88
372.254	91.88
372.48	84.88
372.706	72.88
372.932	70.88
373.158	85.88
373.384	77.88
373.61	73.88
373.835	85.88
374.061	95.88
374.287	84.88
374.513	72.88
374.739	88.88
374.965	95.88
375.191	86.88
375.416	67.88
375.642	87.88
375.868	91.88
376.094	86.88
376.319	77.88
376.545	83.88
376.771	74.88
376.997	69.88
377.222	81.88
377.448	69.88
377.674	93.88
377.899	77.88
378.125	65.88
378.35	83.88
378.576	85.88
378.802	80.88
379.027	81.88
379.253	103.88
379.478	100.88
379.704	78.88
379.929	67.88
380.155	75.88
380.38	96.88
380.606	89.88
380.831	81.88
381.057	79.88
381.282	90.88
381.507	71.88
381.733	73.88
381.958	100.88
382.184	86.88
382.409	86.88
382.634	93.88
382.86	71.88
383.085	87.88
383.31	72.88
383.535	72.88
383.761	87.88
383.986	79.88
384.211	84.88
384.436	84.88
384.662	88.88
384.887	84.88
385.112	90.88
385.337	92.88
385.562	86.88
385.787	83.88
386.013	96.88
386.238	88.88
386.463	71.88
386.688	93.88
386.913	95.88
387.138	86.88
387.363	95.88
387.588	73.88
387.813	95.88
388.038	79.88
388.263	73.88
388.488	88.88
388.713	94.88
388.938	85.88
389.163	87.88
389.387	81.88
389.612	77.88
389.837	88.88
390.062	72.88
390.287	84.88
390.512	76.88
390.736	82.88
390.961	76.88
391.186	96.88
391.411	89.88
391.636	93.88
391.86	73.88
392.085	80.88
392.31	78.88
392.534	86.88
392.759	89.88
392.984	82.88
393.208	80.88
393.433	63.88
393.658	83.88
393.882	88.88
394.107	77.88
394.331	89.88
394.556	74.88
394.78	86.88
395.005	83.88
395.229	86.88
395.454	85.88
395.678	88.88
395.903	84.88
396.127	74.88
396.352	83.88
396.576	94.88
396.801	67.88
397.025	86.88
397.249	85.88
397.474	87.88
397.698	72.88
397.922	96.88
398.147	93.88
398.371	82.88
398.595	94.88
398.82	81.88
399.044	64.88
399.268	73.88
399.492	91.88
399.717	93.88
399.941	83.88
400.165	77.88
400.389	81.88
400.613	92.88
400.837	89.88
401.062	81.88
401.286	94.88
401.51	78.88
401.734	72.88
401.958	79.88
402.182	75.88
402.406	69.88
402.63	67.88
402.854	88.88
403.078	90.88
403.302	87.88
403.526	72.88
403.75	91.88
403.974	92.88
404.198	84.88
404.422	72.88
404.645	73.88
404.869	80.88
405.093	81.88
405.317	93.88
405.541	79.88
405.765	77.88
405.988	80.88
406.212	80.88
406.436	79.88
406.66	83.88
406.883	66.88
407.107	89.88
407.331	63.88
407.555	81.88
407.778	88.88
408.002	76.88
408.226	86.88
408.449	80.88
408.673	80.88
408.896	76.88
409.12	74.88
409.344	92.88
409.567	72.88
409.791	66.88
410.014	70.88
410.238	82.88
410.461	73.88
410.685	77.88
410.908	75.88
411.132	61.88
411.355	84.88
411.578	99.88
411.802	84.88
412.025	89.88
412.249	82.88
412.472	87.88
412.695	81.88
412.919	74.88
413.142	79.88
413.365	92.88
413.589	87.88
413.812	66.88
414.035	99.88
414.258	76.88
414.482	92.88
414.705	91.88
414.928	61.88
415.151	89.88
415.374	74.88
415.597	81.88
415.821	92.88
416.044	74.88
416.267	84.88
416.49	90.88
416.713	74.88
416.936	69.88
417.159	92.88
417.382	92.88
417.605	85.88
417.828	73.88
418.051	79.88
418.274	67.88
418.497	86.88
418.72	94.88
418.943	80.88
419.166	73.88
419.389	83.88
419.611	77.88
419.834	87.88
420.057	76.88
420.28	68.88
420.503	91.88
420.726	88.88
420.948	81.88
421.171	66.88
421.394	91.88
421.617	69.88
421.839	81.88
422.062	99.88
422.285	90.88
422.507	76.88
422.73	87.88
422.953	74.88
423.175	93.88
423.398	72.88
423.621	72.88
423.843	85.88
424.066	84.88
424.288	63.88
424.511	70.88
424.733	84.88
424.956	85.88
425.178	82.88
425.401	96.88
425.623	78.88
425.846	74.88
426.068	78.88
426.291	78.88
426.513	87.88
426.735	79.88
426.958	73.88
427.18	77.88
427.402	73.88
427.625	85.88
427.847	88.88
428.069	84.88
428.292	101.88
428.514	85.88
428.736	86.88
428.958	79.88
429.181	75.88
429.403	90.88
429.625	76.88
429.847	77.88
430.069	88.88
430.292	85.88
430.514	78.88
430.736	87.88
430.958	79.88
431.18	78.88
431.402	72.88
431.624	84.88
431.846	80.88
432.068	86.88
432.29	82.88
432.512	89.88
432.734	64.88
432.956	89.88
433.178	73.88
433.4	78.88
433.622	91.88
433.844	74.88
434.066	96.88
434.287	89.88
434.509	82.88
434.731	69.88
434.953	79.88
435.175	91.88
435.397	64.88
435.618	85.88
435.84	86.88
436.062	88.88
436.284	75.88
436.505	82.88
436.727	84.88
436.949	98.88
437.17	85.88
437.392	71.88
437.614	68.88
437.835	79.88
438.057	90.88
438.278	76.88
438.5	81.88
438.721	79.88
438.943	79.88
439.165	85.88
439.386	83.88
439.608	85.88
439.829	85.88
440.05	88.88
440.272	86.88
440.493	87.88
440.715	81.88
440.936	76.88
441.158	81.88
441.379	90.88
441.6	82.88
441.822	81.88
442.043	84.88
442.264	91.88
442.486	82.88
442.707	86.88
442.928	87.88
443.149	72.88
443.371	66.88
443.592	84.88
443.813	77.88
444.034	78.88
444.255	71.88
444.476	86.88
444.698	69.88
444.919	67.88
445.14	157.88
445.361	121.88
445.582	89.88
445.803	77.88
446.024	77.88
446.245	88.88
446.466	83.88
446.687	77.88
446.908	71.88
447.129	84.88
447.35	77.88
447.571	84.88
447.792	77.88
448.013	70.88
448.234	79.88
448.455	80.88
448.675	91.88
448.896	83.88
449.117	104.88
449.338	79.88
449.559	86.88
449.779	82.88
450	83.88
450.221	77.88
450.442	85.88
450.662	71.88
450.883	73.88
451.104	81.88
451.324	71.88
451.545	75.88
451.766	86.88
451.986	78.88
452.207	72.88
452.428	79.88
452.648	81.88
452.869	78.88
453.089	82.88
453.31	85.88
453.53	88.88
453.751	87.88
453.971	77.88
454.192	75.88
454.412	83.88
454.633	69.88
454.853	77.88
455.073	88.88
455.294	84.88
455.514	83.88
455.734	100.88
455.955	81.88
456.175	91.88
456.395	81.88
456.616	76.88
456.836	61.88
457.056	83.88
457.276	90.88
457.497	83.88
457.717	85.88
457.937	92.88
458.157	74.88
458.377	80.88
458.598	85.88
458.818	71.88
459.038	80.88
459.258	60.88
459.478	88.88
459.698	89.88
459.918	85.88
460.138	89.88
460.358	71.88
460.578	81.88
460.798	62.88
461.018	79.88
461.238	72.88
461.458	73.88
461.678	78.88
461.898	94.88
462.118	74.88
462.338	79.88
462.558	79.88
462.777	91.88
462.997	93.88
463.217	95.88
463.437	73.88
463.657	83.88
463.876	86.88
464.096	83.88
464.316	80.88
464.536	82.88
464.755	87.88
464.975	78.88
465.195	93.88
465.414	75.88
465.634	86.88
465.854	84.88
466.073	85.88
466.293	75.88
466.512	84.88
466.732	56.88
466.951	80.88
467.171	77.88
467.391	71.88
467.61	88.88
467.829	79.88
468.049	91.88
468.268	90.88
468.488	80.88
468.707	96.88
468.927	90.88
469.146	75.88
469.365	77.88
469.585	69.88
469.804	92.88
470.023	93.88
470.243	87.88
470.462	73.88
470.681	66.88
470.901	75.88
471.12	85.88
471.339	78.88
471.558	83.88
471.777	105.88
471.997	77.88
472.216	79.88
472.435	73.88
472.654	67.88
472.873	89.88
473.092	75.88
473.311	65.88
473.53	67.88
473.749	88.88
473.968	91.88
474.187	91.88
474.406	71.88
474.625	77.88
474.844	84.88
475.063	87.88
475.282	74.88
475.501	78.88
475.72	74.88
475.939	93.88
476.158	80.88
476.377	100.88
476.596	73.88
476.814	65.88
477.033	88.88
477.252	88.88
477.471	83.88
477.69	88.88
477.908	73.88
478.127	71.88
478.346	93.88
478.564	91.88
478.783	75.88
479.002	82.88
479.22	79.88
479.439	82.88
479.658	92.88
479.876	73.88
480.095	68.88
480.313	86.88
480.532	87.88
480.751	72.88
480.969	87.88
481.188	80.88
481.406	96.88
481.624	91.88
481.843	80.88
482.061	74.88
482.28	85.88
482.498	73.88
482.717	68.88
482.935	71.88
483.153	87.88
483.372	81.88
483.59	76.88
483.808	79.88
484.027	84.88
484.245	83.88
484.463	77.88
484.681	94.88
484.9	79.88
485.118	77.88
485.336	79.88
485.554	80.88
485.772	94.88
485.99	73.88
486.209	74.88
486.427	87.88
486.645	75.88
486.863	87.88
487.081	91.88
487.299	89.88
487.517	91.88
487.735	79.88
487.953	90.88
488.171	73.88
488.389	90.88
488.607	83.88
488.825	91.88
489.043	86.88
489.261	95.88
489.479	88.88
489.696	92.88
489.914	82.88
490.132	82.88
490.35	87.88
490.568	72.88
490.786	68.88
491.003	78.88
491.221	86.88
491.439	91.88
491.657	85.88
491.874	87.88
492.092	84.88
492.31	79.88
492.527	91.88
492.745	68.88
492.963	76.88
493.18	83.88
493.398	86.88
493.615	80.88
493.833	76.88
494.05	82.88
494.268	77.88
494.485	79.88
494.703	88.88
494.92	81.88
495.138	85.88
495.355	83.88
495.573	85.88
495.79	91.88
496.008	81.88
496.225	80.88
496.442	78.88
496.66	87.88
496.877	63.88
497.094	88.88
497.312	79.88
497.529	83.88
497.746	80.88
497.963	73.88
498.181	73.88
498.398	64.88
498.615	81.88
498.832	73.88
499.049	85.88
499.267	84.88
499.484	73.88
499.701	92.88
499.918	93.88
500.135	81.88
500.352	84.88
500.569	82.88
500.786	83.88
501.003	86.88
501.22	88.88
501.437	78.88
501.654	85.88
501.871	79.88
502.088	68.88
502.305	75.88
502.522	88.88
502.739	87.88
502.956	77.88
503.172	81.88
503.389	84.88
503.606	73.88
503.823	95.88
504.04	84.88
504.256	95.88
504.473	67.88
504.69	69.88
504.907	83.88
505.123	89.88
505.34	78.88
505.557	96.88
505.773	78.88
505.99	69.88
506.207	92.88
506.423	81.88
506.64	91.88
506.856	83.88
507.073	82.88
507.289	98.88
507.506	77.88
507.722	79.88
507.939	85.88
508.155	88.88
508.372	76.88
508.588	70.88
508.805	85.88
509.021	87.88
509.238	92.88
509.454	84.88
509.67	84.88
509.887	78.88
510.103	78.88
510.319	84.88
510.536	90.88
510.752	81.88
510.968	83.88
511.184	87.88
511.401	89.88
511.617	76.88
511.833	87.88
512.049	84.88
512.265	83.88
512.481	76.88
512.698	94.88
512.914	85.88
513.13	90.88
513.346	74.88
513.562	74.88
513.778	72.88
513.994	76.88
514.21	85.88
514.426	84.88
514.642	69.88
514.858	82.88
515.074	76.88
515.29	97.88
515.506	79.88
515.721	84.88
515.937	104.88
516.153	77.88
516.369	81.88
516.585	95.88
516.801	91.88
517.016	88.88
517.232	71.88
517.448	92.88
517.664	87.88
517.879	99.88
518.095	84.88
518.311	87.88
518.527	95.88
518.742	84.88
518.958	68.88
519.173	77.88
519.389	83.88
519.605	80.88
519.82	86.88
