Data from Background_3_HRD10591_00057.txt Node
Date: Wed Nov 05 14:49:48 EST 2025
User: Yrep
Spectrometer: HR+D1059
Trigger mode: 1
Integration Time (sec): 1.000000E-1
Scans to average: 1
Electric dark correction enabled: true
Nonlinearity correction enabled: false
Boxcar width: 0
XAxis mode: Wavelengths
Number of Pixels in Spectrum: 2048
>>>>>Begin Spectral Data<<<<<
223.165	-19.06
223.4	-19.06
223.635	-19.06
223.869	-21.06
224.104	-10.06
224.338	-18.06
224.573	-21.06
224.808	-5.06
225.042	0.94
225.277	-1.06
225.511	-2.06
225.746	18.94
225.98	4.94
226.215	2.94
226.449	15.94
226.683	16.94
226.918	22.94
227.152	13.94
227.387	28.94
227.621	35.94
227.856	51.94
228.09	38.94
228.324	44.94
228.559	47.94
228.793	54.94
229.027	50.94
229.262	62.94
229.496	64.94
229.73	68.94
229.964	75.94
230.199	67.94
230.433	50.94
230.667	63.94
230.901	83.94
231.136	83.94
231.37	80.94
231.604	74.94
231.838	70.94
232.072	77.94
232.306	72.94
232.541	80.94
232.775	82.94
233.009	87.94
233.243	66.94
233.477	64.94
233.711	87.94
233.945	72.94
234.179	78.94
234.413	71.94
234.647	79.94
234.881	86.94
235.115	70.94
235.349	77.94
235.583	84.94
235.817	74.94
236.051	69.94
236.285	96.94
236.519	74.94
236.753	71.94
236.987	83.94
237.221	64.94
237.455	78.94
237.689	61.94
237.922	75.94
238.156	74.94
238.39	74.94
238.624	62.94
238.858	62.94
239.091	79.94
239.325	83.94
239.559	74.94
239.793	74.94
240.027	68.94
240.26	72.94
240.494	76.94
240.728	75.94
240.961	74.94
241.195	72.94
241.429	63.94
241.662	60.94
241.896	71.94
242.13	64.94
242.363	76.94
242.597	82.94
242.83	65.94
243.064	79.94
243.298	74.94
243.531	70.94
243.765	76.94
243.998	75.94
244.232	81.94
244.465	63.94
244.699	70.94
244.932	78.94
245.166	77.94
245.399	72.94
245.633	78.94
245.866	80.94
246.099	82.94
246.333	74.94
246.566	85.94
246.8	73.94
247.033	79.94
247.266	80.94
247.5	85.94
247.733	72.94
247.966	83.94
248.2	92.94
248.433	74.94
248.666	63.94
248.899	80.94
249.133	64.94
249.366	73.94
249.599	76.94
249.832	72.94
250.066	76.94
250.299	80.94
250.532	86.94
250.765	73.94
250.998	69.94
251.231	75.94
251.465	67.94
251.698	74.94
251.931	86.94
252.164	76.94
252.397	82.94
252.63	82.94
252.863	76.94
253.096	77.94
253.329	74.94
253.562	74.94
253.795	80.94
254.028	67.94
254.261	65.94
254.494	80.94
254.727	66.94
254.96	69.94
255.193	71.94
255.426	78.94
255.659	71.94
255.892	85.94
256.124	78.94
256.357	78.94
256.59	77.94
256.823	83.94
257.056	72.94
257.289	80.94
257.521	86.94
257.754	68.94
257.987	67.94
258.22	80.94
258.452	68.94
258.685	90.94
258.918	66.94
259.151	82.94
259.383	87.94
259.616	67.94
259.849	81.94
260.081	91.94
260.314	82.94
260.547	85.94
260.779	71.94
261.012	87.94
261.244	95.94
261.477	77.94
261.71	88.94
261.942	79.94
262.175	80.94
262.407	77.94
262.64	80.94
262.872	78.94
263.105	74.94
263.337	85.94
263.57	84.94
263.802	72.94
264.035	77.94
264.267	80.94
264.499	84.94
264.732	89.94
264.964	74.94
265.197	68.94
265.429	62.94
265.661	85.94
265.894	82.94
266.126	81.94
266.358	88.94
266.591	74.94
266.823	68.94
267.055	80.94
267.287	74.94
267.52	79.94
267.752	69.94
267.984	62.94
268.216	77.94
268.448	74.94
268.681	86.94
268.913	92.94
269.145	94.94
269.377	88.94
269.609	75.94
269.841	59.94
270.073	83.94
270.306	79.94
270.538	72.94
270.77	76.94
271.002	73.94
271.234	87.94
271.466	86.94
271.698	80.94
271.93	82.94
272.162	86.94
272.394	82.94
272.626	88.94
272.858	80.94
273.09	82.94
273.322	84.94
273.553	73.94
273.785	79.94
274.017	86.94
274.249	89.94
274.481	90.94
274.713	79.94
274.945	83.94
275.176	76.94
275.408	93.94
275.64	81.94
275.872	75.94
276.104	73.94
276.335	80.94
276.567	80.94
276.799	76.94
277.031	79.94
277.262	72.94
277.494	78.94
277.726	85.94
277.957	93.94
278.189	83.94
278.421	88.94
278.652	85.94
278.884	82.94
279.115	86.94
279.347	89.94
279.579	94.94
279.81	80.94
280.042	76.94
280.273	79.94
280.505	91.94
280.736	69.94
280.968	96.94
281.199	87.94
281.431	89.94
281.662	96.94
281.894	86.94
282.125	94.94
282.356	81.94
282.588	80.94
282.819	95.94
283.051	71.94
283.282	85.94
283.513	72.94
283.745	75.94
283.976	84.94
284.207	78.94
284.439	77.94
284.67	82.94
284.901	70.94
285.132	81.94
285.364	83.94
285.595	94.94
285.826	89.94
286.057	84.94
286.288	74.94
286.52	91.94
286.751	83.94
286.982	76.94
287.213	76.94
287.444	92.94
287.675	79.94
287.906	81.94
288.138	84.94
288.369	86.94
288.6	96.94
288.831	81.94
289.062	72.94
289.293	86.94
289.524	78.94
289.755	70.94
289.986	81.94
290.217	75.94
290.448	84.94
290.679	83.94
290.91	78.94
291.141	76.94
291.371	82.94
291.602	95.94
291.833	80.94
292.064	87.94
292.295	72.94
292.526	97.94
292.757	93.94
292.987	75.94
293.218	76.94
293.449	72.94
293.68	102.94
293.91	86.94
294.141	85.94
294.372	91.94
294.603	81.94
294.833	90.94
295.064	82.94
295.295	72.94
295.525	75.94
295.756	78.94
295.987	83.94
296.217	74.94
296.448	75.94
296.679	86.94
296.909	70.94
297.14	82.94
297.37	91.94
297.601	80.94
297.831	67.94
298.062	92.94
298.292	86.94
298.523	82.94
298.753	86.94
298.984	88.94
299.214	74.94
299.445	95.94
299.675	85.94
299.905	80.94
300.136	82.94
300.366	83.94
300.597	76.94
300.827	64.94
301.057	86.94
301.288	66.94
301.518	87.94
301.748	74.94
301.979	95.94
302.209	78.94
302.439	72.94
302.669	75.94
302.9	89.94
303.13	68.94
303.36	75.94
303.59	86.94
303.82	92.94
304.051	92.94
304.281	65.94
304.511	92.94
304.741	82.94
304.971	78.94
305.201	83.94
305.431	82.94
305.661	88.94
305.891	92.94
306.121	80.94
306.352	84.94
306.582	74.94
306.812	69.94
307.042	76.94
307.272	65.94
307.502	67.94
307.731	88.94
307.961	72.94
308.191	89.94
308.421	81.94
308.651	79.94
308.881	83.94
309.111	85.94
309.341	84.94
309.571	76.94
309.8	99.94
310.03	79.94
310.26	86.94
310.49	83.94
310.72	83.94
310.949	82.94
311.179	70.94
311.409	79.94
311.639	82.94
311.868	85.94
312.098	82.94
312.328	72.94
312.557	71.94
312.787	76.94
313.017	76.94
313.246	88.94
313.476	98.94
313.706	80.94
313.935	93.94
314.165	83.94
314.394	84.94
314.624	91.94
314.853	94.94
315.083	76.94
315.312	86.94
315.542	87.94
315.771	83.94
316.001	92.94
316.23	94.94
316.46	82.94
316.689	82.94
316.919	69.94
317.148	71.94
317.377	90.94
317.607	84.94
317.836	71.94
318.065	82.94
318.295	78.94
318.524	87.94
318.753	72.94
318.983	88.94
319.212	82.94
319.441	70.94
319.67	86.94
319.9	86.94
320.129	69.94
320.358	79.94
320.587	89.94
320.816	78.94
321.046	91.94
321.275	74.94
321.504	76.94
321.733	80.94
321.962	75.94
322.191	85.94
322.42	94.94
322.649	76.94
322.878	83.94
323.108	94.94
323.337	86.94
323.566	75.94
323.795	84.94
324.024	71.94
324.253	91.94
324.482	76.94
324.71	70.94
324.939	76.94
325.168	93.94
325.397	92.94
325.626	81.94
325.855	80.94
326.084	94.94
326.313	81.94
326.542	83.94
326.77	85.94
326.999	78.94
327.228	86.94
327.457	80.94
327.686	82.94
327.914	71.94
328.143	87.94
328.372	89.94
328.6	86.94
328.829	82.94
329.058	71.94
329.287	71.94
329.515	74.94
329.744	89.94
329.972	76.94
330.201	74.94
330.43	77.94
330.658	78.94
330.887	81.94
331.115	80.94
331.344	87.94
331.572	93.94
331.801	91.94
332.03	83.94
332.258	79.94
332.486	76.94
332.715	75.94
332.943	71.94
333.172	94.94
333.4	83.94
333.629	84.94
333.857	71.94
334.085	83.94
334.314	75.94
334.542	81.94
334.771	89.94
334.999	82.94
335.227	92.94
335.455	81.94
335.684	88.94
335.912	82.94
336.14	79.94
336.369	90.94
336.597	84.94
336.825	83.94
337.053	102.94
337.281	86.94
337.51	83.94
337.738	86.94
337.966	90.94
338.194	78.94
338.422	77.94
338.65	89.94
338.878	81.94
339.106	88.94
339.334	88.94
339.562	91.94
339.79	87.94
340.018	72.94
340.246	68.94
340.474	74.94
340.702	84.94
340.93	77.94
341.158	87.94
341.386	79.94
341.614	64.94
341.842	75.94
342.07	77.94
342.298	82.94
342.526	82.94
342.754	84.94
342.981	92.94
343.209	77.94
343.437	88.94
343.665	88.94
343.893	79.94
344.12	92.94
344.348	94.94
344.576	83.94
344.804	92.94
345.031	94.94
345.259	79.94
345.487	81.94
345.714	96.94
345.942	78.94
346.17	89.94
346.397	71.94
346.625	79.94
346.853	100.94
347.08	90.94
347.308	80.94
347.535	78.94
347.763	88.94
347.99	84.94
348.218	77.94
348.445	86.94
348.673	73.94
348.9	90.94
349.128	84.94
349.355	90.94
349.583	82.94
349.81	82.94
350.037	92.94
350.265	72.94
350.492	93.94
350.72	78.94
350.947	79.94
351.174	71.94
351.402	69.94
351.629	77.94
351.856	78.94
352.083	72.94
352.311	72.94
352.538	79.94
352.765	78.94
352.992	91.94
353.22	95.94
353.447	79.94
353.674	85.94
353.901	85.94
354.128	87.94
354.355	74.94
354.583	79.94
354.81	74.94
355.037	80.94
355.264	79.94
355.491	78.94
355.718	71.94
355.945	85.94
356.172	78.94
356.399	85.94
356.626	88.94
356.853	87.94
357.08	89.94
357.307	88.94
357.534	80.94
357.761	73.94
357.988	98.94
358.215	80.94
358.441	71.94
358.668	84.94
358.895	83.94
359.122	75.94
359.349	77.94
359.576	82.94
359.802	85.94
360.029	92.94
360.256	78.94
360.483	81.94
360.709	82.94
360.936	93.94
361.163	80.94
361.39	82.94
361.616	74.94
361.843	88.94
362.07	76.94
362.296	76.94
362.523	78.94
362.749	82.94
362.976	84.94
363.203	89.94
363.429	75.94
363.656	82.94
363.882	81.94
364.109	90.94
364.335	84.94
364.562	81.94
364.788	81.94
365.015	82.94
365.241	70.94
365.468	92.94
365.694	84.94
365.92	75.94
366.147	90.94
366.373	87.94
366.599	58.94
366.826	90.94
367.052	76.94
367.278	79.94
367.505	78.94
367.731	72.94
367.957	88.94
368.184	84.94
368.41	82.94
368.636	72.94
368.862	79.94
369.089	81.94
369.315	76.94
369.541	82.94
369.767	87.94
369.993	80.94
370.219	72.94
370.445	76.94
370.672	95.94
370.898	87.94
371.124	77.94
371.35	82.94
371.576	81.94
371.802	79.94
372.028	78.94
372.254	76.94
372.48	79.94
372.706	89.94
372.932	76.94
373.158	72.94
373.384	78.94
373.61	97.94
373.835	84.94
374.061	81.94
374.287	72.94
374.513	90.94
374.739	82.94
374.965	86.94
375.191	79.94
375.416	73.94
375.642	88.94
375.868	87.94
376.094	79.94
376.319	77.94
376.545	92.94
376.771	79.94
376.997	66.94
377.222	78.94
377.448	73.94
377.674	76.94
377.899	78.94
378.125	61.94
378.35	79.94
378.576	86.94
378.802	80.94
379.027	76.94
379.253	75.94
379.478	86.94
379.704	64.94
379.929	70.94
380.155	80.94
380.38	77.94
380.606	67.94
380.831	72.94
381.057	82.94
381.282	82.94
381.507	91.94
381.733	85.94
381.958	82.94
382.184	83.94
382.409	79.94
382.634	70.94
382.86	74.94
383.085	80.94
383.31	75.94
383.535	76.94
383.761	82.94
383.986	64.94
384.211	88.94
384.436	66.94
384.662	76.94
384.887	72.94
385.112	76.94
385.337	83.94
385.562	87.94
385.787	84.94
386.013	90.94
386.238	68.94
386.463	81.94
386.688	82.94
386.913	82.94
387.138	82.94
387.363	81.94
387.588	80.94
387.813	81.94
388.038	78.94
388.263	77.94
388.488	70.94
388.713	73.94
388.938	76.94
389.163	89.94
389.387	78.94
389.612	83.94
389.837	76.94
390.062	80.94
390.287	75.94
390.512	89.94
390.736	83.94
390.961	79.94
391.186	76.94
391.411	84.94
391.636	77.94
391.86	78.94
392.085	74.94
392.31	78.94
392.534	75.94
392.759	77.94
392.984	75.94
393.208	71.94
393.433	61.94
393.658	76.94
393.882	82.94
394.107	74.94
394.331	72.94
394.556	87.94
394.78	80.94
395.005	79.94
395.229	79.94
395.454	77.94
395.678	84.94
395.903	80.94
396.127	83.94
396.352	83.94
396.576	65.94
396.801	79.94
397.025	91.94
397.249	90.94
397.474	76.94
397.698	75.94
397.922	89.94
398.147	85.94
398.371	74.94
398.595	87.94
398.82	88.94
399.044	83.94
399.268	74.94
399.492	77.94
399.717	72.94
399.941	83.94
400.165	74.94
400.389	69.94
400.613	69.94
400.837	74.94
401.062	76.94
401.286	84.94
401.51	75.94
401.734	95.94
401.958	86.94
402.182	78.94
402.406	75.94
402.63	68.94
402.854	68.94
403.078	67.94
403.302	66.94
403.526	73.94
403.75	74.94
403.974	78.94
404.198	79.94
404.422	88.94
404.645	80.94
404.869	90.94
405.093	78.94
405.317	87.94
405.541	82.94
405.765	80.94
405.988	78.94
406.212	94.94
406.436	91.94
406.66	75.94
406.883	88.94
407.107	83.94
407.331	82.94
407.555	84.94
407.778	79.94
408.002	78.94
408.226	89.94
408.449	71.94
408.673	85.94
408.896	72.94
409.12	96.94
409.344	61.94
409.567	81.94
409.791	74.94
410.014	86.94
410.238	73.94
410.461	81.94
410.685	75.94
410.908	74.94
411.132	76.94
411.355	69.94
411.578	64.94
411.802	81.94
412.025	76.94
412.249	76.94
412.472	88.94
412.695	68.94
412.919	76.94
413.142	93.94
413.365	70.94
413.589	82.94
413.812	65.94
414.035	84.94
414.258	76.94
414.482	81.94
414.705	72.94
414.928	89.94
415.151	78.94
415.374	75.94
415.597	71.94
415.821	63.94
416.044	96.94
416.267	75.94
416.49	74.94
416.713	69.94
416.936	82.94
417.159	85.94
417.382	79.94
417.605	73.94
417.828	88.94
418.051	90.94
418.274	82.94
418.497	79.94
418.72	88.94
418.943	76.94
419.166	74.94
419.389	76.94
419.611	60.94
419.834	72.94
420.057	76.94
420.28	78.94
420.503	81.94
420.726	74.94
420.948	78.94
421.171	75.94
421.394	82.94
421.617	78.94
421.839	92.94
422.062	76.94
422.285	87.94
422.507	82.94
422.73	76.94
422.953	75.94
423.175	80.94
423.398	75.94
423.621	66.94
423.843	75.94
424.066	90.94
424.288	87.94
424.511	69.94
424.733	81.94
424.956	65.94
425.178	92.94
425.401	88.94
425.623	79.94
425.846	82.94
426.068	87.94
426.291	78.94
426.513	84.94
426.735	86.94
426.958	90.94
427.18	78.94
427.402	80.94
427.625	87.94
427.847	77.94
428.069	90.94
428.292	66.94
428.514	70.94
428.736	71.94
428.958	82.94
429.181	74.94
429.403	81.94
429.625	70.94
429.847	81.94
430.069	83.94
430.292	73.94
430.514	77.94
430.736	76.94
430.958	94.94
431.18	75.94
431.402	84.94
431.624	71.94
431.846	76.94
432.068	78.94
432.29	88.94
432.512	76.94
432.734	78.94
432.956	80.94
433.178	69.94
433.4	74.94
433.622	81.94
433.844	87.94
434.066	82.94
434.287	70.94
434.509	88.94
434.731	73.94
434.953	75.94
435.175	65.94
435.397	82.94
435.618	80.94
435.84	65.94
436.062	72.94
436.284	82.94
436.505	68.94
436.727	82.94
436.949	66.94
437.17	78.94
437.392	91.94
437.614	81.94
437.835	76.94
438.057	82.94
438.278	80.94
438.5	88.94
438.721	74.94
438.943	86.94
439.165	73.94
439.386	85.94
439.608	80.94
439.829	71.94
440.05	78.94
440.272	73.94
440.493	73.94
440.715	82.94
440.936	67.94
441.158	72.94
441.379	92.94
441.6	72.94
441.822	67.94
442.043	74.94
442.264	77.94
442.486	77.94
442.707	78.94
442.928	75.94
443.149	74.94
443.371	97.94
443.592	76.94
443.813	81.94
444.034	82.94
444.255	77.94
444.476	75.94
444.698	79.94
444.919	72.94
445.14	146.94
445.361	115.94
445.582	73.94
445.803	67.94
446.024	74.94
446.245	69.94
446.466	74.94
446.687	76.94
446.908	75.94
447.129	90.94
447.35	78.94
447.571	80.94
447.792	69.94
448.013	80.94
448.234	72.94
448.455	83.94
448.675	78.94
448.896	83.94
449.117	96.94
449.338	76.94
449.559	72.94
449.779	74.94
450	77.94
450.221	73.94
450.442	80.94
450.662	74.94
450.883	69.94
451.104	80.94
451.324	77.94
451.545	81.94
451.766	74.94
451.986	76.94
452.207	84.94
452.428	78.94
452.648	78.94
452.869	76.94
453.089	82.94
453.31	79.94
453.53	91.94
453.751	86.94
453.971	74.94
454.192	70.94
454.412	64.94
454.633	73.94
454.853	90.94
455.073	86.94
455.294	74.94
455.514	80.94
455.734	78.94
455.955	89.94
456.175	72.94
456.395	75.94
456.616	79.94
456.836	71.94
457.056	68.94
457.276	75.94
457.497	76.94
457.717	87.94
457.937	81.94
458.157	74.94
458.377	92.94
458.598	74.94
458.818	74.94
459.038	74.94
459.258	80.94
459.478	80.94
459.698	83.94
459.918	72.94
460.138	67.94
460.358	74.94
460.578	82.94
460.798	84.94
461.018	75.94
461.238	79.94
461.458	76.94
461.678	84.94
461.898	66.94
462.118	85.94
462.338	65.94
462.558	84.94
462.777	73.94
462.997	89.94
463.217	87.94
463.437	75.94
463.657	78.94
463.876	74.94
464.096	72.94
464.316	79.94
464.536	79.94
464.755	69.94
464.975	72.94
465.195	80.94
465.414	87.94
465.634	88.94
465.854	80.94
466.073	80.94
466.293	81.94
466.512	96.94
466.732	79.94
466.951	75.94
467.171	81.94
467.391	72.94
467.61	62.94
467.829	84.94
468.049	75.94
468.268	80.94
468.488	64.94
468.707	68.94
468.927	60.94
469.146	75.94
469.365	75.94
469.585	76.94
469.804	74.94
470.023	77.94
470.243	74.94
470.462	62.94
470.681	69.94
470.901	60.94
471.12	70.94
471.339	88.94
471.558	72.94
471.777	77.94
471.997	86.94
472.216	100.94
472.435	82.94
472.654	82.94
472.873	66.94
473.092	86.94
473.311	81.94
473.53	74.94
473.749	90.94
473.968	75.94
474.187	86.94
474.406	72.94
474.625	92.94
474.844	68.94
475.063	78.94
475.282	66.94
475.501	71.94
475.72	80.94
475.939	71.94
476.158	70.94
476.377	88.94
476.596	84.94
476.814	82.94
477.033	80.94
477.252	79.94
477.471	69.94
477.69	91.94
477.908	82.94
478.127	77.94
478.346	83.94
478.564	90.94
478.783	74.94
479.002	61.94
479.22	79.94
479.439	83.94
479.658	91.94
479.876	80.94
480.095	83.94
480.313	85.94
480.532	74.94
480.751	68.94
480.969	90.94
481.188	70.94
481.406	94.94
481.624	83.94
481.843	82.94
482.061	80.94
482.28	91.94
482.498	95.94
482.717	75.94
482.935	74.94
483.153	73.94
483.372	71.94
483.59	73.94
483.808	74.94
484.027	93.94
484.245	94.94
484.463	75.94
484.681	94.94
484.9	84.94
485.118	94.94
485.336	74.94
485.554	72.94
485.772	74.94
485.99	82.94
486.209	82.94
486.427	67.94
486.645	75.94
486.863	82.94
487.081	78.94
487.299	67.94
487.517	94.94
487.735	81.94
487.953	78.94
488.171	72.94
488.389	92.94
488.607	69.94
488.825	68.94
489.043	67.94
489.261	68.94
489.479	86.94
489.696	77.94
489.914	74.94
490.132	90.94
490.35	73.94
490.568	64.94
490.786	86.94
491.003	79.94
491.221	81.94
491.439	60.94
491.657	74.94
491.874	82.94
492.092	87.94
492.31	104.94
492.527	91.94
492.745	78.94
492.963	71.94
493.18	88.94
493.398	82.94
493.615	84.94
493.833	60.94
494.05	80.94
494.268	87.94
494.485	86.94
494.703	76.94
494.92	82.94
495.138	86.94
495.355	76.94
495.573	88.94
495.79	83.94
496.008	72.94
496.225	73.94
496.442	76.94
496.66	87.94
496.877	92.94
497.094	79.94
497.312	86.94
497.529	88.94
497.746	72.94
497.963	85.94
498.181	82.94
498.398	82.94
498.615	80.94
498.832	70.94
499.049	76.94
499.267	85.94
499.484	91.94
499.701	86.94
499.918	88.94
500.135	70.94
500.352	68.94
500.569	69.94
500.786	88.94
501.003	78.94
501.22	75.94
501.437	79.94
501.654	76.94
501.871	70.94
502.088	72.94
502.305	88.94
502.522	75.94
502.739	84.94
502.956	74.94
503.172	80.94
503.389	78.94
503.606	75.94
503.823	72.94
504.04	79.94
504.256	86.94
504.473	80.94
504.69	76.94
504.907	97.94
505.123	81.94
505.34	81.94
505.557	90.94
505.773	83.94
505.99	90.94
506.207	88.94
506.423	94.94
506.64	87.94
506.856	82.94
507.073	80.94
507.289	58.94
507.506	69.94
507.722	86.94
507.939	57.94
508.155	84.94
508.372	84.94
508.588	77.94
508.805	72.94
509.021	92.94
509.238	75.94
509.454	71.94
509.67	77.94
509.887	81.94
510.103	84.94
510.319	81.94
510.536	77.94
510.752	77.94
510.968	71.94
511.184	76.94
511.401	87.94
511.617	76.94
511.833	74.94
512.049	79.94
512.265	85.94
512.481	77.94
512.698	76.94
512.914	80.94
513.13	72.94
513.346	68.94
513.562	88.94
513.778	83.94
513.994	97.94
514.21	79.94
514.426	82.94
514.642	75.94
514.858	75.94
515.074	71.94
515.29	77.94
515.506	75.94
515.721	79.94
515.937	77.94
516.153	66.94
516.369	77.94
516.585	86.94
516.801	86.94
517.016	94.94
517.232	72.94
517.448	84.94
517.664	83.94
517.879	77.94
518.095	75.94
518.311	76.94
518.527	84.94
518.742	84.94
518.958	86.94
519.173	96.94
519.389	84.94
519.605	69.94
519.82	79.94
520.036	90.94
520.251	85.94
