Data from Background_3_HRD10591_00063.txt Node
Date: Wed Nov 05 14:49:51 EST 2025
User: Yrep
Spectrometer: HR+D1059
Trigger mode: 1
Integration Time (sec): 1.000000E-1
Scans to average: 1
Electric dark correction enabled: true
Nonlinearity correction enabled: false
Boxcar width: 0
XAxis mode: Wavelengths
Number of Pixels in Spectrum: 2048
>>>>>Begin Spectral Data<<<<<
223.165	-18.75
223.4	-18.75
223.635	-18.75
223.869	-19.75
224.104	-18.75
224.338	-25.75
224.573	-14.75
224.808	-19.75
225.042	-4.75
225.277	-4.75
225.511	0.25
225.746	1.25
225.98	13.25
226.215	15.25
226.449	19.25
226.683	28.25
226.918	21.25
227.152	28.25
227.387	36.25
227.621	37.25
227.856	45.25
228.09	34.25
228.324	45.25
228.559	46.25
228.793	54.25
229.027	65.25
229.262	56.25
229.496	72.25
229.73	58.25
229.964	73.25
230.199	78.25
230.433	76.25
230.667	75.25
230.901	85.25
231.136	80.25
231.37	65.25
231.604	86.25
231.838	83.25
232.072	82.25
232.306	78.25
232.541	69.25
232.775	81.25
233.009	86.25
233.243	78.25
233.477	81.25
233.711	87.25
233.945	77.25
234.179	69.25
234.413	79.25
234.647	79.25
234.881	75.25
235.115	90.25
235.349	74.25
235.583	85.25
235.817	89.25
236.051	80.25
236.285	84.25
236.519	75.25
236.753	68.25
236.987	74.25
237.221	68.25
237.455	78.25
237.689	91.25
237.922	84.25
238.156	81.25
238.39	72.25
238.624	95.25
238.858	69.25
239.091	82.25
239.325	79.25
239.559	79.25
239.793	70.25
240.027	70.25
240.26	64.25
240.494	73.25
240.728	80.25
240.961	73.25
241.195	90.25
241.429	73.25
241.662	76.25
241.896	76.25
242.13	85.25
242.363	70.25
242.597	70.25
242.83	83.25
243.064	69.25
243.298	79.25
243.531	88.25
243.765	78.25
243.998	70.25
244.232	82.25
244.465	76.25
244.699	87.25
244.932	80.25
245.166	67.25
245.399	88.25
245.633	94.25
245.866	77.25
246.099	78.25
246.333	73.25
246.566	76.25
246.8	84.25
247.033	76.25
247.266	84.25
247.5	79.25
247.733	80.25
247.966	70.25
248.2	83.25
248.433	78.25
248.666	80.25
248.899	90.25
249.133	87.25
249.366	77.25
249.599	74.25
249.832	95.25
250.066	80.25
250.299	80.25
250.532	85.25
250.765	85.25
250.998	72.25
251.231	85.25
251.465	78.25
251.698	76.25
251.931	87.25
252.164	86.25
252.397	80.25
252.63	83.25
252.863	86.25
253.096	81.25
253.329	82.25
253.562	74.25
253.795	85.25
254.028	80.25
254.261	94.25
254.494	86.25
254.727	76.25
254.96	80.25
255.193	84.25
255.426	80.25
255.659	76.25
255.892	85.25
256.124	90.25
256.357	67.25
256.59	78.25
256.823	71.25
257.056	75.25
257.289	73.25
257.521	91.25
257.754	74.25
257.987	80.25
258.22	75.25
258.452	83.25
258.685	82.25
258.918	72.25
259.151	87.25
259.383	79.25
259.616	94.25
259.849	91.25
260.081	94.25
260.314	101.25
260.547	86.25
260.779	78.25
261.012	69.25
261.244	75.25
261.477	86.25
261.71	82.25
261.942	82.25
262.175	83.25
262.407	79.25
262.64	67.25
262.872	74.25
263.105	74.25
263.337	85.25
263.57	72.25
263.802	85.25
264.035	67.25
264.267	84.25
264.499	93.25
264.732	94.25
264.964	77.25
265.197	91.25
265.429	94.25
265.661	82.25
265.894	80.25
266.126	70.25
266.358	81.25
266.591	72.25
266.823	76.25
267.055	91.25
267.287	72.25
267.52	76.25
267.752	95.25
267.984	82.25
268.216	78.25
268.448	80.25
268.681	80.25
268.913	85.25
269.145	79.25
269.377	84.25
269.609	87.25
269.841	90.25
270.073	97.25
270.306	82.25
270.538	83.25
270.77	80.25
271.002	79.25
271.234	81.25
271.466	89.25
271.698	72.25
271.93	76.25
272.162	83.25
272.394	78.25
272.626	74.25
272.858	81.25
273.09	85.25
273.322	74.25
273.553	76.25
273.785	83.25
274.017	71.25
274.249	72.25
274.481	89.25
274.713	82.25
274.945	83.25
275.176	88.25
275.408	92.25
275.64	88.25
275.872	78.25
276.104	73.25
276.335	83.25
276.567	68.25
276.799	86.25
277.031	78.25
277.262	86.25
277.494	88.25
277.726	91.25
277.957	66.25
278.189	83.25
278.421	87.25
278.652	80.25
278.884	79.25
279.115	85.25
279.347	76.25
279.579	78.25
279.81	95.25
280.042	81.25
280.273	84.25
280.505	75.25
280.736	84.25
280.968	95.25
281.199	87.25
281.431	74.25
281.662	89.25
281.894	71.25
282.125	83.25
282.356	77.25
282.588	96.25
282.819	78.25
283.051	83.25
283.282	80.25
283.513	92.25
283.745	89.25
283.976	83.25
284.207	68.25
284.439	74.25
284.67	74.25
284.901	75.25
285.132	75.25
285.364	77.25
285.595	81.25
285.826	92.25
286.057	97.25
286.288	83.25
286.52	77.25
286.751	84.25
286.982	83.25
287.213	94.25
287.444	98.25
287.675	92.25
287.906	87.25
288.138	92.25
288.369	92.25
288.6	80.25
288.831	82.25
289.062	76.25
289.293	77.25
289.524	84.25
289.755	86.25
289.986	78.25
290.217	90.25
290.448	88.25
290.679	82.25
290.91	85.25
291.141	68.25
291.371	83.25
291.602	79.25
291.833	84.25
292.064	75.25
292.295	89.25
292.526	90.25
292.757	89.25
292.987	84.25
293.218	63.25
293.449	77.25
293.68	90.25
293.91	85.25
294.141	91.25
294.372	82.25
294.603	84.25
294.833	71.25
295.064	86.25
295.295	74.25
295.525	76.25
295.756	81.25
295.987	75.25
296.217	81.25
296.448	82.25
296.679	86.25
296.909	79.25
297.14	81.25
297.37	101.25
297.601	91.25
297.831	79.25
298.062	84.25
298.292	85.25
298.523	83.25
298.753	96.25
298.984	89.25
299.214	80.25
299.445	78.25
299.675	84.25
299.905	94.25
300.136	69.25
300.366	85.25
300.597	95.25
300.827	80.25
301.057	86.25
301.288	73.25
301.518	74.25
301.748	84.25
301.979	102.25
302.209	89.25
302.439	84.25
302.669	78.25
302.9	80.25
303.13	91.25
303.36	71.25
303.59	79.25
303.82	79.25
304.051	101.25
304.281	82.25
304.511	86.25
304.741	93.25
304.971	70.25
305.201	98.25
305.431	94.25
305.661	92.25
305.891	92.25
306.121	93.25
306.352	94.25
306.582	84.25
306.812	94.25
307.042	102.25
307.272	91.25
307.502	87.25
307.731	76.25
307.961	96.25
308.191	80.25
308.421	85.25
308.651	87.25
308.881	92.25
309.111	88.25
309.341	71.25
309.571	83.25
309.8	80.25
310.03	97.25
310.26	88.25
310.49	88.25
310.72	81.25
310.949	96.25
311.179	81.25
311.409	80.25
311.639	94.25
311.868	88.25
312.098	79.25
312.328	98.25
312.557	97.25
312.787	96.25
313.017	97.25
313.246	72.25
313.476	82.25
313.706	82.25
313.935	78.25
314.165	97.25
314.394	79.25
314.624	82.25
314.853	90.25
315.083	81.25
315.312	87.25
315.542	81.25
315.771	77.25
316.001	78.25
316.23	96.25
316.46	89.25
316.689	83.25
316.919	70.25
317.148	89.25
317.377	94.25
317.607	84.25
317.836	72.25
318.065	86.25
318.295	95.25
318.524	103.25
318.753	93.25
318.983	90.25
319.212	98.25
319.441	83.25
319.67	86.25
319.9	86.25
320.129	82.25
320.358	78.25
320.587	79.25
320.816	77.25
321.046	87.25
321.275	97.25
321.504	80.25
321.733	90.25
321.962	82.25
322.191	79.25
322.42	72.25
322.649	86.25
322.878	91.25
323.108	89.25
323.337	80.25
323.566	76.25
323.795	84.25
324.024	92.25
324.253	81.25
324.482	78.25
324.71	78.25
324.939	90.25
325.168	96.25
325.397	87.25
325.626	93.25
325.855	78.25
326.084	95.25
326.313	84.25
326.542	85.25
326.77	80.25
326.999	90.25
327.228	79.25
327.457	92.25
327.686	96.25
327.914	83.25
328.143	78.25
328.372	78.25
328.6	77.25
328.829	92.25
329.058	76.25
329.287	82.25
329.515	92.25
329.744	85.25
329.972	73.25
330.201	88.25
330.43	99.25
330.658	90.25
330.887	81.25
331.115	96.25
331.344	83.25
331.572	93.25
331.801	88.25
332.03	98.25
332.258	94.25
332.486	78.25
332.715	86.25
332.943	91.25
333.172	79.25
333.4	92.25
333.629	86.25
333.857	82.25
334.085	88.25
334.314	89.25
334.542	87.25
334.771	90.25
334.999	103.25
335.227	90.25
335.455	90.25
335.684	80.25
335.912	74.25
336.14	84.25
336.369	94.25
336.597	73.25
336.825	95.25
337.053	78.25
337.281	84.25
337.51	80.25
337.738	86.25
337.966	78.25
338.194	83.25
338.422	90.25
338.65	92.25
338.878	89.25
339.106	85.25
339.334	82.25
339.562	87.25
339.79	94.25
340.018	78.25
340.246	82.25
340.474	91.25
340.702	82.25
340.93	85.25
341.158	92.25
341.386	97.25
341.614	95.25
341.842	86.25
342.07	81.25
342.298	101.25
342.526	79.25
342.754	83.25
342.981	90.25
343.209	88.25
343.437	95.25
343.665	95.25
343.893	95.25
344.12	99.25
344.348	84.25
344.576	86.25
344.804	76.25
345.031	83.25
345.259	80.25
345.487	74.25
345.714	80.25
345.942	73.25
346.17	85.25
346.397	90.25
346.625	94.25
346.853	66.25
347.08	84.25
347.308	85.25
347.535	89.25
347.763	88.25
347.99	81.25
348.218	81.25
348.445	79.25
348.673	74.25
348.9	72.25
349.128	87.25
349.355	81.25
349.583	85.25
349.81	86.25
350.037	82.25
350.265	78.25
350.492	81.25
350.72	82.25
350.947	83.25
351.174	110.25
351.402	86.25
351.629	79.25
351.856	94.25
352.083	84.25
352.311	78.25
352.538	83.25
352.765	92.25
352.992	86.25
353.22	83.25
353.447	86.25
353.674	86.25
353.901	102.25
354.128	87.25
354.355	85.25
354.583	83.25
354.81	82.25
355.037	88.25
355.264	86.25
355.491	76.25
355.718	83.25
355.945	88.25
356.172	71.25
356.399	70.25
356.626	83.25
356.853	90.25
357.08	80.25
357.307	80.25
357.534	81.25
357.761	97.25
357.988	86.25
358.215	79.25
358.441	87.25
358.668	92.25
358.895	86.25
359.122	84.25
359.349	84.25
359.576	93.25
359.802	78.25
360.029	95.25
360.256	89.25
360.483	70.25
360.709	90.25
360.936	84.25
361.163	99.25
361.39	72.25
361.616	78.25
361.843	81.25
362.07	86.25
362.296	69.25
362.523	84.25
362.749	84.25
362.976	68.25
363.203	92.25
363.429	86.25
363.656	79.25
363.882	85.25
364.109	88.25
364.335	91.25
364.562	78.25
364.788	92.25
365.015	68.25
365.241	78.25
365.468	94.25
365.694	71.25
365.92	86.25
366.147	77.25
366.373	88.25
366.599	79.25
366.826	74.25
367.052	90.25
367.278	81.25
367.505	95.25
367.731	92.25
367.957	95.25
368.184	98.25
368.41	86.25
368.636	76.25
368.862	102.25
369.089	90.25
369.315	53.25
369.541	84.25
369.767	86.25
369.993	107.25
370.219	99.25
370.445	77.25
370.672	86.25
370.898	84.25
371.124	84.25
371.35	64.25
371.576	72.25
371.802	64.25
372.028	70.25
372.254	87.25
372.48	88.25
372.706	87.25
372.932	89.25
373.158	78.25
373.384	84.25
373.61	97.25
373.835	84.25
374.061	78.25
374.287	80.25
374.513	93.25
374.739	84.25
374.965	83.25
375.191	89.25
375.416	98.25
375.642	82.25
375.868	75.25
376.094	86.25
376.319	95.25
376.545	78.25
376.771	95.25
376.997	83.25
377.222	79.25
377.448	79.25
377.674	91.25
377.899	70.25
378.125	98.25
378.35	102.25
378.576	70.25
378.802	72.25
379.027	76.25
379.253	86.25
379.478	80.25
379.704	86.25
379.929	78.25
380.155	77.25
380.38	90.25
380.606	79.25
380.831	82.25
381.057	82.25
381.282	69.25
381.507	74.25
381.733	83.25
381.958	86.25
382.184	89.25
382.409	90.25
382.634	89.25
382.86	85.25
383.085	90.25
383.31	85.25
383.535	86.25
383.761	83.25
383.986	80.25
384.211	94.25
384.436	95.25
384.662	82.25
384.887	82.25
385.112	94.25
385.337	85.25
385.562	97.25
385.787	86.25
386.013	83.25
386.238	82.25
386.463	79.25
386.688	100.25
386.913	81.25
387.138	81.25
387.363	76.25
387.588	78.25
387.813	82.25
388.038	95.25
388.263	86.25
388.488	95.25
388.713	92.25
388.938	83.25
389.163	79.25
389.387	92.25
389.612	78.25
389.837	86.25
390.062	90.25
390.287	96.25
390.512	76.25
390.736	69.25
390.961	74.25
391.186	83.25
391.411	82.25
391.636	94.25
391.86	97.25
392.085	84.25
392.31	85.25
392.534	94.25
392.759	94.25
392.984	97.25
393.208	74.25
393.433	70.25
393.658	78.25
393.882	72.25
394.107	71.25
394.331	88.25
394.556	87.25
394.78	79.25
395.005	87.25
395.229	79.25
395.454	98.25
395.678	87.25
395.903	81.25
396.127	80.25
396.352	83.25
396.576	100.25
396.801	93.25
397.025	98.25
397.249	67.25
397.474	75.25
397.698	97.25
397.922	86.25
398.147	78.25
398.371	92.25
398.595	80.25
398.82	85.25
399.044	78.25
399.268	83.25
399.492	91.25
399.717	99.25
399.941	77.25
400.165	75.25
400.389	82.25
400.613	86.25
400.837	88.25
401.062	70.25
401.286	94.25
401.51	83.25
401.734	81.25
401.958	82.25
402.182	83.25
402.406	85.25
402.63	76.25
402.854	78.25
403.078	96.25
403.302	81.25
403.526	78.25
403.75	83.25
403.974	80.25
404.198	81.25
404.422	95.25
404.645	80.25
404.869	75.25
405.093	86.25
405.317	84.25
405.541	81.25
405.765	77.25
405.988	83.25
406.212	83.25
406.436	86.25
406.66	82.25
406.883	75.25
407.107	66.25
407.331	69.25
407.555	96.25
407.778	89.25
408.002	74.25
408.226	87.25
408.449	87.25
408.673	88.25
408.896	82.25
409.12	84.25
409.344	71.25
409.567	81.25
409.791	95.25
410.014	91.25
410.238	79.25
410.461	93.25
410.685	78.25
410.908	97.25
411.132	92.25
411.355	92.25
411.578	75.25
411.802	73.25
412.025	82.25
412.249	89.25
412.472	79.25
412.695	86.25
412.919	82.25
413.142	78.25
413.365	79.25
413.589	76.25
413.812	78.25
414.035	77.25
414.258	80.25
414.482	81.25
414.705	92.25
414.928	93.25
415.151	101.25
415.374	90.25
415.597	87.25
415.821	78.25
416.044	87.25
416.267	80.25
416.49	89.25
416.713	80.25
416.936	89.25
417.159	86.25
417.382	87.25
417.605	90.25
417.828	88.25
418.051	86.25
418.274	88.25
418.497	82.25
418.72	83.25
418.943	88.25
419.166	79.25
419.389	78.25
419.611	78.25
419.834	70.25
420.057	79.25
420.28	74.25
420.503	88.25
420.726	79.25
420.948	80.25
421.171	82.25
421.394	84.25
421.617	85.25
421.839	79.25
422.062	87.25
422.285	80.25
422.507	84.25
422.73	82.25
422.953	79.25
423.175	76.25
423.398	84.25
423.621	75.25
423.843	76.25
424.066	78.25
424.288	78.25
424.511	75.25
424.733	85.25
424.956	90.25
425.178	74.25
425.401	82.25
425.623	85.25
425.846	88.25
426.068	95.25
426.291	73.25
426.513	91.25
426.735	74.25
426.958	88.25
427.18	72.25
427.402	82.25
427.625	82.25
427.847	97.25
428.069	92.25
428.292	94.25
428.514	74.25
428.736	79.25
428.958	79.25
429.181	86.25
429.403	87.25
429.625	93.25
429.847	86.25
430.069	70.25
430.292	77.25
430.514	81.25
430.736	85.25
430.958	86.25
431.18	85.25
431.402	86.25
431.624	99.25
431.846	76.25
432.068	96.25
432.29	82.25
432.512	96.25
432.734	90.25
432.956	87.25
433.178	92.25
433.4	74.25
433.622	72.25
433.844	77.25
434.066	84.25
434.287	82.25
434.509	87.25
434.731	77.25
434.953	83.25
435.175	90.25
435.397	84.25
435.618	80.25
435.84	78.25
436.062	75.25
436.284	82.25
436.505	98.25
436.727	76.25
436.949	86.25
437.17	86.25
437.392	84.25
437.614	83.25
437.835	92.25
438.057	86.25
438.278	82.25
438.5	73.25
438.721	98.25
438.943	79.25
439.165	84.25
439.386	93.25
439.608	87.25
439.829	78.25
440.05	94.25
440.272	99.25
440.493	78.25
440.715	83.25
440.936	86.25
441.158	84.25
441.379	92.25
441.6	78.25
441.822	93.25
442.043	62.25
442.264	77.25
442.486	90.25
442.707	92.25
442.928	90.25
443.149	80.25
443.371	88.25
443.592	96.25
443.813	90.25
444.034	68.25
444.255	86.25
444.476	81.25
444.698	90.25
444.919	80.25
445.14	157.25
445.361	122.25
445.582	93.25
445.803	82.25
446.024	89.25
446.245	104.25
446.466	91.25
446.687	81.25
446.908	75.25
447.129	73.25
447.35	76.25
447.571	75.25
447.792	72.25
448.013	87.25
448.234	86.25
448.455	78.25
448.675	87.25
448.896	82.25
449.117	80.25
449.338	94.25
449.559	94.25
449.779	73.25
450	86.25
450.221	81.25
450.442	82.25
450.662	80.25
450.883	82.25
451.104	70.25
451.324	85.25
451.545	76.25
451.766	81.25
451.986	83.25
452.207	78.25
452.428	78.25
452.648	79.25
452.869	87.25
453.089	80.25
453.31	100.25
453.53	71.25
453.751	86.25
453.971	79.25
454.192	73.25
454.412	82.25
454.633	84.25
454.853	86.25
455.073	76.25
455.294	78.25
455.514	89.25
455.734	75.25
455.955	85.25
456.175	81.25
456.395	82.25
456.616	86.25
456.836	93.25
457.056	81.25
457.276	93.25
457.497	93.25
457.717	78.25
457.937	79.25
458.157	76.25
458.377	99.25
458.598	88.25
458.818	84.25
459.038	86.25
459.258	94.25
459.478	68.25
459.698	78.25
459.918	79.25
460.138	74.25
460.358	89.25
460.578	98.25
460.798	94.25
461.018	94.25
461.238	86.25
461.458	79.25
461.678	80.25
461.898	77.25
462.118	97.25
462.338	86.25
462.558	89.25
462.777	95.25
462.997	67.25
463.217	72.25
463.437	71.25
463.657	79.25
463.876	82.25
464.096	82.25
464.316	82.25
464.536	79.25
464.755	91.25
464.975	87.25
465.195	75.25
465.414	91.25
465.634	76.25
465.854	88.25
466.073	75.25
466.293	78.25
466.512	71.25
466.732	94.25
466.951	90.25
467.171	93.25
467.391	84.25
467.61	76.25
467.829	70.25
468.049	76.25
468.268	76.25
468.488	99.25
468.707	90.25
468.927	90.25
469.146	83.25
469.365	82.25
469.585	64.25
469.804	94.25
470.023	82.25
470.243	78.25
470.462	109.25
470.681	83.25
470.901	72.25
471.12	89.25
471.339	72.25
471.558	80.25
471.777	86.25
471.997	94.25
472.216	75.25
472.435	80.25
472.654	82.25
472.873	83.25
473.092	89.25
473.311	77.25
473.53	84.25
473.749	90.25
473.968	80.25
474.187	68.25
474.406	92.25
474.625	88.25
474.844	91.25
475.063	72.25
475.282	92.25
475.501	88.25
475.72	86.25
475.939	78.25
476.158	86.25
476.377	89.25
476.596	80.25
476.814	70.25
477.033	73.25
477.252	76.25
477.471	82.25
477.69	80.25
477.908	67.25
478.127	96.25
478.346	76.25
478.564	95.25
478.783	74.25
479.002	80.25
479.22	79.25
479.439	89.25
479.658	69.25
479.876	65.25
480.095	81.25
480.313	78.25
480.532	88.25
480.751	91.25
480.969	90.25
481.188	75.25
481.406	78.25
481.624	89.25
481.843	84.25
482.061	76.25
482.28	87.25
482.498	102.25
482.717	89.25
482.935	91.25
483.153	75.25
483.372	74.25
483.59	85.25
483.808	87.25
484.027	92.25
484.245	89.25
484.463	72.25
484.681	78.25
484.9	86.25
485.118	83.25
485.336	65.25
485.554	84.25
485.772	74.25
485.99	86.25
486.209	78.25
486.427	71.25
486.645	79.25
486.863	78.25
487.081	82.25
487.299	81.25
487.517	87.25
487.735	81.25
487.953	94.25
488.171	86.25
488.389	85.25
488.607	79.25
488.825	90.25
489.043	91.25
489.261	86.25
489.479	87.25
489.696	73.25
489.914	82.25
490.132	86.25
490.35	94.25
490.568	72.25
490.786	85.25
491.003	80.25
491.221	86.25
491.439	79.25
491.657	82.25
491.874	95.25
492.092	88.25
492.31	96.25
492.527	85.25
492.745	84.25
492.963	95.25
493.18	90.25
493.398	82.25
493.615	74.25
493.833	75.25
494.05	78.25
494.268	79.25
494.485	80.25
494.703	75.25
494.92	87.25
495.138	74.25
495.355	88.25
495.573	85.25
495.79	91.25
496.008	96.25
496.225	76.25
496.442	85.25
496.66	88.25
496.877	81.25
497.094	80.25
497.312	96.25
497.529	71.25
497.746	78.25
497.963	88.25
498.181	84.25
498.398	91.25
498.615	100.25
498.832	92.25
499.049	86.25
499.267	78.25
499.484	82.25
499.701	80.25
499.918	71.25
500.135	87.25
500.352	94.25
500.569	77.25
500.786	86.25
501.003	73.25
501.22	82.25
501.437	78.25
501.654	84.25
501.871	88.25
502.088	86.25
502.305	94.25
502.522	85.25
502.739	77.25
502.956	92.25
503.172	88.25
503.389	83.25
503.606	82.25
503.823	98.25
504.04	92.25
504.256	95.25
504.473	77.25
504.69	92.25
504.907	74.25
505.123	69.25
505.34	71.25
505.557	90.25
505.773	93.25
505.99	99.25
506.207	83.25
506.423	85.25
506.64	74.25
506.856	88.25
507.073	80.25
507.289	94.25
507.506	82.25
507.722	76.25
507.939	79.25
508.155	85.25
508.372	89.25
508.588	86.25
508.805	86.25
509.021	86.25
509.238	78.25
509.454	65.25
509.67	76.25
509.887	91.25
510.103	84.25
510.319	97.25
510.536	79.25
510.752	74.25
510.968	94.25
511.184	81.25
511.401	83.25
511.617	90.25
511.833	91.25
512.049	97.25
512.265	80.25
512.481	70.25
512.698	73.25
512.914	81.25
513.13	86.25
513.346	78.25
513.562	78.25
513.778	84.25
513.994	95.25
514.21	92.25
514.426	78.25
514.642	81.25
514.858	88.25
515.074	72.25
515.29	86.25
515.506	72.25
515.721	80.25
515.937	98.25
516.153	99.25
516.369	89.25
516.585	70.25
516.801	93.25
517.016	77.25
517.232	78.25
517.448	82.25
517.664	88.25
517.879	74.25
518.095	81.25
518.311	91.25
518.527	70.25
518.742	85.25
518.958	89.25
519.173	101.25
519.389	82.25
519.605	88.25
519.82	92.25
