Data from Background_3_HRD10591_00097.txt Node
Date: Wed Nov 05 14:50:08 EST 2025
User: Yrep
Spectrometer: HR+D1059
Trigger mode: 1
Integration Time (sec): 1.000000E-1
Scans to average: 1
Electric dark correction enabled: true
Nonlinearity correction enabled: false
Boxcar width: 0
XAxis mode: Wavelengths
Number of Pixels in Spectrum: 2048
>>>>>Begin Spectral Data<<<<<
223.165	-19.44
223.4	-19.44
223.635	-19.44
223.869	-25.44
224.104	-24.44
224.338	-15.44
224.573	-0.44
224.808	-12.44
225.042	-4.44
225.277	-9.44
225.511	2.56
225.746	6.56
225.98	-0.44
226.215	-9.44
226.449	17.56
226.683	35.56
226.918	23.56
227.152	35.56
227.387	28.56
227.621	47.56
227.856	35.56
228.09	44.56
228.324	46.56
228.559	52.56
228.793	54.56
229.027	59.56
229.262	78.56
229.496	65.56
229.73	64.56
229.964	74.56
230.199	84.56
230.433	67.56
230.667	85.56
230.901	74.56
231.136	88.56
231.37	75.56
231.604	87.56
231.838	81.56
232.072	80.56
232.306	81.56
232.541	91.56
232.775	87.56
233.009	78.56
233.243	96.56
233.477	90.56
233.711	78.56
233.945	86.56
234.179	92.56
234.413	83.56
234.647	74.56
234.881	70.56
235.115	71.56
235.349	82.56
235.583	76.56
235.817	78.56
236.051	81.56
236.285	87.56
236.519	92.56
236.753	62.56
236.987	70.56
237.221	67.56
237.455	70.56
237.689	81.56
237.922	81.56
238.156	84.56
238.39	87.56
238.624	79.56
238.858	73.56
239.091	71.56
239.325	80.56
239.559	92.56
239.793	70.56
240.027	62.56
240.26	80.56
240.494	92.56
240.728	79.56
240.961	78.56
241.195	83.56
241.429	84.56
241.662	77.56
241.896	93.56
242.13	69.56
242.363	72.56
242.597	91.56
242.83	68.56
243.064	66.56
243.298	83.56
243.531	84.56
243.765	85.56
243.998	68.56
244.232	88.56
244.465	87.56
244.699	74.56
244.932	79.56
245.166	86.56
245.399	66.56
245.633	72.56
245.866	87.56
246.099	79.56
246.333	69.56
246.566	86.56
246.8	74.56
247.033	93.56
247.266	70.56
247.5	90.56
247.733	81.56
247.966	79.56
248.2	74.56
248.433	86.56
248.666	88.56
248.899	81.56
249.133	73.56
249.366	74.56
249.599	70.56
249.832	91.56
250.066	92.56
250.299	94.56
250.532	83.56
250.765	80.56
250.998	84.56
251.231	81.56
251.465	95.56
251.698	75.56
251.931	94.56
252.164	78.56
252.397	71.56
252.63	86.56
252.863	80.56
253.096	80.56
253.329	72.56
253.562	82.56
253.795	82.56
254.028	87.56
254.261	93.56
254.494	86.56
254.727	82.56
254.96	74.56
255.193	92.56
255.426	78.56
255.659	57.56
255.892	84.56
256.124	83.56
256.357	83.56
256.59	80.56
256.823	80.56
257.056	76.56
257.289	80.56
257.521	86.56
257.754	83.56
257.987	82.56
258.22	82.56
258.452	83.56
258.685	111.56
258.918	86.56
259.151	85.56
259.383	87.56
259.616	99.56
259.849	73.56
260.081	85.56
260.314	77.56
260.547	86.56
260.779	86.56
261.012	94.56
261.244	91.56
261.477	103.56
261.71	74.56
261.942	96.56
262.175	82.56
262.407	72.56
262.64	72.56
262.872	95.56
263.105	72.56
263.337	88.56
263.57	71.56
263.802	75.56
264.035	90.56
264.267	88.56
264.499	74.56
264.732	92.56
264.964	93.56
265.197	64.56
265.429	83.56
265.661	76.56
265.894	74.56
266.126	83.56
266.358	95.56
266.591	92.56
266.823	91.56
267.055	91.56
267.287	79.56
267.52	78.56
267.752	84.56
267.984	75.56
268.216	88.56
268.448	99.56
268.681	72.56
268.913	80.56
269.145	98.56
269.377	77.56
269.609	71.56
269.841	79.56
270.073	90.56
270.306	71.56
270.538	74.56
270.77	84.56
271.002	82.56
271.234	95.56
271.466	91.56
271.698	76.56
271.93	93.56
272.162	86.56
272.394	84.56
272.626	75.56
272.858	75.56
273.09	95.56
273.322	96.56
273.553	86.56
273.785	95.56
274.017	84.56
274.249	74.56
274.481	76.56
274.713	67.56
274.945	90.56
275.176	74.56
275.408	86.56
275.64	71.56
275.872	82.56
276.104	93.56
276.335	74.56
276.567	85.56
276.799	84.56
277.031	86.56
277.262	87.56
277.494	89.56
277.726	86.56
277.957	80.56
278.189	84.56
278.421	77.56
278.652	76.56
278.884	69.56
279.115	83.56
279.347	90.56
279.579	88.56
279.81	92.56
280.042	99.56
280.273	92.56
280.505	94.56
280.736	71.56
280.968	81.56
281.199	83.56
281.431	88.56
281.662	86.56
281.894	70.56
282.125	79.56
282.356	88.56
282.588	67.56
282.819	98.56
283.051	99.56
283.282	90.56
283.513	92.56
283.745	94.56
283.976	68.56
284.207	82.56
284.439	76.56
284.67	80.56
284.901	94.56
285.132	90.56
285.364	71.56
285.595	87.56
285.826	78.56
286.057	94.56
286.288	92.56
286.52	93.56
286.751	91.56
286.982	79.56
287.213	83.56
287.444	66.56
287.675	78.56
287.906	91.56
288.138	82.56
288.369	80.56
288.6	86.56
288.831	97.56
289.062	82.56
289.293	86.56
289.524	79.56
289.755	103.56
289.986	93.56
290.217	72.56
290.448	89.56
290.679	96.56
290.91	90.56
291.141	87.56
291.371	90.56
291.602	88.56
291.833	94.56
292.064	92.56
292.295	87.56
292.526	86.56
292.757	91.56
292.987	74.56
293.218	92.56
293.449	81.56
293.68	77.56
293.91	86.56
294.141	86.56
294.372	76.56
294.603	78.56
294.833	91.56
295.064	92.56
295.295	78.56
295.525	89.56
295.756	82.56
295.987	84.56
296.217	82.56
296.448	90.56
296.679	95.56
296.909	84.56
297.14	90.56
297.37	84.56
297.601	90.56
297.831	80.56
298.062	80.56
298.292	87.56
298.523	78.56
298.753	78.56
298.984	82.56
299.214	67.56
299.445	83.56
299.675	90.56
299.905	70.56
300.136	87.56
300.366	94.56
300.597	80.56
300.827	82.56
301.057	87.56
301.288	77.56
301.518	82.56
301.748	92.56
301.979	87.56
302.209	90.56
302.439	80.56
302.669	81.56
302.9	71.56
303.13	85.56
303.36	93.56
303.59	90.56
303.82	80.56
304.051	87.56
304.281	88.56
304.511	85.56
304.741	85.56
304.971	99.56
305.201	87.56
305.431	75.56
305.661	93.56
305.891	99.56
306.121	83.56
306.352	88.56
306.582	100.56
306.812	98.56
307.042	79.56
307.272	91.56
307.502	78.56
307.731	79.56
307.961	99.56
308.191	97.56
308.421	78.56
308.651	76.56
308.881	100.56
309.111	91.56
309.341	79.56
309.571	94.56
309.8	99.56
310.03	90.56
310.26	84.56
310.49	77.56
310.72	81.56
310.949	80.56
311.179	83.56
311.409	74.56
311.639	92.56
311.868	90.56
312.098	87.56
312.328	91.56
312.557	88.56
312.787	85.56
313.017	97.56
313.246	81.56
313.476	79.56
313.706	90.56
313.935	85.56
314.165	78.56
314.394	87.56
314.624	92.56
314.853	95.56
315.083	76.56
315.312	81.56
315.542	88.56
315.771	82.56
316.001	81.56
316.23	79.56
316.46	85.56
316.689	92.56
316.919	96.56
317.148	94.56
317.377	87.56
317.607	85.56
317.836	88.56
318.065	85.56
318.295	106.56
318.524	76.56
318.753	88.56
318.983	90.56
319.212	91.56
319.441	88.56
319.67	88.56
319.9	84.56
320.129	83.56
320.358	83.56
320.587	92.56
320.816	73.56
321.046	78.56
321.275	94.56
321.504	95.56
321.733	98.56
321.962	86.56
322.191	74.56
322.42	77.56
322.649	85.56
322.878	83.56
323.108	84.56
323.337	72.56
323.566	90.56
323.795	101.56
324.024	76.56
324.253	90.56
324.482	83.56
324.71	82.56
324.939	99.56
325.168	77.56
325.397	86.56
325.626	88.56
325.855	77.56
326.084	92.56
326.313	83.56
326.542	86.56
326.77	81.56
326.999	86.56
327.228	75.56
327.457	95.56
327.686	76.56
327.914	91.56
328.143	92.56
328.372	94.56
328.6	76.56
328.829	82.56
329.058	88.56
329.287	93.56
329.515	87.56
329.744	82.56
329.972	89.56
330.201	82.56
330.43	87.56
330.658	95.56
330.887	90.56
331.115	95.56
331.344	78.56
331.572	83.56
331.801	75.56
332.03	80.56
332.258	77.56
332.486	78.56
332.715	89.56
332.943	78.56
333.172	80.56
333.4	87.56
333.629	86.56
333.857	99.56
334.085	95.56
334.314	85.56
334.542	88.56
334.771	87.56
334.999	75.56
335.227	62.56
335.455	68.56
335.684	88.56
335.912	82.56
336.14	79.56
336.369	79.56
336.597	93.56
336.825	76.56
337.053	83.56
337.281	87.56
337.51	82.56
337.738	82.56
337.966	79.56
338.194	86.56
338.422	99.56
338.65	88.56
338.878	86.56
339.106	78.56
339.334	88.56
339.562	74.56
339.79	96.56
340.018	88.56
340.246	83.56
340.474	86.56
340.702	78.56
340.93	89.56
341.158	90.56
341.386	67.56
341.614	85.56
341.842	90.56
342.07	81.56
342.298	100.56
342.526	95.56
342.754	80.56
342.981	74.56
343.209	80.56
343.437	83.56
343.665	78.56
343.893	82.56
344.12	93.56
344.348	92.56
344.576	78.56
344.804	71.56
345.031	85.56
345.259	91.56
345.487	79.56
345.714	98.56
345.942	79.56
346.17	84.56
346.397	81.56
346.625	84.56
346.853	77.56
347.08	71.56
347.308	74.56
347.535	82.56
347.763	88.56
347.99	90.56
348.218	84.56
348.445	94.56
348.673	82.56
348.9	83.56
349.128	95.56
349.355	90.56
349.583	80.56
349.81	82.56
350.037	87.56
350.265	88.56
350.492	78.56
350.72	71.56
350.947	97.56
351.174	84.56
351.402	70.56
351.629	92.56
351.856	72.56
352.083	88.56
352.311	80.56
352.538	92.56
352.765	85.56
352.992	87.56
353.22	86.56
353.447	78.56
353.674	89.56
353.901	82.56
354.128	88.56
354.355	91.56
354.583	86.56
354.81	85.56
355.037	82.56
355.264	98.56
355.491	86.56
355.718	91.56
355.945	90.56
356.172	94.56
356.399	93.56
356.626	80.56
356.853	73.56
357.08	85.56
357.307	82.56
357.534	81.56
357.761	86.56
357.988	84.56
358.215	83.56
358.441	84.56
358.668	79.56
358.895	82.56
359.122	80.56
359.349	80.56
359.576	91.56
359.802	89.56
360.029	109.56
360.256	92.56
360.483	69.56
360.709	106.56
360.936	88.56
361.163	95.56
361.39	82.56
361.616	83.56
361.843	80.56
362.07	94.56
362.296	103.56
362.523	82.56
362.749	86.56
362.976	78.56
363.203	98.56
363.429	73.56
363.656	75.56
363.882	80.56
364.109	87.56
364.335	67.56
364.562	76.56
364.788	88.56
365.015	90.56
365.241	88.56
365.468	97.56
365.694	78.56
365.92	98.56
366.147	83.56
366.373	78.56
366.599	87.56
366.826	89.56
367.052	98.56
367.278	96.56
367.505	64.56
367.731	98.56
367.957	83.56
368.184	79.56
368.41	86.56
368.636	64.56
368.862	82.56
369.089	91.56
369.315	84.56
369.541	88.56
369.767	86.56
369.993	78.56
370.219	91.56
370.445	87.56
370.672	81.56
370.898	86.56
371.124	90.56
371.35	83.56
371.576	84.56
371.802	78.56
372.028	78.56
372.254	92.56
372.48	79.56
372.706	81.56
372.932	103.56
373.158	82.56
373.384	98.56
373.61	90.56
373.835	93.56
374.061	79.56
374.287	89.56
374.513	85.56
374.739	91.56
374.965	87.56
375.191	98.56
375.416	74.56
375.642	94.56
375.868	95.56
376.094	81.56
376.319	73.56
376.545	82.56
376.771	96.56
376.997	78.56
377.222	88.56
377.448	90.56
377.674	84.56
377.899	88.56
378.125	75.56
378.35	101.56
378.576	89.56
378.802	93.56
379.027	80.56
379.253	79.56
379.478	73.56
379.704	80.56
379.929	86.56
380.155	77.56
380.38	83.56
380.606	80.56
380.831	78.56
381.057	91.56
381.282	86.56
381.507	86.56
381.733	86.56
381.958	98.56
382.184	75.56
382.409	76.56
382.634	78.56
382.86	83.56
383.085	92.56
383.31	77.56
383.535	88.56
383.761	79.56
383.986	83.56
384.211	88.56
384.436	79.56
384.662	86.56
384.887	85.56
385.112	87.56
385.337	90.56
385.562	86.56
385.787	79.56
386.013	91.56
386.238	81.56
386.463	91.56
386.688	91.56
386.913	87.56
387.138	79.56
387.363	84.56
387.588	93.56
387.813	84.56
388.038	87.56
388.263	66.56
388.488	67.56
388.713	79.56
388.938	90.56
389.163	82.56
389.387	80.56
389.612	78.56
389.837	82.56
390.062	87.56
390.287	83.56
390.512	84.56
390.736	80.56
390.961	83.56
391.186	84.56
391.411	91.56
391.636	87.56
391.86	82.56
392.085	91.56
392.31	91.56
392.534	88.56
392.759	87.56
392.984	88.56
393.208	95.56
393.433	93.56
393.658	76.56
393.882	91.56
394.107	78.56
394.331	67.56
394.556	80.56
394.78	88.56
395.005	89.56
395.229	90.56
395.454	100.56
395.678	82.56
395.903	91.56
396.127	79.56
396.352	78.56
396.576	75.56
396.801	82.56
397.025	91.56
397.249	84.56
397.474	107.56
397.698	91.56
397.922	89.56
398.147	78.56
398.371	78.56
398.595	68.56
398.82	73.56
399.044	90.56
399.268	90.56
399.492	91.56
399.717	97.56
399.941	98.56
400.165	84.56
400.389	93.56
400.613	75.56
400.837	82.56
401.062	90.56
401.286	84.56
401.51	74.56
401.734	77.56
401.958	88.56
402.182	76.56
402.406	79.56
402.63	82.56
402.854	79.56
403.078	93.56
403.302	74.56
403.526	93.56
403.75	85.56
403.974	79.56
404.198	78.56
404.422	96.56
404.645	85.56
404.869	65.56
405.093	95.56
405.317	81.56
405.541	78.56
405.765	82.56
405.988	93.56
406.212	82.56
406.436	96.56
406.66	66.56
406.883	90.56
407.107	89.56
407.331	90.56
407.555	71.56
407.778	80.56
408.002	96.56
408.226	91.56
408.449	83.56
408.673	85.56
408.896	75.56
409.12	73.56
409.344	98.56
409.567	87.56
409.791	80.56
410.014	85.56
410.238	80.56
410.461	84.56
410.685	87.56
410.908	81.56
411.132	91.56
411.355	79.56
411.578	85.56
411.802	89.56
412.025	77.56
412.249	68.56
412.472	90.56
412.695	80.56
412.919	87.56
413.142	90.56
413.365	86.56
413.589	93.56
413.812	84.56
414.035	86.56
414.258	80.56
414.482	86.56
414.705	85.56
414.928	83.56
415.151	87.56
415.374	91.56
415.597	87.56
415.821	74.56
416.044	90.56
416.267	92.56
416.49	76.56
416.713	91.56
416.936	75.56
417.159	82.56
417.382	90.56
417.605	82.56
417.828	73.56
418.051	78.56
418.274	68.56
418.497	88.56
418.72	84.56
418.943	93.56
419.166	74.56
419.389	84.56
419.611	87.56
419.834	93.56
420.057	92.56
420.28	81.56
420.503	80.56
420.726	78.56
420.948	83.56
421.171	70.56
421.394	96.56
421.617	91.56
421.839	88.56
422.062	92.56
422.285	94.56
422.507	76.56
422.73	85.56
422.953	88.56
423.175	92.56
423.398	85.56
423.621	71.56
423.843	87.56
424.066	84.56
424.288	96.56
424.511	65.56
424.733	94.56
424.956	87.56
425.178	86.56
425.401	84.56
425.623	68.56
425.846	77.56
426.068	94.56
426.291	99.56
426.513	87.56
426.735	84.56
426.958	75.56
427.18	101.56
427.402	86.56
427.625	93.56
427.847	71.56
428.069	89.56
428.292	75.56
428.514	87.56
428.736	92.56
428.958	88.56
429.181	70.56
429.403	86.56
429.625	96.56
429.847	85.56
430.069	82.56
430.292	74.56
430.514	76.56
430.736	88.56
430.958	83.56
431.18	83.56
431.402	82.56
431.624	94.56
431.846	76.56
432.068	84.56
432.29	70.56
432.512	88.56
432.734	86.56
432.956	69.56
433.178	101.56
433.4	90.56
433.622	81.56
433.844	80.56
434.066	92.56
434.287	64.56
434.509	82.56
434.731	82.56
434.953	95.56
435.175	86.56
435.397	92.56
435.618	82.56
435.84	82.56
436.062	82.56
436.284	71.56
436.505	94.56
436.727	75.56
436.949	86.56
437.17	76.56
437.392	82.56
437.614	89.56
437.835	94.56
438.057	89.56
438.278	80.56
438.5	68.56
438.721	78.56
438.943	84.56
439.165	76.56
439.386	81.56
439.608	75.56
439.829	80.56
440.05	76.56
440.272	72.56
440.493	86.56
440.715	72.56
440.936	84.56
441.158	99.56
441.379	68.56
441.6	95.56
441.822	90.56
442.043	78.56
442.264	63.56
442.486	71.56
442.707	75.56
442.928	67.56
443.149	81.56
443.371	75.56
443.592	60.56
443.813	89.56
444.034	91.56
444.255	92.56
444.476	88.56
444.698	90.56
444.919	83.56
445.14	154.56
445.361	133.56
445.582	79.56
445.803	86.56
446.024	92.56
446.245	78.56
446.466	83.56
446.687	89.56
446.908	88.56
447.129	91.56
447.35	72.56
447.571	92.56
447.792	83.56
448.013	82.56
448.234	81.56
448.455	87.56
448.675	82.56
448.896	97.56
449.117	82.56
449.338	74.56
449.559	94.56
449.779	85.56
450	104.56
450.221	64.56
450.442	90.56
450.662	86.56
450.883	92.56
451.104	90.56
451.324	78.56
451.545	84.56
451.766	84.56
451.986	88.56
452.207	90.56
452.428	86.56
452.648	93.56
452.869	78.56
453.089	86.56
453.31	87.56
453.53	87.56
453.751	71.56
453.971	84.56
454.192	64.56
454.412	76.56
454.633	77.56
454.853	74.56
455.073	87.56
455.294	87.56
455.514	82.56
455.734	71.56
455.955	71.56
456.175	69.56
456.395	95.56
456.616	94.56
456.836	71.56
457.056	94.56
457.276	84.56
457.497	78.56
457.717	84.56
457.937	71.56
458.157	75.56
458.377	74.56
458.598	78.56
458.818	84.56
459.038	83.56
459.258	95.56
459.478	92.56
459.698	78.56
459.918	88.56
460.138	79.56
460.358	72.56
460.578	82.56
460.798	86.56
461.018	89.56
461.238	91.56
461.458	83.56
461.678	79.56
461.898	93.56
462.118	75.56
462.338	79.56
462.558	83.56
462.777	75.56
462.997	72.56
463.217	80.56
463.437	85.56
463.657	86.56
463.876	85.56
464.096	85.56
464.316	91.56
464.536	84.56
464.755	94.56
464.975	90.56
465.195	95.56
465.414	88.56
465.634	84.56
465.854	87.56
466.073	73.56
466.293	85.56
466.512	88.56
466.732	78.56
466.951	81.56
467.171	76.56
467.391	84.56
467.61	86.56
467.829	86.56
468.049	91.56
468.268	88.56
468.488	93.56
468.707	78.56
468.927	79.56
469.146	83.56
469.365	86.56
469.585	86.56
469.804	79.56
470.023	57.56
470.243	90.56
470.462	89.56
470.681	79.56
470.901	82.56
471.12	86.56
471.339	94.56
471.558	77.56
471.777	90.56
471.997	83.56
472.216	78.56
472.435	90.56
472.654	100.56
472.873	86.56
473.092	91.56
473.311	84.56
473.53	94.56
473.749	84.56
473.968	88.56
474.187	82.56
474.406	83.56
474.625	80.56
474.844	79.56
475.063	70.56
475.282	80.56
475.501	75.56
475.72	89.56
475.939	86.56
476.158	79.56
476.377	70.56
476.596	78.56
476.814	78.56
477.033	81.56
477.252	93.56
477.471	78.56
477.69	91.56
477.908	87.56
478.127	93.56
478.346	86.56
478.564	80.56
478.783	87.56
479.002	81.56
479.22	73.56
479.439	76.56
479.658	87.56
479.876	81.56
480.095	73.56
480.313	78.56
480.532	82.56
480.751	95.56
480.969	87.56
481.188	80.56
481.406	89.56
481.624	87.56
481.843	89.56
482.061	80.56
482.28	90.56
482.498	88.56
482.717	86.56
482.935	89.56
483.153	80.56
483.372	90.56
483.59	85.56
483.808	81.56
484.027	93.56
484.245	101.56
484.463	86.56
484.681	82.56
484.9	76.56
485.118	89.56
485.336	97.56
485.554	89.56
485.772	79.56
485.99	100.56
486.209	83.56
486.427	68.56
486.645	79.56
486.863	88.56
487.081	77.56
487.299	86.56
487.517	79.56
487.735	87.56
487.953	86.56
488.171	82.56
488.389	78.56
488.607	88.56
488.825	93.56
489.043	89.56
489.261	89.56
489.479	94.56
489.696	54.56
489.914	99.56
490.132	91.56
490.35	80.56
490.568	84.56
490.786	82.56
491.003	86.56
491.221	101.56
491.439	85.56
491.657	79.56
491.874	86.56
492.092	88.56
492.31	87.56
492.527	85.56
492.745	69.56
492.963	76.56
493.18	81.56
493.398	92.56
493.615	69.56
493.833	92.56
494.05	88.56
494.268	79.56
494.485	82.56
494.703	87.56
494.92	67.56
495.138	78.56
495.355	78.56
495.573	78.56
495.79	85.56
496.008	93.56
496.225	69.56
496.442	76.56
496.66	82.56
496.877	70.56
497.094	85.56
497.312	86.56
497.529	70.56
497.746	80.56
497.963	71.56
498.181	88.56
498.398	73.56
498.615	95.56
498.832	85.56
499.049	94.56
499.267	94.56
499.484	84.56
499.701	99.56
499.918	86.56
500.135	86.56
500.352	71.56
500.569	69.56
500.786	94.56
501.003	82.56
501.22	80.56
501.437	70.56
501.654	74.56
501.871	72.56
502.088	76.56
502.305	85.56
502.522	87.56
502.739	94.56
502.956	95.56
503.172	73.56
503.389	90.56
503.606	83.56
503.823	90.56
504.04	90.56
504.256	76.56
504.473	95.56
504.69	84.56
504.907	100.56
505.123	84.56
505.34	98.56
505.557	79.56
505.773	91.56
505.99	77.56
506.207	82.56
506.423	94.56
506.64	62.56
506.856	88.56
507.073	77.56
507.289	68.56
507.506	82.56
507.722	98.56
507.939	73.56
508.155	87.56
508.372	91.56
508.588	92.56
508.805	89.56
509.021	79.56
509.238	74.56
509.454	92.56
509.67	81.56
509.887	85.56
510.103	80.56
510.319	86.56
510.536	85.56
510.752	81.56
510.968	84.56
511.184	90.56
511.401	80.56
511.617	76.56
511.833	88.56
512.049	80.56
512.265	82.56
512.481	95.56
512.698	90.56
512.914	87.56
513.13	84.56
513.346	81.56
513.562	88.56
513.778	71.56
513.994	91.56
514.21	79.56
514.426	87.56
514.642	70.56
514.858	86.56
515.074	92.56
515.29	100.56
515.506	87.56
515.721	94.56
515.937	104.56
516.153	82.56
516.369	81.56
516.585	91.56
516.801	83.56
517.016	90.56
517.232	84.56
517.448	82.56
517.664	77.56
517.879	91.56
518.095	82.56
518.311	77.56
518.527	86.56
518.742	85.56
518.958	83.56
519.173	90.56
519.389	88.56
519.605	84.56
519.82	86.56
