Data from Background_3_HRD10591_00041.txt Node
Date: Wed Nov 05 14:49:40 EST 2025
User: Yrep
Spectrometer: HR+D1059
Trigger mode: 1
Integration Time (sec): 1.000000E-1
Scans to average: 1
Electric dark correction enabled: true
Nonlinearity correction enabled: false
Boxcar width: 0
XAxis mode: Wavelengths
Number of Pixels in Spectrum: 2048
>>>>>Begin Spectral Data<<<<<
223.165	-18.62
223.4	-18.62
223.635	-18.62
223.869	-24.62
224.104	-22.62
224.338	-6.62
224.573	-14.62
224.808	-3.62
225.042	-14.62
225.277	-7.62
225.511	11.38
225.746	11.38
225.98	9.38
226.215	2.38
226.449	14.38
226.683	10.38
226.918	28.38
227.152	25.38
227.387	42.38
227.621	31.38
227.856	41.38
228.09	37.38
228.324	52.38
228.559	52.38
228.793	63.38
229.027	58.38
229.262	73.38
229.496	72.38
229.73	69.38
229.964	74.38
230.199	81.38
230.433	76.38
230.667	79.38
230.901	78.38
231.136	81.38
231.37	80.38
231.604	90.38
231.838	84.38
232.072	72.38
232.306	87.38
232.541	93.38
232.775	91.38
233.009	68.38
233.243	100.38
233.477	84.38
233.711	84.38
233.945	87.38
234.179	75.38
234.413	80.38
234.647	78.38
234.881	74.38
235.115	74.38
235.349	74.38
235.583	72.38
235.817	87.38
236.051	77.38
236.285	74.38
236.519	65.38
236.753	85.38
236.987	87.38
237.221	82.38
237.455	67.38
237.689	74.38
237.922	84.38
238.156	81.38
238.39	80.38
238.624	70.38
238.858	82.38
239.091	78.38
239.325	62.38
239.559	73.38
239.793	76.38
240.027	98.38
240.26	78.38
240.494	77.38
240.728	65.38
240.961	73.38
241.195	82.38
241.429	72.38
241.662	69.38
241.896	73.38
242.13	81.38
242.363	76.38
242.597	77.38
242.83	65.38
243.064	83.38
243.298	82.38
243.531	75.38
243.765	85.38
243.998	65.38
244.232	70.38
244.465	73.38
244.699	77.38
244.932	64.38
245.166	78.38
245.399	75.38
245.633	79.38
245.866	69.38
246.099	65.38
246.333	81.38
246.566	73.38
246.8	70.38
247.033	78.38
247.266	73.38
247.5	77.38
247.733	76.38
247.966	67.38
248.2	77.38
248.433	88.38
248.666	91.38
248.899	56.38
249.133	61.38
249.366	77.38
249.599	76.38
249.832	74.38
250.066	82.38
250.299	84.38
250.532	78.38
250.765	75.38
250.998	79.38
251.231	79.38
251.465	81.38
251.698	85.38
251.931	54.38
252.164	65.38
252.397	63.38
252.63	85.38
252.863	69.38
253.096	83.38
253.329	92.38
253.562	79.38
253.795	77.38
254.028	78.38
254.261	83.38
254.494	72.38
254.727	84.38
254.96	70.38
255.193	63.38
255.426	75.38
255.659	78.38
255.892	81.38
256.124	75.38
256.357	77.38
256.59	83.38
256.823	87.38
257.056	81.38
257.289	62.38
257.521	69.38
257.754	93.38
257.987	88.38
258.22	99.38
258.452	72.38
258.685	81.38
258.918	85.38
259.151	86.38
259.383	82.38
259.616	59.38
259.849	77.38
260.081	85.38
260.314	77.38
260.547	80.38
260.779	68.38
261.012	79.38
261.244	73.38
261.477	76.38
261.71	83.38
261.942	80.38
262.175	92.38
262.407	68.38
262.64	85.38
262.872	84.38
263.105	76.38
263.337	75.38
263.57	73.38
263.802	84.38
264.035	75.38
264.267	85.38
264.499	88.38
264.732	79.38
264.964	68.38
265.197	73.38
265.429	82.38
265.661	88.38
265.894	81.38
266.126	107.38
266.358	83.38
266.591	78.38
266.823	80.38
267.055	77.38
267.287	70.38
267.52	81.38
267.752	68.38
267.984	87.38
268.216	79.38
268.448	92.38
268.681	81.38
268.913	87.38
269.145	69.38
269.377	79.38
269.609	70.38
269.841	73.38
270.073	83.38
270.306	86.38
270.538	91.38
270.77	73.38
271.002	91.38
271.234	77.38
271.466	80.38
271.698	89.38
271.93	83.38
272.162	83.38
272.394	90.38
272.626	79.38
272.858	84.38
273.09	87.38
273.322	75.38
273.553	70.38
273.785	79.38
274.017	82.38
274.249	69.38
274.481	77.38
274.713	86.38
274.945	69.38
275.176	83.38
275.408	86.38
275.64	65.38
275.872	75.38
276.104	90.38
276.335	78.38
276.567	84.38
276.799	90.38
277.031	76.38
277.262	74.38
277.494	86.38
277.726	80.38
277.957	80.38
278.189	76.38
278.421	81.38
278.652	84.38
278.884	80.38
279.115	76.38
279.347	78.38
279.579	79.38
279.81	80.38
280.042	85.38
280.273	91.38
280.505	81.38
280.736	69.38
280.968	77.38
281.199	83.38
281.431	79.38
281.662	87.38
281.894	75.38
282.125	73.38
282.356	92.38
282.588	86.38
282.819	87.38
283.051	93.38
283.282	81.38
283.513	79.38
283.745	73.38
283.976	81.38
284.207	79.38
284.439	76.38
284.67	79.38
284.901	77.38
285.132	87.38
285.364	71.38
285.595	70.38
285.826	83.38
286.057	85.38
286.288	75.38
286.52	87.38
286.751	65.38
286.982	96.38
287.213	87.38
287.444	77.38
287.675	79.38
287.906	78.38
288.138	72.38
288.369	88.38
288.6	85.38
288.831	88.38
289.062	91.38
289.293	87.38
289.524	71.38
289.755	74.38
289.986	77.38
290.217	92.38
290.448	80.38
290.679	77.38
290.91	73.38
291.141	87.38
291.371	73.38
291.602	82.38
291.833	83.38
292.064	78.38
292.295	84.38
292.526	84.38
292.757	69.38
292.987	88.38
293.218	89.38
293.449	91.38
293.68	83.38
293.91	88.38
294.141	91.38
294.372	76.38
294.603	70.38
294.833	80.38
295.064	91.38
295.295	91.38
295.525	98.38
295.756	82.38
295.987	92.38
296.217	90.38
296.448	73.38
296.679	82.38
296.909	76.38
297.14	73.38
297.37	82.38
297.601	80.38
297.831	83.38
298.062	76.38
298.292	90.38
298.523	73.38
298.753	81.38
298.984	79.38
299.214	83.38
299.445	92.38
299.675	85.38
299.905	69.38
300.136	84.38
300.366	86.38
300.597	79.38
300.827	88.38
301.057	77.38
301.288	76.38
301.518	99.38
301.748	79.38
301.979	93.38
302.209	77.38
302.439	92.38
302.669	93.38
302.9	91.38
303.13	90.38
303.36	84.38
303.59	81.38
303.82	78.38
304.051	71.38
304.281	88.38
304.511	99.38
304.741	96.38
304.971	84.38
305.201	80.38
305.431	80.38
305.661	80.38
305.891	83.38
306.121	91.38
306.352	90.38
306.582	79.38
306.812	89.38
307.042	83.38
307.272	85.38
307.502	69.38
307.731	70.38
307.961	78.38
308.191	83.38
308.421	79.38
308.651	78.38
308.881	94.38
309.111	77.38
309.341	77.38
309.571	75.38
309.8	82.38
310.03	83.38
310.26	79.38
310.49	76.38
310.72	84.38
310.949	83.38
311.179	87.38
311.409	79.38
311.639	84.38
311.868	92.38
312.098	91.38
312.328	84.38
312.557	79.38
312.787	84.38
313.017	88.38
313.246	90.38
313.476	89.38
313.706	88.38
313.935	70.38
314.165	78.38
314.394	89.38
314.624	87.38
314.853	82.38
315.083	73.38
315.312	80.38
315.542	92.38
315.771	77.38
316.001	82.38
316.23	88.38
316.46	74.38
316.689	85.38
316.919	98.38
317.148	76.38
317.377	84.38
317.607	77.38
317.836	80.38
318.065	108.38
318.295	83.38
318.524	91.38
318.753	84.38
318.983	69.38
319.212	69.38
319.441	74.38
319.67	82.38
319.9	80.38
320.129	78.38
320.358	88.38
320.587	95.38
320.816	92.38
321.046	83.38
321.275	74.38
321.504	69.38
321.733	81.38
321.962	71.38
322.191	76.38
322.42	71.38
322.649	74.38
322.878	100.38
323.108	83.38
323.337	95.38
323.566	82.38
323.795	80.38
324.024	87.38
324.253	93.38
324.482	85.38
324.71	83.38
324.939	76.38
325.168	82.38
325.397	84.38
325.626	83.38
325.855	106.38
326.084	72.38
326.313	95.38
326.542	84.38
326.77	91.38
326.999	91.38
327.228	88.38
327.457	80.38
327.686	83.38
327.914	77.38
328.143	79.38
328.372	76.38
328.6	82.38
328.829	78.38
329.058	79.38
329.287	76.38
329.515	79.38
329.744	91.38
329.972	75.38
330.201	75.38
330.43	72.38
330.658	79.38
330.887	81.38
331.115	84.38
331.344	80.38
331.572	98.38
331.801	81.38
332.03	90.38
332.258	87.38
332.486	94.38
332.715	89.38
332.943	91.38
333.172	70.38
333.4	93.38
333.629	90.38
333.857	79.38
334.085	94.38
334.314	82.38
334.542	72.38
334.771	71.38
334.999	91.38
335.227	83.38
335.455	91.38
335.684	91.38
335.912	93.38
336.14	88.38
336.369	89.38
336.597	95.38
336.825	73.38
337.053	77.38
337.281	72.38
337.51	77.38
337.738	78.38
337.966	95.38
338.194	90.38
338.422	89.38
338.65	87.38
338.878	79.38
339.106	82.38
339.334	88.38
339.562	89.38
339.79	79.38
340.018	73.38
340.246	67.38
340.474	88.38
340.702	93.38
340.93	88.38
341.158	87.38
341.386	73.38
341.614	76.38
341.842	81.38
342.07	79.38
342.298	85.38
342.526	93.38
342.754	77.38
342.981	79.38
343.209	81.38
343.437	96.38
343.665	75.38
343.893	85.38
344.12	83.38
344.348	86.38
344.576	69.38
344.804	79.38
345.031	88.38
345.259	82.38
345.487	70.38
345.714	76.38
345.942	73.38
346.17	89.38
346.397	78.38
346.625	85.38
346.853	78.38
347.08	73.38
347.308	71.38
347.535	91.38
347.763	84.38
347.99	79.38
348.218	100.38
348.445	87.38
348.673	100.38
348.9	95.38
349.128	73.38
349.355	70.38
349.583	63.38
349.81	60.38
350.037	75.38
350.265	78.38
350.492	79.38
350.72	83.38
350.947	95.38
351.174	67.38
351.402	80.38
351.629	84.38
351.856	88.38
352.083	100.38
352.311	94.38
352.538	82.38
352.765	80.38
352.992	86.38
353.22	75.38
353.447	75.38
353.674	90.38
353.901	84.38
354.128	62.38
354.355	79.38
354.583	77.38
354.81	83.38
355.037	78.38
355.264	78.38
355.491	77.38
355.718	77.38
355.945	81.38
356.172	74.38
356.399	80.38
356.626	104.38
356.853	80.38
357.08	79.38
357.307	99.38
357.534	82.38
357.761	97.38
357.988	88.38
358.215	93.38
358.441	75.38
358.668	85.38
358.895	79.38
359.122	88.38
359.349	93.38
359.576	89.38
359.802	82.38
360.029	75.38
360.256	87.38
360.483	80.38
360.709	93.38
360.936	87.38
361.163	79.38
361.39	67.38
361.616	72.38
361.843	63.38
362.07	75.38
362.296	75.38
362.523	75.38
362.749	88.38
362.976	77.38
363.203	67.38
363.429	80.38
363.656	64.38
363.882	76.38
364.109	63.38
364.335	77.38
364.562	83.38
364.788	84.38
365.015	76.38
365.241	75.38
365.468	83.38
365.694	87.38
365.92	84.38
366.147	81.38
366.373	97.38
366.599	87.38
366.826	74.38
367.052	80.38
367.278	82.38
367.505	64.38
367.731	84.38
367.957	74.38
368.184	82.38
368.41	73.38
368.636	90.38
368.862	84.38
369.089	96.38
369.315	85.38
369.541	90.38
369.767	77.38
369.993	87.38
370.219	73.38
370.445	74.38
370.672	73.38
370.898	89.38
371.124	66.38
371.35	86.38
371.576	90.38
371.802	81.38
372.028	88.38
372.254	76.38
372.48	75.38
372.706	72.38
372.932	96.38
373.158	84.38
373.384	79.38
373.61	83.38
373.835	76.38
374.061	67.38
374.287	64.38
374.513	60.38
374.739	75.38
374.965	70.38
375.191	72.38
375.416	89.38
375.642	88.38
375.868	85.38
376.094	78.38
376.319	87.38
376.545	74.38
376.771	80.38
376.997	81.38
377.222	76.38
377.448	73.38
377.674	75.38
377.899	94.38
378.125	83.38
378.35	83.38
378.576	69.38
378.802	79.38
379.027	85.38
379.253	65.38
379.478	83.38
379.704	81.38
379.929	73.38
380.155	81.38
380.38	68.38
380.606	84.38
380.831	98.38
381.057	81.38
381.282	81.38
381.507	89.38
381.733	85.38
381.958	89.38
382.184	81.38
382.409	76.38
382.634	81.38
382.86	87.38
383.085	88.38
383.31	85.38
383.535	75.38
383.761	63.38
383.986	70.38
384.211	81.38
384.436	67.38
384.662	73.38
384.887	79.38
385.112	80.38
385.337	84.38
385.562	73.38
385.787	59.38
386.013	75.38
386.238	81.38
386.463	73.38
386.688	85.38
386.913	74.38
387.138	75.38
387.363	68.38
387.588	69.38
387.813	71.38
388.038	67.38
388.263	97.38
388.488	84.38
388.713	88.38
388.938	74.38
389.163	78.38
389.387	72.38
389.612	90.38
389.837	68.38
390.062	89.38
390.287	81.38
390.512	74.38
390.736	89.38
390.961	91.38
391.186	77.38
391.411	91.38
391.636	59.38
391.86	88.38
392.085	85.38
392.31	70.38
392.534	74.38
392.759	85.38
392.984	67.38
393.208	82.38
393.433	83.38
393.658	68.38
393.882	80.38
394.107	95.38
394.331	79.38
394.556	67.38
394.78	75.38
395.005	77.38
395.229	87.38
395.454	83.38
395.678	68.38
395.903	75.38
396.127	73.38
396.352	82.38
396.576	85.38
396.801	81.38
397.025	83.38
397.249	69.38
397.474	96.38
397.698	95.38
397.922	83.38
398.147	81.38
398.371	63.38
398.595	84.38
398.82	66.38
399.044	69.38
399.268	75.38
399.492	92.38
399.717	81.38
399.941	61.38
400.165	87.38
400.389	71.38
400.613	82.38
400.837	92.38
401.062	86.38
401.286	81.38
401.51	90.38
401.734	75.38
401.958	79.38
402.182	71.38
402.406	69.38
402.63	77.38
402.854	76.38
403.078	81.38
403.302	77.38
403.526	75.38
403.75	76.38
403.974	68.38
404.198	73.38
404.422	77.38
404.645	82.38
404.869	70.38
405.093	85.38
405.317	73.38
405.541	80.38
405.765	83.38
405.988	83.38
406.212	81.38
406.436	83.38
406.66	71.38
406.883	63.38
407.107	73.38
407.331	77.38
407.555	72.38
407.778	71.38
408.002	84.38
408.226	77.38
408.449	75.38
408.673	82.38
408.896	77.38
409.12	71.38
409.344	91.38
409.567	68.38
409.791	71.38
410.014	82.38
410.238	78.38
410.461	84.38
410.685	100.38
410.908	80.38
411.132	81.38
411.355	59.38
411.578	85.38
411.802	77.38
412.025	84.38
412.249	82.38
412.472	89.38
412.695	63.38
412.919	78.38
413.142	84.38
413.365	68.38
413.589	79.38
413.812	75.38
414.035	97.38
414.258	77.38
414.482	80.38
414.705	61.38
414.928	71.38
415.151	88.38
415.374	79.38
415.597	75.38
415.821	76.38
416.044	78.38
416.267	77.38
416.49	77.38
416.713	71.38
416.936	79.38
417.159	89.38
417.382	83.38
417.605	78.38
417.828	73.38
418.051	74.38
418.274	67.38
418.497	87.38
418.72	57.38
418.943	77.38
419.166	68.38
419.389	73.38
419.611	84.38
419.834	83.38
420.057	68.38
420.28	70.38
420.503	73.38
420.726	72.38
420.948	87.38
421.171	90.38
421.394	80.38
421.617	75.38
421.839	79.38
422.062	88.38
422.285	72.38
422.507	81.38
422.73	47.38
422.953	84.38
423.175	77.38
423.398	80.38
423.621	89.38
423.843	57.38
424.066	84.38
424.288	73.38
424.511	73.38
424.733	82.38
424.956	98.38
425.178	75.38
425.401	83.38
425.623	72.38
425.846	80.38
426.068	95.38
426.291	94.38
426.513	86.38
426.735	69.38
426.958	84.38
427.18	87.38
427.402	81.38
427.625	85.38
427.847	87.38
428.069	63.38
428.292	82.38
428.514	90.38
428.736	71.38
428.958	67.38
429.181	73.38
429.403	81.38
429.625	85.38
429.847	82.38
430.069	78.38
430.292	85.38
430.514	96.38
430.736	63.38
430.958	84.38
431.18	83.38
431.402	80.38
431.624	88.38
431.846	81.38
432.068	75.38
432.29	77.38
432.512	77.38
432.734	73.38
432.956	73.38
433.178	84.38
433.4	83.38
433.622	76.38
433.844	87.38
434.066	78.38
434.287	79.38
434.509	74.38
434.731	58.38
434.953	81.38
435.175	87.38
435.397	84.38
435.618	72.38
435.84	77.38
436.062	81.38
436.284	78.38
436.505	74.38
436.727	77.38
436.949	89.38
437.17	74.38
437.392	92.38
437.614	79.38
437.835	75.38
438.057	84.38
438.278	72.38
438.5	75.38
438.721	66.38
438.943	93.38
439.165	75.38
439.386	77.38
439.608	88.38
439.829	89.38
440.05	88.38
440.272	91.38
440.493	82.38
440.715	77.38
440.936	81.38
441.158	80.38
441.379	74.38
441.6	75.38
441.822	84.38
442.043	79.38
442.264	76.38
442.486	78.38
442.707	61.38
442.928	67.38
443.149	77.38
443.371	81.38
443.592	87.38
443.813	81.38
444.034	69.38
444.255	79.38
444.476	81.38
444.698	78.38
444.919	78.38
445.14	144.38
445.361	93.38
445.582	85.38
445.803	82.38
446.024	74.38
446.245	59.38
446.466	81.38
446.687	55.38
446.908	73.38
447.129	84.38
447.35	83.38
447.571	71.38
447.792	87.38
448.013	70.38
448.234	73.38
448.455	77.38
448.675	80.38
448.896	67.38
449.117	82.38
449.338	84.38
449.559	76.38
449.779	88.38
450	82.38
450.221	81.38
450.442	70.38
450.662	73.38
450.883	70.38
451.104	85.38
451.324	80.38
451.545	80.38
451.766	74.38
451.986	68.38
452.207	87.38
452.428	88.38
452.648	78.38
452.869	80.38
453.089	88.38
453.31	83.38
453.53	87.38
453.751	76.38
453.971	86.38
454.192	78.38
454.412	82.38
454.633	72.38
454.853	73.38
455.073	86.38
455.294	84.38
455.514	79.38
455.734	82.38
455.955	73.38
456.175	81.38
456.395	79.38
456.616	74.38
456.836	88.38
457.056	80.38
457.276	83.38
457.497	88.38
457.717	89.38
457.937	89.38
458.157	76.38
458.377	74.38
458.598	76.38
458.818	86.38
459.038	81.38
459.258	66.38
459.478	76.38
459.698	71.38
459.918	80.38
460.138	81.38
460.358	64.38
460.578	79.38
460.798	78.38
461.018	77.38
461.238	79.38
461.458	77.38
461.678	85.38
461.898	90.38
462.118	88.38
462.338	82.38
462.558	81.38
462.777	84.38
462.997	75.38
463.217	75.38
463.437	85.38
463.657	83.38
463.876	58.38
464.096	82.38
464.316	80.38
464.536	83.38
464.755	84.38
464.975	81.38
465.195	76.38
465.414	84.38
465.634	93.38
465.854	92.38
466.073	93.38
466.293	73.38
466.512	68.38
466.732	66.38
466.951	83.38
467.171	69.38
467.391	83.38
467.61	80.38
467.829	67.38
468.049	73.38
468.268	81.38
468.488	77.38
468.707	74.38
468.927	76.38
469.146	82.38
469.365	78.38
469.585	66.38
469.804	65.38
470.023	83.38
470.243	78.38
470.462	94.38
470.681	83.38
470.901	75.38
471.12	80.38
471.339	74.38
471.558	78.38
471.777	88.38
471.997	87.38
472.216	84.38
472.435	78.38
472.654	70.38
472.873	83.38
473.092	92.38
473.311	73.38
473.53	87.38
473.749	81.38
473.968	105.38
474.187	92.38
474.406	71.38
474.625	75.38
474.844	72.38
475.063	66.38
475.282	79.38
475.501	86.38
475.72	77.38
475.939	76.38
476.158	72.38
476.377	81.38
476.596	66.38
476.814	76.38
477.033	85.38
477.252	76.38
477.471	73.38
477.69	89.38
477.908	87.38
478.127	82.38
478.346	73.38
478.564	90.38
478.783	69.38
479.002	68.38
479.22	69.38
479.439	93.38
479.658	82.38
479.876	88.38
480.095	75.38
480.313	76.38
480.532	72.38
480.751	79.38
480.969	72.38
481.188	87.38
481.406	82.38
481.624	83.38
481.843	79.38
482.061	63.38
482.28	70.38
482.498	80.38
482.717	81.38
482.935	74.38
483.153	74.38
483.372	94.38
483.59	79.38
483.808	83.38
484.027	84.38
484.245	77.38
484.463	79.38
484.681	77.38
484.9	73.38
485.118	81.38
485.336	72.38
485.554	86.38
485.772	91.38
485.99	77.38
486.209	90.38
486.427	84.38
486.645	68.38
486.863	86.38
487.081	88.38
487.299	73.38
487.517	88.38
487.735	94.38
487.953	88.38
488.171	84.38
488.389	75.38
488.607	70.38
488.825	78.38
489.043	92.38
489.261	92.38
489.479	78.38
489.696	89.38
489.914	70.38
490.132	80.38
490.35	77.38
490.568	92.38
490.786	77.38
491.003	82.38
491.221	79.38
491.439	79.38
491.657	90.38
491.874	94.38
492.092	87.38
492.31	92.38
492.527	78.38
492.745	89.38
492.963	89.38
493.18	75.38
493.398	81.38
493.615	79.38
493.833	84.38
494.05	98.38
494.268	84.38
494.485	67.38
494.703	91.38
494.92	83.38
495.138	86.38
495.355	77.38
495.573	73.38
495.79	87.38
496.008	74.38
496.225	83.38
496.442	73.38
496.66	74.38
496.877	83.38
497.094	99.38
497.312	90.38
497.529	91.38
497.746	79.38
497.963	84.38
498.181	81.38
498.398	83.38
498.615	86.38
498.832	94.38
499.049	84.38
499.267	78.38
499.484	98.38
499.701	86.38
499.918	82.38
500.135	81.38
500.352	69.38
500.569	82.38
500.786	72.38
501.003	72.38
501.22	95.38
501.437	69.38
501.654	78.38
501.871	66.38
502.088	81.38
502.305	83.38
502.522	89.38
502.739	78.38
502.956	91.38
503.172	83.38
503.389	68.38
503.606	82.38
503.823	82.38
504.04	95.38
504.256	75.38
504.473	89.38
504.69	90.38
504.907	93.38
505.123	82.38
505.34	71.38
505.557	85.38
505.773	75.38
505.99	76.38
506.207	72.38
506.423	88.38
506.64	76.38
506.856	75.38
507.073	82.38
507.289	87.38
507.506	87.38
507.722	54.38
507.939	72.38
508.155	75.38
508.372	75.38
508.588	77.38
508.805	85.38
509.021	76.38
509.238	91.38
509.454	89.38
509.67	79.38
509.887	88.38
510.103	84.38
510.319	76.38
510.536	80.38
510.752	69.38
510.968	86.38
511.184	78.38
511.401	81.38
511.617	89.38
511.833	74.38
512.049	87.38
512.265	79.38
512.481	82.38
512.698	82.38
512.914	92.38
513.13	95.38
513.346	83.38
513.562	60.38
513.778	93.38
513.994	76.38
514.21	88.38
514.426	89.38
514.642	86.38
514.858	67.38
515.074	82.38
515.29	80.38
515.506	81.38
515.721	84.38
515.937	91.38
516.153	89.38
516.369	84.38
516.585	82.38
516.801	91.38
517.016	92.38
517.232	82.38
517.448	71.38
517.664	81.38
517.879	75.38
518.095	86.38
518.311	87.38
518.527	81.38
518.742	87.38
518.958	88.38
519.173	77.38
519.389	97.38
519.605	70.38
519.82	73.38
520.036	74.38
