Data from Background_3_HRD10591_00067.txt Node
Date: Wed Nov 05 14:49:53 EST 2025
User: Yrep
Spectrometer: HR+D1059
Trigger mode: 1
Integration Time (sec): 1.000000E-1
Scans to average: 1
Electric dark correction enabled: true
Nonlinearity correction enabled: false
Boxcar width: 0
XAxis mode: Wavelengths
Number of Pixels in Spectrum: 2048
>>>>>Begin Spectral Data<<<<<
223.165	-12
223.4	-12
223.635	-12
223.869	-10
224.104	-19
224.338	-7
224.573	-20
224.808	-28
225.042	0
225.277	-9
225.511	0
225.746	3
225.98	2
226.215	10
226.449	7
226.683	22
226.918	21
227.152	40
227.387	28
227.621	38
227.856	43
228.09	47
228.324	52
228.559	51
228.793	52
229.027	44
229.262	68
229.496	65
229.73	69
229.964	55
230.199	67
230.433	75
230.667	69
230.901	73
231.136	72
231.37	74
231.604	74
231.838	76
232.072	77
232.306	77
232.541	78
232.775	61
233.009	81
233.243	77
233.477	77
233.711	74
233.945	75
234.179	68
234.413	79
234.647	87
234.881	74
235.115	84
235.349	79
235.583	75
235.817	61
236.051	79
236.285	80
236.519	82
236.753	76
236.987	72
237.221	90
237.455	73
237.689	73
237.922	72
238.156	76
238.39	80
238.624	72
238.858	74
239.091	78
239.325	78
239.559	73
239.793	81
240.027	83
240.26	65
240.494	70
240.728	79
240.961	72
241.195	81
241.429	60
241.662	69
241.896	80
242.13	74
242.363	79
242.597	87
242.83	79
243.064	67
243.298	74
243.531	72
243.765	67
243.998	85
244.232	87
244.465	72
244.699	62
244.932	67
245.166	70
245.399	82
245.633	82
245.866	82
246.099	70
246.333	77
246.566	79
246.8	85
247.033	79
247.266	85
247.5	73
247.733	62
247.966	75
248.2	74
248.433	69
248.666	79
248.899	72
249.133	67
249.366	77
249.599	74
249.832	70
250.066	66
250.299	74
250.532	75
250.765	70
250.998	73
251.231	86
251.465	63
251.698	72
251.931	73
252.164	66
252.397	74
252.63	79
252.863	75
253.096	81
253.329	72
253.562	67
253.795	71
254.028	75
254.261	81
254.494	76
254.727	84
254.96	65
255.193	83
255.426	81
255.659	65
255.892	69
256.124	78
256.357	74
256.59	75
256.823	82
257.056	79
257.289	69
257.521	89
257.754	89
257.987	63
258.22	78
258.452	66
258.685	82
258.918	74
259.151	73
259.383	74
259.616	81
259.849	83
260.081	79
260.314	78
260.547	81
260.779	65
261.012	74
261.244	80
261.477	68
261.71	89
261.942	83
262.175	88
262.407	68
262.64	88
262.872	77
263.105	85
263.337	73
263.57	77
263.802	88
264.035	81
264.267	89
264.499	85
264.732	77
264.964	66
265.197	87
265.429	88
265.661	70
265.894	75
266.126	79
266.358	75
266.591	84
266.823	83
267.055	68
267.287	75
267.52	79
267.752	75
267.984	77
268.216	75
268.448	80
268.681	103
268.913	72
269.145	73
269.377	86
269.609	88
269.841	75
270.073	92
270.306	82
270.538	71
270.77	79
271.002	80
271.234	68
271.466	73
271.698	73
271.93	79
272.162	88
272.394	76
272.626	70
272.858	81
273.09	93
273.322	79
273.553	77
273.785	84
274.017	93
274.249	83
274.481	56
274.713	68
274.945	82
275.176	77
275.408	83
275.64	88
275.872	89
276.104	89
276.335	87
276.567	76
276.799	89
277.031	79
277.262	86
277.494	89
277.726	91
277.957	78
278.189	71
278.421	80
278.652	78
278.884	76
279.115	90
279.347	78
279.579	68
279.81	79
280.042	82
280.273	81
280.505	71
280.736	87
280.968	72
281.199	93
281.431	87
281.662	85
281.894	87
282.125	81
282.356	77
282.588	75
282.819	70
283.051	76
283.282	80
283.513	91
283.745	72
283.976	88
284.207	83
284.439	69
284.67	83
284.901	79
285.132	89
285.364	78
285.595	90
285.826	78
286.057	84
286.288	79
286.52	83
286.751	90
286.982	75
287.213	73
287.444	76
287.675	68
287.906	81
288.138	84
288.369	71
288.6	71
288.831	76
289.062	69
289.293	101
289.524	92
289.755	77
289.986	79
290.217	91
290.448	84
290.679	88
290.91	79
291.141	75
291.371	77
291.602	77
291.833	78
292.064	83
292.295	82
292.526	84
292.757	83
292.987	77
293.218	68
293.449	76
293.68	87
293.91	76
294.141	83
294.372	93
294.603	82
294.833	83
295.064	70
295.295	71
295.525	85
295.756	91
295.987	90
296.217	73
296.448	85
296.679	84
296.909	78
297.14	73
297.37	79
297.601	79
297.831	98
298.062	83
298.292	83
298.523	92
298.753	91
298.984	81
299.214	92
299.445	80
299.675	91
299.905	77
300.136	73
300.366	69
300.597	83
300.827	85
301.057	83
301.288	80
301.518	88
301.748	82
301.979	83
302.209	72
302.439	89
302.669	82
302.9	95
303.13	96
303.36	89
303.59	85
303.82	87
304.051	99
304.281	80
304.511	91
304.741	80
304.971	97
305.201	81
305.431	73
305.661	84
305.891	82
306.121	91
306.352	80
306.582	74
306.812	82
307.042	88
307.272	88
307.502	80
307.731	87
307.961	86
308.191	80
308.421	95
308.651	73
308.881	84
309.111	73
309.341	86
309.571	91
309.8	98
310.03	80
310.26	79
310.49	75
310.72	77
310.949	73
311.179	76
311.409	77
311.639	87
311.868	87
312.098	87
312.328	79
312.557	83
312.787	80
313.017	65
313.246	83
313.476	77
313.706	75
313.935	76
314.165	68
314.394	85
314.624	84
314.853	82
315.083	76
315.312	73
315.542	72
315.771	84
316.001	51
316.23	78
316.46	83
316.689	74
316.919	90
317.148	77
317.377	75
317.607	97
317.836	89
318.065	77
318.295	81
318.524	67
318.753	86
318.983	71
319.212	89
319.441	91
319.67	71
319.9	77
320.129	57
320.358	70
320.587	80
320.816	84
321.046	88
321.275	89
321.504	61
321.733	77
321.962	72
322.191	87
322.42	75
322.649	82
322.878	84
323.108	72
323.337	75
323.566	83
323.795	83
324.024	93
324.253	69
324.482	82
324.71	80
324.939	79
325.168	82
325.397	69
325.626	74
325.855	81
326.084	83
326.313	70
326.542	83
326.77	87
326.999	70
327.228	92
327.457	72
327.686	83
327.914	70
328.143	84
328.372	83
328.6	79
328.829	78
329.058	82
329.287	88
329.515	78
329.744	77
329.972	86
330.201	73
330.43	72
330.658	79
330.887	101
331.115	75
331.344	75
331.572	80
331.801	78
332.03	80
332.258	82
332.486	88
332.715	93
332.943	79
333.172	69
333.4	85
333.629	81
333.857	89
334.085	80
334.314	62
334.542	85
334.771	70
334.999	63
335.227	89
335.455	82
335.684	87
335.912	91
336.14	69
336.369	80
336.597	77
336.825	66
337.053	70
337.281	70
337.51	80
337.738	96
337.966	66
338.194	86
338.422	77
338.65	75
338.878	87
339.106	75
339.334	65
339.562	75
339.79	88
340.018	84
340.246	92
340.474	83
340.702	74
340.93	66
341.158	79
341.386	85
341.614	80
341.842	77
342.07	68
342.298	73
342.526	90
342.754	79
342.981	89
343.209	64
343.437	92
343.665	80
343.893	63
344.12	76
344.348	83
344.576	73
344.804	47
345.031	79
345.259	96
345.487	78
345.714	75
345.942	73
346.17	71
346.397	83
346.625	84
346.853	78
347.08	74
347.308	89
347.535	85
347.763	70
347.99	83
348.218	88
348.445	66
348.673	79
348.9	59
349.128	92
349.355	66
349.583	81
349.81	75
350.037	73
350.265	75
350.492	77
350.72	81
350.947	72
351.174	73
351.402	84
351.629	81
351.856	91
352.083	81
352.311	79
352.538	80
352.765	84
352.992	79
353.22	83
353.447	92
353.674	73
353.901	80
354.128	76
354.355	70
354.583	83
354.81	90
355.037	107
355.264	74
355.491	63
355.718	78
355.945	78
356.172	77
356.399	84
356.626	101
356.853	82
357.08	83
357.307	81
357.534	80
357.761	83
357.988	78
358.215	68
358.441	81
358.668	69
358.895	83
359.122	80
359.349	79
359.576	92
359.802	78
360.029	80
360.256	92
360.483	89
360.709	75
360.936	75
361.163	67
361.39	73
361.616	92
361.843	74
362.07	90
362.296	79
362.523	70
362.749	93
362.976	81
363.203	89
363.429	86
363.656	82
363.882	79
364.109	92
364.335	83
364.562	79
364.788	75
365.015	75
365.241	70
365.468	92
365.694	84
365.92	93
366.147	77
366.373	92
366.599	74
366.826	85
367.052	86
367.278	69
367.505	72
367.731	85
367.957	100
368.184	71
368.41	87
368.636	94
368.862	93
369.089	84
369.315	85
369.541	96
369.767	80
369.993	69
370.219	74
370.445	82
370.672	84
370.898	88
371.124	89
371.35	87
371.576	69
371.802	83
372.028	79
372.254	78
372.48	85
372.706	89
372.932	85
373.158	97
373.384	76
373.61	84
373.835	71
374.061	89
374.287	82
374.513	80
374.739	86
374.965	74
375.191	85
375.416	86
375.642	93
375.868	94
376.094	79
376.319	92
376.545	64
376.771	81
376.997	95
377.222	75
377.448	69
377.674	75
377.899	68
378.125	73
378.35	83
378.576	64
378.802	79
379.027	72
379.253	95
379.478	82
379.704	83
379.929	77
380.155	69
380.38	87
380.606	76
380.831	85
381.057	84
381.282	70
381.507	80
381.733	93
381.958	94
382.184	93
382.409	75
382.634	95
382.86	71
383.085	86
383.31	83
383.535	85
383.761	98
383.986	77
384.211	76
384.436	84
384.662	85
384.887	78
385.112	79
385.337	87
385.562	87
385.787	87
386.013	82
386.238	79
386.463	97
386.688	103
386.913	84
387.138	80
387.363	72
387.588	81
387.813	70
388.038	73
388.263	82
388.488	94
388.713	65
388.938	79
389.163	75
389.387	66
389.612	77
389.837	83
390.062	69
390.287	76
390.512	79
390.736	74
390.961	73
391.186	72
391.411	88
391.636	87
391.86	73
392.085	95
392.31	76
392.534	81
392.759	71
392.984	81
393.208	80
393.433	90
393.658	79
393.882	79
394.107	84
394.331	75
394.556	78
394.78	72
395.005	75
395.229	94
395.454	74
395.678	83
395.903	73
396.127	82
396.352	72
396.576	84
396.801	87
397.025	87
397.249	98
397.474	70
397.698	69
397.922	77
398.147	90
398.371	71
398.595	83
398.82	68
399.044	80
399.268	77
399.492	77
399.717	79
399.941	78
400.165	81
400.389	58
400.613	92
400.837	76
401.062	69
401.286	72
401.51	67
401.734	82
401.958	79
402.182	70
402.406	74
402.63	89
402.854	77
403.078	82
403.302	73
403.526	75
403.75	74
403.974	76
404.198	79
404.422	75
404.645	69
404.869	90
405.093	71
405.317	91
405.541	90
405.765	69
405.988	75
406.212	61
406.436	75
406.66	93
406.883	84
407.107	88
407.331	85
407.555	75
407.778	85
408.002	77
408.226	91
408.449	88
408.673	78
408.896	81
409.12	81
409.344	92
409.567	89
409.791	79
410.014	85
410.238	75
410.461	77
410.685	79
410.908	84
411.132	86
411.355	80
411.578	90
411.802	77
412.025	92
412.249	83
412.472	79
412.695	97
412.919	80
413.142	72
413.365	92
413.589	77
413.812	86
414.035	82
414.258	63
414.482	83
414.705	62
414.928	81
415.151	81
415.374	82
415.597	93
415.821	81
416.044	92
416.267	82
416.49	74
416.713	82
416.936	82
417.159	83
417.382	81
417.605	81
417.828	80
418.051	81
418.274	88
418.497	73
418.72	71
418.943	82
419.166	68
419.389	57
419.611	76
419.834	78
420.057	72
420.28	77
420.503	80
420.726	83
420.948	89
421.171	88
421.394	75
421.617	75
421.839	84
422.062	55
422.285	78
422.507	77
422.73	94
422.953	84
423.175	89
423.398	69
423.621	82
423.843	73
424.066	77
424.288	75
424.511	77
424.733	88
424.956	67
425.178	81
425.401	81
425.623	76
425.846	62
426.068	66
426.291	82
426.513	86
426.735	77
426.958	82
427.18	87
427.402	79
427.625	78
427.847	84
428.069	87
428.292	77
428.514	87
428.736	87
428.958	78
429.181	85
429.403	75
429.625	67
429.847	73
430.069	84
430.292	72
430.514	88
430.736	75
430.958	77
431.18	73
431.402	77
431.624	89
431.846	87
432.068	88
432.29	84
432.512	73
432.734	86
432.956	87
433.178	81
433.4	85
433.622	78
433.844	69
434.066	65
434.287	84
434.509	86
434.731	89
434.953	67
435.175	73
435.397	80
435.618	85
435.84	77
436.062	87
436.284	78
436.505	78
436.727	71
436.949	87
437.17	91
437.392	80
437.614	76
437.835	81
438.057	72
438.278	76
438.5	75
438.721	83
438.943	79
439.165	75
439.386	75
439.608	109
439.829	77
440.05	75
440.272	72
440.493	87
440.715	79
440.936	74
441.158	87
441.379	78
441.6	69
441.822	72
442.043	78
442.264	81
442.486	73
442.707	77
442.928	58
443.149	76
443.371	68
443.592	86
443.813	71
444.034	76
444.255	85
444.476	79
444.698	85
444.919	78
445.14	144
445.361	124
445.582	78
445.803	61
446.024	64
446.245	92
446.466	62
446.687	77
446.908	81
447.129	80
447.35	70
447.571	76
447.792	81
448.013	92
448.234	69
448.455	80
448.675	88
448.896	89
449.117	92
449.338	93
449.559	80
449.779	79
450	92
450.221	78
450.442	79
450.662	82
450.883	65
451.104	70
451.324	73
451.545	92
451.766	67
451.986	76
452.207	80
452.428	81
452.648	82
452.869	84
453.089	80
453.31	73
453.53	69
453.751	66
453.971	77
454.192	73
454.412	68
454.633	75
454.853	78
455.073	76
455.294	72
455.514	84
455.734	78
455.955	79
456.175	76
456.395	55
456.616	82
456.836	75
457.056	77
457.276	77
457.497	71
457.717	65
457.937	91
458.157	80
458.377	84
458.598	78
458.818	77
459.038	75
459.258	88
459.478	79
459.698	85
459.918	86
460.138	73
460.358	65
460.578	87
460.798	75
461.018	81
461.238	72
461.458	70
461.678	67
461.898	62
462.118	81
462.338	73
462.558	88
462.777	69
462.997	68
463.217	88
463.437	83
463.657	79
463.876	73
464.096	72
464.316	77
464.536	70
464.755	81
464.975	74
465.195	83
465.414	72
465.634	84
465.854	81
466.073	89
466.293	81
466.512	73
466.732	74
466.951	79
467.171	69
467.391	79
467.61	62
467.829	77
468.049	79
468.268	68
468.488	84
468.707	79
468.927	65
469.146	95
469.365	81
469.585	83
469.804	80
470.023	81
470.243	80
470.462	81
470.681	78
470.901	68
471.12	79
471.339	84
471.558	83
471.777	89
471.997	79
472.216	83
472.435	87
472.654	70
472.873	81
473.092	80
473.311	87
473.53	81
473.749	83
473.968	69
474.187	80
474.406	83
474.625	70
474.844	74
475.063	73
475.282	82
475.501	81
475.72	78
475.939	85
476.158	64
476.377	87
476.596	89
476.814	81
477.033	71
477.252	68
477.471	78
477.69	90
477.908	73
478.127	78
478.346	79
478.564	87
478.783	90
479.002	77
479.22	84
479.439	83
479.658	88
479.876	66
480.095	76
480.313	80
480.532	73
480.751	77
480.969	78
481.188	91
481.406	68
481.624	80
481.843	68
482.061	78
482.28	83
482.498	87
482.717	83
482.935	84
483.153	79
483.372	81
483.59	82
483.808	65
484.027	71
484.245	78
484.463	77
484.681	92
484.9	68
485.118	80
485.336	68
485.554	76
485.772	77
485.99	72
486.209	80
486.427	74
486.645	81
486.863	67
487.081	67
487.299	81
487.517	83
487.735	75
487.953	78
488.171	92
488.389	77
488.607	68
488.825	80
489.043	84
489.261	87
489.479	77
489.696	67
489.914	84
490.132	63
490.35	71
490.568	76
490.786	94
491.003	89
491.221	79
491.439	89
491.657	83
491.874	83
492.092	74
492.31	73
492.527	68
492.745	70
492.963	87
493.18	85
493.398	84
493.615	69
493.833	79
494.05	75
494.268	77
494.485	82
494.703	78
494.92	75
495.138	84
495.355	59
495.573	91
495.79	72
496.008	70
496.225	78
496.442	83
496.66	87
496.877	72
497.094	60
497.312	88
497.529	80
497.746	81
497.963	75
498.181	80
498.398	76
498.615	81
498.832	94
499.049	84
499.267	77
499.484	79
499.701	92
499.918	89
500.135	82
500.352	79
500.569	87
500.786	76
501.003	75
501.22	65
501.437	78
501.654	80
501.871	69
502.088	69
502.305	70
502.522	80
502.739	71
502.956	74
503.172	73
503.389	77
503.606	74
503.823	77
504.04	85
504.256	87
504.473	79
504.69	76
504.907	80
505.123	75
505.34	79
505.557	75
505.773	94
505.99	73
506.207	89
506.423	86
506.64	70
506.856	84
507.073	74
507.289	92
507.506	80
507.722	78
507.939	83
508.155	91
508.372	90
508.588	100
508.805	82
509.021	77
509.238	74
509.454	96
509.67	81
509.887	78
510.103	71
510.319	87
510.536	76
510.752	83
510.968	79
511.184	82
511.401	84
511.617	85
511.833	75
512.049	93
512.265	82
512.481	87
512.698	75
512.914	87
513.13	84
513.346	79
513.562	70
513.778	75
513.994	88
514.21	73
514.426	80
514.642	71
514.858	78
515.074	76
515.29	69
515.506	72
515.721	85
515.937	66
516.153	78
516.369	68
516.585	76
516.801	81
517.016	75
517.232	85
517.448	84
517.664	76
517.879	84
518.095	78
518.311	95
518.527	81
518.742	77
518.958	81
519.173	66
519.389	77
519.605	90
519.82	84
520.036	82
520.251	76
520.467	75
520.682	76
520.898	78
521.113	74
521.329	64
521.544	87
521.76	81
521.975	77
522.19	81
522.406	74
522.621	76
522.836	74
523.052	94
523.267	77
523.482	66
523.698	79
523.913	92
524.128	84
524.343	80
524.559	82
524.774	70
524.989	83
525.204	91
525.419	81
525.634	86
525.849	73
526.064	79
526.28	73
526.495	78
526.71	83
526.925	82
527.14	74
527.355	70
527.57	83
527.785	86
527.999	81
528.214	73
528.429	82
528.644	73
528.859	89
529.074	81
529.289	88
529.503	73
529.718	74
529.933	69
530.148	69
530.363	84
530.577	85
530.792	76
531.007	84
531.221	93
531.436	88
531.651	83
531.865	81
532.08	89
532.295	90
532.509	77
532.724	83
532.938	86
533.153	68
533.367	81
533.582	82
533.796	87
534.011	89
534.225	82
534.44	63
534.654	98
534.868	88
535.083	85
535.297	81
535.511	84
535.726	62
535.94	72
536.154	75
536.369	76
536.583	88
536.797	74
537.011	71
537.225	74
537.44	79
537.654	99
537.868	80
538.082	71
538.296	69
538.51	91
538.724	73
538.938	73
539.153	77
539.367	89
539.581	82
539.795	81
540.009	83
540.222	85
540.436	87
540.65	87
540.864	69
541.078	81
541.292	84
541.506	73
541.72	88
541.934	76
542.147	80
542.361	75
542.575	88
542.789	79
543.002	65
543.216	85
543.43	68
543.644	77
543.857	79
544.071	69
544.285	94
544.498	81
544.712	75
544.925	75
545.139	81
545.352	75
545.566	83
545.779	76
545.993	88
546.206	84
546.42	74
546.633	77
546.847	100
547.06	77
547.274	89
547.487	89
547.7	86
547.914	80
548.127	73
548.34	69
548.554	68
548.767	84
548.98	84
549.193	89
549.407	97
549.62	87
549.833	93
550.046	79
550.259	83
550.473	89
550.686	76
550.899	95
551.112	93
551.325	68
551.538	76
551.751	75
551.964	87
552.177	89
552.39	70
552.603	71
552.816	89
553.029	98
553.242	77
553.455	88
553.667	73
553.88	81
554.093	81
554.306	80
554.519	95
554.732	94
554.944	92
555.157	67
555.37	94
555.583	80
555.795	85
556.008	86
556.221	80
556.433	63
556.646	107
556.859	78
557.071	85
557.284	88
557.496	80
557.709	74
557.921	92
558.134	83
558.346	79
558.559	84
558.771	84
558.984	81
559.196	88
559.409	92
559.621	75
559.833	89
560.046	83
560.258	73
560.47	79
560.683	82
560.895	77
561.107	68
561.32	73
561.532	77
561.744	78
561.956	79
562.168	90
562.381	83
562.593	81
562.805	84
563.017	90
563.229	87
563.441	80
563.653	76
563.865	80
564.077	72
564.289	87
564.501	88
564.713	92
564.925	87
565.137	80
565.349	75
565.561	81
565.773	91
565.985	81
566.197	82
566.408	73
566.62	78
566.832	80
567.044	84
567.255	82
567.467	84
567.679	91
567.891	91
568.102	88
568.314	74
568.526	83
568.737	85
568.949	82
569.161	72
569.372	72
569.584	76
569.795	83
570.007	85
570.218	75
570.43	92
570.641	81
570.853	77
571.064	92
571.276	93
571.487	76
571.698	75
571.91	74
572.121	83
572.333	81
572.544	76
572.755	75
572.966	79
573.178	81
573.389	72
573.6	77
573.811	86
574.023	79
574.234	86
574.445	85
574.656	83
574.867	95
575.078	80
575.289	80
575.501	87
575.712	83
575.923	74
576.134	83
576.345	84
576.556	83
576.767	86
576.978	77
577.188	79
577.399	89
577.61	86
577.821	86
578.032	74
578.243	80
578.454	85
578.665	82
578.875	82
579.086	81
579.297	89
579.508	84
579.718	87
579.929	76
580.14	73
580.35	86
580.561	79
580.772	67
580.982	83
581.193	81
581.403	76
581.614	84
581.825	74
582.035	71
582.246	89
582.456	84
582.667	88
582.877	84
583.087	66
583.298	79
583.508	73
583.719	71
583.929	92
584.139	78
584.35	81
584.56	87
584.77	89
584.981	84
585.191	84
585.401	91
585.611	77
585.821	91
586.032	77
586.242	91
586.452	84
586.662	80
586.872	91
587.082	83
587.292	85
587.502	90
587.713	81
587.923	73
588.133	79
588.343	82
588.553	89
588.762	89
588.972	82
589.182	84
589.392	69
589.602	77
589.812	72
590.022	85
590.232	67
590.441	73
590.651	75
590.861	84
