Data from Background_3_HRD10591_00050.txt Node
Date: Wed Nov 05 14:49:44 EST 2025
User: Yrep
Spectrometer: HR+D1059
Trigger mode: 1
Integration Time (sec): 1.000000E-1
Scans to average: 1
Electric dark correction enabled: true
Nonlinearity correction enabled: false
Boxcar width: 0
XAxis mode: Wavelengths
Number of Pixels in Spectrum: 2048
>>>>>Begin Spectral Data<<<<<
223.165	-13.56
223.4	-13.56
223.635	-13.56
223.869	-17.56
224.104	-32.56
224.338	-19.56
224.573	-11.56
224.808	-16.56
225.042	3.44
225.277	-3.56
225.511	4.44
225.746	-1.56
225.98	13.44
226.215	20.44
226.449	25.44
226.683	10.44
226.918	16.44
227.152	22.44
227.387	38.44
227.621	45.44
227.856	50.44
228.09	55.44
228.324	54.44
228.559	66.44
228.793	65.44
229.027	69.44
229.262	46.44
229.496	67.44
229.73	69.44
229.964	73.44
230.199	74.44
230.433	78.44
230.667	86.44
230.901	91.44
231.136	80.44
231.37	79.44
231.604	90.44
231.838	60.44
232.072	91.44
232.306	84.44
232.541	77.44
232.775	80.44
233.009	72.44
233.243	82.44
233.477	82.44
233.711	66.44
233.945	78.44
234.179	82.44
234.413	94.44
234.647	95.44
234.881	83.44
235.115	72.44
235.349	80.44
235.583	71.44
235.817	85.44
236.051	90.44
236.285	96.44
236.519	81.44
236.753	69.44
236.987	81.44
237.221	76.44
237.455	63.44
237.689	65.44
237.922	65.44
238.156	83.44
238.39	87.44
238.624	73.44
238.858	76.44
239.091	70.44
239.325	84.44
239.559	81.44
239.793	79.44
240.027	83.44
240.26	75.44
240.494	85.44
240.728	77.44
240.961	83.44
241.195	82.44
241.429	88.44
241.662	82.44
241.896	70.44
242.13	76.44
242.363	81.44
242.597	76.44
242.83	81.44
243.064	73.44
243.298	83.44
243.531	84.44
243.765	77.44
243.998	76.44
244.232	87.44
244.465	74.44
244.699	81.44
244.932	73.44
245.166	79.44
245.399	73.44
245.633	84.44
245.866	75.44
246.099	60.44
246.333	81.44
246.566	78.44
246.8	76.44
247.033	79.44
247.266	80.44
247.5	84.44
247.733	71.44
247.966	78.44
248.2	79.44
248.433	84.44
248.666	84.44
248.899	85.44
249.133	81.44
249.366	97.44
249.599	57.44
249.832	90.44
250.066	84.44
250.299	78.44
250.532	96.44
250.765	70.44
250.998	80.44
251.231	76.44
251.465	73.44
251.698	72.44
251.931	73.44
252.164	66.44
252.397	77.44
252.63	65.44
252.863	83.44
253.096	85.44
253.329	82.44
253.562	79.44
253.795	72.44
254.028	75.44
254.261	74.44
254.494	69.44
254.727	86.44
254.96	78.44
255.193	63.44
255.426	82.44
255.659	80.44
255.892	76.44
256.124	75.44
256.357	83.44
256.59	71.44
256.823	77.44
257.056	82.44
257.289	82.44
257.521	90.44
257.754	95.44
257.987	71.44
258.22	84.44
258.452	77.44
258.685	82.44
258.918	73.44
259.151	72.44
259.383	93.44
259.616	82.44
259.849	69.44
260.081	72.44
260.314	84.44
260.547	74.44
260.779	83.44
261.012	70.44
261.244	81.44
261.477	81.44
261.71	88.44
261.942	81.44
262.175	74.44
262.407	89.44
262.64	82.44
262.872	71.44
263.105	76.44
263.337	72.44
263.57	80.44
263.802	83.44
264.035	86.44
264.267	69.44
264.499	87.44
264.732	83.44
264.964	78.44
265.197	74.44
265.429	69.44
265.661	80.44
265.894	82.44
266.126	80.44
266.358	80.44
266.591	71.44
266.823	82.44
267.055	83.44
267.287	87.44
267.52	78.44
267.752	75.44
267.984	78.44
268.216	88.44
268.448	89.44
268.681	84.44
268.913	61.44
269.145	78.44
269.377	84.44
269.609	71.44
269.841	85.44
270.073	87.44
270.306	94.44
270.538	89.44
270.77	86.44
271.002	82.44
271.234	76.44
271.466	86.44
271.698	80.44
271.93	72.44
272.162	84.44
272.394	83.44
272.626	82.44
272.858	70.44
273.09	75.44
273.322	78.44
273.553	79.44
273.785	79.44
274.017	80.44
274.249	81.44
274.481	74.44
274.713	75.44
274.945	80.44
275.176	86.44
275.408	77.44
275.64	79.44
275.872	86.44
276.104	82.44
276.335	79.44
276.567	76.44
276.799	87.44
277.031	75.44
277.262	86.44
277.494	72.44
277.726	87.44
277.957	76.44
278.189	91.44
278.421	67.44
278.652	74.44
278.884	78.44
279.115	90.44
279.347	83.44
279.579	82.44
279.81	82.44
280.042	81.44
280.273	86.44
280.505	85.44
280.736	71.44
280.968	80.44
281.199	90.44
281.431	83.44
281.662	68.44
281.894	87.44
282.125	71.44
282.356	87.44
282.588	88.44
282.819	80.44
283.051	75.44
283.282	70.44
283.513	90.44
283.745	93.44
283.976	89.44
284.207	82.44
284.439	104.44
284.67	96.44
284.901	88.44
285.132	85.44
285.364	87.44
285.595	78.44
285.826	76.44
286.057	86.44
286.288	103.44
286.52	98.44
286.751	86.44
286.982	93.44
287.213	80.44
287.444	92.44
287.675	81.44
287.906	79.44
288.138	92.44
288.369	94.44
288.6	72.44
288.831	85.44
289.062	73.44
289.293	83.44
289.524	88.44
289.755	81.44
289.986	76.44
290.217	85.44
290.448	83.44
290.679	87.44
290.91	84.44
291.141	76.44
291.371	81.44
291.602	75.44
291.833	91.44
292.064	98.44
292.295	99.44
292.526	79.44
292.757	93.44
292.987	96.44
293.218	85.44
293.449	84.44
293.68	68.44
293.91	82.44
294.141	93.44
294.372	90.44
294.603	95.44
294.833	92.44
295.064	86.44
295.295	81.44
295.525	74.44
295.756	76.44
295.987	78.44
296.217	75.44
296.448	99.44
296.679	75.44
296.909	78.44
297.14	91.44
297.37	98.44
297.601	95.44
297.831	72.44
298.062	86.44
298.292	103.44
298.523	99.44
298.753	73.44
298.984	79.44
299.214	59.44
299.445	78.44
299.675	78.44
299.905	83.44
300.136	82.44
300.366	87.44
300.597	88.44
300.827	88.44
301.057	99.44
301.288	92.44
301.518	82.44
301.748	84.44
301.979	86.44
302.209	94.44
302.439	95.44
302.669	92.44
302.9	95.44
303.13	82.44
303.36	82.44
303.59	88.44
303.82	82.44
304.051	83.44
304.281	92.44
304.511	84.44
304.741	80.44
304.971	65.44
305.201	73.44
305.431	94.44
305.661	85.44
305.891	91.44
306.121	90.44
306.352	82.44
306.582	75.44
306.812	90.44
307.042	88.44
307.272	92.44
307.502	82.44
307.731	90.44
307.961	92.44
308.191	83.44
308.421	80.44
308.651	83.44
308.881	72.44
309.111	81.44
309.341	69.44
309.571	87.44
309.8	78.44
310.03	79.44
310.26	100.44
310.49	78.44
310.72	85.44
310.949	83.44
311.179	100.44
311.409	94.44
311.639	81.44
311.868	85.44
312.098	72.44
312.328	73.44
312.557	74.44
312.787	76.44
313.017	86.44
313.246	95.44
313.476	82.44
313.706	95.44
313.935	75.44
314.165	94.44
314.394	88.44
314.624	73.44
314.853	70.44
315.083	76.44
315.312	79.44
315.542	82.44
315.771	95.44
316.001	86.44
316.23	81.44
316.46	85.44
316.689	82.44
316.919	88.44
317.148	92.44
317.377	80.44
317.607	87.44
317.836	90.44
318.065	72.44
318.295	80.44
318.524	91.44
318.753	91.44
318.983	78.44
319.212	83.44
319.441	88.44
319.67	86.44
319.9	90.44
320.129	80.44
320.358	79.44
320.587	96.44
320.816	83.44
321.046	71.44
321.275	76.44
321.504	74.44
321.733	83.44
321.962	77.44
322.191	74.44
322.42	85.44
322.649	78.44
322.878	86.44
323.108	77.44
323.337	86.44
323.566	92.44
323.795	81.44
324.024	82.44
324.253	86.44
324.482	75.44
324.71	78.44
324.939	102.44
325.168	89.44
325.397	81.44
325.626	74.44
325.855	82.44
326.084	78.44
326.313	87.44
326.542	69.44
326.77	87.44
326.999	79.44
327.228	72.44
327.457	89.44
327.686	88.44
327.914	89.44
328.143	97.44
328.372	79.44
328.6	80.44
328.829	71.44
329.058	78.44
329.287	64.44
329.515	87.44
329.744	79.44
329.972	83.44
330.201	77.44
330.43	90.44
330.658	87.44
330.887	80.44
331.115	92.44
331.344	77.44
331.572	86.44
331.801	93.44
332.03	82.44
332.258	86.44
332.486	81.44
332.715	80.44
332.943	78.44
333.172	100.44
333.4	75.44
333.629	77.44
333.857	92.44
334.085	87.44
334.314	81.44
334.542	82.44
334.771	83.44
334.999	86.44
335.227	69.44
335.455	82.44
335.684	84.44
335.912	80.44
336.14	81.44
336.369	80.44
336.597	96.44
336.825	82.44
337.053	84.44
337.281	76.44
337.51	88.44
337.738	73.44
337.966	80.44
338.194	82.44
338.422	86.44
338.65	84.44
338.878	88.44
339.106	85.44
339.334	93.44
339.562	91.44
339.79	82.44
340.018	81.44
340.246	91.44
340.474	90.44
340.702	94.44
340.93	78.44
341.158	87.44
341.386	88.44
341.614	83.44
341.842	73.44
342.07	84.44
342.298	71.44
342.526	78.44
342.754	88.44
342.981	82.44
343.209	80.44
343.437	97.44
343.665	74.44
343.893	78.44
344.12	82.44
344.348	88.44
344.576	80.44
344.804	96.44
345.031	76.44
345.259	94.44
345.487	93.44
345.714	82.44
345.942	88.44
346.17	78.44
346.397	78.44
346.625	79.44
346.853	79.44
347.08	83.44
347.308	91.44
347.535	82.44
347.763	86.44
347.99	91.44
348.218	84.44
348.445	81.44
348.673	79.44
348.9	84.44
349.128	93.44
349.355	98.44
349.583	96.44
349.81	90.44
350.037	88.44
350.265	75.44
350.492	82.44
350.72	77.44
350.947	85.44
351.174	80.44
351.402	76.44
351.629	78.44
351.856	75.44
352.083	64.44
352.311	81.44
352.538	80.44
352.765	75.44
352.992	67.44
353.22	89.44
353.447	74.44
353.674	90.44
353.901	77.44
354.128	100.44
354.355	98.44
354.583	71.44
354.81	93.44
355.037	96.44
355.264	73.44
355.491	90.44
355.718	91.44
355.945	94.44
356.172	83.44
356.399	80.44
356.626	82.44
356.853	76.44
357.08	96.44
357.307	81.44
357.534	82.44
357.761	80.44
357.988	79.44
358.215	96.44
358.441	76.44
358.668	86.44
358.895	80.44
359.122	90.44
359.349	80.44
359.576	82.44
359.802	83.44
360.029	90.44
360.256	84.44
360.483	69.44
360.709	91.44
360.936	88.44
361.163	76.44
361.39	87.44
361.616	78.44
361.843	82.44
362.07	88.44
362.296	82.44
362.523	86.44
362.749	81.44
362.976	76.44
363.203	82.44
363.429	91.44
363.656	68.44
363.882	72.44
364.109	87.44
364.335	85.44
364.562	68.44
364.788	73.44
365.015	82.44
365.241	91.44
365.468	92.44
365.694	84.44
365.92	70.44
366.147	91.44
366.373	78.44
366.599	97.44
366.826	92.44
367.052	87.44
367.278	97.44
367.505	80.44
367.731	80.44
367.957	85.44
368.184	63.44
368.41	78.44
368.636	82.44
368.862	76.44
369.089	78.44
369.315	83.44
369.541	73.44
369.767	89.44
369.993	86.44
370.219	80.44
370.445	86.44
370.672	89.44
370.898	82.44
371.124	86.44
371.35	95.44
371.576	85.44
371.802	87.44
372.028	71.44
372.254	81.44
372.48	80.44
372.706	78.44
372.932	88.44
373.158	79.44
373.384	81.44
373.61	82.44
373.835	77.44
374.061	74.44
374.287	86.44
374.513	80.44
374.739	83.44
374.965	90.44
375.191	82.44
375.416	82.44
375.642	106.44
375.868	90.44
376.094	65.44
376.319	84.44
376.545	84.44
376.771	68.44
376.997	83.44
377.222	91.44
377.448	78.44
377.674	87.44
377.899	85.44
378.125	88.44
378.35	73.44
378.576	89.44
378.802	70.44
379.027	71.44
379.253	82.44
379.478	79.44
379.704	98.44
379.929	98.44
380.155	92.44
380.38	80.44
380.606	85.44
380.831	68.44
381.057	70.44
381.282	82.44
381.507	91.44
381.733	93.44
381.958	68.44
382.184	76.44
382.409	88.44
382.634	76.44
382.86	71.44
383.085	79.44
383.31	91.44
383.535	81.44
383.761	91.44
383.986	72.44
384.211	85.44
384.436	84.44
384.662	88.44
384.887	79.44
385.112	71.44
385.337	83.44
385.562	78.44
385.787	92.44
386.013	72.44
386.238	74.44
386.463	85.44
386.688	89.44
386.913	86.44
387.138	82.44
387.363	78.44
387.588	78.44
387.813	78.44
388.038	95.44
388.263	68.44
388.488	76.44
388.713	94.44
388.938	71.44
389.163	78.44
389.387	74.44
389.612	75.44
389.837	80.44
390.062	90.44
390.287	84.44
390.512	67.44
390.736	78.44
390.961	72.44
391.186	66.44
391.411	85.44
391.636	78.44
391.86	85.44
392.085	86.44
392.31	92.44
392.534	86.44
392.759	80.44
392.984	79.44
393.208	92.44
393.433	69.44
393.658	85.44
393.882	75.44
394.107	87.44
394.331	78.44
394.556	82.44
394.78	81.44
395.005	62.44
395.229	78.44
395.454	84.44
395.678	92.44
395.903	85.44
396.127	87.44
396.352	69.44
396.576	79.44
396.801	79.44
397.025	80.44
397.249	95.44
397.474	94.44
397.698	67.44
397.922	88.44
398.147	83.44
398.371	92.44
398.595	86.44
398.82	70.44
399.044	77.44
399.268	80.44
399.492	84.44
399.717	66.44
399.941	77.44
400.165	88.44
400.389	78.44
400.613	77.44
400.837	75.44
401.062	71.44
401.286	73.44
401.51	94.44
401.734	79.44
401.958	72.44
402.182	92.44
402.406	78.44
402.63	83.44
402.854	82.44
403.078	85.44
403.302	72.44
403.526	86.44
403.75	82.44
403.974	83.44
404.198	96.44
404.422	84.44
404.645	93.44
404.869	70.44
405.093	89.44
405.317	83.44
405.541	73.44
405.765	80.44
405.988	86.44
406.212	86.44
406.436	90.44
406.66	85.44
406.883	74.44
407.107	78.44
407.331	93.44
407.555	80.44
407.778	80.44
408.002	74.44
408.226	84.44
408.449	76.44
408.673	88.44
408.896	74.44
409.12	85.44
409.344	88.44
409.567	79.44
409.791	75.44
410.014	97.44
410.238	75.44
410.461	89.44
410.685	87.44
410.908	75.44
411.132	86.44
411.355	68.44
411.578	86.44
411.802	88.44
412.025	80.44
412.249	85.44
412.472	71.44
412.695	78.44
412.919	86.44
413.142	60.44
413.365	97.44
413.589	78.44
413.812	78.44
414.035	70.44
414.258	94.44
414.482	65.44
414.705	76.44
414.928	77.44
415.151	72.44
415.374	83.44
415.597	62.44
415.821	82.44
416.044	78.44
416.267	87.44
416.49	83.44
416.713	83.44
416.936	76.44
417.159	88.44
417.382	80.44
417.605	86.44
417.828	80.44
418.051	76.44
418.274	79.44
418.497	81.44
418.72	77.44
418.943	85.44
419.166	79.44
419.389	80.44
419.611	74.44
419.834	71.44
420.057	88.44
420.28	83.44
420.503	81.44
420.726	77.44
420.948	77.44
421.171	92.44
421.394	91.44
421.617	86.44
421.839	86.44
422.062	93.44
422.285	73.44
422.507	80.44
422.73	76.44
422.953	87.44
423.175	87.44
423.398	63.44
423.621	78.44
423.843	79.44
424.066	76.44
424.288	72.44
424.511	83.44
424.733	82.44
424.956	91.44
425.178	72.44
425.401	72.44
425.623	86.44
425.846	90.44
426.068	79.44
426.291	80.44
426.513	77.44
426.735	64.44
426.958	68.44
427.18	70.44
427.402	72.44
427.625	73.44
427.847	61.44
428.069	66.44
428.292	81.44
428.514	78.44
428.736	78.44
428.958	84.44
429.181	99.44
429.403	79.44
429.625	101.44
429.847	77.44
430.069	85.44
430.292	80.44
430.514	84.44
430.736	84.44
430.958	96.44
431.18	83.44
431.402	72.44
431.624	78.44
431.846	88.44
432.068	70.44
432.29	72.44
432.512	73.44
432.734	87.44
432.956	85.44
433.178	90.44
433.4	91.44
433.622	69.44
433.844	76.44
434.066	84.44
434.287	89.44
434.509	74.44
434.731	73.44
434.953	80.44
435.175	71.44
435.397	94.44
435.618	84.44
435.84	72.44
436.062	77.44
436.284	85.44
436.505	64.44
436.727	77.44
436.949	66.44
437.17	78.44
437.392	94.44
437.614	84.44
437.835	83.44
438.057	83.44
438.278	71.44
438.5	81.44
438.721	100.44
438.943	80.44
439.165	84.44
439.386	87.44
439.608	90.44
439.829	75.44
440.05	72.44
440.272	82.44
440.493	80.44
440.715	97.44
440.936	82.44
441.158	76.44
441.379	75.44
441.6	92.44
441.822	75.44
442.043	80.44
442.264	76.44
442.486	75.44
442.707	78.44
442.928	72.44
443.149	85.44
443.371	82.44
443.592	83.44
443.813	82.44
444.034	86.44
444.255	81.44
444.476	72.44
444.698	84.44
444.919	87.44
445.14	147.44
445.361	122.44
445.582	83.44
445.803	82.44
446.024	79.44
446.245	83.44
446.466	84.44
446.687	79.44
446.908	91.44
447.129	68.44
447.35	80.44
447.571	80.44
447.792	92.44
448.013	78.44
448.234	77.44
448.455	82.44
448.675	86.44
448.896	67.44
449.117	84.44
449.338	86.44
449.559	83.44
449.779	88.44
450	86.44
450.221	92.44
450.442	95.44
450.662	66.44
450.883	73.44
451.104	74.44
451.324	95.44
451.545	82.44
451.766	91.44
451.986	90.44
452.207	101.44
452.428	75.44
452.648	80.44
452.869	73.44
453.089	71.44
453.31	90.44
453.53	91.44
453.751	75.44
453.971	77.44
454.192	82.44
454.412	72.44
454.633	75.44
454.853	58.44
455.073	74.44
455.294	75.44
455.514	77.44
455.734	79.44
455.955	87.44
456.175	86.44
456.395	78.44
456.616	65.44
456.836	80.44
457.056	72.44
457.276	74.44
457.497	90.44
457.717	73.44
457.937	77.44
458.157	81.44
458.377	78.44
458.598	84.44
458.818	81.44
459.038	80.44
459.258	81.44
459.478	75.44
459.698	79.44
459.918	74.44
460.138	81.44
460.358	84.44
460.578	77.44
460.798	82.44
461.018	89.44
461.238	85.44
461.458	80.44
461.678	76.44
461.898	66.44
462.118	87.44
462.338	91.44
462.558	78.44
462.777	78.44
462.997	84.44
463.217	72.44
463.437	85.44
463.657	73.44
463.876	77.44
464.096	77.44
464.316	63.44
464.536	82.44
464.755	82.44
464.975	78.44
465.195	91.44
465.414	76.44
465.634	82.44
465.854	80.44
466.073	72.44
466.293	109.44
466.512	90.44
466.732	78.44
466.951	71.44
467.171	92.44
467.391	85.44
467.61	78.44
467.829	83.44
468.049	86.44
468.268	71.44
468.488	86.44
468.707	78.44
468.927	92.44
469.146	86.44
469.365	87.44
469.585	81.44
469.804	82.44
470.023	74.44
470.243	65.44
470.462	81.44
470.681	79.44
470.901	78.44
471.12	82.44
471.339	84.44
471.558	73.44
471.777	74.44
471.997	96.44
472.216	88.44
472.435	93.44
472.654	85.44
472.873	78.44
473.092	72.44
473.311	71.44
473.53	84.44
473.749	77.44
473.968	87.44
474.187	84.44
474.406	83.44
474.625	81.44
474.844	72.44
475.063	75.44
475.282	73.44
475.501	72.44
475.72	96.44
475.939	79.44
476.158	84.44
476.377	75.44
476.596	87.44
476.814	80.44
477.033	95.44
477.252	90.44
477.471	82.44
477.69	90.44
477.908	86.44
478.127	74.44
478.346	85.44
478.564	85.44
478.783	68.44
479.002	83.44
479.22	82.44
479.439	72.44
479.658	84.44
479.876	86.44
480.095	63.44
480.313	75.44
480.532	90.44
480.751	76.44
480.969	87.44
481.188	80.44
481.406	75.44
481.624	75.44
481.843	82.44
482.061	83.44
482.28	84.44
482.498	81.44
482.717	71.44
482.935	86.44
483.153	80.44
483.372	73.44
483.59	84.44
483.808	97.44
484.027	73.44
484.245	69.44
484.463	73.44
484.681	74.44
484.9	81.44
485.118	76.44
485.336	89.44
485.554	90.44
485.772	80.44
485.99	72.44
486.209	83.44
486.427	77.44
486.645	78.44
486.863	83.44
487.081	73.44
487.299	75.44
487.517	83.44
487.735	79.44
487.953	88.44
488.171	72.44
488.389	78.44
488.607	73.44
488.825	84.44
489.043	83.44
489.261	77.44
489.479	75.44
489.696	81.44
489.914	90.44
490.132	85.44
490.35	70.44
490.568	76.44
490.786	72.44
491.003	72.44
491.221	91.44
491.439	67.44
491.657	86.44
491.874	75.44
492.092	81.44
492.31	83.44
492.527	77.44
492.745	79.44
492.963	84.44
493.18	85.44
493.398	90.44
493.615	92.44
493.833	80.44
494.05	88.44
494.268	81.44
494.485	79.44
494.703	77.44
494.92	76.44
495.138	86.44
495.355	81.44
495.573	80.44
495.79	87.44
496.008	82.44
496.225	93.44
496.442	77.44
496.66	73.44
496.877	86.44
497.094	92.44
497.312	88.44
497.529	79.44
497.746	100.44
497.963	76.44
498.181	82.44
498.398	72.44
498.615	85.44
498.832	90.44
499.049	74.44
499.267	79.44
499.484	82.44
499.701	72.44
499.918	86.44
500.135	74.44
500.352	76.44
500.569	72.44
500.786	82.44
501.003	72.44
501.22	74.44
501.437	79.44
501.654	90.44
501.871	80.44
502.088	77.44
502.305	83.44
502.522	102.44
502.739	72.44
502.956	79.44
503.172	78.44
503.389	83.44
503.606	87.44
503.823	81.44
504.04	90.44
504.256	63.44
504.473	79.44
504.69	79.44
504.907	90.44
505.123	86.44
505.34	92.44
505.557	82.44
505.773	80.44
505.99	73.44
506.207	78.44
506.423	83.44
506.64	83.44
506.856	90.44
507.073	73.44
507.289	88.44
507.506	75.44
507.722	92.44
507.939	78.44
508.155	84.44
508.372	80.44
508.588	71.44
508.805	69.44
509.021	90.44
509.238	83.44
509.454	81.44
509.67	86.44
509.887	84.44
510.103	89.44
510.319	84.44
510.536	91.44
510.752	78.44
510.968	91.44
511.184	84.44
511.401	76.44
511.617	77.44
511.833	76.44
512.049	82.44
512.265	78.44
512.481	79.44
512.698	78.44
512.914	73.44
513.13	74.44
513.346	75.44
513.562	75.44
513.778	93.44
513.994	82.44
514.21	78.44
514.426	83.44
514.642	77.44
514.858	72.44
515.074	89.44
515.29	82.44
515.506	86.44
515.721	83.44
515.937	68.44
516.153	86.44
516.369	82.44
516.585	71.44
516.801	86.44
517.016	82.44
517.232	76.44
517.448	68.44
517.664	78.44
517.879	76.44
518.095	88.44
518.311	90.44
518.527	90.44
518.742	90.44
518.958	77.44
519.173	78.44
519.389	79.44
519.605	83.44
519.82	75.44
520.036	87.44
