Data from Background_3_HRD10591_00026.txt Node
Date: Wed Nov 05 14:49:32 EST 2025
User: Yrep
Spectrometer: HR+D1059
Trigger mode: 1
Integration Time (sec): 1.000000E-1
Scans to average: 1
Electric dark correction enabled: true
Nonlinearity correction enabled: false
Boxcar width: 0
XAxis mode: Wavelengths
Number of Pixels in Spectrum: 2048
>>>>>Begin Spectral Data<<<<<
223.165	-13.56
223.4	-13.56
223.635	-13.56
223.869	-27.56
224.104	-16.56
224.338	-7.56
224.573	-12.56
224.808	-7.56
225.042	-14.56
225.277	0.44
225.511	-6.56
225.746	5.44
225.98	11.44
226.215	27.44
226.449	16.44
226.683	4.44
226.918	22.44
227.152	18.44
227.387	31.44
227.621	47.44
227.856	52.44
228.09	54.44
228.324	48.44
228.559	51.44
228.793	64.44
229.027	76.44
229.262	70.44
229.496	76.44
229.73	68.44
229.964	74.44
230.199	71.44
230.433	63.44
230.667	72.44
230.901	83.44
231.136	70.44
231.37	80.44
231.604	84.44
231.838	80.44
232.072	92.44
232.306	94.44
232.541	87.44
232.775	79.44
233.009	92.44
233.243	87.44
233.477	88.44
233.711	80.44
233.945	72.44
234.179	88.44
234.413	77.44
234.647	76.44
234.881	83.44
235.115	77.44
235.349	87.44
235.583	67.44
235.817	73.44
236.051	66.44
236.285	84.44
236.519	87.44
236.753	76.44
236.987	74.44
237.221	77.44
237.455	86.44
237.689	81.44
237.922	68.44
238.156	76.44
238.39	70.44
238.624	82.44
238.858	74.44
239.091	87.44
239.325	78.44
239.559	80.44
239.793	90.44
240.027	73.44
240.26	76.44
240.494	74.44
240.728	84.44
240.961	81.44
241.195	84.44
241.429	83.44
241.662	73.44
241.896	80.44
242.13	78.44
242.363	76.44
242.597	71.44
242.83	72.44
243.064	90.44
243.298	80.44
243.531	77.44
243.765	90.44
243.998	68.44
244.232	86.44
244.465	95.44
244.699	83.44
244.932	79.44
245.166	83.44
245.399	80.44
245.633	76.44
245.866	91.44
246.099	77.44
246.333	75.44
246.566	85.44
246.8	67.44
247.033	82.44
247.266	86.44
247.5	75.44
247.733	70.44
247.966	92.44
248.2	78.44
248.433	72.44
248.666	74.44
248.899	84.44
249.133	82.44
249.366	91.44
249.599	73.44
249.832	74.44
250.066	100.44
250.299	97.44
250.532	82.44
250.765	75.44
250.998	87.44
251.231	89.44
251.465	86.44
251.698	74.44
251.931	86.44
252.164	73.44
252.397	77.44
252.63	83.44
252.863	71.44
253.096	74.44
253.329	71.44
253.562	96.44
253.795	100.44
254.028	81.44
254.261	75.44
254.494	72.44
254.727	81.44
254.96	73.44
255.193	95.44
255.426	92.44
255.659	89.44
255.892	81.44
256.124	68.44
256.357	84.44
256.59	82.44
256.823	84.44
257.056	74.44
257.289	87.44
257.521	83.44
257.754	67.44
257.987	90.44
258.22	89.44
258.452	101.44
258.685	70.44
258.918	80.44
259.151	84.44
259.383	80.44
259.616	82.44
259.849	87.44
260.081	77.44
260.314	78.44
260.547	88.44
260.779	89.44
261.012	99.44
261.244	80.44
261.477	82.44
261.71	81.44
261.942	89.44
262.175	92.44
262.407	88.44
262.64	80.44
262.872	76.44
263.105	78.44
263.337	86.44
263.57	85.44
263.802	79.44
264.035	85.44
264.267	86.44
264.499	76.44
264.732	77.44
264.964	87.44
265.197	76.44
265.429	70.44
265.661	74.44
265.894	80.44
266.126	95.44
266.358	90.44
266.591	80.44
266.823	87.44
267.055	80.44
267.287	91.44
267.52	71.44
267.752	80.44
267.984	73.44
268.216	86.44
268.448	99.44
268.681	87.44
268.913	78.44
269.145	85.44
269.377	96.44
269.609	83.44
269.841	86.44
270.073	90.44
270.306	90.44
270.538	77.44
270.77	94.44
271.002	80.44
271.234	83.44
271.466	78.44
271.698	76.44
271.93	78.44
272.162	79.44
272.394	86.44
272.626	80.44
272.858	88.44
273.09	88.44
273.322	81.44
273.553	86.44
273.785	79.44
274.017	78.44
274.249	88.44
274.481	81.44
274.713	78.44
274.945	90.44
275.176	100.44
275.408	85.44
275.64	78.44
275.872	82.44
276.104	84.44
276.335	80.44
276.567	88.44
276.799	86.44
277.031	91.44
277.262	82.44
277.494	74.44
277.726	89.44
277.957	103.44
278.189	85.44
278.421	83.44
278.652	71.44
278.884	87.44
279.115	75.44
279.347	71.44
279.579	64.44
279.81	75.44
280.042	83.44
280.273	96.44
280.505	83.44
280.736	93.44
280.968	90.44
281.199	103.44
281.431	92.44
281.662	77.44
281.894	93.44
282.125	74.44
282.356	76.44
282.588	100.44
282.819	83.44
283.051	90.44
283.282	79.44
283.513	92.44
283.745	82.44
283.976	84.44
284.207	93.44
284.439	87.44
284.67	88.44
284.901	91.44
285.132	93.44
285.364	74.44
285.595	85.44
285.826	95.44
286.057	87.44
286.288	96.44
286.52	89.44
286.751	71.44
286.982	83.44
287.213	82.44
287.444	82.44
287.675	86.44
287.906	83.44
288.138	83.44
288.369	87.44
288.6	87.44
288.831	68.44
289.062	98.44
289.293	90.44
289.524	81.44
289.755	98.44
289.986	79.44
290.217	91.44
290.448	100.44
290.679	87.44
290.91	90.44
291.141	78.44
291.371	94.44
291.602	79.44
291.833	86.44
292.064	78.44
292.295	83.44
292.526	94.44
292.757	102.44
292.987	98.44
293.218	76.44
293.449	97.44
293.68	76.44
293.91	91.44
294.141	88.44
294.372	80.44
294.603	86.44
294.833	84.44
295.064	83.44
295.295	83.44
295.525	87.44
295.756	89.44
295.987	92.44
296.217	78.44
296.448	72.44
296.679	101.44
296.909	90.44
297.14	80.44
297.37	97.44
297.601	84.44
297.831	88.44
298.062	79.44
298.292	90.44
298.523	88.44
298.753	90.44
298.984	96.44
299.214	102.44
299.445	83.44
299.675	86.44
299.905	69.44
300.136	85.44
300.366	86.44
300.597	83.44
300.827	95.44
301.057	99.44
301.288	92.44
301.518	79.44
301.748	83.44
301.979	92.44
302.209	78.44
302.439	97.44
302.669	97.44
302.9	80.44
303.13	87.44
303.36	86.44
303.59	84.44
303.82	82.44
304.051	89.44
304.281	82.44
304.511	82.44
304.741	96.44
304.971	103.44
305.201	96.44
305.431	92.44
305.661	93.44
305.891	75.44
306.121	94.44
306.352	93.44
306.582	97.44
306.812	80.44
307.042	87.44
307.272	99.44
307.502	83.44
307.731	83.44
307.961	78.44
308.191	81.44
308.421	88.44
308.651	88.44
308.881	83.44
309.111	90.44
309.341	81.44
309.571	88.44
309.8	63.44
310.03	80.44
310.26	86.44
310.49	88.44
310.72	87.44
310.949	88.44
311.179	86.44
311.409	80.44
311.639	88.44
311.868	85.44
312.098	87.44
312.328	89.44
312.557	91.44
312.787	101.44
313.017	101.44
313.246	82.44
313.476	92.44
313.706	91.44
313.935	90.44
314.165	78.44
314.394	99.44
314.624	92.44
314.853	77.44
315.083	86.44
315.312	84.44
315.542	95.44
315.771	87.44
316.001	80.44
316.23	86.44
316.46	95.44
316.689	83.44
316.919	63.44
317.148	83.44
317.377	94.44
317.607	95.44
317.836	89.44
318.065	84.44
318.295	93.44
318.524	83.44
318.753	76.44
318.983	78.44
319.212	83.44
319.441	74.44
319.67	83.44
319.9	94.44
320.129	91.44
320.358	87.44
320.587	85.44
320.816	90.44
321.046	83.44
321.275	84.44
321.504	95.44
321.733	82.44
321.962	92.44
322.191	95.44
322.42	75.44
322.649	97.44
322.878	82.44
323.108	89.44
323.337	77.44
323.566	107.44
323.795	98.44
324.024	81.44
324.253	90.44
324.482	95.44
324.71	95.44
324.939	90.44
325.168	75.44
325.397	83.44
325.626	77.44
325.855	78.44
326.084	89.44
326.313	98.44
326.542	86.44
326.77	71.44
326.999	80.44
327.228	78.44
327.457	96.44
327.686	88.44
327.914	79.44
328.143	86.44
328.372	80.44
328.6	89.44
328.829	89.44
329.058	86.44
329.287	102.44
329.515	95.44
329.744	81.44
329.972	82.44
330.201	91.44
330.43	99.44
330.658	84.44
330.887	94.44
331.115	79.44
331.344	80.44
331.572	77.44
331.801	85.44
332.03	90.44
332.258	85.44
332.486	91.44
332.715	90.44
332.943	92.44
333.172	84.44
333.4	63.44
333.629	80.44
333.857	83.44
334.085	90.44
334.314	81.44
334.542	86.44
334.771	80.44
334.999	97.44
335.227	93.44
335.455	80.44
335.684	87.44
335.912	83.44
336.14	91.44
336.369	86.44
336.597	96.44
336.825	86.44
337.053	84.44
337.281	91.44
337.51	79.44
337.738	86.44
337.966	87.44
338.194	75.44
338.422	78.44
338.65	76.44
338.878	71.44
339.106	87.44
339.334	83.44
339.562	76.44
339.79	93.44
340.018	82.44
340.246	82.44
340.474	87.44
340.702	92.44
340.93	78.44
341.158	87.44
341.386	80.44
341.614	83.44
341.842	82.44
342.07	77.44
342.298	78.44
342.526	92.44
342.754	85.44
342.981	76.44
343.209	88.44
343.437	87.44
343.665	77.44
343.893	86.44
344.12	76.44
344.348	95.44
344.576	82.44
344.804	96.44
345.031	89.44
345.259	80.44
345.487	77.44
345.714	78.44
345.942	86.44
346.17	80.44
346.397	82.44
346.625	80.44
346.853	62.44
347.08	78.44
347.308	80.44
347.535	86.44
347.763	80.44
347.99	87.44
348.218	91.44
348.445	90.44
348.673	95.44
348.9	90.44
349.128	75.44
349.355	68.44
349.583	87.44
349.81	76.44
350.037	82.44
350.265	94.44
350.492	78.44
350.72	81.44
350.947	95.44
351.174	86.44
351.402	87.44
351.629	97.44
351.856	81.44
352.083	87.44
352.311	82.44
352.538	72.44
352.765	83.44
352.992	88.44
353.22	85.44
353.447	83.44
353.674	81.44
353.901	77.44
354.128	88.44
354.355	79.44
354.583	86.44
354.81	80.44
355.037	82.44
355.264	85.44
355.491	88.44
355.718	80.44
355.945	89.44
356.172	84.44
356.399	81.44
356.626	79.44
356.853	87.44
357.08	91.44
357.307	87.44
357.534	79.44
357.761	82.44
357.988	90.44
358.215	98.44
358.441	93.44
358.668	77.44
358.895	86.44
359.122	78.44
359.349	92.44
359.576	87.44
359.802	89.44
360.029	82.44
360.256	93.44
360.483	89.44
360.709	84.44
360.936	84.44
361.163	88.44
361.39	82.44
361.616	83.44
361.843	86.44
362.07	91.44
362.296	88.44
362.523	90.44
362.749	79.44
362.976	90.44
363.203	87.44
363.429	88.44
363.656	100.44
363.882	75.44
364.109	88.44
364.335	96.44
364.562	85.44
364.788	80.44
365.015	80.44
365.241	76.44
365.468	88.44
365.694	87.44
365.92	72.44
366.147	84.44
366.373	74.44
366.599	81.44
366.826	84.44
367.052	84.44
367.278	87.44
367.505	76.44
367.731	97.44
367.957	94.44
368.184	99.44
368.41	82.44
368.636	79.44
368.862	87.44
369.089	71.44
369.315	72.44
369.541	86.44
369.767	99.44
369.993	89.44
370.219	78.44
370.445	67.44
370.672	75.44
370.898	87.44
371.124	70.44
371.35	84.44
371.576	80.44
371.802	86.44
372.028	88.44
372.254	83.44
372.48	89.44
372.706	83.44
372.932	79.44
373.158	82.44
373.384	92.44
373.61	83.44
373.835	80.44
374.061	91.44
374.287	84.44
374.513	73.44
374.739	84.44
374.965	78.44
375.191	81.44
375.416	86.44
375.642	80.44
375.868	79.44
376.094	82.44
376.319	78.44
376.545	80.44
376.771	87.44
376.997	80.44
377.222	75.44
377.448	90.44
377.674	81.44
377.899	78.44
378.125	82.44
378.35	65.44
378.576	70.44
378.802	80.44
379.027	82.44
379.253	88.44
379.478	82.44
379.704	86.44
379.929	79.44
380.155	84.44
380.38	79.44
380.606	92.44
380.831	82.44
381.057	84.44
381.282	86.44
381.507	97.44
381.733	74.44
381.958	88.44
382.184	94.44
382.409	75.44
382.634	76.44
382.86	91.44
383.085	98.44
383.31	72.44
383.535	73.44
383.761	83.44
383.986	95.44
384.211	92.44
384.436	101.44
384.662	93.44
384.887	72.44
385.112	78.44
385.337	75.44
385.562	75.44
385.787	68.44
386.013	88.44
386.238	80.44
386.463	82.44
386.688	97.44
386.913	78.44
387.138	85.44
387.363	100.44
387.588	94.44
387.813	85.44
388.038	88.44
388.263	82.44
388.488	80.44
388.713	89.44
388.938	95.44
389.163	76.44
389.387	85.44
389.612	82.44
389.837	76.44
390.062	101.44
390.287	93.44
390.512	71.44
390.736	83.44
390.961	88.44
391.186	81.44
391.411	85.44
391.636	81.44
391.86	82.44
392.085	87.44
392.31	94.44
392.534	82.44
392.759	74.44
392.984	85.44
393.208	88.44
393.433	86.44
393.658	82.44
393.882	90.44
394.107	82.44
394.331	72.44
394.556	82.44
394.78	84.44
395.005	76.44
395.229	88.44
395.454	96.44
395.678	83.44
395.903	87.44
396.127	90.44
396.352	103.44
396.576	83.44
396.801	93.44
397.025	87.44
397.249	66.44
397.474	82.44
397.698	80.44
397.922	88.44
398.147	90.44
398.371	78.44
398.595	82.44
398.82	80.44
399.044	85.44
399.268	70.44
399.492	87.44
399.717	83.44
399.941	86.44
400.165	80.44
400.389	80.44
400.613	79.44
400.837	85.44
401.062	86.44
401.286	86.44
401.51	84.44
401.734	86.44
401.958	93.44
402.182	69.44
402.406	76.44
402.63	80.44
402.854	73.44
403.078	80.44
403.302	88.44
403.526	98.44
403.75	96.44
403.974	64.44
404.198	79.44
404.422	78.44
404.645	69.44
404.869	88.44
405.093	73.44
405.317	85.44
405.541	93.44
405.765	94.44
405.988	95.44
406.212	85.44
406.436	77.44
406.66	84.44
406.883	96.44
407.107	86.44
407.331	85.44
407.555	81.44
407.778	69.44
408.002	88.44
408.226	92.44
408.449	70.44
408.673	94.44
408.896	76.44
409.12	99.44
409.344	93.44
409.567	73.44
409.791	93.44
410.014	79.44
410.238	91.44
410.461	90.44
410.685	82.44
410.908	108.44
411.132	80.44
411.355	80.44
411.578	91.44
411.802	74.44
412.025	80.44
412.249	85.44
412.472	66.44
412.695	79.44
412.919	86.44
413.142	93.44
413.365	76.44
413.589	78.44
413.812	73.44
414.035	90.44
414.258	93.44
414.482	75.44
414.705	66.44
414.928	86.44
415.151	84.44
415.374	92.44
415.597	65.44
415.821	82.44
416.044	73.44
416.267	86.44
416.49	82.44
416.713	81.44
416.936	86.44
417.159	81.44
417.382	81.44
417.605	82.44
417.828	104.44
418.051	71.44
418.274	86.44
418.497	69.44
418.72	80.44
418.943	74.44
419.166	79.44
419.389	73.44
419.611	81.44
419.834	94.44
420.057	74.44
420.28	84.44
420.503	73.44
420.726	84.44
420.948	68.44
421.171	86.44
421.394	63.44
421.617	72.44
421.839	90.44
422.062	90.44
422.285	83.44
422.507	86.44
422.73	83.44
422.953	79.44
423.175	95.44
423.398	77.44
423.621	81.44
423.843	67.44
424.066	84.44
424.288	86.44
424.511	78.44
424.733	83.44
424.956	92.44
425.178	93.44
425.401	85.44
425.623	78.44
425.846	78.44
426.068	92.44
426.291	92.44
426.513	85.44
426.735	82.44
426.958	82.44
427.18	82.44
427.402	69.44
427.625	94.44
427.847	72.44
428.069	87.44
428.292	72.44
428.514	82.44
428.736	83.44
428.958	82.44
429.181	97.44
429.403	77.44
429.625	85.44
429.847	82.44
430.069	86.44
430.292	81.44
430.514	86.44
430.736	69.44
430.958	86.44
431.18	91.44
431.402	86.44
431.624	85.44
431.846	80.44
432.068	77.44
432.29	89.44
432.512	87.44
432.734	83.44
432.956	88.44
433.178	83.44
433.4	78.44
433.622	92.44
433.844	80.44
434.066	85.44
434.287	78.44
434.509	86.44
434.731	80.44
434.953	95.44
435.175	83.44
435.397	81.44
435.618	92.44
435.84	80.44
436.062	62.44
436.284	70.44
436.505	67.44
436.727	75.44
436.949	68.44
437.17	71.44
437.392	78.44
437.614	94.44
437.835	75.44
438.057	87.44
438.278	67.44
438.5	86.44
438.721	76.44
438.943	90.44
439.165	83.44
439.386	95.44
439.608	81.44
439.829	97.44
440.05	94.44
440.272	90.44
440.493	78.44
440.715	87.44
440.936	78.44
441.158	84.44
441.379	78.44
441.6	76.44
441.822	78.44
442.043	82.44
442.264	87.44
442.486	83.44
442.707	76.44
442.928	79.44
443.149	77.44
443.371	79.44
443.592	84.44
443.813	80.44
444.034	98.44
444.255	84.44
444.476	79.44
444.698	90.44
444.919	80.44
445.14	151.44
445.361	106.44
445.582	77.44
445.803	91.44
446.024	80.44
446.245	95.44
446.466	85.44
446.687	87.44
446.908	84.44
447.129	70.44
447.35	78.44
447.571	90.44
447.792	82.44
448.013	77.44
448.234	91.44
448.455	87.44
448.675	75.44
448.896	74.44
449.117	92.44
449.338	76.44
449.559	92.44
449.779	77.44
450	78.44
450.221	86.44
450.442	78.44
450.662	72.44
450.883	86.44
451.104	84.44
451.324	86.44
451.545	69.44
451.766	74.44
451.986	76.44
452.207	69.44
452.428	90.44
452.648	96.44
452.869	94.44
453.089	88.44
453.31	77.44
453.53	74.44
453.751	94.44
453.971	74.44
454.192	63.44
454.412	84.44
454.633	90.44
454.853	74.44
455.073	76.44
455.294	90.44
455.514	85.44
455.734	86.44
455.955	83.44
456.175	83.44
456.395	87.44
456.616	76.44
456.836	88.44
457.056	80.44
457.276	83.44
457.497	86.44
457.717	90.44
457.937	90.44
458.157	87.44
458.377	78.44
458.598	80.44
458.818	80.44
459.038	71.44
459.258	79.44
459.478	84.44
459.698	67.44
459.918	76.44
460.138	76.44
460.358	83.44
460.578	87.44
460.798	84.44
461.018	92.44
461.238	81.44
461.458	87.44
461.678	83.44
461.898	77.44
462.118	85.44
462.338	88.44
462.558	80.44
462.777	86.44
462.997	85.44
463.217	70.44
463.437	87.44
463.657	86.44
463.876	75.44
464.096	91.44
464.316	73.44
464.536	91.44
464.755	87.44
464.975	78.44
465.195	88.44
465.414	96.44
465.634	78.44
465.854	93.44
466.073	70.44
466.293	74.44
466.512	82.44
466.732	83.44
466.951	76.44
467.171	86.44
467.391	86.44
467.61	93.44
467.829	85.44
468.049	100.44
468.268	84.44
468.488	96.44
468.707	88.44
468.927	92.44
469.146	87.44
469.365	78.44
469.585	84.44
469.804	91.44
470.023	76.44
470.243	87.44
470.462	90.44
470.681	83.44
470.901	78.44
471.12	85.44
471.339	81.44
471.558	73.44
471.777	76.44
471.997	90.44
472.216	95.44
472.435	95.44
472.654	96.44
472.873	84.44
473.092	83.44
473.311	86.44
473.53	87.44
473.749	83.44
473.968	82.44
474.187	85.44
474.406	90.44
474.625	80.44
474.844	78.44
475.063	89.44
475.282	87.44
475.501	88.44
475.72	88.44
475.939	87.44
476.158	88.44
476.377	88.44
476.596	84.44
476.814	79.44
477.033	85.44
477.252	98.44
477.471	85.44
477.69	92.44
477.908	88.44
478.127	80.44
478.346	92.44
478.564	72.44
478.783	82.44
479.002	82.44
479.22	94.44
479.439	95.44
479.658	72.44
479.876	70.44
480.095	92.44
480.313	84.44
480.532	92.44
480.751	84.44
480.969	91.44
481.188	93.44
481.406	87.44
481.624	86.44
481.843	70.44
482.061	92.44
482.28	80.44
482.498	75.44
482.717	90.44
482.935	90.44
483.153	100.44
483.372	61.44
483.59	72.44
483.808	86.44
484.027	85.44
484.245	86.44
484.463	75.44
484.681	86.44
484.9	78.44
485.118	73.44
485.336	93.44
485.554	87.44
485.772	98.44
485.99	95.44
486.209	88.44
486.427	89.44
486.645	79.44
486.863	76.44
487.081	91.44
487.299	80.44
487.517	84.44
487.735	85.44
487.953	79.44
488.171	78.44
488.389	71.44
488.607	86.44
488.825	81.44
489.043	91.44
489.261	79.44
489.479	76.44
489.696	85.44
489.914	93.44
490.132	92.44
490.35	87.44
490.568	69.44
490.786	81.44
491.003	82.44
491.221	84.44
491.439	88.44
491.657	95.44
491.874	77.44
492.092	87.44
492.31	75.44
492.527	81.44
492.745	86.44
492.963	79.44
493.18	71.44
493.398	90.44
493.615	89.44
493.833	85.44
494.05	70.44
494.268	74.44
494.485	74.44
494.703	83.44
494.92	75.44
495.138	81.44
495.355	81.44
495.573	81.44
495.79	92.44
496.008	80.44
496.225	79.44
496.442	102.44
496.66	84.44
496.877	85.44
497.094	81.44
497.312	84.44
497.529	80.44
497.746	92.44
497.963	72.44
498.181	102.44
498.398	74.44
498.615	89.44
498.832	90.44
499.049	84.44
499.267	83.44
499.484	92.44
499.701	91.44
499.918	86.44
500.135	82.44
500.352	91.44
500.569	92.44
500.786	72.44
501.003	76.44
501.22	89.44
501.437	85.44
501.654	88.44
501.871	75.44
502.088	85.44
502.305	88.44
502.522	87.44
502.739	77.44
502.956	85.44
503.172	74.44
503.389	91.44
503.606	86.44
503.823	80.44
504.04	83.44
504.256	87.44
504.473	82.44
504.69	88.44
504.907	82.44
505.123	82.44
505.34	114.44
505.557	80.44
505.773	84.44
505.99	90.44
506.207	90.44
506.423	91.44
506.64	88.44
506.856	82.44
507.073	85.44
507.289	89.44
507.506	86.44
507.722	68.44
507.939	78.44
508.155	89.44
508.372	94.44
508.588	81.44
508.805	96.44
509.021	74.44
509.238	77.44
509.454	70.44
509.67	81.44
509.887	73.44
510.103	76.44
510.319	78.44
510.536	83.44
510.752	88.44
510.968	82.44
511.184	77.44
511.401	74.44
511.617	88.44
511.833	84.44
512.049	88.44
512.265	84.44
512.481	93.44
512.698	71.44
512.914	87.44
513.13	91.44
513.346	86.44
513.562	92.44
513.778	69.44
513.994	94.44
514.21	84.44
514.426	84.44
514.642	73.44
514.858	88.44
515.074	82.44
515.29	91.44
515.506	82.44
515.721	92.44
515.937	76.44
516.153	101.44
516.369	69.44
516.585	90.44
516.801	77.44
517.016	77.44
517.232	85.44
517.448	76.44
517.664	86.44
517.879	92.44
518.095	98.44
518.311	79.44
518.527	88.44
518.742	78.44
518.958	91.44
519.173	68.44
519.389	77.44
519.605	85.44
519.82	84.44
