Data from Background_3_HRD10591_00092.txt Node
Date: Wed Nov 05 14:50:05 EST 2025
User: Yrep
Spectrometer: HR+D1059
Trigger mode: 1
Integration Time (sec): 1.000000E-1
Scans to average: 1
Electric dark correction enabled: true
Nonlinearity correction enabled: false
Boxcar width: 0
XAxis mode: Wavelengths
Number of Pixels in Spectrum: 2048
>>>>>Begin Spectral Data<<<<<
223.165	-6.38
223.4	-6.38
223.635	-6.38
223.869	-23.38
224.104	-32.38
224.338	-10.38
224.573	-17.38
224.808	-15.38
225.042	-5.38
225.277	-4.38
225.511	-0.38
225.746	-11.38
225.98	4.62
226.215	15.62
226.449	24.62
226.683	29.62
226.918	23.62
227.152	28.62
227.387	30.62
227.621	38.62
227.856	43.62
228.09	34.62
228.324	37.62
228.559	58.62
228.793	66.62
229.027	68.62
229.262	64.62
229.496	64.62
229.73	69.62
229.964	65.62
230.199	75.62
230.433	79.62
230.667	90.62
230.901	68.62
231.136	71.62
231.37	67.62
231.604	76.62
231.838	76.62
232.072	86.62
232.306	80.62
232.541	69.62
232.775	74.62
233.009	78.62
233.243	88.62
233.477	82.62
233.711	84.62
233.945	83.62
234.179	79.62
234.413	67.62
234.647	88.62
234.881	82.62
235.115	78.62
235.349	80.62
235.583	84.62
235.817	68.62
236.051	68.62
236.285	77.62
236.519	82.62
236.753	82.62
236.987	85.62
237.221	75.62
237.455	72.62
237.689	76.62
237.922	73.62
238.156	76.62
238.39	62.62
238.624	70.62
238.858	69.62
239.091	83.62
239.325	70.62
239.559	62.62
239.793	79.62
240.027	96.62
240.26	60.62
240.494	67.62
240.728	70.62
240.961	79.62
241.195	81.62
241.429	79.62
241.662	84.62
241.896	93.62
242.13	81.62
242.363	76.62
242.597	51.62
242.83	71.62
243.064	85.62
243.298	62.62
243.531	75.62
243.765	68.62
243.998	72.62
244.232	64.62
244.465	70.62
244.699	68.62
244.932	83.62
245.166	80.62
245.399	74.62
245.633	78.62
245.866	90.62
246.099	88.62
246.333	81.62
246.566	90.62
246.8	81.62
247.033	78.62
247.266	66.62
247.5	74.62
247.733	70.62
247.966	71.62
248.2	80.62
248.433	74.62
248.666	65.62
248.899	74.62
249.133	77.62
249.366	71.62
249.599	85.62
249.832	67.62
250.066	76.62
250.299	76.62
250.532	71.62
250.765	63.62
250.998	78.62
251.231	94.62
251.465	73.62
251.698	69.62
251.931	68.62
252.164	66.62
252.397	90.62
252.63	86.62
252.863	76.62
253.096	86.62
253.329	88.62
253.562	83.62
253.795	81.62
254.028	81.62
254.261	80.62
254.494	67.62
254.727	86.62
254.96	89.62
255.193	84.62
255.426	68.62
255.659	81.62
255.892	80.62
256.124	76.62
256.357	76.62
256.59	80.62
256.823	56.62
257.056	73.62
257.289	70.62
257.521	76.62
257.754	71.62
257.987	84.62
258.22	84.62
258.452	66.62
258.685	70.62
258.918	78.62
259.151	85.62
259.383	76.62
259.616	83.62
259.849	78.62
260.081	97.62
260.314	75.62
260.547	68.62
260.779	83.62
261.012	78.62
261.244	66.62
261.477	94.62
261.71	68.62
261.942	76.62
262.175	69.62
262.407	86.62
262.64	74.62
262.872	73.62
263.105	67.62
263.337	71.62
263.57	84.62
263.802	72.62
264.035	83.62
264.267	83.62
264.499	76.62
264.732	94.62
264.964	90.62
265.197	76.62
265.429	86.62
265.661	75.62
265.894	86.62
266.126	78.62
266.358	78.62
266.591	69.62
266.823	77.62
267.055	71.62
267.287	65.62
267.52	73.62
267.752	80.62
267.984	82.62
268.216	82.62
268.448	76.62
268.681	83.62
268.913	85.62
269.145	75.62
269.377	77.62
269.609	71.62
269.841	68.62
270.073	74.62
270.306	86.62
270.538	81.62
270.77	88.62
271.002	84.62
271.234	87.62
271.466	84.62
271.698	79.62
271.93	90.62
272.162	82.62
272.394	82.62
272.626	63.62
272.858	76.62
273.09	80.62
273.322	91.62
273.553	63.62
273.785	88.62
274.017	86.62
274.249	77.62
274.481	86.62
274.713	76.62
274.945	74.62
275.176	74.62
275.408	69.62
275.64	76.62
275.872	88.62
276.104	88.62
276.335	66.62
276.567	84.62
276.799	78.62
277.031	79.62
277.262	81.62
277.494	65.62
277.726	67.62
277.957	82.62
278.189	97.62
278.421	105.62
278.652	85.62
278.884	74.62
279.115	79.62
279.347	88.62
279.579	75.62
279.81	98.62
280.042	85.62
280.273	83.62
280.505	77.62
280.736	73.62
280.968	61.62
281.199	72.62
281.431	84.62
281.662	82.62
281.894	84.62
282.125	70.62
282.356	79.62
282.588	82.62
282.819	78.62
283.051	81.62
283.282	83.62
283.513	85.62
283.745	96.62
283.976	86.62
284.207	92.62
284.439	74.62
284.67	80.62
284.901	89.62
285.132	97.62
285.364	81.62
285.595	88.62
285.826	88.62
286.057	73.62
286.288	90.62
286.52	88.62
286.751	83.62
286.982	72.62
287.213	72.62
287.444	80.62
287.675	81.62
287.906	93.62
288.138	82.62
288.369	89.62
288.6	84.62
288.831	82.62
289.062	82.62
289.293	75.62
289.524	72.62
289.755	73.62
289.986	90.62
290.217	71.62
290.448	71.62
290.679	65.62
290.91	90.62
291.141	88.62
291.371	76.62
291.602	70.62
291.833	55.62
292.064	75.62
292.295	84.62
292.526	77.62
292.757	72.62
292.987	86.62
293.218	95.62
293.449	78.62
293.68	85.62
293.91	74.62
294.141	88.62
294.372	85.62
294.603	87.62
294.833	82.62
295.064	84.62
295.295	85.62
295.525	75.62
295.756	91.62
295.987	83.62
296.217	74.62
296.448	79.62
296.679	86.62
296.909	83.62
297.14	78.62
297.37	73.62
297.601	67.62
297.831	72.62
298.062	88.62
298.292	73.62
298.523	81.62
298.753	77.62
298.984	84.62
299.214	80.62
299.445	72.62
299.675	88.62
299.905	84.62
300.136	74.62
300.366	84.62
300.597	69.62
300.827	83.62
301.057	60.62
301.288	65.62
301.518	84.62
301.748	84.62
301.979	93.62
302.209	90.62
302.439	85.62
302.669	98.62
302.9	88.62
303.13	87.62
303.36	79.62
303.59	105.62
303.82	84.62
304.051	74.62
304.281	81.62
304.511	92.62
304.741	72.62
304.971	90.62
305.201	75.62
305.431	95.62
305.661	80.62
305.891	70.62
306.121	83.62
306.352	85.62
306.582	66.62
306.812	82.62
307.042	80.62
307.272	84.62
307.502	86.62
307.731	84.62
307.961	84.62
308.191	79.62
308.421	89.62
308.651	86.62
308.881	91.62
309.111	87.62
309.341	68.62
309.571	93.62
309.8	75.62
310.03	78.62
310.26	84.62
310.49	100.62
310.72	88.62
310.949	71.62
311.179	82.62
311.409	80.62
311.639	91.62
311.868	78.62
312.098	85.62
312.328	73.62
312.557	73.62
312.787	77.62
313.017	75.62
313.246	103.62
313.476	74.62
313.706	88.62
313.935	82.62
314.165	76.62
314.394	79.62
314.624	87.62
314.853	78.62
315.083	100.62
315.312	97.62
315.542	91.62
315.771	76.62
316.001	85.62
316.23	66.62
316.46	91.62
316.689	90.62
316.919	99.62
317.148	71.62
317.377	85.62
317.607	94.62
317.836	92.62
318.065	83.62
318.295	80.62
318.524	73.62
318.753	88.62
318.983	90.62
319.212	80.62
319.441	75.62
319.67	68.62
319.9	78.62
320.129	80.62
320.358	81.62
320.587	91.62
320.816	83.62
321.046	84.62
321.275	84.62
321.504	88.62
321.733	83.62
321.962	80.62
322.191	96.62
322.42	83.62
322.649	74.62
322.878	82.62
323.108	78.62
323.337	90.62
323.566	84.62
323.795	74.62
324.024	80.62
324.253	76.62
324.482	81.62
324.71	82.62
324.939	84.62
325.168	81.62
325.397	84.62
325.626	88.62
325.855	91.62
326.084	88.62
326.313	77.62
326.542	69.62
326.77	83.62
326.999	89.62
327.228	75.62
327.457	92.62
327.686	73.62
327.914	99.62
328.143	91.62
328.372	83.62
328.6	88.62
328.829	76.62
329.058	73.62
329.287	80.62
329.515	79.62
329.744	89.62
329.972	91.62
330.201	78.62
330.43	87.62
330.658	85.62
330.887	92.62
331.115	104.62
331.344	97.62
331.572	93.62
331.801	78.62
332.03	84.62
332.258	88.62
332.486	69.62
332.715	65.62
332.943	79.62
333.172	82.62
333.4	91.62
333.629	88.62
333.857	82.62
334.085	90.62
334.314	79.62
334.542	84.62
334.771	90.62
334.999	86.62
335.227	82.62
335.455	96.62
335.684	87.62
335.912	85.62
336.14	88.62
336.369	83.62
336.597	86.62
336.825	72.62
337.053	79.62
337.281	80.62
337.51	85.62
337.738	78.62
337.966	82.62
338.194	83.62
338.422	75.62
338.65	94.62
338.878	74.62
339.106	87.62
339.334	84.62
339.562	80.62
339.79	78.62
340.018	78.62
340.246	82.62
340.474	71.62
340.702	97.62
340.93	88.62
341.158	82.62
341.386	88.62
341.614	92.62
341.842	79.62
342.07	80.62
342.298	75.62
342.526	80.62
342.754	82.62
342.981	92.62
343.209	85.62
343.437	101.62
343.665	65.62
343.893	84.62
344.12	87.62
344.348	89.62
344.576	98.62
344.804	81.62
345.031	80.62
345.259	77.62
345.487	85.62
345.714	89.62
345.942	85.62
346.17	92.62
346.397	87.62
346.625	93.62
346.853	89.62
347.08	68.62
347.308	76.62
347.535	76.62
347.763	84.62
347.99	89.62
348.218	82.62
348.445	87.62
348.673	80.62
348.9	88.62
349.128	83.62
349.355	86.62
349.583	74.62
349.81	82.62
350.037	73.62
350.265	86.62
350.492	70.62
350.72	67.62
350.947	77.62
351.174	84.62
351.402	71.62
351.629	86.62
351.856	69.62
352.083	70.62
352.311	93.62
352.538	92.62
352.765	91.62
352.992	86.62
353.22	80.62
353.447	82.62
353.674	78.62
353.901	76.62
354.128	74.62
354.355	83.62
354.583	77.62
354.81	83.62
355.037	94.62
355.264	76.62
355.491	83.62
355.718	71.62
355.945	85.62
356.172	89.62
356.399	85.62
356.626	82.62
356.853	74.62
357.08	79.62
357.307	67.62
357.534	63.62
357.761	73.62
357.988	90.62
358.215	85.62
358.441	94.62
358.668	64.62
358.895	90.62
359.122	75.62
359.349	76.62
359.576	89.62
359.802	84.62
360.029	77.62
360.256	83.62
360.483	83.62
360.709	81.62
360.936	89.62
361.163	86.62
361.39	74.62
361.616	89.62
361.843	81.62
362.07	88.62
362.296	82.62
362.523	64.62
362.749	80.62
362.976	89.62
363.203	82.62
363.429	82.62
363.656	82.62
363.882	91.62
364.109	94.62
364.335	73.62
364.562	70.62
364.788	77.62
365.015	87.62
365.241	94.62
365.468	91.62
365.694	80.62
365.92	84.62
366.147	85.62
366.373	81.62
366.599	79.62
366.826	75.62
367.052	90.62
367.278	83.62
367.505	82.62
367.731	95.62
367.957	79.62
368.184	73.62
368.41	89.62
368.636	91.62
368.862	70.62
369.089	91.62
369.315	87.62
369.541	86.62
369.767	71.62
369.993	79.62
370.219	86.62
370.445	88.62
370.672	80.62
370.898	84.62
371.124	83.62
371.35	93.62
371.576	78.62
371.802	81.62
372.028	89.62
372.254	86.62
372.48	65.62
372.706	87.62
372.932	79.62
373.158	75.62
373.384	85.62
373.61	81.62
373.835	79.62
374.061	91.62
374.287	76.62
374.513	94.62
374.739	88.62
374.965	79.62
375.191	83.62
375.416	90.62
375.642	92.62
375.868	78.62
376.094	83.62
376.319	88.62
376.545	93.62
376.771	88.62
376.997	80.62
377.222	80.62
377.448	88.62
377.674	81.62
377.899	92.62
378.125	97.62
378.35	75.62
378.576	84.62
378.802	74.62
379.027	76.62
379.253	76.62
379.478	80.62
379.704	80.62
379.929	71.62
380.155	83.62
380.38	86.62
380.606	91.62
380.831	89.62
381.057	85.62
381.282	82.62
381.507	83.62
381.733	76.62
381.958	68.62
382.184	67.62
382.409	72.62
382.634	70.62
382.86	93.62
383.085	72.62
383.31	80.62
383.535	74.62
383.761	74.62
383.986	93.62
384.211	74.62
384.436	81.62
384.662	74.62
384.887	79.62
385.112	69.62
385.337	86.62
385.562	60.62
385.787	77.62
386.013	75.62
386.238	76.62
386.463	80.62
386.688	81.62
386.913	81.62
387.138	82.62
387.363	84.62
387.588	78.62
387.813	78.62
388.038	80.62
388.263	71.62
388.488	82.62
388.713	73.62
388.938	77.62
389.163	88.62
389.387	76.62
389.612	79.62
389.837	86.62
390.062	70.62
390.287	85.62
390.512	64.62
390.736	72.62
390.961	75.62
391.186	75.62
391.411	77.62
391.636	81.62
391.86	73.62
392.085	82.62
392.31	68.62
392.534	90.62
392.759	70.62
392.984	92.62
393.208	84.62
393.433	78.62
393.658	90.62
393.882	98.62
394.107	76.62
394.331	95.62
394.556	80.62
394.78	71.62
395.005	85.62
395.229	93.62
395.454	82.62
395.678	90.62
395.903	74.62
396.127	84.62
396.352	75.62
396.576	90.62
396.801	91.62
397.025	86.62
397.249	73.62
397.474	74.62
397.698	82.62
397.922	79.62
398.147	78.62
398.371	86.62
398.595	79.62
398.82	75.62
399.044	79.62
399.268	86.62
399.492	71.62
399.717	66.62
399.941	93.62
400.165	94.62
400.389	66.62
400.613	78.62
400.837	74.62
401.062	81.62
401.286	91.62
401.51	85.62
401.734	62.62
401.958	74.62
402.182	82.62
402.406	71.62
402.63	78.62
402.854	90.62
403.078	88.62
403.302	87.62
403.526	86.62
403.75	88.62
403.974	82.62
404.198	84.62
404.422	86.62
404.645	71.62
404.869	80.62
405.093	67.62
405.317	72.62
405.541	77.62
405.765	92.62
405.988	66.62
406.212	79.62
406.436	67.62
406.66	81.62
406.883	92.62
407.107	72.62
407.331	86.62
407.555	80.62
407.778	71.62
408.002	80.62
408.226	71.62
408.449	66.62
408.673	78.62
408.896	86.62
409.12	73.62
409.344	82.62
409.567	73.62
409.791	79.62
410.014	68.62
410.238	76.62
410.461	80.62
410.685	75.62
410.908	88.62
411.132	77.62
411.355	82.62
411.578	77.62
411.802	70.62
412.025	69.62
412.249	81.62
412.472	82.62
412.695	81.62
412.919	81.62
413.142	73.62
413.365	83.62
413.589	87.62
413.812	68.62
414.035	81.62
414.258	80.62
414.482	76.62
414.705	84.62
414.928	79.62
415.151	85.62
415.374	76.62
415.597	80.62
415.821	79.62
416.044	63.62
416.267	88.62
416.49	70.62
416.713	80.62
416.936	77.62
417.159	78.62
417.382	86.62
417.605	53.62
417.828	77.62
418.051	72.62
418.274	69.62
418.497	68.62
418.72	83.62
418.943	76.62
419.166	72.62
419.389	77.62
419.611	83.62
419.834	76.62
420.057	76.62
420.28	83.62
420.503	64.62
420.726	68.62
420.948	71.62
421.171	77.62
421.394	98.62
421.617	76.62
421.839	74.62
422.062	88.62
422.285	80.62
422.507	68.62
422.73	77.62
422.953	83.62
423.175	83.62
423.398	82.62
423.621	90.62
423.843	72.62
424.066	76.62
424.288	79.62
424.511	61.62
424.733	69.62
424.956	81.62
425.178	59.62
425.401	85.62
425.623	73.62
425.846	81.62
426.068	81.62
426.291	77.62
426.513	74.62
426.735	86.62
426.958	73.62
427.18	73.62
427.402	71.62
427.625	81.62
427.847	76.62
428.069	82.62
428.292	80.62
428.514	82.62
428.736	85.62
428.958	74.62
429.181	83.62
429.403	82.62
429.625	71.62
429.847	81.62
430.069	77.62
430.292	84.62
430.514	82.62
430.736	70.62
430.958	73.62
431.18	63.62
431.402	74.62
431.624	79.62
431.846	84.62
432.068	62.62
432.29	84.62
432.512	82.62
432.734	77.62
432.956	93.62
433.178	69.62
433.4	91.62
433.622	89.62
433.844	82.62
434.066	76.62
434.287	80.62
434.509	80.62
434.731	70.62
434.953	76.62
435.175	80.62
435.397	81.62
435.618	62.62
435.84	73.62
436.062	76.62
436.284	90.62
436.505	77.62
436.727	85.62
436.949	68.62
437.17	73.62
437.392	85.62
437.614	81.62
437.835	82.62
438.057	86.62
438.278	71.62
438.5	78.62
438.721	89.62
438.943	70.62
439.165	59.62
439.386	88.62
439.608	67.62
439.829	75.62
440.05	83.62
440.272	77.62
440.493	99.62
440.715	81.62
440.936	80.62
441.158	92.62
441.379	80.62
441.6	83.62
441.822	85.62
442.043	61.62
442.264	88.62
442.486	76.62
442.707	79.62
442.928	78.62
443.149	81.62
443.371	80.62
443.592	76.62
443.813	78.62
444.034	79.62
444.255	75.62
444.476	64.62
444.698	74.62
444.919	69.62
445.14	166.62
445.361	116.62
445.582	79.62
445.803	84.62
446.024	79.62
446.245	72.62
446.466	63.62
446.687	72.62
446.908	93.62
447.129	84.62
447.35	80.62
447.571	86.62
447.792	86.62
448.013	81.62
448.234	75.62
448.455	84.62
448.675	66.62
448.896	68.62
449.117	85.62
449.338	80.62
449.559	79.62
449.779	83.62
450	75.62
450.221	82.62
450.442	77.62
450.662	79.62
450.883	78.62
451.104	82.62
451.324	69.62
451.545	70.62
451.766	85.62
451.986	77.62
452.207	94.62
452.428	76.62
452.648	72.62
452.869	68.62
453.089	95.62
453.31	81.62
453.53	71.62
453.751	84.62
453.971	93.62
454.192	77.62
454.412	76.62
454.633	80.62
454.853	76.62
455.073	79.62
455.294	82.62
455.514	76.62
455.734	88.62
455.955	77.62
456.175	84.62
456.395	69.62
456.616	92.62
456.836	76.62
457.056	76.62
457.276	82.62
457.497	74.62
457.717	84.62
457.937	61.62
458.157	90.62
458.377	84.62
458.598	77.62
458.818	86.62
459.038	85.62
459.258	84.62
459.478	79.62
459.698	62.62
459.918	70.62
460.138	79.62
460.358	84.62
460.578	82.62
460.798	75.62
461.018	62.62
461.238	69.62
461.458	78.62
461.678	83.62
461.898	71.62
462.118	58.62
462.338	82.62
462.558	77.62
462.777	82.62
462.997	92.62
463.217	86.62
463.437	84.62
463.657	63.62
463.876	75.62
464.096	75.62
464.316	78.62
464.536	70.62
464.755	76.62
464.975	59.62
465.195	86.62
465.414	93.62
465.634	77.62
465.854	78.62
466.073	70.62
466.293	73.62
466.512	79.62
466.732	73.62
466.951	83.62
467.171	75.62
467.391	72.62
467.61	77.62
467.829	83.62
468.049	88.62
468.268	97.62
468.488	92.62
468.707	90.62
468.927	91.62
469.146	75.62
469.365	87.62
469.585	67.62
469.804	61.62
470.023	76.62
470.243	92.62
470.462	71.62
470.681	84.62
470.901	89.62
471.12	88.62
471.339	82.62
471.558	93.62
471.777	74.62
471.997	64.62
472.216	73.62
472.435	88.62
472.654	100.62
472.873	69.62
473.092	80.62
473.311	71.62
473.53	73.62
473.749	56.62
473.968	91.62
474.187	82.62
474.406	90.62
474.625	84.62
474.844	66.62
475.063	66.62
475.282	74.62
475.501	86.62
475.72	88.62
475.939	76.62
476.158	79.62
476.377	69.62
476.596	77.62
476.814	86.62
477.033	75.62
477.252	84.62
477.471	73.62
477.69	70.62
477.908	88.62
478.127	88.62
478.346	83.62
478.564	82.62
478.783	82.62
479.002	82.62
479.22	87.62
479.439	78.62
479.658	80.62
479.876	83.62
480.095	82.62
480.313	92.62
480.532	80.62
480.751	82.62
480.969	63.62
481.188	85.62
481.406	83.62
481.624	89.62
481.843	81.62
482.061	88.62
482.28	83.62
482.498	92.62
482.717	78.62
482.935	90.62
483.153	74.62
483.372	81.62
483.59	70.62
483.808	83.62
484.027	65.62
484.245	89.62
484.463	70.62
484.681	82.62
484.9	88.62
485.118	85.62
485.336	100.62
485.554	79.62
485.772	79.62
485.99	77.62
486.209	80.62
486.427	76.62
486.645	74.62
486.863	64.62
487.081	78.62
487.299	72.62
487.517	89.62
487.735	84.62
487.953	87.62
488.171	80.62
488.389	79.62
488.607	82.62
488.825	91.62
489.043	89.62
489.261	92.62
489.479	76.62
489.696	81.62
489.914	87.62
490.132	73.62
490.35	77.62
490.568	84.62
490.786	83.62
491.003	82.62
491.221	76.62
491.439	67.62
491.657	68.62
491.874	66.62
492.092	71.62
492.31	82.62
492.527	77.62
492.745	79.62
492.963	73.62
493.18	75.62
493.398	92.62
493.615	75.62
493.833	74.62
494.05	82.62
494.268	93.62
494.485	86.62
494.703	72.62
494.92	76.62
495.138	64.62
495.355	69.62
495.573	84.62
495.79	79.62
496.008	83.62
496.225	70.62
496.442	88.62
496.66	74.62
496.877	65.62
497.094	77.62
497.312	78.62
497.529	74.62
497.746	84.62
497.963	70.62
498.181	82.62
498.398	70.62
498.615	73.62
498.832	78.62
499.049	72.62
499.267	76.62
499.484	65.62
499.701	71.62
499.918	75.62
500.135	74.62
500.352	80.62
500.569	86.62
500.786	77.62
501.003	73.62
501.22	70.62
501.437	81.62
501.654	65.62
501.871	87.62
502.088	88.62
502.305	86.62
502.522	93.62
502.739	74.62
502.956	81.62
503.172	60.62
503.389	77.62
503.606	74.62
503.823	90.62
504.04	87.62
504.256	81.62
504.473	75.62
504.69	59.62
504.907	75.62
505.123	85.62
505.34	81.62
505.557	86.62
505.773	82.62
505.99	86.62
506.207	77.62
506.423	74.62
506.64	89.62
506.856	69.62
507.073	90.62
507.289	91.62
507.506	88.62
507.722	76.62
507.939	83.62
508.155	93.62
508.372	80.62
508.588	92.62
508.805	88.62
509.021	76.62
509.238	85.62
509.454	85.62
509.67	81.62
509.887	76.62
510.103	76.62
510.319	77.62
510.536	72.62
510.752	80.62
510.968	75.62
511.184	68.62
511.401	78.62
511.617	97.62
511.833	88.62
512.049	66.62
512.265	85.62
512.481	76.62
512.698	64.62
512.914	90.62
513.13	89.62
513.346	62.62
513.562	86.62
513.778	84.62
513.994	84.62
514.21	70.62
514.426	80.62
514.642	77.62
514.858	76.62
515.074	84.62
515.29	87.62
515.506	86.62
515.721	81.62
515.937	89.62
516.153	83.62
516.369	89.62
516.585	82.62
516.801	66.62
517.016	80.62
517.232	67.62
517.448	76.62
517.664	87.62
517.879	74.62
518.095	80.62
518.311	81.62
518.527	88.62
518.742	81.62
518.958	75.62
519.173	88.62
519.389	80.62
519.605	97.62
519.82	84.62
520.036	80.62
