Data from Background_3_HRD10591_00074.txt Node
Date: Wed Nov 05 14:49:56 EST 2025
User: Yrep
Spectrometer: HR+D1059
Trigger mode: 1
Integration Time (sec): 1.000000E-1
Scans to average: 1
Electric dark correction enabled: true
Nonlinearity correction enabled: false
Boxcar width: 0
XAxis mode: Wavelengths
Number of Pixels in Spectrum: 2048
>>>>>Begin Spectral Data<<<<<
223.165	-13.5
223.4	-13.5
223.635	-13.5
223.869	-14.5
224.104	-16.5
224.338	-17.5
224.573	-18.5
224.808	-13.5
225.042	-12.5
225.277	-5.5
225.511	-4.5
225.746	-4.5
225.98	14.5
226.215	20.5
226.449	21.5
226.683	12.5
226.918	30.5
227.152	21.5
227.387	33.5
227.621	46.5
227.856	38.5
228.09	29.5
228.324	44.5
228.559	65.5
228.793	58.5
229.027	72.5
229.262	63.5
229.496	60.5
229.73	79.5
229.964	86.5
230.199	69.5
230.433	80.5
230.667	73.5
230.901	80.5
231.136	79.5
231.37	74.5
231.604	78.5
231.838	75.5
232.072	67.5
232.306	78.5
232.541	86.5
232.775	85.5
233.009	77.5
233.243	87.5
233.477	85.5
233.711	84.5
233.945	89.5
234.179	70.5
234.413	87.5
234.647	86.5
234.881	89.5
235.115	71.5
235.349	84.5
235.583	74.5
235.817	91.5
236.051	91.5
236.285	79.5
236.519	85.5
236.753	76.5
236.987	75.5
237.221	82.5
237.455	84.5
237.689	71.5
237.922	67.5
238.156	75.5
238.39	80.5
238.624	80.5
238.858	94.5
239.091	76.5
239.325	76.5
239.559	88.5
239.793	80.5
240.027	85.5
240.26	76.5
240.494	78.5
240.728	65.5
240.961	76.5
241.195	79.5
241.429	85.5
241.662	79.5
241.896	93.5
242.13	62.5
242.363	78.5
242.597	71.5
242.83	84.5
243.064	80.5
243.298	85.5
243.531	95.5
243.765	102.5
243.998	85.5
244.232	73.5
244.465	86.5
244.699	70.5
244.932	80.5
245.166	68.5
245.399	86.5
245.633	83.5
245.866	90.5
246.099	83.5
246.333	92.5
246.566	70.5
246.8	71.5
247.033	90.5
247.266	78.5
247.5	80.5
247.733	80.5
247.966	78.5
248.2	89.5
248.433	66.5
248.666	76.5
248.899	73.5
249.133	78.5
249.366	83.5
249.599	70.5
249.832	72.5
250.066	80.5
250.299	83.5
250.532	89.5
250.765	86.5
250.998	77.5
251.231	84.5
251.465	69.5
251.698	90.5
251.931	70.5
252.164	69.5
252.397	78.5
252.63	77.5
252.863	76.5
253.096	83.5
253.329	71.5
253.562	68.5
253.795	82.5
254.028	72.5
254.261	86.5
254.494	81.5
254.727	97.5
254.96	89.5
255.193	84.5
255.426	90.5
255.659	71.5
255.892	86.5
256.124	73.5
256.357	97.5
256.59	83.5
256.823	89.5
257.056	87.5
257.289	87.5
257.521	71.5
257.754	82.5
257.987	72.5
258.22	77.5
258.452	82.5
258.685	69.5
258.918	82.5
259.151	83.5
259.383	82.5
259.616	83.5
259.849	76.5
260.081	87.5
260.314	87.5
260.547	85.5
260.779	99.5
261.012	78.5
261.244	84.5
261.477	79.5
261.71	79.5
261.942	83.5
262.175	73.5
262.407	82.5
262.64	89.5
262.872	73.5
263.105	77.5
263.337	93.5
263.57	91.5
263.802	83.5
264.035	85.5
264.267	76.5
264.499	87.5
264.732	99.5
264.964	90.5
265.197	88.5
265.429	79.5
265.661	82.5
265.894	72.5
266.126	81.5
266.358	81.5
266.591	76.5
266.823	87.5
267.055	91.5
267.287	66.5
267.52	80.5
267.752	82.5
267.984	80.5
268.216	94.5
268.448	86.5
268.681	102.5
268.913	102.5
269.145	91.5
269.377	80.5
269.609	82.5
269.841	84.5
270.073	64.5
270.306	73.5
270.538	73.5
270.77	78.5
271.002	86.5
271.234	81.5
271.466	83.5
271.698	92.5
271.93	91.5
272.162	97.5
272.394	92.5
272.626	81.5
272.858	90.5
273.09	95.5
273.322	80.5
273.553	73.5
273.785	85.5
274.017	86.5
274.249	90.5
274.481	79.5
274.713	85.5
274.945	84.5
275.176	83.5
275.408	78.5
275.64	95.5
275.872	78.5
276.104	78.5
276.335	95.5
276.567	92.5
276.799	88.5
277.031	87.5
277.262	91.5
277.494	84.5
277.726	79.5
277.957	88.5
278.189	86.5
278.421	90.5
278.652	77.5
278.884	70.5
279.115	90.5
279.347	81.5
279.579	93.5
279.81	89.5
280.042	75.5
280.273	78.5
280.505	79.5
280.736	82.5
280.968	76.5
281.199	90.5
281.431	89.5
281.662	85.5
281.894	91.5
282.125	97.5
282.356	78.5
282.588	71.5
282.819	90.5
283.051	84.5
283.282	90.5
283.513	89.5
283.745	86.5
283.976	86.5
284.207	80.5
284.439	87.5
284.67	79.5
284.901	94.5
285.132	88.5
285.364	82.5
285.595	95.5
285.826	90.5
286.057	82.5
286.288	99.5
286.52	95.5
286.751	90.5
286.982	96.5
287.213	78.5
287.444	90.5
287.675	73.5
287.906	86.5
288.138	89.5
288.369	94.5
288.6	87.5
288.831	87.5
289.062	87.5
289.293	98.5
289.524	82.5
289.755	87.5
289.986	90.5
290.217	80.5
290.448	85.5
290.679	84.5
290.91	97.5
291.141	73.5
291.371	77.5
291.602	91.5
291.833	76.5
292.064	88.5
292.295	87.5
292.526	83.5
292.757	79.5
292.987	86.5
293.218	71.5
293.449	87.5
293.68	78.5
293.91	88.5
294.141	93.5
294.372	78.5
294.603	81.5
294.833	88.5
295.064	82.5
295.295	89.5
295.525	78.5
295.756	80.5
295.987	101.5
296.217	82.5
296.448	81.5
296.679	85.5
296.909	82.5
297.14	102.5
297.37	87.5
297.601	91.5
297.831	71.5
298.062	98.5
298.292	94.5
298.523	97.5
298.753	87.5
298.984	99.5
299.214	102.5
299.445	95.5
299.675	92.5
299.905	96.5
300.136	80.5
300.366	87.5
300.597	81.5
300.827	79.5
301.057	80.5
301.288	103.5
301.518	91.5
301.748	89.5
301.979	88.5
302.209	83.5
302.439	72.5
302.669	81.5
302.9	87.5
303.13	80.5
303.36	86.5
303.59	91.5
303.82	87.5
304.051	68.5
304.281	85.5
304.511	88.5
304.741	81.5
304.971	88.5
305.201	86.5
305.431	87.5
305.661	93.5
305.891	90.5
306.121	91.5
306.352	88.5
306.582	87.5
306.812	100.5
307.042	86.5
307.272	71.5
307.502	79.5
307.731	77.5
307.961	82.5
308.191	90.5
308.421	60.5
308.651	85.5
308.881	88.5
309.111	85.5
309.341	87.5
309.571	91.5
309.8	86.5
310.03	80.5
310.26	74.5
310.49	92.5
310.72	87.5
310.949	69.5
311.179	91.5
311.409	78.5
311.639	78.5
311.868	88.5
312.098	98.5
312.328	86.5
312.557	80.5
312.787	82.5
313.017	79.5
313.246	83.5
313.476	80.5
313.706	82.5
313.935	72.5
314.165	81.5
314.394	95.5
314.624	85.5
314.853	96.5
315.083	100.5
315.312	108.5
315.542	80.5
315.771	68.5
316.001	83.5
316.23	92.5
316.46	86.5
316.689	95.5
316.919	70.5
317.148	88.5
317.377	80.5
317.607	90.5
317.836	75.5
318.065	73.5
318.295	86.5
318.524	79.5
318.753	106.5
318.983	86.5
319.212	89.5
319.441	80.5
319.67	90.5
319.9	78.5
320.129	83.5
320.358	83.5
320.587	84.5
320.816	72.5
321.046	90.5
321.275	85.5
321.504	84.5
321.733	80.5
321.962	71.5
322.191	72.5
322.42	87.5
322.649	80.5
322.878	86.5
323.108	86.5
323.337	70.5
323.566	91.5
323.795	80.5
324.024	90.5
324.253	78.5
324.482	81.5
324.71	80.5
324.939	100.5
325.168	93.5
325.397	83.5
325.626	90.5
325.855	76.5
326.084	81.5
326.313	94.5
326.542	90.5
326.77	76.5
326.999	103.5
327.228	95.5
327.457	85.5
327.686	90.5
327.914	76.5
328.143	85.5
328.372	78.5
328.6	65.5
328.829	76.5
329.058	79.5
329.287	84.5
329.515	96.5
329.744	75.5
329.972	73.5
330.201	68.5
330.43	84.5
330.658	80.5
330.887	79.5
331.115	87.5
331.344	83.5
331.572	73.5
331.801	84.5
332.03	92.5
332.258	81.5
332.486	82.5
332.715	91.5
332.943	84.5
333.172	82.5
333.4	82.5
333.629	87.5
333.857	80.5
334.085	86.5
334.314	71.5
334.542	83.5
334.771	88.5
334.999	84.5
335.227	85.5
335.455	78.5
335.684	95.5
335.912	88.5
336.14	83.5
336.369	76.5
336.597	71.5
336.825	84.5
337.053	82.5
337.281	83.5
337.51	85.5
337.738	90.5
337.966	87.5
338.194	86.5
338.422	86.5
338.65	78.5
338.878	88.5
339.106	84.5
339.334	81.5
339.562	85.5
339.79	90.5
340.018	94.5
340.246	81.5
340.474	86.5
340.702	89.5
340.93	88.5
341.158	91.5
341.386	84.5
341.614	84.5
341.842	75.5
342.07	94.5
342.298	77.5
342.526	63.5
342.754	82.5
342.981	90.5
343.209	85.5
343.437	85.5
343.665	80.5
343.893	91.5
344.12	94.5
344.348	79.5
344.576	81.5
344.804	75.5
345.031	80.5
345.259	74.5
345.487	83.5
345.714	82.5
345.942	86.5
346.17	82.5
346.397	99.5
346.625	89.5
346.853	79.5
347.08	78.5
347.308	75.5
347.535	82.5
347.763	87.5
347.99	84.5
348.218	94.5
348.445	71.5
348.673	91.5
348.9	95.5
349.128	72.5
349.355	69.5
349.583	82.5
349.81	84.5
350.037	82.5
350.265	81.5
350.492	86.5
350.72	78.5
350.947	85.5
351.174	81.5
351.402	84.5
351.629	77.5
351.856	74.5
352.083	84.5
352.311	90.5
352.538	88.5
352.765	85.5
352.992	88.5
353.22	82.5
353.447	84.5
353.674	84.5
353.901	66.5
354.128	102.5
354.355	93.5
354.583	91.5
354.81	79.5
355.037	81.5
355.264	82.5
355.491	78.5
355.718	79.5
355.945	70.5
356.172	82.5
356.399	86.5
356.626	89.5
356.853	72.5
357.08	94.5
357.307	76.5
357.534	79.5
357.761	91.5
357.988	81.5
358.215	79.5
358.441	72.5
358.668	85.5
358.895	84.5
359.122	91.5
359.349	77.5
359.576	84.5
359.802	92.5
360.029	78.5
360.256	104.5
360.483	82.5
360.709	84.5
360.936	83.5
361.163	75.5
361.39	87.5
361.616	75.5
361.843	75.5
362.07	95.5
362.296	84.5
362.523	87.5
362.749	90.5
362.976	92.5
363.203	91.5
363.429	77.5
363.656	76.5
363.882	85.5
364.109	92.5
364.335	77.5
364.562	86.5
364.788	65.5
365.015	83.5
365.241	83.5
365.468	80.5
365.694	87.5
365.92	80.5
366.147	86.5
366.373	84.5
366.599	78.5
366.826	75.5
367.052	81.5
367.278	95.5
367.505	70.5
367.731	79.5
367.957	87.5
368.184	83.5
368.41	86.5
368.636	73.5
368.862	90.5
369.089	87.5
369.315	79.5
369.541	87.5
369.767	87.5
369.993	76.5
370.219	91.5
370.445	80.5
370.672	91.5
370.898	79.5
371.124	72.5
371.35	91.5
371.576	97.5
371.802	72.5
372.028	77.5
372.254	102.5
372.48	78.5
372.706	71.5
372.932	84.5
373.158	79.5
373.384	78.5
373.61	81.5
373.835	84.5
374.061	69.5
374.287	83.5
374.513	90.5
374.739	78.5
374.965	77.5
375.191	89.5
375.416	83.5
375.642	91.5
375.868	82.5
376.094	76.5
376.319	85.5
376.545	79.5
376.771	81.5
376.997	92.5
377.222	78.5
377.448	96.5
377.674	74.5
377.899	86.5
378.125	82.5
378.35	94.5
378.576	79.5
378.802	80.5
379.027	103.5
379.253	95.5
379.478	76.5
379.704	84.5
379.929	87.5
380.155	91.5
380.38	80.5
380.606	86.5
380.831	86.5
381.057	80.5
381.282	78.5
381.507	94.5
381.733	79.5
381.958	82.5
382.184	76.5
382.409	66.5
382.634	84.5
382.86	94.5
383.085	81.5
383.31	86.5
383.535	83.5
383.761	75.5
383.986	93.5
384.211	97.5
384.436	89.5
384.662	77.5
384.887	76.5
385.112	78.5
385.337	75.5
385.562	78.5
385.787	81.5
386.013	92.5
386.238	89.5
386.463	78.5
386.688	84.5
386.913	87.5
387.138	70.5
387.363	89.5
387.588	82.5
387.813	82.5
388.038	76.5
388.263	74.5
388.488	84.5
388.713	92.5
388.938	86.5
389.163	86.5
389.387	78.5
389.612	84.5
389.837	73.5
390.062	91.5
390.287	76.5
390.512	94.5
390.736	78.5
390.961	76.5
391.186	72.5
391.411	88.5
391.636	80.5
391.86	82.5
392.085	77.5
392.31	86.5
392.534	81.5
392.759	82.5
392.984	82.5
393.208	76.5
393.433	76.5
393.658	94.5
393.882	78.5
394.107	73.5
394.331	88.5
394.556	82.5
394.78	77.5
395.005	86.5
395.229	73.5
395.454	74.5
395.678	77.5
395.903	98.5
396.127	79.5
396.352	84.5
396.576	71.5
396.801	91.5
397.025	74.5
397.249	80.5
397.474	91.5
397.698	83.5
397.922	83.5
398.147	83.5
398.371	97.5
398.595	88.5
398.82	92.5
399.044	80.5
399.268	87.5
399.492	89.5
399.717	90.5
399.941	81.5
400.165	93.5
400.389	78.5
400.613	81.5
400.837	80.5
401.062	90.5
401.286	78.5
401.51	89.5
401.734	84.5
401.958	83.5
402.182	85.5
402.406	72.5
402.63	68.5
402.854	72.5
403.078	72.5
403.302	65.5
403.526	69.5
403.75	88.5
403.974	70.5
404.198	76.5
404.422	87.5
404.645	79.5
404.869	79.5
405.093	88.5
405.317	81.5
405.541	79.5
405.765	87.5
405.988	95.5
406.212	73.5
406.436	80.5
406.66	83.5
406.883	80.5
407.107	82.5
407.331	90.5
407.555	82.5
407.778	76.5
408.002	78.5
408.226	78.5
408.449	88.5
408.673	73.5
408.896	74.5
409.12	76.5
409.344	81.5
409.567	80.5
409.791	79.5
410.014	82.5
410.238	78.5
410.461	75.5
410.685	78.5
410.908	75.5
411.132	82.5
411.355	69.5
411.578	94.5
411.802	94.5
412.025	81.5
412.249	80.5
412.472	68.5
412.695	89.5
412.919	92.5
413.142	78.5
413.365	76.5
413.589	84.5
413.812	77.5
414.035	94.5
414.258	80.5
414.482	96.5
414.705	94.5
414.928	79.5
415.151	81.5
415.374	89.5
415.597	78.5
415.821	72.5
416.044	71.5
416.267	78.5
416.49	90.5
416.713	86.5
416.936	90.5
417.159	74.5
417.382	80.5
417.605	79.5
417.828	86.5
418.051	70.5
418.274	90.5
418.497	86.5
418.72	69.5
418.943	88.5
419.166	91.5
419.389	89.5
419.611	67.5
419.834	79.5
420.057	90.5
420.28	82.5
420.503	88.5
420.726	95.5
420.948	73.5
421.171	80.5
421.394	83.5
421.617	88.5
421.839	88.5
422.062	81.5
422.285	89.5
422.507	91.5
422.73	98.5
422.953	76.5
423.175	91.5
423.398	83.5
423.621	78.5
423.843	78.5
424.066	82.5
424.288	87.5
424.511	84.5
424.733	86.5
424.956	79.5
425.178	87.5
425.401	81.5
425.623	84.5
425.846	85.5
426.068	77.5
426.291	91.5
426.513	83.5
426.735	82.5
426.958	77.5
427.18	90.5
427.402	85.5
427.625	79.5
427.847	80.5
428.069	73.5
428.292	92.5
428.514	69.5
428.736	88.5
428.958	80.5
429.181	88.5
429.403	62.5
429.625	73.5
429.847	89.5
430.069	81.5
430.292	90.5
430.514	75.5
430.736	83.5
430.958	94.5
431.18	90.5
431.402	86.5
431.624	88.5
431.846	83.5
432.068	86.5
432.29	90.5
432.512	79.5
432.734	76.5
432.956	70.5
433.178	86.5
433.4	91.5
433.622	88.5
433.844	81.5
434.066	78.5
434.287	84.5
434.509	67.5
434.731	87.5
434.953	95.5
435.175	76.5
435.397	62.5
435.618	74.5
435.84	74.5
436.062	79.5
436.284	98.5
436.505	97.5
436.727	84.5
436.949	84.5
437.17	79.5
437.392	83.5
437.614	83.5
437.835	66.5
438.057	91.5
438.278	79.5
438.5	90.5
438.721	80.5
438.943	82.5
439.165	88.5
439.386	88.5
439.608	91.5
439.829	76.5
440.05	67.5
440.272	68.5
440.493	61.5
440.715	72.5
440.936	100.5
441.158	93.5
441.379	78.5
441.6	75.5
441.822	82.5
442.043	86.5
442.264	73.5
442.486	66.5
442.707	85.5
442.928	90.5
443.149	82.5
443.371	75.5
443.592	84.5
443.813	73.5
444.034	81.5
444.255	70.5
444.476	93.5
444.698	70.5
444.919	64.5
445.14	150.5
445.361	108.5
445.582	87.5
445.803	75.5
446.024	87.5
446.245	94.5
446.466	80.5
446.687	69.5
446.908	87.5
447.129	73.5
447.35	82.5
447.571	68.5
447.792	63.5
448.013	87.5
448.234	76.5
448.455	72.5
448.675	100.5
448.896	78.5
449.117	74.5
449.338	75.5
449.559	94.5
449.779	84.5
450	85.5
450.221	87.5
450.442	70.5
450.662	83.5
450.883	91.5
451.104	76.5
451.324	79.5
451.545	86.5
451.766	87.5
451.986	73.5
452.207	83.5
452.428	85.5
452.648	89.5
452.869	77.5
453.089	99.5
453.31	82.5
453.53	74.5
453.751	73.5
453.971	77.5
454.192	82.5
454.412	68.5
454.633	89.5
454.853	91.5
455.073	85.5
455.294	87.5
455.514	85.5
455.734	84.5
455.955	71.5
456.175	78.5
456.395	82.5
456.616	84.5
456.836	71.5
457.056	90.5
457.276	64.5
457.497	72.5
457.717	91.5
457.937	75.5
458.157	88.5
458.377	83.5
458.598	78.5
458.818	67.5
459.038	72.5
459.258	94.5
459.478	78.5
459.698	93.5
459.918	92.5
460.138	81.5
460.358	71.5
460.578	77.5
460.798	91.5
461.018	72.5
461.238	80.5
461.458	71.5
461.678	70.5
461.898	75.5
462.118	94.5
462.338	78.5
462.558	71.5
462.777	75.5
462.997	84.5
463.217	86.5
463.437	83.5
463.657	66.5
463.876	84.5
464.096	74.5
464.316	80.5
464.536	94.5
464.755	87.5
464.975	78.5
465.195	85.5
465.414	73.5
465.634	78.5
465.854	68.5
466.073	83.5
466.293	103.5
466.512	85.5
466.732	79.5
466.951	99.5
467.171	78.5
467.391	99.5
467.61	84.5
467.829	72.5
468.049	81.5
468.268	76.5
468.488	82.5
468.707	96.5
468.927	79.5
469.146	88.5
469.365	90.5
469.585	95.5
469.804	83.5
470.023	72.5
470.243	99.5
470.462	98.5
470.681	82.5
470.901	69.5
471.12	88.5
471.339	92.5
471.558	90.5
471.777	79.5
471.997	89.5
472.216	91.5
472.435	71.5
472.654	100.5
472.873	98.5
473.092	91.5
473.311	87.5
473.53	91.5
473.749	88.5
473.968	85.5
474.187	85.5
474.406	77.5
474.625	85.5
474.844	90.5
475.063	82.5
475.282	90.5
475.501	92.5
475.72	88.5
475.939	84.5
476.158	81.5
476.377	87.5
476.596	67.5
476.814	90.5
477.033	81.5
477.252	76.5
477.471	89.5
477.69	78.5
477.908	84.5
478.127	79.5
478.346	79.5
478.564	87.5
478.783	98.5
479.002	97.5
479.22	84.5
479.439	82.5
479.658	95.5
479.876	73.5
480.095	90.5
480.313	81.5
480.532	96.5
480.751	91.5
480.969	82.5
481.188	81.5
481.406	80.5
481.624	83.5
481.843	91.5
482.061	91.5
482.28	83.5
482.498	91.5
482.717	81.5
482.935	90.5
483.153	88.5
483.372	79.5
483.59	82.5
483.808	96.5
484.027	97.5
484.245	86.5
484.463	79.5
484.681	86.5
484.9	66.5
485.118	81.5
485.336	94.5
485.554	73.5
485.772	72.5
485.99	96.5
486.209	90.5
486.427	66.5
486.645	81.5
486.863	89.5
487.081	86.5
487.299	94.5
487.517	70.5
487.735	78.5
487.953	87.5
488.171	75.5
488.389	83.5
488.607	95.5
488.825	66.5
489.043	78.5
489.261	76.5
489.479	91.5
489.696	89.5
489.914	83.5
490.132	68.5
490.35	70.5
490.568	87.5
490.786	70.5
491.003	77.5
491.221	93.5
491.439	73.5
491.657	80.5
491.874	85.5
492.092	78.5
492.31	80.5
492.527	82.5
492.745	85.5
492.963	80.5
493.18	84.5
493.398	91.5
493.615	77.5
493.833	75.5
494.05	72.5
494.268	87.5
494.485	90.5
494.703	97.5
494.92	86.5
495.138	76.5
495.355	81.5
495.573	87.5
495.79	73.5
496.008	86.5
496.225	78.5
496.442	83.5
496.66	77.5
496.877	86.5
497.094	92.5
497.312	79.5
497.529	72.5
497.746	86.5
497.963	84.5
498.181	79.5
498.398	86.5
498.615	85.5
498.832	91.5
499.049	78.5
499.267	81.5
499.484	80.5
499.701	100.5
499.918	99.5
500.135	82.5
500.352	96.5
500.569	107.5
500.786	96.5
501.003	81.5
501.22	74.5
501.437	77.5
501.654	79.5
501.871	83.5
502.088	71.5
502.305	78.5
502.522	93.5
502.739	82.5
502.956	84.5
503.172	78.5
503.389	78.5
503.606	86.5
503.823	95.5
504.04	97.5
504.256	84.5
504.473	81.5
504.69	110.5
504.907	86.5
505.123	78.5
505.34	83.5
505.557	74.5
505.773	86.5
505.99	77.5
506.207	83.5
506.423	96.5
506.64	81.5
506.856	94.5
507.073	77.5
507.289	79.5
507.506	88.5
507.722	84.5
507.939	85.5
508.155	89.5
508.372	84.5
508.588	89.5
508.805	83.5
509.021	83.5
509.238	98.5
509.454	79.5
509.67	94.5
509.887	90.5
510.103	95.5
510.319	90.5
510.536	73.5
510.752	76.5
510.968	70.5
511.184	74.5
511.401	83.5
511.617	92.5
511.833	78.5
512.049	71.5
512.265	78.5
512.481	80.5
512.698	87.5
512.914	85.5
513.13	78.5
513.346	80.5
513.562	94.5
513.778	71.5
513.994	87.5
514.21	80.5
514.426	93.5
514.642	98.5
514.858	74.5
515.074	83.5
515.29	95.5
515.506	77.5
515.721	77.5
515.937	78.5
516.153	79.5
516.369	83.5
516.585	69.5
516.801	81.5
517.016	95.5
517.232	82.5
517.448	88.5
517.664	87.5
517.879	81.5
518.095	93.5
518.311	83.5
518.527	89.5
518.742	96.5
518.958	76.5
519.173	73.5
519.389	92.5
519.605	78.5
519.82	72.5
520.036	76.5
520.251	104.5
520.467	78.5
520.682	78.5
520.898	86.5
521.113	93.5
521.329	86.5
521.544	66.5
521.76	83.5
521.975	94.5
522.19	70.5
522.406	85.5
522.621	76.5
522.836	67.5
523.052	67.5
523.267	81.5
523.482	90.5
523.698	89.5
523.913	79.5
524.128	65.5
524.343	83.5
524.559	84.5
524.774	76.5
524.989	84.5
525.204	84.5
525.419	89.5
525.634	98.5
525.849	72.5
526.064	78.5
526.28	82.5
526.495	99.5
526.71	83.5
526.925	78.5
527.14	80.5
527.355	77.5
527.57	85.5
527.785	83.5
527.999	67.5
528.214	74.5
528.429	86.5
528.644	71.5
528.859	78.5
529.074	80.5
529.289	86.5
529.503	87.5
529.718	90.5
529.933	75.5
530.148	83.5
530.363	85.5
530.577	87.5
530.792	101.5
531.007	84.5
531.221	88.5
531.436	84.5
531.651	87.5
531.865	97.5
532.08	86.5
532.295	78.5
532.509	93.5
532.724	90.5
532.938	82.5
533.153	93.5
533.367	80.5
533.582	84.5
533.796	80.5
534.011	85.5
534.225	79.5
534.44	92.5
534.654	90.5
534.868	79.5
535.083	91.5
535.297	85.5
535.511	84.5
535.726	78.5
535.94	85.5
536.154	92.5
536.369	91.5
536.583	72.5
536.797	87.5
537.011	83.5
537.225	83.5
537.44	72.5
537.654	80.5
537.868	90.5
538.082	82.5
538.296	85.5
538.51	82.5
538.724	69.5
538.938	86.5
539.153	97.5
539.367	80.5
539.581	91.5
539.795	77.5
540.009	77.5
540.222	91.5
