Data from Background_3_HRD10591_00037.txt Node
Date: Wed Nov 05 14:49:38 EST 2025
User: Yrep
Spectrometer: HR+D1059
Trigger mode: 1
Integration Time (sec): 1.000000E-1
Scans to average: 1
Electric dark correction enabled: true
Nonlinearity correction enabled: false
Boxcar width: 0
XAxis mode: Wavelengths
Number of Pixels in Spectrum: 2048
>>>>>Begin Spectral Data<<<<<
223.165	-36.69
223.4	-36.69
223.635	-36.69
223.869	-21.69
224.104	-15.69
224.338	-9.69
224.573	-5.69
224.808	-4.69
225.042	-13.69
225.277	-11.69
225.511	8.31
225.746	10.31
225.98	10.31
226.215	6.31
226.449	17.31
226.683	18.31
226.918	15.31
227.152	33.31
227.387	41.31
227.621	30.31
227.856	27.31
228.09	39.31
228.324	55.31
228.559	69.31
228.793	47.31
229.027	56.31
229.262	56.31
229.496	57.31
229.73	76.31
229.964	69.31
230.199	65.31
230.433	70.31
230.667	80.31
230.901	66.31
231.136	74.31
231.37	75.31
231.604	96.31
231.838	92.31
232.072	79.31
232.306	78.31
232.541	75.31
232.775	73.31
233.009	78.31
233.243	77.31
233.477	83.31
233.711	76.31
233.945	78.31
234.179	89.31
234.413	64.31
234.647	79.31
234.881	74.31
235.115	92.31
235.349	74.31
235.583	74.31
235.817	73.31
236.051	75.31
236.285	68.31
236.519	74.31
236.753	79.31
236.987	74.31
237.221	80.31
237.455	79.31
237.689	64.31
237.922	82.31
238.156	91.31
238.39	88.31
238.624	74.31
238.858	74.31
239.091	76.31
239.325	72.31
239.559	80.31
239.793	55.31
240.027	80.31
240.26	89.31
240.494	81.31
240.728	80.31
240.961	71.31
241.195	76.31
241.429	82.31
241.662	80.31
241.896	67.31
242.13	74.31
242.363	67.31
242.597	74.31
242.83	75.31
243.064	80.31
243.298	67.31
243.531	66.31
243.765	67.31
243.998	70.31
244.232	83.31
244.465	74.31
244.699	81.31
244.932	75.31
245.166	69.31
245.399	68.31
245.633	69.31
245.866	67.31
246.099	76.31
246.333	88.31
246.566	74.31
246.8	71.31
247.033	70.31
247.266	77.31
247.5	64.31
247.733	66.31
247.966	80.31
248.2	68.31
248.433	77.31
248.666	78.31
248.899	80.31
249.133	70.31
249.366	80.31
249.599	74.31
249.832	70.31
250.066	80.31
250.299	81.31
250.532	69.31
250.765	70.31
250.998	83.31
251.231	87.31
251.465	83.31
251.698	75.31
251.931	74.31
252.164	66.31
252.397	54.31
252.63	78.31
252.863	68.31
253.096	78.31
253.329	61.31
253.562	79.31
253.795	63.31
254.028	65.31
254.261	74.31
254.494	89.31
254.727	78.31
254.96	63.31
255.193	76.31
255.426	70.31
255.659	60.31
255.892	81.31
256.124	66.31
256.357	75.31
256.59	81.31
256.823	79.31
257.056	70.31
257.289	76.31
257.521	83.31
257.754	83.31
257.987	87.31
258.22	82.31
258.452	78.31
258.685	83.31
258.918	80.31
259.151	62.31
259.383	69.31
259.616	80.31
259.849	79.31
260.081	81.31
260.314	78.31
260.547	64.31
260.779	67.31
261.012	84.31
261.244	64.31
261.477	90.31
261.71	68.31
261.942	79.31
262.175	67.31
262.407	76.31
262.64	78.31
262.872	72.31
263.105	62.31
263.337	82.31
263.57	84.31
263.802	90.31
264.035	85.31
264.267	75.31
264.499	81.31
264.732	81.31
264.964	76.31
265.197	93.31
265.429	76.31
265.661	74.31
265.894	75.31
266.126	88.31
266.358	72.31
266.591	79.31
266.823	80.31
267.055	76.31
267.287	84.31
267.52	79.31
267.752	76.31
267.984	67.31
268.216	71.31
268.448	86.31
268.681	86.31
268.913	79.31
269.145	76.31
269.377	79.31
269.609	77.31
269.841	79.31
270.073	76.31
270.306	76.31
270.538	80.31
270.77	81.31
271.002	71.31
271.234	84.31
271.466	71.31
271.698	84.31
271.93	70.31
272.162	73.31
272.394	77.31
272.626	77.31
272.858	71.31
273.09	71.31
273.322	63.31
273.553	83.31
273.785	90.31
274.017	72.31
274.249	82.31
274.481	80.31
274.713	80.31
274.945	79.31
275.176	77.31
275.408	74.31
275.64	87.31
275.872	83.31
276.104	86.31
276.335	89.31
276.567	88.31
276.799	73.31
277.031	67.31
277.262	84.31
277.494	79.31
277.726	67.31
277.957	78.31
278.189	88.31
278.421	70.31
278.652	82.31
278.884	85.31
279.115	85.31
279.347	80.31
279.579	88.31
279.81	87.31
280.042	73.31
280.273	71.31
280.505	67.31
280.736	77.31
280.968	82.31
281.199	69.31
281.431	81.31
281.662	78.31
281.894	73.31
282.125	87.31
282.356	92.31
282.588	80.31
282.819	98.31
283.051	82.31
283.282	66.31
283.513	87.31
283.745	77.31
283.976	86.31
284.207	76.31
284.439	87.31
284.67	65.31
284.901	84.31
285.132	81.31
285.364	73.31
285.595	72.31
285.826	68.31
286.057	75.31
286.288	73.31
286.52	79.31
286.751	75.31
286.982	78.31
287.213	76.31
287.444	84.31
287.675	81.31
287.906	86.31
288.138	69.31
288.369	73.31
288.6	72.31
288.831	91.31
289.062	72.31
289.293	85.31
289.524	90.31
289.755	89.31
289.986	84.31
290.217	64.31
290.448	64.31
290.679	80.31
290.91	68.31
291.141	82.31
291.371	90.31
291.602	72.31
291.833	77.31
292.064	70.31
292.295	75.31
292.526	77.31
292.757	72.31
292.987	79.31
293.218	88.31
293.449	74.31
293.68	85.31
293.91	92.31
294.141	98.31
294.372	78.31
294.603	81.31
294.833	83.31
295.064	75.31
295.295	63.31
295.525	68.31
295.756	77.31
295.987	96.31
296.217	65.31
296.448	90.31
296.679	86.31
296.909	84.31
297.14	80.31
297.37	83.31
297.601	73.31
297.831	82.31
298.062	82.31
298.292	77.31
298.523	84.31
298.753	95.31
298.984	88.31
299.214	61.31
299.445	93.31
299.675	80.31
299.905	82.31
300.136	85.31
300.366	79.31
300.597	83.31
300.827	88.31
301.057	72.31
301.288	78.31
301.518	85.31
301.748	81.31
301.979	98.31
302.209	96.31
302.439	85.31
302.669	61.31
302.9	90.31
303.13	72.31
303.36	76.31
303.59	81.31
303.82	75.31
304.051	92.31
304.281	66.31
304.511	83.31
304.741	67.31
304.971	66.31
305.201	65.31
305.431	76.31
305.661	88.31
305.891	81.31
306.121	68.31
306.352	80.31
306.582	77.31
306.812	83.31
307.042	82.31
307.272	83.31
307.502	74.31
307.731	104.31
307.961	74.31
308.191	87.31
308.421	83.31
308.651	81.31
308.881	71.31
309.111	76.31
309.341	82.31
309.571	78.31
309.8	65.31
310.03	70.31
310.26	65.31
310.49	95.31
310.72	76.31
310.949	86.31
311.179	88.31
311.409	81.31
311.639	69.31
311.868	81.31
312.098	88.31
312.328	86.31
312.557	84.31
312.787	87.31
313.017	73.31
313.246	67.31
313.476	82.31
313.706	79.31
313.935	77.31
314.165	91.31
314.394	91.31
314.624	82.31
314.853	70.31
315.083	72.31
315.312	76.31
315.542	73.31
315.771	72.31
316.001	75.31
316.23	83.31
316.46	87.31
316.689	80.31
316.919	82.31
317.148	67.31
317.377	83.31
317.607	77.31
317.836	85.31
318.065	92.31
318.295	84.31
318.524	82.31
318.753	81.31
318.983	76.31
319.212	81.31
319.441	71.31
319.67	75.31
319.9	80.31
320.129	82.31
320.358	93.31
320.587	86.31
320.816	80.31
321.046	89.31
321.275	74.31
321.504	71.31
321.733	83.31
321.962	70.31
322.191	82.31
322.42	67.31
322.649	80.31
322.878	76.31
323.108	82.31
323.337	74.31
323.566	85.31
323.795	76.31
324.024	75.31
324.253	84.31
324.482	86.31
324.71	80.31
324.939	95.31
325.168	74.31
325.397	90.31
325.626	82.31
325.855	88.31
326.084	86.31
326.313	65.31
326.542	76.31
326.77	82.31
326.999	74.31
327.228	81.31
327.457	88.31
327.686	82.31
327.914	76.31
328.143	89.31
328.372	88.31
328.6	69.31
328.829	86.31
329.058	84.31
329.287	74.31
329.515	80.31
329.744	74.31
329.972	94.31
330.201	83.31
330.43	84.31
330.658	83.31
330.887	90.31
331.115	88.31
331.344	75.31
331.572	83.31
331.801	94.31
332.03	83.31
332.258	68.31
332.486	84.31
332.715	90.31
332.943	86.31
333.172	93.31
333.4	73.31
333.629	76.31
333.857	64.31
334.085	74.31
334.314	80.31
334.542	94.31
334.771	79.31
334.999	74.31
335.227	90.31
335.455	86.31
335.684	78.31
335.912	89.31
336.14	78.31
336.369	65.31
336.597	64.31
336.825	92.31
337.053	66.31
337.281	89.31
337.51	67.31
337.738	79.31
337.966	77.31
338.194	63.31
338.422	93.31
338.65	88.31
338.878	76.31
339.106	80.31
339.334	71.31
339.562	73.31
339.79	79.31
340.018	77.31
340.246	71.31
340.474	67.31
340.702	81.31
340.93	83.31
341.158	79.31
341.386	76.31
341.614	71.31
341.842	78.31
342.07	74.31
342.298	73.31
342.526	75.31
342.754	71.31
342.981	67.31
343.209	80.31
343.437	71.31
343.665	79.31
343.893	89.31
344.12	78.31
344.348	80.31
344.576	69.31
344.804	73.31
345.031	71.31
345.259	79.31
345.487	81.31
345.714	67.31
345.942	89.31
346.17	82.31
346.397	80.31
346.625	82.31
346.853	89.31
347.08	80.31
347.308	76.31
347.535	83.31
347.763	74.31
347.99	78.31
348.218	73.31
348.445	78.31
348.673	68.31
348.9	86.31
349.128	87.31
349.355	81.31
349.583	86.31
349.81	70.31
350.037	79.31
350.265	82.31
350.492	74.31
350.72	86.31
350.947	84.31
351.174	62.31
351.402	93.31
351.629	73.31
351.856	74.31
352.083	86.31
352.311	93.31
352.538	66.31
352.765	83.31
352.992	91.31
353.22	81.31
353.447	71.31
353.674	85.31
353.901	80.31
354.128	72.31
354.355	82.31
354.583	84.31
354.81	76.31
355.037	94.31
355.264	78.31
355.491	72.31
355.718	84.31
355.945	84.31
356.172	69.31
356.399	83.31
356.626	83.31
356.853	71.31
357.08	93.31
357.307	73.31
357.534	81.31
357.761	85.31
357.988	88.31
358.215	77.31
358.441	68.31
358.668	79.31
358.895	80.31
359.122	76.31
359.349	75.31
359.576	78.31
359.802	78.31
360.029	77.31
360.256	78.31
360.483	77.31
360.709	77.31
360.936	96.31
361.163	88.31
361.39	88.31
361.616	88.31
361.843	71.31
362.07	83.31
362.296	78.31
362.523	80.31
362.749	79.31
362.976	82.31
363.203	87.31
363.429	69.31
363.656	79.31
363.882	83.31
364.109	65.31
364.335	65.31
364.562	82.31
364.788	83.31
365.015	77.31
365.241	85.31
365.468	81.31
365.694	87.31
365.92	87.31
366.147	81.31
366.373	67.31
366.599	80.31
366.826	76.31
367.052	90.31
367.278	87.31
367.505	86.31
367.731	84.31
367.957	80.31
368.184	83.31
368.41	59.31
368.636	81.31
368.862	88.31
369.089	80.31
369.315	79.31
369.541	68.31
369.767	72.31
369.993	90.31
370.219	76.31
370.445	76.31
370.672	73.31
370.898	85.31
371.124	78.31
371.35	82.31
371.576	75.31
371.802	94.31
372.028	81.31
372.254	75.31
372.48	80.31
372.706	74.31
372.932	87.31
373.158	83.31
373.384	85.31
373.61	85.31
373.835	79.31
374.061	79.31
374.287	72.31
374.513	70.31
374.739	88.31
374.965	81.31
375.191	76.31
375.416	92.31
375.642	74.31
375.868	68.31
376.094	77.31
376.319	73.31
376.545	78.31
376.771	87.31
376.997	82.31
377.222	71.31
377.448	75.31
377.674	80.31
377.899	74.31
378.125	87.31
378.35	71.31
378.576	74.31
378.802	80.31
379.027	85.31
379.253	90.31
379.478	71.31
379.704	81.31
379.929	74.31
380.155	79.31
380.38	72.31
380.606	71.31
380.831	81.31
381.057	60.31
381.282	60.31
381.507	81.31
381.733	92.31
381.958	81.31
382.184	84.31
382.409	84.31
382.634	73.31
382.86	90.31
383.085	58.31
383.31	67.31
383.535	84.31
383.761	72.31
383.986	82.31
384.211	69.31
384.436	70.31
384.662	66.31
384.887	73.31
385.112	77.31
385.337	75.31
385.562	87.31
385.787	60.31
386.013	76.31
386.238	68.31
386.463	70.31
386.688	87.31
386.913	87.31
387.138	80.31
387.363	80.31
387.588	88.31
387.813	75.31
388.038	67.31
388.263	68.31
388.488	74.31
388.713	85.31
388.938	83.31
389.163	85.31
389.387	62.31
389.612	78.31
389.837	75.31
390.062	74.31
390.287	88.31
390.512	76.31
390.736	83.31
390.961	56.31
391.186	70.31
391.411	71.31
391.636	74.31
391.86	71.31
392.085	88.31
392.31	75.31
392.534	75.31
392.759	75.31
392.984	83.31
393.208	72.31
393.433	83.31
393.658	69.31
393.882	73.31
394.107	80.31
394.331	80.31
394.556	79.31
394.78	57.31
395.005	79.31
395.229	74.31
395.454	78.31
395.678	76.31
395.903	79.31
396.127	89.31
396.352	85.31
396.576	81.31
396.801	64.31
397.025	70.31
397.249	66.31
397.474	80.31
397.698	89.31
397.922	89.31
398.147	79.31
398.371	76.31
398.595	89.31
398.82	87.31
399.044	75.31
399.268	82.31
399.492	87.31
399.717	80.31
399.941	74.31
400.165	76.31
400.389	73.31
400.613	71.31
400.837	67.31
401.062	80.31
401.286	76.31
401.51	88.31
401.734	82.31
401.958	86.31
402.182	86.31
402.406	81.31
402.63	68.31
402.854	84.31
403.078	80.31
403.302	73.31
403.526	83.31
403.75	81.31
403.974	93.31
404.198	77.31
404.422	83.31
404.645	75.31
404.869	83.31
405.093	77.31
405.317	85.31
405.541	68.31
405.765	86.31
405.988	80.31
406.212	78.31
406.436	77.31
406.66	84.31
406.883	66.31
407.107	69.31
407.331	82.31
407.555	73.31
407.778	76.31
408.002	65.31
408.226	81.31
408.449	79.31
408.673	76.31
408.896	78.31
409.12	77.31
409.344	71.31
409.567	78.31
409.791	84.31
410.014	71.31
410.238	83.31
410.461	72.31
410.685	77.31
410.908	65.31
411.132	71.31
411.355	68.31
411.578	81.31
411.802	68.31
412.025	74.31
412.249	69.31
412.472	94.31
412.695	83.31
412.919	73.31
413.142	89.31
413.365	71.31
413.589	62.31
413.812	80.31
414.035	88.31
414.258	56.31
414.482	89.31
414.705	80.31
414.928	75.31
415.151	75.31
415.374	86.31
415.597	74.31
415.821	83.31
416.044	67.31
416.267	51.31
416.49	82.31
416.713	68.31
416.936	85.31
417.159	88.31
417.382	81.31
417.605	70.31
417.828	73.31
418.051	85.31
418.274	83.31
418.497	79.31
418.72	69.31
418.943	73.31
419.166	79.31
419.389	81.31
419.611	72.31
419.834	88.31
420.057	78.31
420.28	80.31
420.503	81.31
420.726	79.31
420.948	76.31
421.171	95.31
421.394	77.31
421.617	69.31
421.839	79.31
422.062	77.31
422.285	60.31
422.507	80.31
422.73	75.31
422.953	80.31
423.175	76.31
423.398	66.31
423.621	62.31
423.843	80.31
424.066	75.31
424.288	74.31
424.511	81.31
424.733	86.31
424.956	80.31
425.178	76.31
425.401	73.31
425.623	69.31
425.846	85.31
426.068	75.31
426.291	74.31
426.513	86.31
426.735	77.31
426.958	74.31
427.18	82.31
427.402	74.31
427.625	76.31
427.847	77.31
428.069	84.31
428.292	67.31
428.514	66.31
428.736	81.31
428.958	72.31
429.181	80.31
429.403	87.31
429.625	78.31
429.847	68.31
430.069	81.31
430.292	81.31
430.514	87.31
430.736	80.31
430.958	79.31
431.18	76.31
431.402	65.31
431.624	80.31
431.846	91.31
432.068	78.31
432.29	87.31
432.512	80.31
432.734	59.31
432.956	72.31
433.178	87.31
433.4	79.31
433.622	77.31
433.844	74.31
434.066	70.31
434.287	66.31
434.509	90.31
434.731	81.31
434.953	92.31
435.175	73.31
435.397	74.31
435.618	70.31
435.84	80.31
436.062	68.31
436.284	76.31
436.505	88.31
436.727	75.31
436.949	75.31
437.17	76.31
437.392	71.31
437.614	65.31
437.835	64.31
438.057	67.31
438.278	79.31
438.5	83.31
438.721	84.31
438.943	69.31
439.165	76.31
439.386	59.31
439.608	82.31
439.829	88.31
440.05	72.31
440.272	76.31
440.493	71.31
440.715	77.31
440.936	68.31
441.158	82.31
441.379	78.31
441.6	88.31
441.822	72.31
442.043	78.31
442.264	86.31
442.486	82.31
442.707	90.31
442.928	90.31
443.149	72.31
443.371	80.31
443.592	80.31
443.813	92.31
444.034	64.31
444.255	65.31
444.476	85.31
444.698	79.31
444.919	73.31
445.14	131.31
445.361	96.31
445.582	73.31
445.803	70.31
446.024	66.31
446.245	76.31
446.466	90.31
446.687	59.31
446.908	74.31
447.129	74.31
447.35	72.31
447.571	72.31
447.792	78.31
448.013	79.31
448.234	63.31
448.455	69.31
448.675	72.31
448.896	66.31
449.117	75.31
449.338	49.31
449.559	77.31
449.779	77.31
450	63.31
450.221	73.31
450.442	86.31
450.662	80.31
450.883	72.31
451.104	78.31
451.324	80.31
451.545	83.31
451.766	74.31
451.986	70.31
452.207	58.31
452.428	62.31
452.648	74.31
452.869	80.31
453.089	90.31
453.31	68.31
453.53	88.31
453.751	87.31
453.971	86.31
454.192	78.31
454.412	74.31
454.633	76.31
454.853	76.31
455.073	64.31
455.294	75.31
455.514	82.31
455.734	82.31
455.955	89.31
456.175	86.31
456.395	83.31
456.616	98.31
456.836	74.31
457.056	73.31
457.276	68.31
457.497	81.31
457.717	73.31
457.937	79.31
458.157	73.31
458.377	69.31
458.598	68.31
458.818	61.31
459.038	73.31
459.258	85.31
459.478	63.31
459.698	74.31
459.918	70.31
460.138	73.31
460.358	63.31
460.578	81.31
460.798	67.31
461.018	97.31
461.238	62.31
461.458	81.31
461.678	89.31
461.898	78.31
462.118	82.31
462.338	79.31
462.558	83.31
462.777	75.31
462.997	74.31
463.217	80.31
463.437	74.31
463.657	83.31
463.876	85.31
464.096	91.31
464.316	66.31
464.536	55.31
464.755	81.31
464.975	78.31
465.195	85.31
465.414	77.31
465.634	65.31
465.854	65.31
466.073	75.31
466.293	71.31
466.512	66.31
466.732	68.31
466.951	67.31
467.171	80.31
467.391	78.31
467.61	65.31
467.829	86.31
468.049	89.31
468.268	74.31
468.488	82.31
468.707	79.31
468.927	78.31
469.146	67.31
469.365	81.31
469.585	77.31
469.804	71.31
470.023	84.31
470.243	64.31
470.462	87.31
470.681	83.31
470.901	71.31
471.12	67.31
471.339	71.31
471.558	85.31
471.777	86.31
471.997	75.31
472.216	64.31
472.435	87.31
472.654	78.31
472.873	88.31
473.092	63.31
473.311	87.31
473.53	77.31
473.749	77.31
473.968	73.31
474.187	83.31
474.406	64.31
474.625	90.31
474.844	71.31
475.063	85.31
475.282	72.31
475.501	73.31
475.72	87.31
475.939	90.31
476.158	72.31
476.377	73.31
476.596	66.31
476.814	83.31
477.033	84.31
477.252	83.31
477.471	80.31
477.69	66.31
477.908	66.31
478.127	74.31
478.346	71.31
478.564	83.31
478.783	75.31
479.002	74.31
479.22	90.31
479.439	76.31
479.658	67.31
479.876	78.31
480.095	73.31
480.313	80.31
480.532	69.31
480.751	81.31
480.969	67.31
481.188	64.31
481.406	80.31
481.624	86.31
481.843	79.31
482.061	86.31
482.28	81.31
482.498	74.31
482.717	86.31
482.935	80.31
483.153	77.31
483.372	84.31
483.59	84.31
483.808	63.31
484.027	76.31
484.245	67.31
484.463	77.31
484.681	82.31
484.9	71.31
485.118	76.31
485.336	80.31
485.554	78.31
485.772	65.31
485.99	87.31
486.209	74.31
486.427	68.31
486.645	83.31
486.863	93.31
487.081	75.31
487.299	69.31
487.517	75.31
487.735	82.31
487.953	84.31
488.171	75.31
488.389	79.31
488.607	93.31
488.825	91.31
489.043	69.31
489.261	81.31
489.479	66.31
489.696	83.31
489.914	59.31
490.132	66.31
490.35	82.31
490.568	74.31
490.786	76.31
491.003	71.31
491.221	70.31
491.439	78.31
491.657	74.31
491.874	77.31
492.092	74.31
492.31	82.31
492.527	84.31
492.745	73.31
492.963	73.31
493.18	78.31
493.398	75.31
493.615	74.31
493.833	77.31
494.05	63.31
494.268	75.31
494.485	82.31
494.703	76.31
494.92	66.31
495.138	86.31
495.355	91.31
495.573	80.31
495.79	74.31
496.008	88.31
496.225	74.31
496.442	66.31
496.66	78.31
496.877	79.31
497.094	86.31
497.312	86.31
497.529	75.31
497.746	92.31
497.963	65.31
498.181	77.31
498.398	73.31
498.615	73.31
498.832	82.31
499.049	75.31
499.267	74.31
499.484	79.31
499.701	82.31
499.918	71.31
500.135	79.31
500.352	78.31
500.569	74.31
500.786	93.31
501.003	78.31
501.22	58.31
501.437	77.31
501.654	93.31
501.871	74.31
502.088	79.31
502.305	82.31
502.522	81.31
502.739	84.31
502.956	84.31
503.172	71.31
503.389	77.31
503.606	67.31
503.823	84.31
504.04	73.31
504.256	83.31
504.473	70.31
504.69	90.31
504.907	81.31
505.123	75.31
505.34	76.31
505.557	87.31
505.773	71.31
505.99	77.31
506.207	87.31
506.423	69.31
506.64	80.31
506.856	84.31
507.073	75.31
507.289	79.31
507.506	64.31
507.722	93.31
507.939	73.31
508.155	71.31
508.372	77.31
508.588	68.31
508.805	82.31
509.021	75.31
509.238	79.31
509.454	82.31
509.67	62.31
509.887	87.31
510.103	82.31
510.319	74.31
510.536	69.31
510.752	66.31
510.968	62.31
511.184	78.31
511.401	66.31
511.617	94.31
511.833	77.31
512.049	79.31
512.265	67.31
512.481	71.31
512.698	66.31
512.914	93.31
513.13	67.31
513.346	87.31
513.562	73.31
513.778	71.31
513.994	75.31
514.21	65.31
514.426	87.31
514.642	81.31
514.858	72.31
515.074	72.31
515.29	95.31
515.506	95.31
515.721	75.31
515.937	81.31
516.153	75.31
516.369	87.31
516.585	68.31
516.801	87.31
517.016	74.31
517.232	82.31
517.448	79.31
517.664	97.31
517.879	69.31
518.095	65.31
518.311	80.31
518.527	86.31
518.742	59.31
518.958	92.31
519.173	87.31
519.389	78.31
519.605	70.31
519.82	84.31
520.036	78.31
520.251	73.31
