Data from Background_3_HRD10591_00082.txt Node
Date: Wed Nov 05 14:50:00 EST 2025
User: Yrep
Spectrometer: HR+D1059
Trigger mode: 1
Integration Time (sec): 1.000000E-1
Scans to average: 1
Electric dark correction enabled: true
Nonlinearity correction enabled: false
Boxcar width: 0
XAxis mode: Wavelengths
Number of Pixels in Spectrum: 2048
>>>>>Begin Spectral Data<<<<<
223.165	-21.19
223.4	-21.19
223.635	-21.19
223.869	-16.19
224.104	-16.19
224.338	-12.19
224.573	-15.19
224.808	-11.19
225.042	-19.19
225.277	-5.19
225.511	4.81
225.746	4.81
225.98	-4.19
226.215	5.81
226.449	4.81
226.683	27.81
226.918	36.81
227.152	35.81
227.387	32.81
227.621	44.81
227.856	47.81
228.09	32.81
228.324	61.81
228.559	48.81
228.793	51.81
229.027	57.81
229.262	62.81
229.496	61.81
229.73	75.81
229.964	71.81
230.199	66.81
230.433	79.81
230.667	72.81
230.901	76.81
231.136	72.81
231.37	92.81
231.604	72.81
231.838	65.81
232.072	74.81
232.306	77.81
232.541	76.81
232.775	76.81
233.009	76.81
233.243	79.81
233.477	91.81
233.711	81.81
233.945	91.81
234.179	83.81
234.413	81.81
234.647	72.81
234.881	72.81
235.115	79.81
235.349	77.81
235.583	73.81
235.817	83.81
236.051	80.81
236.285	78.81
236.519	76.81
236.753	67.81
236.987	70.81
237.221	85.81
237.455	51.81
237.689	59.81
237.922	77.81
238.156	73.81
238.39	77.81
238.624	75.81
238.858	68.81
239.091	68.81
239.325	68.81
239.559	64.81
239.793	74.81
240.027	77.81
240.26	61.81
240.494	60.81
240.728	77.81
240.961	77.81
241.195	66.81
241.429	73.81
241.662	72.81
241.896	68.81
242.13	93.81
242.363	74.81
242.597	83.81
242.83	81.81
243.064	75.81
243.298	79.81
243.531	79.81
243.765	73.81
243.998	84.81
244.232	80.81
244.465	81.81
244.699	80.81
244.932	76.81
245.166	73.81
245.399	76.81
245.633	86.81
245.866	74.81
246.099	73.81
246.333	90.81
246.566	75.81
246.8	79.81
247.033	81.81
247.266	76.81
247.5	67.81
247.733	83.81
247.966	76.81
248.2	66.81
248.433	81.81
248.666	59.81
248.899	65.81
249.133	82.81
249.366	85.81
249.599	68.81
249.832	78.81
250.066	76.81
250.299	69.81
250.532	73.81
250.765	62.81
250.998	76.81
251.231	91.81
251.465	88.81
251.698	65.81
251.931	76.81
252.164	74.81
252.397	75.81
252.63	76.81
252.863	76.81
253.096	60.81
253.329	76.81
253.562	83.81
253.795	72.81
254.028	82.81
254.261	72.81
254.494	69.81
254.727	72.81
254.96	83.81
255.193	80.81
255.426	84.81
255.659	79.81
255.892	74.81
256.124	76.81
256.357	79.81
256.59	87.81
256.823	85.81
257.056	87.81
257.289	76.81
257.521	89.81
257.754	80.81
257.987	80.81
258.22	67.81
258.452	75.81
258.685	62.81
258.918	73.81
259.151	88.81
259.383	85.81
259.616	72.81
259.849	64.81
260.081	70.81
260.314	75.81
260.547	77.81
260.779	81.81
261.012	70.81
261.244	77.81
261.477	90.81
261.71	72.81
261.942	70.81
262.175	84.81
262.407	83.81
262.64	77.81
262.872	91.81
263.105	77.81
263.337	88.81
263.57	61.81
263.802	100.81
264.035	78.81
264.267	85.81
264.499	76.81
264.732	87.81
264.964	76.81
265.197	86.81
265.429	83.81
265.661	79.81
265.894	81.81
266.126	80.81
266.358	80.81
266.591	81.81
266.823	81.81
267.055	84.81
267.287	85.81
267.52	71.81
267.752	89.81
267.984	83.81
268.216	91.81
268.448	87.81
268.681	75.81
268.913	70.81
269.145	77.81
269.377	82.81
269.609	85.81
269.841	91.81
270.073	80.81
270.306	87.81
270.538	70.81
270.77	75.81
271.002	79.81
271.234	75.81
271.466	79.81
271.698	94.81
271.93	69.81
272.162	74.81
272.394	85.81
272.626	73.81
272.858	77.81
273.09	69.81
273.322	80.81
273.553	87.81
273.785	91.81
274.017	81.81
274.249	83.81
274.481	79.81
274.713	107.81
274.945	76.81
275.176	71.81
275.408	67.81
275.64	77.81
275.872	71.81
276.104	90.81
276.335	83.81
276.567	87.81
276.799	63.81
277.031	68.81
277.262	85.81
277.494	87.81
277.726	84.81
277.957	66.81
278.189	77.81
278.421	82.81
278.652	62.81
278.884	77.81
279.115	83.81
279.347	81.81
279.579	78.81
279.81	81.81
280.042	69.81
280.273	72.81
280.505	87.81
280.736	74.81
280.968	87.81
281.199	81.81
281.431	76.81
281.662	101.81
281.894	89.81
282.125	71.81
282.356	81.81
282.588	79.81
282.819	66.81
283.051	76.81
283.282	76.81
283.513	77.81
283.745	83.81
283.976	85.81
284.207	78.81
284.439	86.81
284.67	83.81
284.901	85.81
285.132	72.81
285.364	88.81
285.595	88.81
285.826	90.81
286.057	86.81
286.288	82.81
286.52	81.81
286.751	82.81
286.982	88.81
287.213	88.81
287.444	78.81
287.675	80.81
287.906	85.81
288.138	83.81
288.369	91.81
288.6	81.81
288.831	75.81
289.062	81.81
289.293	81.81
289.524	73.81
289.755	103.81
289.986	80.81
290.217	86.81
290.448	85.81
290.679	83.81
290.91	84.81
291.141	68.81
291.371	75.81
291.602	84.81
291.833	79.81
292.064	73.81
292.295	88.81
292.526	79.81
292.757	92.81
292.987	85.81
293.218	84.81
293.449	79.81
293.68	90.81
293.91	70.81
294.141	84.81
294.372	86.81
294.603	84.81
294.833	65.81
295.064	87.81
295.295	71.81
295.525	77.81
295.756	84.81
295.987	68.81
296.217	74.81
296.448	87.81
296.679	79.81
296.909	90.81
297.14	76.81
297.37	83.81
297.601	80.81
297.831	77.81
298.062	80.81
298.292	79.81
298.523	92.81
298.753	88.81
298.984	89.81
299.214	78.81
299.445	81.81
299.675	83.81
299.905	84.81
300.136	89.81
300.366	79.81
300.597	92.81
300.827	78.81
301.057	87.81
301.288	82.81
301.518	75.81
301.748	90.81
301.979	103.81
302.209	94.81
302.439	92.81
302.669	89.81
302.9	89.81
303.13	83.81
303.36	72.81
303.59	83.81
303.82	81.81
304.051	88.81
304.281	96.81
304.511	78.81
304.741	89.81
304.971	71.81
305.201	81.81
305.431	78.81
305.661	68.81
305.891	59.81
306.121	67.81
306.352	98.81
306.582	89.81
306.812	80.81
307.042	77.81
307.272	79.81
307.502	83.81
307.731	75.81
307.961	81.81
308.191	78.81
308.421	77.81
308.651	79.81
308.881	75.81
309.111	75.81
309.341	91.81
309.571	77.81
309.8	93.81
310.03	72.81
310.26	73.81
310.49	78.81
310.72	67.81
310.949	88.81
311.179	80.81
311.409	83.81
311.639	70.81
311.868	71.81
312.098	80.81
312.328	85.81
312.557	91.81
312.787	73.81
313.017	80.81
313.246	83.81
313.476	80.81
313.706	75.81
313.935	91.81
314.165	82.81
314.394	86.81
314.624	94.81
314.853	77.81
315.083	87.81
315.312	81.81
315.542	79.81
315.771	76.81
316.001	66.81
316.23	80.81
316.46	66.81
316.689	73.81
316.919	92.81
317.148	93.81
317.377	79.81
317.607	88.81
317.836	66.81
318.065	73.81
318.295	89.81
318.524	81.81
318.753	72.81
318.983	90.81
319.212	78.81
319.441	82.81
319.67	75.81
319.9	78.81
320.129	84.81
320.358	72.81
320.587	69.81
320.816	84.81
321.046	75.81
321.275	80.81
321.504	85.81
321.733	89.81
321.962	78.81
322.191	76.81
322.42	94.81
322.649	71.81
322.878	78.81
323.108	94.81
323.337	83.81
323.566	67.81
323.795	88.81
324.024	65.81
324.253	91.81
324.482	77.81
324.71	82.81
324.939	66.81
325.168	90.81
325.397	77.81
325.626	93.81
325.855	88.81
326.084	83.81
326.313	76.81
326.542	65.81
326.77	73.81
326.999	90.81
327.228	90.81
327.457	89.81
327.686	79.81
327.914	99.81
328.143	81.81
328.372	74.81
328.6	86.81
328.829	87.81
329.058	80.81
329.287	76.81
329.515	90.81
329.744	83.81
329.972	86.81
330.201	83.81
330.43	75.81
330.658	96.81
330.887	76.81
331.115	77.81
331.344	81.81
331.572	99.81
331.801	73.81
332.03	87.81
332.258	84.81
332.486	79.81
332.715	96.81
332.943	67.81
333.172	70.81
333.4	83.81
333.629	78.81
333.857	78.81
334.085	98.81
334.314	83.81
334.542	61.81
334.771	83.81
334.999	78.81
335.227	87.81
335.455	75.81
335.684	82.81
335.912	66.81
336.14	85.81
336.369	80.81
336.597	82.81
336.825	76.81
337.053	89.81
337.281	92.81
337.51	83.81
337.738	84.81
337.966	87.81
338.194	88.81
338.422	85.81
338.65	84.81
338.878	80.81
339.106	83.81
339.334	93.81
339.562	68.81
339.79	77.81
340.018	81.81
340.246	83.81
340.474	77.81
340.702	79.81
340.93	82.81
341.158	90.81
341.386	77.81
341.614	88.81
341.842	74.81
342.07	84.81
342.298	82.81
342.526	70.81
342.754	86.81
342.981	74.81
343.209	80.81
343.437	93.81
343.665	84.81
343.893	85.81
344.12	73.81
344.348	85.81
344.576	84.81
344.804	73.81
345.031	76.81
345.259	94.81
345.487	87.81
345.714	63.81
345.942	70.81
346.17	79.81
346.397	89.81
346.625	80.81
346.853	73.81
347.08	69.81
347.308	90.81
347.535	70.81
347.763	88.81
347.99	72.81
348.218	84.81
348.445	92.81
348.673	79.81
348.9	81.81
349.128	84.81
349.355	67.81
349.583	75.81
349.81	77.81
350.037	68.81
350.265	82.81
350.492	92.81
350.72	84.81
350.947	66.81
351.174	82.81
351.402	77.81
351.629	88.81
351.856	90.81
352.083	73.81
352.311	79.81
352.538	82.81
352.765	75.81
352.992	85.81
353.22	77.81
353.447	92.81
353.674	75.81
353.901	83.81
354.128	60.81
354.355	85.81
354.583	83.81
354.81	83.81
355.037	75.81
355.264	84.81
355.491	80.81
355.718	87.81
355.945	79.81
356.172	87.81
356.399	89.81
356.626	77.81
356.853	74.81
357.08	91.81
357.307	79.81
357.534	78.81
357.761	81.81
357.988	84.81
358.215	75.81
358.441	82.81
358.668	87.81
358.895	76.81
359.122	89.81
359.349	85.81
359.576	82.81
359.802	80.81
360.029	69.81
360.256	78.81
360.483	67.81
360.709	81.81
360.936	79.81
361.163	85.81
361.39	68.81
361.616	81.81
361.843	89.81
362.07	80.81
362.296	99.81
362.523	83.81
362.749	81.81
362.976	81.81
363.203	57.81
363.429	74.81
363.656	80.81
363.882	77.81
364.109	95.81
364.335	97.81
364.562	73.81
364.788	89.81
365.015	78.81
365.241	84.81
365.468	85.81
365.694	91.81
365.92	74.81
366.147	69.81
366.373	82.81
366.599	78.81
366.826	82.81
367.052	71.81
367.278	66.81
367.505	84.81
367.731	71.81
367.957	75.81
368.184	82.81
368.41	87.81
368.636	89.81
368.862	91.81
369.089	87.81
369.315	79.81
369.541	97.81
369.767	89.81
369.993	78.81
370.219	85.81
370.445	87.81
370.672	88.81
370.898	74.81
371.124	91.81
371.35	81.81
371.576	91.81
371.802	82.81
372.028	87.81
372.254	74.81
372.48	90.81
372.706	77.81
372.932	79.81
373.158	73.81
373.384	91.81
373.61	85.81
373.835	83.81
374.061	86.81
374.287	72.81
374.513	91.81
374.739	87.81
374.965	90.81
375.191	79.81
375.416	79.81
375.642	69.81
375.868	73.81
376.094	73.81
376.319	74.81
376.545	84.81
376.771	88.81
376.997	73.81
377.222	63.81
377.448	86.81
377.674	79.81
377.899	72.81
378.125	78.81
378.35	87.81
378.576	81.81
378.802	89.81
379.027	79.81
379.253	79.81
379.478	77.81
379.704	85.81
379.929	75.81
380.155	74.81
380.38	88.81
380.606	82.81
380.831	82.81
381.057	80.81
381.282	78.81
381.507	87.81
381.733	87.81
381.958	73.81
382.184	95.81
382.409	84.81
382.634	92.81
382.86	82.81
383.085	74.81
383.31	75.81
383.535	62.81
383.761	97.81
383.986	82.81
384.211	83.81
384.436	79.81
384.662	81.81
384.887	74.81
385.112	78.81
385.337	75.81
385.562	74.81
385.787	82.81
386.013	80.81
386.238	84.81
386.463	81.81
386.688	75.81
386.913	76.81
387.138	80.81
387.363	75.81
387.588	60.81
387.813	81.81
388.038	82.81
388.263	71.81
388.488	83.81
388.713	85.81
388.938	83.81
389.163	82.81
389.387	83.81
389.612	68.81
389.837	81.81
390.062	85.81
390.287	79.81
390.512	82.81
390.736	73.81
390.961	81.81
391.186	80.81
391.411	89.81
391.636	68.81
391.86	72.81
392.085	76.81
392.31	75.81
392.534	64.81
392.759	73.81
392.984	75.81
393.208	80.81
393.433	86.81
393.658	79.81
393.882	79.81
394.107	77.81
394.331	70.81
394.556	67.81
394.78	87.81
395.005	76.81
395.229	91.81
395.454	87.81
395.678	72.81
395.903	82.81
396.127	79.81
396.352	64.81
396.576	84.81
396.801	74.81
397.025	70.81
397.249	70.81
397.474	91.81
397.698	83.81
397.922	89.81
398.147	77.81
398.371	74.81
398.595	76.81
398.82	80.81
399.044	104.81
399.268	74.81
399.492	87.81
399.717	59.81
399.941	76.81
400.165	75.81
400.389	88.81
400.613	79.81
400.837	71.81
401.062	79.81
401.286	73.81
401.51	70.81
401.734	73.81
401.958	74.81
402.182	85.81
402.406	75.81
402.63	75.81
402.854	74.81
403.078	81.81
403.302	91.81
403.526	79.81
403.75	65.81
403.974	85.81
404.198	81.81
404.422	75.81
404.645	68.81
404.869	80.81
405.093	84.81
405.317	76.81
405.541	68.81
405.765	64.81
405.988	89.81
406.212	71.81
406.436	66.81
406.66	99.81
406.883	81.81
407.107	78.81
407.331	88.81
407.555	85.81
407.778	62.81
408.002	75.81
408.226	76.81
408.449	78.81
408.673	76.81
408.896	85.81
409.12	82.81
409.344	82.81
409.567	83.81
409.791	95.81
410.014	69.81
410.238	79.81
410.461	75.81
410.685	87.81
410.908	67.81
411.132	82.81
411.355	67.81
411.578	75.81
411.802	79.81
412.025	77.81
412.249	87.81
412.472	79.81
412.695	81.81
412.919	75.81
413.142	81.81
413.365	70.81
413.589	80.81
413.812	81.81
414.035	76.81
414.258	80.81
414.482	80.81
414.705	80.81
414.928	79.81
415.151	91.81
415.374	83.81
415.597	77.81
415.821	69.81
416.044	71.81
416.267	80.81
416.49	72.81
416.713	69.81
416.936	72.81
417.159	73.81
417.382	70.81
417.605	72.81
417.828	73.81
418.051	76.81
418.274	96.81
418.497	89.81
418.72	78.81
418.943	61.81
419.166	89.81
419.389	67.81
419.611	68.81
419.834	76.81
420.057	72.81
420.28	78.81
420.503	80.81
420.726	82.81
420.948	69.81
421.171	72.81
421.394	81.81
421.617	81.81
421.839	84.81
422.062	81.81
422.285	82.81
422.507	84.81
422.73	76.81
422.953	70.81
423.175	70.81
423.398	90.81
423.621	79.81
423.843	76.81
424.066	75.81
424.288	84.81
424.511	91.81
424.733	77.81
424.956	86.81
425.178	80.81
425.401	74.81
425.623	62.81
425.846	77.81
426.068	69.81
426.291	71.81
426.513	65.81
426.735	100.81
426.958	80.81
427.18	67.81
427.402	84.81
427.625	73.81
427.847	77.81
428.069	70.81
428.292	67.81
428.514	86.81
428.736	71.81
428.958	67.81
429.181	70.81
429.403	73.81
429.625	101.81
429.847	74.81
430.069	79.81
430.292	77.81
430.514	70.81
430.736	67.81
430.958	81.81
431.18	76.81
431.402	80.81
431.624	76.81
431.846	61.81
432.068	77.81
432.29	79.81
432.512	86.81
432.734	84.81
432.956	82.81
433.178	72.81
433.4	73.81
433.622	79.81
433.844	97.81
434.066	77.81
434.287	87.81
434.509	71.81
434.731	87.81
434.953	70.81
435.175	77.81
435.397	73.81
435.618	80.81
435.84	80.81
436.062	70.81
436.284	69.81
436.505	83.81
436.727	84.81
436.949	82.81
437.17	65.81
437.392	88.81
437.614	75.81
437.835	81.81
438.057	86.81
438.278	71.81
438.5	72.81
438.721	80.81
438.943	85.81
439.165	81.81
439.386	74.81
439.608	80.81
439.829	67.81
440.05	81.81
440.272	75.81
440.493	75.81
440.715	58.81
440.936	85.81
441.158	82.81
441.379	87.81
441.6	68.81
441.822	70.81
442.043	91.81
442.264	77.81
442.486	96.81
442.707	89.81
442.928	79.81
443.149	69.81
443.371	83.81
443.592	74.81
443.813	73.81
444.034	84.81
444.255	84.81
444.476	84.81
444.698	90.81
444.919	87.81
445.14	145.81
445.361	122.81
445.582	83.81
445.803	73.81
446.024	77.81
446.245	72.81
446.466	73.81
446.687	72.81
446.908	89.81
447.129	79.81
447.35	76.81
447.571	77.81
447.792	68.81
448.013	70.81
448.234	81.81
448.455	80.81
448.675	87.81
448.896	69.81
449.117	83.81
449.338	84.81
449.559	71.81
449.779	82.81
450	76.81
450.221	82.81
450.442	67.81
450.662	91.81
450.883	72.81
451.104	81.81
451.324	86.81
451.545	82.81
451.766	80.81
451.986	75.81
452.207	65.81
452.428	80.81
452.648	76.81
452.869	83.81
453.089	55.81
453.31	77.81
453.53	77.81
453.751	83.81
453.971	69.81
454.192	84.81
454.412	86.81
454.633	74.81
454.853	66.81
455.073	65.81
455.294	91.81
455.514	85.81
455.734	89.81
455.955	81.81
456.175	76.81
456.395	89.81
456.616	67.81
456.836	61.81
457.056	84.81
457.276	77.81
457.497	70.81
457.717	79.81
457.937	77.81
458.157	74.81
458.377	80.81
458.598	87.81
458.818	92.81
459.038	80.81
459.258	89.81
459.478	77.81
459.698	66.81
459.918	71.81
460.138	81.81
460.358	67.81
460.578	82.81
460.798	66.81
461.018	75.81
461.238	91.81
461.458	67.81
461.678	82.81
461.898	90.81
462.118	100.81
462.338	73.81
462.558	83.81
462.777	64.81
462.997	79.81
463.217	83.81
463.437	83.81
463.657	70.81
463.876	64.81
464.096	70.81
464.316	80.81
464.536	83.81
464.755	73.81
464.975	82.81
465.195	75.81
465.414	85.81
465.634	80.81
465.854	73.81
466.073	78.81
466.293	98.81
466.512	67.81
466.732	91.81
466.951	79.81
467.171	84.81
467.391	80.81
467.61	74.81
467.829	63.81
468.049	77.81
468.268	88.81
468.488	89.81
468.707	76.81
468.927	75.81
469.146	73.81
469.365	80.81
469.585	73.81
469.804	78.81
470.023	77.81
470.243	77.81
470.462	69.81
470.681	81.81
470.901	81.81
471.12	86.81
471.339	79.81
471.558	63.81
471.777	88.81
471.997	81.81
472.216	79.81
472.435	81.81
472.654	77.81
472.873	84.81
473.092	90.81
473.311	84.81
473.53	87.81
473.749	84.81
473.968	90.81
474.187	63.81
474.406	70.81
474.625	73.81
474.844	99.81
475.063	83.81
475.282	79.81
475.501	79.81
475.72	69.81
475.939	81.81
476.158	70.81
476.377	72.81
476.596	75.81
476.814	61.81
477.033	97.81
477.252	90.81
477.471	68.81
477.69	69.81
477.908	67.81
478.127	72.81
478.346	77.81
478.564	83.81
478.783	82.81
479.002	86.81
479.22	77.81
479.439	81.81
479.658	68.81
479.876	71.81
480.095	79.81
480.313	63.81
480.532	90.81
480.751	65.81
480.969	79.81
481.188	93.81
481.406	73.81
481.624	70.81
481.843	75.81
482.061	75.81
482.28	84.81
482.498	77.81
482.717	79.81
482.935	72.81
483.153	72.81
483.372	67.81
483.59	87.81
483.808	76.81
484.027	80.81
484.245	84.81
484.463	68.81
484.681	98.81
484.9	73.81
485.118	81.81
485.336	76.81
485.554	72.81
485.772	80.81
485.99	68.81
486.209	74.81
486.427	76.81
486.645	83.81
486.863	78.81
487.081	78.81
487.299	67.81
487.517	79.81
487.735	77.81
487.953	71.81
488.171	92.81
488.389	71.81
488.607	64.81
488.825	74.81
489.043	74.81
489.261	63.81
489.479	75.81
489.696	84.81
489.914	85.81
490.132	83.81
490.35	76.81
490.568	72.81
490.786	88.81
491.003	89.81
491.221	87.81
491.439	92.81
491.657	92.81
491.874	81.81
492.092	80.81
492.31	75.81
492.527	69.81
492.745	81.81
492.963	87.81
493.18	79.81
493.398	83.81
493.615	83.81
493.833	105.81
494.05	61.81
494.268	76.81
494.485	68.81
494.703	76.81
494.92	90.81
495.138	76.81
495.355	80.81
495.573	74.81
495.79	93.81
496.008	78.81
496.225	69.81
496.442	80.81
496.66	84.81
496.877	84.81
497.094	86.81
497.312	81.81
497.529	69.81
497.746	79.81
497.963	69.81
498.181	84.81
498.398	82.81
498.615	99.81
498.832	91.81
499.049	91.81
499.267	63.81
499.484	70.81
499.701	79.81
499.918	81.81
500.135	78.81
500.352	89.81
500.569	93.81
500.786	83.81
501.003	73.81
501.22	85.81
501.437	82.81
501.654	84.81
501.871	89.81
502.088	75.81
502.305	92.81
502.522	83.81
502.739	78.81
502.956	61.81
503.172	85.81
503.389	71.81
503.606	67.81
503.823	83.81
504.04	64.81
504.256	79.81
504.473	79.81
504.69	78.81
504.907	68.81
505.123	83.81
505.34	79.81
505.557	89.81
505.773	84.81
505.99	88.81
506.207	81.81
506.423	81.81
506.64	82.81
506.856	84.81
507.073	72.81
507.289	87.81
507.506	82.81
507.722	76.81
507.939	74.81
508.155	82.81
508.372	71.81
508.588	87.81
508.805	84.81
509.021	71.81
509.238	79.81
509.454	92.81
509.67	76.81
509.887	83.81
510.103	90.81
510.319	71.81
510.536	79.81
510.752	83.81
510.968	77.81
511.184	89.81
511.401	80.81
511.617	78.81
511.833	84.81
512.049	75.81
512.265	77.81
512.481	84.81
512.698	100.81
512.914	95.81
513.13	84.81
513.346	73.81
513.562	75.81
513.778	81.81
513.994	85.81
514.21	75.81
514.426	88.81
514.642	81.81
514.858	78.81
515.074	72.81
515.29	84.81
515.506	69.81
515.721	82.81
515.937	76.81
516.153	80.81
516.369	82.81
516.585	87.81
516.801	75.81
517.016	78.81
517.232	69.81
517.448	73.81
517.664	74.81
517.879	82.81
518.095	89.81
518.311	84.81
518.527	84.81
518.742	78.81
518.958	78.81
519.173	66.81
519.389	80.81
519.605	84.81
519.82	75.81
520.036	88.81
