Data from Background_3_HRD10591_00023.txt Node
Date: Wed Nov 05 14:49:31 EST 2025
User: Yrep
Spectrometer: HR+D1059
Trigger mode: 1
Integration Time (sec): 1.000000E-1
Scans to average: 1
Electric dark correction enabled: true
Nonlinearity correction enabled: false
Boxcar width: 0
XAxis mode: Wavelengths
Number of Pixels in Spectrum: 2048
>>>>>Begin Spectral Data<<<<<
223.165	-23.69
223.4	-23.69
223.635	-23.69
223.869	-23.69
224.104	-11.69
224.338	-26.69
224.573	-7.69
224.808	-10.69
225.042	-11.69
225.277	-1.69
225.511	6.31
225.746	15.31
225.98	17.31
226.215	8.31
226.449	13.31
226.683	16.31
226.918	18.31
227.152	22.31
227.387	48.31
227.621	38.31
227.856	41.31
228.09	40.31
228.324	45.31
228.559	62.31
228.793	55.31
229.027	50.31
229.262	63.31
229.496	56.31
229.73	68.31
229.964	63.31
230.199	68.31
230.433	74.31
230.667	67.31
230.901	71.31
231.136	72.31
231.37	76.31
231.604	91.31
231.838	96.31
232.072	79.31
232.306	79.31
232.541	76.31
232.775	85.31
233.009	79.31
233.243	72.31
233.477	86.31
233.711	89.31
233.945	77.31
234.179	89.31
234.413	76.31
234.647	81.31
234.881	81.31
235.115	77.31
235.349	83.31
235.583	80.31
235.817	75.31
236.051	68.31
236.285	74.31
236.519	74.31
236.753	74.31
236.987	79.31
237.221	61.31
237.455	71.31
237.689	83.31
237.922	72.31
238.156	67.31
238.39	81.31
238.624	75.31
238.858	86.31
239.091	87.31
239.325	65.31
239.559	74.31
239.793	77.31
240.027	79.31
240.26	75.31
240.494	69.31
240.728	73.31
240.961	84.31
241.195	81.31
241.429	74.31
241.662	61.31
241.896	73.31
242.13	82.31
242.363	61.31
242.597	76.31
242.83	96.31
243.064	78.31
243.298	70.31
243.531	60.31
243.765	81.31
243.998	78.31
244.232	69.31
244.465	80.31
244.699	79.31
244.932	95.31
245.166	92.31
245.399	87.31
245.633	87.31
245.866	88.31
246.099	74.31
246.333	83.31
246.566	69.31
246.8	93.31
247.033	80.31
247.266	86.31
247.5	95.31
247.733	74.31
247.966	72.31
248.2	86.31
248.433	80.31
248.666	91.31
248.899	85.31
249.133	83.31
249.366	79.31
249.599	84.31
249.832	69.31
250.066	88.31
250.299	72.31
250.532	71.31
250.765	74.31
250.998	69.31
251.231	86.31
251.465	91.31
251.698	80.31
251.931	89.31
252.164	92.31
252.397	85.31
252.63	89.31
252.863	87.31
253.096	78.31
253.329	80.31
253.562	74.31
253.795	81.31
254.028	67.31
254.261	61.31
254.494	72.31
254.727	71.31
254.96	84.31
255.193	74.31
255.426	74.31
255.659	64.31
255.892	80.31
256.124	79.31
256.357	77.31
256.59	77.31
256.823	83.31
257.056	92.31
257.289	71.31
257.521	79.31
257.754	79.31
257.987	87.31
258.22	79.31
258.452	80.31
258.685	79.31
258.918	79.31
259.151	78.31
259.383	72.31
259.616	80.31
259.849	66.31
260.081	83.31
260.314	79.31
260.547	80.31
260.779	78.31
261.012	80.31
261.244	83.31
261.477	82.31
261.71	71.31
261.942	68.31
262.175	68.31
262.407	81.31
262.64	92.31
262.872	74.31
263.105	92.31
263.337	88.31
263.57	87.31
263.802	80.31
264.035	92.31
264.267	79.31
264.499	80.31
264.732	79.31
264.964	76.31
265.197	82.31
265.429	89.31
265.661	99.31
265.894	87.31
266.126	88.31
266.358	87.31
266.591	74.31
266.823	85.31
267.055	77.31
267.287	69.31
267.52	84.31
267.752	81.31
267.984	85.31
268.216	84.31
268.448	68.31
268.681	95.31
268.913	67.31
269.145	84.31
269.377	96.31
269.609	91.31
269.841	81.31
270.073	83.31
270.306	86.31
270.538	90.31
270.77	81.31
271.002	68.31
271.234	78.31
271.466	83.31
271.698	81.31
271.93	82.31
272.162	95.31
272.394	74.31
272.626	90.31
272.858	97.31
273.09	86.31
273.322	86.31
273.553	64.31
273.785	83.31
274.017	91.31
274.249	83.31
274.481	84.31
274.713	92.31
274.945	76.31
275.176	82.31
275.408	74.31
275.64	84.31
275.872	82.31
276.104	83.31
276.335	76.31
276.567	84.31
276.799	68.31
277.031	99.31
277.262	87.31
277.494	88.31
277.726	78.31
277.957	87.31
278.189	79.31
278.421	73.31
278.652	102.31
278.884	85.31
279.115	78.31
279.347	82.31
279.579	80.31
279.81	83.31
280.042	89.31
280.273	83.31
280.505	74.31
280.736	91.31
280.968	86.31
281.199	86.31
281.431	77.31
281.662	74.31
281.894	84.31
282.125	79.31
282.356	87.31
282.588	69.31
282.819	73.31
283.051	80.31
283.282	91.31
283.513	80.31
283.745	92.31
283.976	86.31
284.207	90.31
284.439	80.31
284.67	85.31
284.901	82.31
285.132	89.31
285.364	89.31
285.595	78.31
285.826	105.31
286.057	77.31
286.288	83.31
286.52	89.31
286.751	86.31
286.982	96.31
287.213	88.31
287.444	89.31
287.675	79.31
287.906	77.31
288.138	88.31
288.369	74.31
288.6	85.31
288.831	84.31
289.062	83.31
289.293	82.31
289.524	92.31
289.755	81.31
289.986	84.31
290.217	91.31
290.448	78.31
290.679	92.31
290.91	90.31
291.141	89.31
291.371	93.31
291.602	85.31
291.833	104.31
292.064	96.31
292.295	77.31
292.526	90.31
292.757	82.31
292.987	83.31
293.218	95.31
293.449	85.31
293.68	101.31
293.91	84.31
294.141	96.31
294.372	91.31
294.603	93.31
294.833	80.31
295.064	82.31
295.295	87.31
295.525	78.31
295.756	87.31
295.987	89.31
296.217	92.31
296.448	76.31
296.679	89.31
296.909	90.31
297.14	82.31
297.37	87.31
297.601	91.31
297.831	80.31
298.062	87.31
298.292	84.31
298.523	80.31
298.753	87.31
298.984	84.31
299.214	105.31
299.445	96.31
299.675	82.31
299.905	87.31
300.136	84.31
300.366	89.31
300.597	67.31
300.827	73.31
301.057	70.31
301.288	89.31
301.518	93.31
301.748	97.31
301.979	87.31
302.209	89.31
302.439	96.31
302.669	80.31
302.9	108.31
303.13	81.31
303.36	103.31
303.59	96.31
303.82	74.31
304.051	87.31
304.281	78.31
304.511	87.31
304.741	84.31
304.971	87.31
305.201	92.31
305.431	99.31
305.661	79.31
305.891	85.31
306.121	77.31
306.352	89.31
306.582	90.31
306.812	76.31
307.042	81.31
307.272	80.31
307.502	81.31
307.731	80.31
307.961	80.31
308.191	93.31
308.421	88.31
308.651	83.31
308.881	85.31
309.111	92.31
309.341	85.31
309.571	75.31
309.8	82.31
310.03	70.31
310.26	79.31
310.49	89.31
310.72	83.31
310.949	83.31
311.179	88.31
311.409	93.31
311.639	95.31
311.868	83.31
312.098	104.31
312.328	79.31
312.557	89.31
312.787	85.31
313.017	92.31
313.246	108.31
313.476	89.31
313.706	78.31
313.935	97.31
314.165	80.31
314.394	81.31
314.624	88.31
314.853	82.31
315.083	95.31
315.312	88.31
315.542	95.31
315.771	90.31
316.001	79.31
316.23	69.31
316.46	109.31
316.689	81.31
316.919	97.31
317.148	96.31
317.377	84.31
317.607	80.31
317.836	96.31
318.065	84.31
318.295	74.31
318.524	79.31
318.753	88.31
318.983	75.31
319.212	79.31
319.441	92.31
319.67	86.31
319.9	83.31
320.129	77.31
320.358	90.31
320.587	79.31
320.816	74.31
321.046	95.31
321.275	79.31
321.504	81.31
321.733	86.31
321.962	93.31
322.191	85.31
322.42	79.31
322.649	76.31
322.878	86.31
323.108	91.31
323.337	92.31
323.566	92.31
323.795	89.31
324.024	88.31
324.253	87.31
324.482	86.31
324.71	85.31
324.939	85.31
325.168	78.31
325.397	87.31
325.626	69.31
325.855	85.31
326.084	84.31
326.313	82.31
326.542	78.31
326.77	91.31
326.999	93.31
327.228	85.31
327.457	88.31
327.686	86.31
327.914	79.31
328.143	96.31
328.372	74.31
328.6	84.31
328.829	90.31
329.058	86.31
329.287	86.31
329.515	84.31
329.744	100.31
329.972	99.31
330.201	93.31
330.43	94.31
330.658	92.31
330.887	73.31
331.115	81.31
331.344	85.31
331.572	87.31
331.801	90.31
332.03	89.31
332.258	87.31
332.486	105.31
332.715	83.31
332.943	87.31
333.172	87.31
333.4	65.31
333.629	81.31
333.857	81.31
334.085	87.31
334.314	80.31
334.542	78.31
334.771	77.31
334.999	87.31
335.227	82.31
335.455	92.31
335.684	93.31
335.912	102.31
336.14	84.31
336.369	74.31
336.597	81.31
336.825	86.31
337.053	88.31
337.281	101.31
337.51	89.31
337.738	85.31
337.966	89.31
338.194	78.31
338.422	85.31
338.65	84.31
338.878	84.31
339.106	85.31
339.334	82.31
339.562	77.31
339.79	100.31
340.018	74.31
340.246	76.31
340.474	90.31
340.702	99.31
340.93	82.31
341.158	87.31
341.386	76.31
341.614	88.31
341.842	90.31
342.07	96.31
342.298	75.31
342.526	88.31
342.754	96.31
342.981	92.31
343.209	75.31
343.437	104.31
343.665	92.31
343.893	95.31
344.12	94.31
344.348	78.31
344.576	76.31
344.804	90.31
345.031	77.31
345.259	81.31
345.487	85.31
345.714	75.31
345.942	73.31
346.17	104.31
346.397	74.31
346.625	88.31
346.853	95.31
347.08	78.31
347.308	78.31
347.535	87.31
347.763	90.31
347.99	102.31
348.218	86.31
348.445	83.31
348.673	92.31
348.9	81.31
349.128	88.31
349.355	78.31
349.583	94.31
349.81	77.31
350.037	74.31
350.265	71.31
350.492	69.31
350.72	86.31
350.947	91.31
351.174	78.31
351.402	90.31
351.629	84.31
351.856	79.31
352.083	99.31
352.311	84.31
352.538	74.31
352.765	87.31
352.992	82.31
353.22	82.31
353.447	87.31
353.674	93.31
353.901	97.31
354.128	85.31
354.355	73.31
354.583	86.31
354.81	88.31
355.037	91.31
355.264	87.31
355.491	70.31
355.718	96.31
355.945	91.31
356.172	87.31
356.399	77.31
356.626	85.31
356.853	87.31
357.08	79.31
357.307	91.31
357.534	85.31
357.761	88.31
357.988	72.31
358.215	83.31
358.441	73.31
358.668	83.31
358.895	72.31
359.122	82.31
359.349	92.31
359.576	85.31
359.802	94.31
360.029	78.31
360.256	94.31
360.483	88.31
360.709	77.31
360.936	83.31
361.163	80.31
361.39	95.31
361.616	72.31
361.843	90.31
362.07	79.31
362.296	73.31
362.523	85.31
362.749	79.31
362.976	88.31
363.203	98.31
363.429	83.31
363.656	100.31
363.882	83.31
364.109	79.31
364.335	91.31
364.562	79.31
364.788	80.31
365.015	87.31
365.241	96.31
365.468	85.31
365.694	83.31
365.92	87.31
366.147	78.31
366.373	80.31
366.599	72.31
366.826	87.31
367.052	87.31
367.278	92.31
367.505	87.31
367.731	79.31
367.957	66.31
368.184	79.31
368.41	80.31
368.636	85.31
368.862	84.31
369.089	87.31
369.315	90.31
369.541	77.31
369.767	79.31
369.993	85.31
370.219	76.31
370.445	78.31
370.672	83.31
370.898	88.31
371.124	87.31
371.35	87.31
371.576	68.31
371.802	75.31
372.028	81.31
372.254	87.31
372.48	80.31
372.706	85.31
372.932	92.31
373.158	74.31
373.384	86.31
373.61	54.31
373.835	82.31
374.061	87.31
374.287	83.31
374.513	93.31
374.739	107.31
374.965	91.31
375.191	83.31
375.416	84.31
375.642	86.31
375.868	79.31
376.094	74.31
376.319	83.31
376.545	69.31
376.771	79.31
376.997	71.31
377.222	69.31
377.448	89.31
377.674	81.31
377.899	72.31
378.125	87.31
378.35	98.31
378.576	89.31
378.802	72.31
379.027	78.31
379.253	85.31
379.478	82.31
379.704	75.31
379.929	92.31
380.155	74.31
380.38	88.31
380.606	83.31
380.831	76.31
381.057	78.31
381.282	75.31
381.507	82.31
381.733	69.31
381.958	85.31
382.184	79.31
382.409	77.31
382.634	103.31
382.86	81.31
383.085	92.31
383.31	86.31
383.535	95.31
383.761	82.31
383.986	80.31
384.211	85.31
384.436	76.31
384.662	75.31
384.887	80.31
385.112	82.31
385.337	86.31
385.562	69.31
385.787	97.31
386.013	79.31
386.238	77.31
386.463	89.31
386.688	81.31
386.913	81.31
387.138	71.31
387.363	97.31
387.588	81.31
387.813	76.31
388.038	84.31
388.263	70.31
388.488	81.31
388.713	78.31
388.938	83.31
389.163	84.31
389.387	73.31
389.612	91.31
389.837	72.31
390.062	80.31
390.287	90.31
390.512	79.31
390.736	87.31
390.961	70.31
391.186	87.31
391.411	83.31
391.636	84.31
391.86	88.31
392.085	93.31
392.31	87.31
392.534	73.31
392.759	87.31
392.984	83.31
393.208	82.31
393.433	86.31
393.658	71.31
393.882	80.31
394.107	91.31
394.331	76.31
394.556	80.31
394.78	88.31
395.005	82.31
395.229	87.31
395.454	89.31
395.678	99.31
395.903	81.31
396.127	71.31
396.352	82.31
396.576	83.31
396.801	84.31
397.025	69.31
397.249	89.31
397.474	65.31
397.698	80.31
397.922	91.31
398.147	78.31
398.371	72.31
398.595	89.31
398.82	86.31
399.044	83.31
399.268	88.31
399.492	89.31
399.717	86.31
399.941	82.31
400.165	79.31
400.389	71.31
400.613	85.31
400.837	89.31
401.062	83.31
401.286	89.31
401.51	79.31
401.734	87.31
401.958	82.31
402.182	91.31
402.406	97.31
402.63	84.31
402.854	88.31
403.078	83.31
403.302	76.31
403.526	81.31
403.75	83.31
403.974	79.31
404.198	79.31
404.422	88.31
404.645	82.31
404.869	80.31
405.093	104.31
405.317	86.31
405.541	80.31
405.765	85.31
405.988	74.31
406.212	81.31
406.436	82.31
406.66	86.31
406.883	91.31
407.107	82.31
407.331	87.31
407.555	77.31
407.778	81.31
408.002	74.31
408.226	92.31
408.449	78.31
408.673	96.31
408.896	86.31
409.12	76.31
409.344	89.31
409.567	79.31
409.791	78.31
410.014	88.31
410.238	76.31
410.461	75.31
410.685	75.31
410.908	82.31
411.132	74.31
411.355	84.31
411.578	88.31
411.802	70.31
412.025	83.31
412.249	76.31
412.472	84.31
412.695	85.31
412.919	78.31
413.142	83.31
413.365	74.31
413.589	87.31
413.812	79.31
414.035	85.31
414.258	69.31
414.482	82.31
414.705	73.31
414.928	84.31
415.151	71.31
415.374	87.31
415.597	79.31
415.821	89.31
416.044	70.31
416.267	85.31
416.49	74.31
416.713	93.31
416.936	97.31
417.159	75.31
417.382	78.31
417.605	83.31
417.828	91.31
418.051	81.31
418.274	73.31
418.497	67.31
418.72	92.31
418.943	89.31
419.166	81.31
419.389	81.31
419.611	92.31
419.834	86.31
420.057	92.31
420.28	81.31
420.503	88.31
420.726	88.31
420.948	74.31
421.171	82.31
421.394	84.31
421.617	71.31
421.839	82.31
422.062	79.31
422.285	87.31
422.507	88.31
422.73	79.31
422.953	66.31
423.175	85.31
423.398	84.31
423.621	77.31
423.843	82.31
424.066	71.31
424.288	73.31
424.511	81.31
424.733	83.31
424.956	73.31
425.178	85.31
425.401	94.31
425.623	83.31
425.846	88.31
426.068	78.31
426.291	70.31
426.513	95.31
426.735	73.31
426.958	76.31
427.18	71.31
427.402	77.31
427.625	81.31
427.847	68.31
428.069	75.31
428.292	83.31
428.514	86.31
428.736	73.31
428.958	83.31
429.181	79.31
429.403	76.31
429.625	86.31
429.847	85.31
430.069	87.31
430.292	87.31
430.514	73.31
430.736	74.31
430.958	77.31
431.18	81.31
431.402	85.31
431.624	81.31
431.846	79.31
432.068	85.31
432.29	91.31
432.512	95.31
432.734	78.31
432.956	87.31
433.178	86.31
433.4	88.31
433.622	82.31
433.844	84.31
434.066	90.31
434.287	73.31
434.509	79.31
434.731	81.31
434.953	69.31
435.175	83.31
435.397	82.31
435.618	91.31
435.84	75.31
436.062	82.31
436.284	79.31
436.505	92.31
436.727	87.31
436.949	80.31
437.17	84.31
437.392	72.31
437.614	84.31
437.835	66.31
438.057	64.31
438.278	79.31
438.5	79.31
438.721	52.31
438.943	83.31
439.165	82.31
439.386	88.31
439.608	81.31
439.829	78.31
440.05	78.31
440.272	92.31
440.493	91.31
440.715	83.31
440.936	83.31
441.158	96.31
441.379	79.31
441.6	86.31
441.822	73.31
442.043	86.31
442.264	70.31
442.486	83.31
442.707	82.31
442.928	78.31
443.149	84.31
443.371	79.31
443.592	76.31
443.813	75.31
444.034	81.31
444.255	84.31
444.476	89.31
444.698	82.31
444.919	76.31
445.14	163.31
445.361	119.31
445.582	79.31
445.803	78.31
446.024	74.31
446.245	85.31
446.466	79.31
446.687	65.31
446.908	73.31
447.129	87.31
447.35	80.31
447.571	71.31
447.792	75.31
448.013	74.31
448.234	82.31
448.455	84.31
448.675	91.31
448.896	84.31
449.117	83.31
449.338	70.31
449.559	77.31
449.779	77.31
450	77.31
450.221	88.31
450.442	83.31
450.662	66.31
450.883	65.31
451.104	68.31
451.324	85.31
451.545	80.31
451.766	73.31
451.986	81.31
452.207	75.31
452.428	70.31
452.648	78.31
452.869	75.31
453.089	92.31
453.31	77.31
453.53	68.31
453.751	72.31
453.971	77.31
454.192	81.31
454.412	81.31
454.633	80.31
454.853	84.31
455.073	81.31
455.294	85.31
455.514	93.31
455.734	90.31
455.955	77.31
456.175	81.31
456.395	87.31
456.616	76.31
456.836	71.31
457.056	93.31
457.276	82.31
457.497	79.31
457.717	77.31
457.937	78.31
458.157	77.31
458.377	81.31
458.598	69.31
458.818	94.31
459.038	71.31
459.258	77.31
459.478	96.31
459.698	77.31
459.918	81.31
460.138	85.31
460.358	82.31
460.578	80.31
460.798	89.31
461.018	67.31
461.238	73.31
461.458	87.31
461.678	72.31
461.898	91.31
462.118	93.31
462.338	89.31
462.558	79.31
462.777	85.31
462.997	87.31
463.217	77.31
463.437	82.31
463.657	89.31
463.876	83.31
464.096	69.31
464.316	82.31
464.536	75.31
464.755	74.31
464.975	74.31
465.195	70.31
465.414	73.31
465.634	83.31
465.854	91.31
466.073	89.31
466.293	81.31
466.512	62.31
466.732	81.31
466.951	73.31
467.171	68.31
467.391	95.31
467.61	89.31
467.829	87.31
468.049	91.31
468.268	77.31
468.488	91.31
468.707	87.31
468.927	89.31
469.146	88.31
469.365	79.31
469.585	87.31
469.804	83.31
470.023	65.31
470.243	69.31
470.462	71.31
470.681	84.31
470.901	80.31
471.12	88.31
471.339	89.31
471.558	83.31
471.777	94.31
471.997	87.31
472.216	87.31
472.435	83.31
472.654	92.31
472.873	87.31
473.092	85.31
473.311	85.31
473.53	82.31
473.749	84.31
473.968	83.31
474.187	84.31
474.406	88.31
474.625	93.31
474.844	78.31
475.063	70.31
475.282	88.31
475.501	84.31
475.72	84.31
475.939	79.31
476.158	66.31
476.377	88.31
476.596	76.31
476.814	71.31
477.033	81.31
477.252	75.31
477.471	69.31
477.69	75.31
477.908	89.31
478.127	83.31
478.346	69.31
478.564	88.31
478.783	83.31
479.002	79.31
479.22	81.31
479.439	87.31
479.658	72.31
479.876	81.31
480.095	74.31
480.313	63.31
480.532	79.31
480.751	96.31
480.969	88.31
481.188	79.31
481.406	85.31
481.624	81.31
481.843	99.31
482.061	81.31
482.28	85.31
482.498	98.31
482.717	77.31
482.935	73.31
483.153	87.31
483.372	91.31
483.59	70.31
483.808	80.31
484.027	92.31
484.245	85.31
484.463	100.31
484.681	80.31
484.9	98.31
485.118	95.31
485.336	101.31
485.554	79.31
485.772	70.31
485.99	84.31
486.209	83.31
486.427	83.31
486.645	94.31
486.863	69.31
487.081	86.31
487.299	82.31
487.517	68.31
487.735	83.31
487.953	88.31
488.171	88.31
488.389	92.31
488.607	85.31
488.825	84.31
489.043	90.31
489.261	92.31
489.479	81.31
489.696	97.31
489.914	84.31
490.132	86.31
490.35	94.31
490.568	71.31
490.786	76.31
491.003	78.31
491.221	86.31
491.439	92.31
491.657	83.31
491.874	84.31
492.092	82.31
492.31	88.31
492.527	77.31
492.745	87.31
492.963	91.31
493.18	72.31
493.398	87.31
493.615	69.31
493.833	85.31
494.05	95.31
494.268	79.31
494.485	87.31
494.703	83.31
494.92	83.31
495.138	78.31
495.355	86.31
495.573	92.31
495.79	78.31
496.008	82.31
496.225	95.31
496.442	91.31
496.66	84.31
496.877	83.31
497.094	100.31
497.312	79.31
497.529	90.31
497.746	94.31
497.963	82.31
498.181	101.31
498.398	67.31
498.615	69.31
498.832	82.31
499.049	80.31
499.267	76.31
499.484	82.31
499.701	71.31
499.918	86.31
500.135	86.31
500.352	93.31
500.569	91.31
500.786	90.31
501.003	77.31
501.22	87.31
501.437	84.31
501.654	81.31
501.871	81.31
502.088	66.31
502.305	79.31
502.522	99.31
502.739	91.31
502.956	89.31
503.172	92.31
503.389	97.31
503.606	82.31
503.823	77.31
504.04	85.31
504.256	87.31
504.473	84.31
504.69	93.31
504.907	95.31
505.123	71.31
505.34	83.31
505.557	78.31
505.773	72.31
505.99	86.31
506.207	76.31
506.423	88.31
506.64	95.31
506.856	95.31
507.073	76.31
507.289	75.31
507.506	94.31
507.722	82.31
507.939	88.31
508.155	83.31
508.372	88.31
508.588	85.31
508.805	83.31
509.021	90.31
509.238	91.31
509.454	75.31
509.67	72.31
509.887	82.31
510.103	83.31
510.319	83.31
510.536	90.31
510.752	72.31
510.968	88.31
511.184	79.31
511.401	95.31
511.617	95.31
511.833	96.31
512.049	84.31
512.265	94.31
512.481	88.31
512.698	85.31
512.914	91.31
513.13	75.31
513.346	88.31
513.562	75.31
513.778	86.31
513.994	79.31
514.21	77.31
514.426	88.31
514.642	81.31
514.858	88.31
515.074	75.31
515.29	77.31
515.506	84.31
515.721	72.31
515.937	80.31
516.153	80.31
516.369	92.31
516.585	75.31
516.801	84.31
517.016	91.31
517.232	86.31
517.448	78.31
517.664	85.31
517.879	79.31
518.095	79.31
518.311	92.31
518.527	94.31
518.742	84.31
518.958	83.31
519.173	83.31
519.389	89.31
519.605	74.31
519.82	72.31
