Data from Background_3_HRD10591_00089.txt Node
Date: Wed Nov 05 14:50:04 EST 2025
User: Yrep
Spectrometer: HR+D1059
Trigger mode: 1
Integration Time (sec): 1.000000E-1
Scans to average: 1
Electric dark correction enabled: true
Nonlinearity correction enabled: false
Boxcar width: 0
XAxis mode: Wavelengths
Number of Pixels in Spectrum: 2048
>>>>>Begin Spectral Data<<<<<
223.165	-28.75
223.4	-28.75
223.635	-28.75
223.869	-20.75
224.104	-27.75
224.338	-9.75
224.573	4.25
224.808	-15.75
225.042	-3.75
225.277	-13.75
225.511	-1.75
225.746	21.25
225.98	12.25
226.215	5.25
226.449	8.25
226.683	12.25
226.918	34.25
227.152	24.25
227.387	36.25
227.621	32.25
227.856	32.25
228.09	37.25
228.324	47.25
228.559	57.25
228.793	46.25
229.027	55.25
229.262	80.25
229.496	79.25
229.73	53.25
229.964	80.25
230.199	89.25
230.433	88.25
230.667	80.25
230.901	68.25
231.136	83.25
231.37	73.25
231.604	71.25
231.838	85.25
232.072	72.25
232.306	77.25
232.541	76.25
232.775	74.25
233.009	89.25
233.243	71.25
233.477	70.25
233.711	76.25
233.945	88.25
234.179	77.25
234.413	79.25
234.647	84.25
234.881	79.25
235.115	81.25
235.349	80.25
235.583	72.25
235.817	79.25
236.051	69.25
236.285	77.25
236.519	73.25
236.753	78.25
236.987	77.25
237.221	69.25
237.455	72.25
237.689	81.25
237.922	83.25
238.156	72.25
238.39	59.25
238.624	63.25
238.858	58.25
239.091	68.25
239.325	91.25
239.559	76.25
239.793	77.25
240.027	91.25
240.26	74.25
240.494	68.25
240.728	79.25
240.961	67.25
241.195	71.25
241.429	74.25
241.662	72.25
241.896	69.25
242.13	63.25
242.363	77.25
242.597	77.25
242.83	72.25
243.064	71.25
243.298	84.25
243.531	80.25
243.765	66.25
243.998	85.25
244.232	84.25
244.465	74.25
244.699	75.25
244.932	88.25
245.166	66.25
245.399	65.25
245.633	85.25
245.866	67.25
246.099	77.25
246.333	83.25
246.566	69.25
246.8	78.25
247.033	76.25
247.266	63.25
247.5	73.25
247.733	81.25
247.966	83.25
248.2	81.25
248.433	66.25
248.666	75.25
248.899	77.25
249.133	74.25
249.366	75.25
249.599	84.25
249.832	71.25
250.066	63.25
250.299	91.25
250.532	85.25
250.765	76.25
250.998	75.25
251.231	74.25
251.465	76.25
251.698	76.25
251.931	79.25
252.164	73.25
252.397	83.25
252.63	69.25
252.863	73.25
253.096	79.25
253.329	93.25
253.562	69.25
253.795	78.25
254.028	82.25
254.261	65.25
254.494	73.25
254.727	76.25
254.96	83.25
255.193	93.25
255.426	59.25
255.659	86.25
255.892	73.25
256.124	72.25
256.357	81.25
256.59	80.25
256.823	75.25
257.056	59.25
257.289	74.25
257.521	77.25
257.754	73.25
257.987	71.25
258.22	95.25
258.452	61.25
258.685	79.25
258.918	73.25
259.151	85.25
259.383	87.25
259.616	80.25
259.849	65.25
260.081	83.25
260.314	83.25
260.547	84.25
260.779	81.25
261.012	72.25
261.244	82.25
261.477	83.25
261.71	79.25
261.942	90.25
262.175	75.25
262.407	70.25
262.64	64.25
262.872	77.25
263.105	73.25
263.337	80.25
263.57	87.25
263.802	89.25
264.035	84.25
264.267	71.25
264.499	73.25
264.732	62.25
264.964	76.25
265.197	75.25
265.429	69.25
265.661	73.25
265.894	89.25
266.126	75.25
266.358	70.25
266.591	81.25
266.823	66.25
267.055	71.25
267.287	91.25
267.52	74.25
267.752	78.25
267.984	87.25
268.216	58.25
268.448	87.25
268.681	79.25
268.913	78.25
269.145	75.25
269.377	72.25
269.609	68.25
269.841	71.25
270.073	75.25
270.306	85.25
270.538	90.25
270.77	80.25
271.002	70.25
271.234	70.25
271.466	91.25
271.698	83.25
271.93	92.25
272.162	83.25
272.394	69.25
272.626	70.25
272.858	81.25
273.09	84.25
273.322	85.25
273.553	88.25
273.785	76.25
274.017	83.25
274.249	88.25
274.481	79.25
274.713	75.25
274.945	78.25
275.176	87.25
275.408	83.25
275.64	79.25
275.872	73.25
276.104	85.25
276.335	83.25
276.567	72.25
276.799	67.25
277.031	81.25
277.262	75.25
277.494	77.25
277.726	73.25
277.957	87.25
278.189	91.25
278.421	75.25
278.652	76.25
278.884	97.25
279.115	91.25
279.347	82.25
279.579	76.25
279.81	83.25
280.042	81.25
280.273	79.25
280.505	83.25
280.736	67.25
280.968	74.25
281.199	94.25
281.431	66.25
281.662	84.25
281.894	71.25
282.125	88.25
282.356	80.25
282.588	83.25
282.819	81.25
283.051	85.25
283.282	89.25
283.513	85.25
283.745	75.25
283.976	70.25
284.207	79.25
284.439	86.25
284.67	78.25
284.901	71.25
285.132	82.25
285.364	74.25
285.595	68.25
285.826	86.25
286.057	89.25
286.288	90.25
286.52	90.25
286.751	89.25
286.982	83.25
287.213	83.25
287.444	80.25
287.675	97.25
287.906	84.25
288.138	80.25
288.369	97.25
288.6	59.25
288.831	82.25
289.062	79.25
289.293	77.25
289.524	78.25
289.755	97.25
289.986	85.25
290.217	81.25
290.448	77.25
290.679	96.25
290.91	79.25
291.141	93.25
291.371	93.25
291.602	90.25
291.833	71.25
292.064	75.25
292.295	74.25
292.526	81.25
292.757	87.25
292.987	88.25
293.218	69.25
293.449	73.25
293.68	93.25
293.91	81.25
294.141	94.25
294.372	85.25
294.603	79.25
294.833	76.25
295.064	89.25
295.295	85.25
295.525	78.25
295.756	87.25
295.987	78.25
296.217	96.25
296.448	74.25
296.679	86.25
296.909	72.25
297.14	72.25
297.37	84.25
297.601	91.25
297.831	86.25
298.062	85.25
298.292	81.25
298.523	85.25
298.753	83.25
298.984	91.25
299.214	80.25
299.445	88.25
299.675	75.25
299.905	76.25
300.136	59.25
300.366	91.25
300.597	82.25
300.827	92.25
301.057	87.25
301.288	85.25
301.518	69.25
301.748	101.25
301.979	93.25
302.209	85.25
302.439	90.25
302.669	70.25
302.9	65.25
303.13	91.25
303.36	88.25
303.59	88.25
303.82	81.25
304.051	83.25
304.281	79.25
304.511	88.25
304.741	97.25
304.971	82.25
305.201	79.25
305.431	89.25
305.661	82.25
305.891	91.25
306.121	89.25
306.352	92.25
306.582	79.25
306.812	85.25
307.042	78.25
307.272	98.25
307.502	84.25
307.731	82.25
307.961	77.25
308.191	83.25
308.421	81.25
308.651	84.25
308.881	82.25
309.111	84.25
309.341	68.25
309.571	75.25
309.8	79.25
310.03	85.25
310.26	84.25
310.49	76.25
310.72	71.25
310.949	78.25
311.179	103.25
311.409	96.25
311.639	93.25
311.868	84.25
312.098	91.25
312.328	97.25
312.557	82.25
312.787	84.25
313.017	89.25
313.246	95.25
313.476	92.25
313.706	75.25
313.935	92.25
314.165	94.25
314.394	81.25
314.624	85.25
314.853	101.25
315.083	84.25
315.312	69.25
315.542	96.25
315.771	71.25
316.001	87.25
316.23	78.25
316.46	79.25
316.689	92.25
316.919	73.25
317.148	86.25
317.377	72.25
317.607	90.25
317.836	97.25
318.065	80.25
318.295	96.25
318.524	83.25
318.753	65.25
318.983	93.25
319.212	79.25
319.441	88.25
319.67	100.25
319.9	88.25
320.129	80.25
320.358	80.25
320.587	79.25
320.816	77.25
321.046	77.25
321.275	81.25
321.504	96.25
321.733	89.25
321.962	90.25
322.191	91.25
322.42	90.25
322.649	92.25
322.878	95.25
323.108	86.25
323.337	73.25
323.566	67.25
323.795	85.25
324.024	74.25
324.253	78.25
324.482	79.25
324.71	81.25
324.939	74.25
325.168	87.25
325.397	86.25
325.626	91.25
325.855	82.25
326.084	87.25
326.313	85.25
326.542	95.25
326.77	75.25
326.999	90.25
327.228	77.25
327.457	92.25
327.686	94.25
327.914	103.25
328.143	93.25
328.372	71.25
328.6	75.25
328.829	101.25
329.058	86.25
329.287	78.25
329.515	92.25
329.744	107.25
329.972	76.25
330.201	77.25
330.43	73.25
330.658	75.25
330.887	71.25
331.115	82.25
331.344	91.25
331.572	77.25
331.801	93.25
332.03	84.25
332.258	78.25
332.486	78.25
332.715	90.25
332.943	74.25
333.172	89.25
333.4	84.25
333.629	70.25
333.857	83.25
334.085	87.25
334.314	94.25
334.542	83.25
334.771	92.25
334.999	87.25
335.227	83.25
335.455	88.25
335.684	95.25
335.912	89.25
336.14	88.25
336.369	91.25
336.597	81.25
336.825	90.25
337.053	81.25
337.281	83.25
337.51	89.25
337.738	96.25
337.966	79.25
338.194	67.25
338.422	88.25
338.65	84.25
338.878	78.25
339.106	93.25
339.334	88.25
339.562	104.25
339.79	82.25
340.018	92.25
340.246	89.25
340.474	73.25
340.702	79.25
340.93	91.25
341.158	75.25
341.386	79.25
341.614	78.25
341.842	88.25
342.07	84.25
342.298	87.25
342.526	77.25
342.754	77.25
342.981	96.25
343.209	90.25
343.437	92.25
343.665	87.25
343.893	81.25
344.12	87.25
344.348	90.25
344.576	88.25
344.804	95.25
345.031	85.25
345.259	89.25
345.487	73.25
345.714	86.25
345.942	64.25
346.17	83.25
346.397	91.25
346.625	83.25
346.853	77.25
347.08	73.25
347.308	83.25
347.535	71.25
347.763	80.25
347.99	88.25
348.218	84.25
348.445	79.25
348.673	85.25
348.9	92.25
349.128	89.25
349.355	73.25
349.583	87.25
349.81	72.25
350.037	84.25
350.265	81.25
350.492	92.25
350.72	70.25
350.947	99.25
351.174	85.25
351.402	96.25
351.629	83.25
351.856	91.25
352.083	80.25
352.311	85.25
352.538	85.25
352.765	89.25
352.992	97.25
353.22	81.25
353.447	63.25
353.674	81.25
353.901	84.25
354.128	75.25
354.355	70.25
354.583	76.25
354.81	82.25
355.037	83.25
355.264	81.25
355.491	92.25
355.718	70.25
355.945	75.25
356.172	85.25
356.399	87.25
356.626	79.25
356.853	73.25
357.08	79.25
357.307	97.25
357.534	75.25
357.761	84.25
357.988	85.25
358.215	71.25
358.441	92.25
358.668	92.25
358.895	83.25
359.122	84.25
359.349	79.25
359.576	70.25
359.802	82.25
360.029	87.25
360.256	87.25
360.483	76.25
360.709	80.25
360.936	88.25
361.163	71.25
361.39	96.25
361.616	92.25
361.843	76.25
362.07	85.25
362.296	75.25
362.523	90.25
362.749	91.25
362.976	89.25
363.203	77.25
363.429	94.25
363.656	70.25
363.882	90.25
364.109	84.25
364.335	79.25
364.562	77.25
364.788	83.25
365.015	80.25
365.241	83.25
365.468	75.25
365.694	89.25
365.92	76.25
366.147	76.25
366.373	69.25
366.599	77.25
366.826	88.25
367.052	80.25
367.278	75.25
367.505	83.25
367.731	84.25
367.957	100.25
368.184	76.25
368.41	70.25
368.636	87.25
368.862	87.25
369.089	73.25
369.315	66.25
369.541	81.25
369.767	83.25
369.993	77.25
370.219	92.25
370.445	70.25
370.672	87.25
370.898	75.25
371.124	83.25
371.35	77.25
371.576	87.25
371.802	85.25
372.028	77.25
372.254	83.25
372.48	73.25
372.706	87.25
372.932	79.25
373.158	85.25
373.384	78.25
373.61	84.25
373.835	80.25
374.061	59.25
374.287	77.25
374.513	67.25
374.739	84.25
374.965	98.25
375.191	96.25
375.416	73.25
375.642	77.25
375.868	84.25
376.094	84.25
376.319	80.25
376.545	77.25
376.771	92.25
376.997	89.25
377.222	85.25
377.448	80.25
377.674	89.25
377.899	76.25
378.125	92.25
378.35	77.25
378.576	76.25
378.802	73.25
379.027	75.25
379.253	76.25
379.478	74.25
379.704	100.25
379.929	73.25
380.155	88.25
380.38	82.25
380.606	85.25
380.831	85.25
381.057	89.25
381.282	67.25
381.507	88.25
381.733	80.25
381.958	79.25
382.184	76.25
382.409	89.25
382.634	75.25
382.86	77.25
383.085	84.25
383.31	82.25
383.535	80.25
383.761	78.25
383.986	77.25
384.211	76.25
384.436	85.25
384.662	70.25
384.887	88.25
385.112	75.25
385.337	77.25
385.562	86.25
385.787	79.25
386.013	79.25
386.238	91.25
386.463	93.25
386.688	74.25
386.913	66.25
387.138	89.25
387.363	79.25
387.588	86.25
387.813	100.25
388.038	88.25
388.263	68.25
388.488	92.25
388.713	87.25
388.938	74.25
389.163	86.25
389.387	82.25
389.612	72.25
389.837	85.25
390.062	83.25
390.287	79.25
390.512	75.25
390.736	74.25
390.961	84.25
391.186	76.25
391.411	75.25
391.636	81.25
391.86	81.25
392.085	76.25
392.31	68.25
392.534	84.25
392.759	87.25
392.984	79.25
393.208	85.25
393.433	87.25
393.658	82.25
393.882	85.25
394.107	86.25
394.331	74.25
394.556	93.25
394.78	85.25
395.005	77.25
395.229	85.25
395.454	81.25
395.678	83.25
395.903	79.25
396.127	87.25
396.352	67.25
396.576	73.25
396.801	84.25
397.025	77.25
397.249	80.25
397.474	69.25
397.698	73.25
397.922	73.25
398.147	91.25
398.371	69.25
398.595	85.25
398.82	75.25
399.044	76.25
399.268	84.25
399.492	89.25
399.717	91.25
399.941	83.25
400.165	80.25
400.389	84.25
400.613	96.25
400.837	75.25
401.062	71.25
401.286	89.25
401.51	90.25
401.734	90.25
401.958	85.25
402.182	83.25
402.406	81.25
402.63	76.25
402.854	75.25
403.078	83.25
403.302	78.25
403.526	75.25
403.75	78.25
403.974	75.25
404.198	76.25
404.422	85.25
404.645	81.25
404.869	77.25
405.093	69.25
405.317	75.25
405.541	81.25
405.765	84.25
405.988	77.25
406.212	79.25
406.436	69.25
406.66	92.25
406.883	83.25
407.107	72.25
407.331	72.25
407.555	87.25
407.778	76.25
408.002	85.25
408.226	85.25
408.449	77.25
408.673	69.25
408.896	76.25
409.12	85.25
409.344	105.25
409.567	78.25
409.791	63.25
410.014	86.25
410.238	73.25
410.461	85.25
410.685	84.25
410.908	72.25
411.132	67.25
411.355	75.25
411.578	88.25
411.802	66.25
412.025	76.25
412.249	77.25
412.472	89.25
412.695	80.25
412.919	84.25
413.142	82.25
413.365	80.25
413.589	87.25
413.812	70.25
414.035	93.25
414.258	87.25
414.482	58.25
414.705	81.25
414.928	75.25
415.151	63.25
415.374	83.25
415.597	76.25
415.821	68.25
416.044	77.25
416.267	65.25
416.49	76.25
416.713	86.25
416.936	96.25
417.159	81.25
417.382	75.25
417.605	84.25
417.828	74.25
418.051	89.25
418.274	79.25
418.497	87.25
418.72	66.25
418.943	71.25
419.166	83.25
419.389	80.25
419.611	83.25
419.834	75.25
420.057	81.25
420.28	89.25
420.503	80.25
420.726	85.25
420.948	61.25
421.171	81.25
421.394	73.25
421.617	76.25
421.839	77.25
422.062	80.25
422.285	70.25
422.507	66.25
422.73	72.25
422.953	67.25
423.175	80.25
423.398	93.25
423.621	70.25
423.843	82.25
424.066	82.25
424.288	91.25
424.511	95.25
424.733	68.25
424.956	65.25
425.178	84.25
425.401	75.25
425.623	82.25
425.846	75.25
426.068	82.25
426.291	78.25
426.513	90.25
426.735	78.25
426.958	79.25
427.18	76.25
427.402	77.25
427.625	93.25
427.847	75.25
428.069	97.25
428.292	82.25
428.514	92.25
428.736	83.25
428.958	66.25
429.181	90.25
429.403	83.25
429.625	77.25
429.847	72.25
430.069	85.25
430.292	72.25
430.514	75.25
430.736	77.25
430.958	81.25
431.18	71.25
431.402	79.25
431.624	77.25
431.846	91.25
432.068	83.25
432.29	68.25
432.512	75.25
432.734	65.25
432.956	75.25
433.178	71.25
433.4	88.25
433.622	74.25
433.844	87.25
434.066	82.25
434.287	60.25
434.509	70.25
434.731	95.25
434.953	77.25
435.175	77.25
435.397	76.25
435.618	74.25
435.84	78.25
436.062	80.25
436.284	72.25
436.505	77.25
436.727	77.25
436.949	75.25
437.17	72.25
437.392	81.25
437.614	76.25
437.835	77.25
438.057	86.25
438.278	75.25
438.5	75.25
438.721	69.25
438.943	76.25
439.165	77.25
439.386	87.25
439.608	89.25
439.829	73.25
440.05	82.25
440.272	69.25
440.493	84.25
440.715	81.25
440.936	81.25
441.158	71.25
441.379	68.25
441.6	90.25
441.822	59.25
442.043	77.25
442.264	80.25
442.486	85.25
442.707	83.25
442.928	70.25
443.149	92.25
443.371	79.25
443.592	76.25
443.813	80.25
444.034	86.25
444.255	89.25
444.476	88.25
444.698	85.25
444.919	73.25
445.14	153.25
445.361	116.25
445.582	84.25
445.803	81.25
446.024	80.25
446.245	84.25
446.466	66.25
446.687	84.25
446.908	88.25
447.129	75.25
447.35	64.25
447.571	71.25
447.792	93.25
448.013	89.25
448.234	78.25
448.455	71.25
448.675	85.25
448.896	82.25
449.117	79.25
449.338	70.25
449.559	90.25
449.779	69.25
450	73.25
450.221	79.25
450.442	80.25
450.662	70.25
450.883	81.25
451.104	79.25
451.324	71.25
451.545	72.25
451.766	73.25
451.986	77.25
452.207	89.25
452.428	88.25
452.648	90.25
452.869	83.25
453.089	82.25
453.31	78.25
453.53	82.25
453.751	68.25
453.971	86.25
454.192	87.25
454.412	79.25
454.633	89.25
454.853	79.25
455.073	75.25
455.294	76.25
455.514	89.25
455.734	80.25
455.955	78.25
456.175	76.25
456.395	89.25
456.616	82.25
456.836	83.25
457.056	91.25
457.276	61.25
457.497	83.25
457.717	84.25
457.937	65.25
458.157	72.25
458.377	72.25
458.598	90.25
458.818	77.25
459.038	79.25
459.258	65.25
459.478	75.25
459.698	69.25
459.918	74.25
460.138	72.25
460.358	75.25
460.578	84.25
460.798	81.25
461.018	92.25
461.238	75.25
461.458	85.25
461.678	81.25
461.898	81.25
462.118	77.25
462.338	82.25
462.558	79.25
462.777	77.25
462.997	83.25
463.217	91.25
463.437	79.25
463.657	81.25
463.876	75.25
464.096	68.25
464.316	88.25
464.536	83.25
464.755	91.25
464.975	75.25
465.195	73.25
465.414	82.25
465.634	77.25
465.854	89.25
466.073	81.25
466.293	81.25
466.512	73.25
466.732	77.25
466.951	86.25
467.171	79.25
467.391	75.25
467.61	87.25
467.829	68.25
468.049	100.25
468.268	85.25
468.488	80.25
468.707	50.25
468.927	75.25
469.146	82.25
469.365	88.25
469.585	75.25
469.804	80.25
470.023	71.25
470.243	80.25
470.462	73.25
470.681	86.25
470.901	90.25
471.12	83.25
471.339	84.25
471.558	75.25
471.777	77.25
471.997	80.25
472.216	75.25
472.435	77.25
472.654	78.25
472.873	70.25
473.092	77.25
473.311	96.25
473.53	89.25
473.749	84.25
473.968	92.25
474.187	91.25
474.406	80.25
474.625	65.25
474.844	72.25
475.063	76.25
475.282	87.25
475.501	85.25
475.72	81.25
475.939	73.25
476.158	80.25
476.377	80.25
476.596	81.25
476.814	90.25
477.033	88.25
477.252	90.25
477.471	85.25
477.69	78.25
477.908	85.25
478.127	84.25
478.346	72.25
478.564	75.25
478.783	72.25
479.002	74.25
479.22	89.25
479.439	88.25
479.658	80.25
479.876	82.25
480.095	83.25
480.313	90.25
480.532	69.25
480.751	67.25
480.969	72.25
481.188	71.25
481.406	80.25
481.624	87.25
481.843	83.25
482.061	84.25
482.28	74.25
482.498	69.25
482.717	69.25
482.935	99.25
483.153	87.25
483.372	66.25
483.59	76.25
483.808	77.25
484.027	91.25
484.245	77.25
484.463	81.25
484.681	73.25
484.9	86.25
485.118	80.25
485.336	85.25
485.554	73.25
485.772	57.25
485.99	70.25
486.209	81.25
486.427	72.25
486.645	75.25
486.863	87.25
487.081	79.25
487.299	72.25
487.517	84.25
487.735	73.25
487.953	84.25
488.171	82.25
488.389	70.25
488.607	70.25
488.825	92.25
489.043	91.25
489.261	81.25
489.479	78.25
489.696	67.25
489.914	81.25
490.132	85.25
490.35	80.25
490.568	73.25
490.786	78.25
491.003	73.25
491.221	80.25
491.439	87.25
491.657	74.25
491.874	75.25
492.092	82.25
492.31	75.25
492.527	88.25
492.745	67.25
492.963	89.25
493.18	97.25
493.398	86.25
493.615	69.25
493.833	90.25
494.05	85.25
494.268	96.25
494.485	79.25
494.703	83.25
494.92	70.25
495.138	74.25
495.355	88.25
495.573	75.25
495.79	71.25
496.008	74.25
496.225	89.25
496.442	63.25
496.66	84.25
496.877	87.25
497.094	79.25
497.312	83.25
497.529	64.25
497.746	70.25
497.963	103.25
498.181	81.25
498.398	76.25
498.615	76.25
498.832	72.25
499.049	81.25
499.267	72.25
499.484	70.25
499.701	80.25
499.918	75.25
500.135	81.25
500.352	69.25
500.569	79.25
500.786	89.25
501.003	84.25
501.22	74.25
501.437	71.25
501.654	78.25
501.871	81.25
502.088	68.25
502.305	89.25
502.522	77.25
502.739	67.25
502.956	59.25
503.172	82.25
503.389	83.25
503.606	68.25
503.823	87.25
504.04	83.25
504.256	79.25
504.473	70.25
504.69	87.25
504.907	99.25
505.123	96.25
505.34	88.25
505.557	73.25
505.773	83.25
505.99	82.25
506.207	84.25
506.423	86.25
506.64	95.25
506.856	75.25
507.073	79.25
507.289	80.25
507.506	93.25
507.722	92.25
507.939	81.25
508.155	86.25
508.372	73.25
508.588	81.25
508.805	80.25
509.021	76.25
509.238	78.25
509.454	86.25
509.67	78.25
509.887	84.25
510.103	84.25
510.319	85.25
510.536	96.25
510.752	76.25
510.968	68.25
511.184	79.25
511.401	78.25
511.617	83.25
511.833	81.25
512.049	71.25
512.265	72.25
512.481	74.25
512.698	80.25
512.914	88.25
513.13	86.25
513.346	85.25
513.562	90.25
513.778	83.25
513.994	91.25
514.21	82.25
514.426	89.25
514.642	79.25
514.858	74.25
515.074	83.25
515.29	96.25
515.506	91.25
515.721	82.25
515.937	80.25
516.153	83.25
516.369	88.25
516.585	84.25
516.801	68.25
517.016	75.25
517.232	77.25
517.448	76.25
517.664	74.25
517.879	74.25
518.095	76.25
518.311	78.25
518.527	92.25
518.742	88.25
518.958	83.25
519.173	81.25
519.389	85.25
519.605	82.25
519.82	67.25
520.036	75.25
