Data from Background_3_HRD10591_00042.txt Node
Date: Wed Nov 05 14:49:40 EST 2025
User: Yrep
Spectrometer: HR+D1059
Trigger mode: 1
Integration Time (sec): 1.000000E-1
Scans to average: 1
Electric dark correction enabled: true
Nonlinearity correction enabled: false
Boxcar width: 0
XAxis mode: Wavelengths
Number of Pixels in Spectrum: 2048
>>>>>Begin Spectral Data<<<<<
223.165	-25.25
223.4	-25.25
223.635	-25.25
223.869	-9.25
224.104	-14.25
224.338	-26.25
224.573	2.75
224.808	-25.25
225.042	1.75
225.277	-6.25
225.511	-1.25
225.746	9.75
225.98	6.75
226.215	12.75
226.449	9.75
226.683	18.75
226.918	15.75
227.152	29.75
227.387	39.75
227.621	46.75
227.856	44.75
228.09	48.75
228.324	45.75
228.559	63.75
228.793	63.75
229.027	74.75
229.262	67.75
229.496	59.75
229.73	66.75
229.964	61.75
230.199	68.75
230.433	81.75
230.667	78.75
230.901	61.75
231.136	75.75
231.37	71.75
231.604	92.75
231.838	65.75
232.072	73.75
232.306	88.75
232.541	80.75
232.775	92.75
233.009	80.75
233.243	82.75
233.477	93.75
233.711	92.75
233.945	81.75
234.179	87.75
234.413	82.75
234.647	83.75
234.881	80.75
235.115	80.75
235.349	85.75
235.583	71.75
235.817	72.75
236.051	66.75
236.285	80.75
236.519	75.75
236.753	68.75
236.987	64.75
237.221	79.75
237.455	80.75
237.689	67.75
237.922	77.75
238.156	70.75
238.39	81.75
238.624	75.75
238.858	71.75
239.091	78.75
239.325	84.75
239.559	77.75
239.793	71.75
240.027	94.75
240.26	80.75
240.494	75.75
240.728	79.75
240.961	93.75
241.195	77.75
241.429	81.75
241.662	82.75
241.896	82.75
242.13	92.75
242.363	83.75
242.597	78.75
242.83	70.75
243.064	77.75
243.298	70.75
243.531	78.75
243.765	72.75
243.998	88.75
244.232	86.75
244.465	95.75
244.699	85.75
244.932	76.75
245.166	74.75
245.399	79.75
245.633	76.75
245.866	92.75
246.099	84.75
246.333	85.75
246.566	79.75
246.8	77.75
247.033	82.75
247.266	77.75
247.5	78.75
247.733	88.75
247.966	75.75
248.2	75.75
248.433	88.75
248.666	86.75
248.899	77.75
249.133	74.75
249.366	76.75
249.599	75.75
249.832	79.75
250.066	87.75
250.299	82.75
250.532	78.75
250.765	93.75
250.998	79.75
251.231	84.75
251.465	81.75
251.698	82.75
251.931	70.75
252.164	70.75
252.397	90.75
252.63	77.75
252.863	86.75
253.096	83.75
253.329	73.75
253.562	83.75
253.795	88.75
254.028	87.75
254.261	69.75
254.494	87.75
254.727	88.75
254.96	75.75
255.193	78.75
255.426	81.75
255.659	80.75
255.892	94.75
256.124	78.75
256.357	74.75
256.59	77.75
256.823	75.75
257.056	89.75
257.289	90.75
257.521	86.75
257.754	66.75
257.987	73.75
258.22	89.75
258.452	66.75
258.685	61.75
258.918	99.75
259.151	64.75
259.383	84.75
259.616	76.75
259.849	81.75
260.081	72.75
260.314	73.75
260.547	76.75
260.779	83.75
261.012	83.75
261.244	85.75
261.477	92.75
261.71	69.75
261.942	84.75
262.175	94.75
262.407	80.75
262.64	84.75
262.872	98.75
263.105	78.75
263.337	99.75
263.57	81.75
263.802	64.75
264.035	89.75
264.267	73.75
264.499	87.75
264.732	86.75
264.964	84.75
265.197	72.75
265.429	88.75
265.661	77.75
265.894	74.75
266.126	89.75
266.358	99.75
266.591	90.75
266.823	91.75
267.055	92.75
267.287	90.75
267.52	78.75
267.752	78.75
267.984	73.75
268.216	82.75
268.448	74.75
268.681	77.75
268.913	70.75
269.145	84.75
269.377	87.75
269.609	84.75
269.841	82.75
270.073	82.75
270.306	94.75
270.538	85.75
270.77	82.75
271.002	96.75
271.234	79.75
271.466	75.75
271.698	77.75
271.93	89.75
272.162	81.75
272.394	88.75
272.626	57.75
272.858	77.75
273.09	92.75
273.322	96.75
273.553	83.75
273.785	78.75
274.017	82.75
274.249	77.75
274.481	92.75
274.713	88.75
274.945	87.75
275.176	86.75
275.408	86.75
275.64	95.75
275.872	84.75
276.104	75.75
276.335	92.75
276.567	84.75
276.799	64.75
277.031	90.75
277.262	83.75
277.494	87.75
277.726	86.75
277.957	82.75
278.189	87.75
278.421	84.75
278.652	78.75
278.884	82.75
279.115	84.75
279.347	75.75
279.579	84.75
279.81	98.75
280.042	76.75
280.273	70.75
280.505	84.75
280.736	83.75
280.968	77.75
281.199	80.75
281.431	82.75
281.662	96.75
281.894	86.75
282.125	85.75
282.356	94.75
282.588	80.75
282.819	94.75
283.051	90.75
283.282	88.75
283.513	97.75
283.745	71.75
283.976	92.75
284.207	96.75
284.439	85.75
284.67	81.75
284.901	83.75
285.132	86.75
285.364	92.75
285.595	94.75
285.826	71.75
286.057	87.75
286.288	94.75
286.52	89.75
286.751	83.75
286.982	85.75
287.213	80.75
287.444	87.75
287.675	85.75
287.906	85.75
288.138	101.75
288.369	87.75
288.6	82.75
288.831	78.75
289.062	94.75
289.293	87.75
289.524	76.75
289.755	86.75
289.986	82.75
290.217	79.75
290.448	90.75
290.679	80.75
290.91	88.75
291.141	90.75
291.371	82.75
291.602	82.75
291.833	87.75
292.064	80.75
292.295	92.75
292.526	89.75
292.757	80.75
292.987	97.75
293.218	86.75
293.449	82.75
293.68	92.75
293.91	90.75
294.141	89.75
294.372	93.75
294.603	78.75
294.833	82.75
295.064	101.75
295.295	80.75
295.525	85.75
295.756	102.75
295.987	85.75
296.217	85.75
296.448	103.75
296.679	86.75
296.909	80.75
297.14	78.75
297.37	84.75
297.601	87.75
297.831	72.75
298.062	98.75
298.292	87.75
298.523	88.75
298.753	93.75
298.984	80.75
299.214	97.75
299.445	80.75
299.675	94.75
299.905	88.75
300.136	79.75
300.366	84.75
300.597	96.75
300.827	88.75
301.057	79.75
301.288	91.75
301.518	95.75
301.748	94.75
301.979	97.75
302.209	91.75
302.439	89.75
302.669	86.75
302.9	73.75
303.13	86.75
303.36	95.75
303.59	87.75
303.82	96.75
304.051	86.75
304.281	77.75
304.511	92.75
304.741	88.75
304.971	73.75
305.201	84.75
305.431	86.75
305.661	82.75
305.891	87.75
306.121	90.75
306.352	89.75
306.582	82.75
306.812	81.75
307.042	79.75
307.272	89.75
307.502	75.75
307.731	82.75
307.961	82.75
308.191	100.75
308.421	81.75
308.651	91.75
308.881	99.75
309.111	102.75
309.341	90.75
309.571	94.75
309.8	87.75
310.03	81.75
310.26	95.75
310.49	99.75
310.72	79.75
310.949	102.75
311.179	85.75
311.409	73.75
311.639	90.75
311.868	94.75
312.098	85.75
312.328	76.75
312.557	88.75
312.787	79.75
313.017	98.75
313.246	96.75
313.476	84.75
313.706	79.75
313.935	84.75
314.165	70.75
314.394	100.75
314.624	89.75
314.853	93.75
315.083	86.75
315.312	85.75
315.542	80.75
315.771	111.75
316.001	87.75
316.23	78.75
316.46	96.75
316.689	87.75
316.919	79.75
317.148	88.75
317.377	87.75
317.607	86.75
317.836	84.75
318.065	94.75
318.295	87.75
318.524	90.75
318.753	90.75
318.983	89.75
319.212	80.75
319.441	94.75
319.67	98.75
319.9	81.75
320.129	86.75
320.358	87.75
320.587	80.75
320.816	86.75
321.046	90.75
321.275	100.75
321.504	100.75
321.733	103.75
321.962	82.75
322.191	93.75
322.42	66.75
322.649	82.75
322.878	87.75
323.108	82.75
323.337	85.75
323.566	79.75
323.795	79.75
324.024	85.75
324.253	84.75
324.482	86.75
324.71	88.75
324.939	90.75
325.168	80.75
325.397	82.75
325.626	86.75
325.855	71.75
326.084	92.75
326.313	94.75
326.542	84.75
326.77	82.75
326.999	70.75
327.228	92.75
327.457	90.75
327.686	90.75
327.914	74.75
328.143	94.75
328.372	79.75
328.6	80.75
328.829	80.75
329.058	71.75
329.287	80.75
329.515	98.75
329.744	97.75
329.972	97.75
330.201	88.75
330.43	92.75
330.658	74.75
330.887	89.75
331.115	96.75
331.344	78.75
331.572	85.75
331.801	82.75
332.03	83.75
332.258	102.75
332.486	89.75
332.715	81.75
332.943	94.75
333.172	94.75
333.4	97.75
333.629	101.75
333.857	96.75
334.085	82.75
334.314	84.75
334.542	96.75
334.771	81.75
334.999	83.75
335.227	80.75
335.455	90.75
335.684	82.75
335.912	93.75
336.14	90.75
336.369	85.75
336.597	93.75
336.825	84.75
337.053	78.75
337.281	102.75
337.51	80.75
337.738	100.75
337.966	92.75
338.194	84.75
338.422	77.75
338.65	74.75
338.878	79.75
339.106	75.75
339.334	84.75
339.562	86.75
339.79	89.75
340.018	83.75
340.246	99.75
340.474	85.75
340.702	85.75
340.93	88.75
341.158	90.75
341.386	74.75
341.614	78.75
341.842	89.75
342.07	87.75
342.298	82.75
342.526	80.75
342.754	86.75
342.981	88.75
343.209	89.75
343.437	94.75
343.665	80.75
343.893	88.75
344.12	88.75
344.348	91.75
344.576	84.75
344.804	96.75
345.031	101.75
345.259	81.75
345.487	79.75
345.714	86.75
345.942	96.75
346.17	94.75
346.397	86.75
346.625	80.75
346.853	81.75
347.08	83.75
347.308	97.75
347.535	86.75
347.763	82.75
347.99	80.75
348.218	84.75
348.445	90.75
348.673	80.75
348.9	74.75
349.128	74.75
349.355	85.75
349.583	92.75
349.81	92.75
350.037	96.75
350.265	85.75
350.492	98.75
350.72	80.75
350.947	81.75
351.174	87.75
351.402	92.75
351.629	88.75
351.856	79.75
352.083	74.75
352.311	85.75
352.538	83.75
352.765	84.75
352.992	93.75
353.22	79.75
353.447	95.75
353.674	91.75
353.901	80.75
354.128	84.75
354.355	80.75
354.583	93.75
354.81	98.75
355.037	87.75
355.264	89.75
355.491	81.75
355.718	102.75
355.945	96.75
356.172	80.75
356.399	73.75
356.626	94.75
356.853	103.75
357.08	91.75
357.307	92.75
357.534	90.75
357.761	100.75
357.988	76.75
358.215	92.75
358.441	78.75
358.668	84.75
358.895	96.75
359.122	82.75
359.349	88.75
359.576	90.75
359.802	84.75
360.029	89.75
360.256	77.75
360.483	86.75
360.709	92.75
360.936	98.75
361.163	79.75
361.39	84.75
361.616	93.75
361.843	88.75
362.07	96.75
362.296	92.75
362.523	73.75
362.749	86.75
362.976	93.75
363.203	84.75
363.429	79.75
363.656	88.75
363.882	94.75
364.109	90.75
364.335	86.75
364.562	89.75
364.788	77.75
365.015	93.75
365.241	92.75
365.468	94.75
365.694	98.75
365.92	75.75
366.147	80.75
366.373	79.75
366.599	89.75
366.826	83.75
367.052	80.75
367.278	103.75
367.505	95.75
367.731	95.75
367.957	89.75
368.184	76.75
368.41	90.75
368.636	82.75
368.862	80.75
369.089	93.75
369.315	80.75
369.541	93.75
369.767	90.75
369.993	76.75
370.219	80.75
370.445	80.75
370.672	102.75
370.898	87.75
371.124	84.75
371.35	81.75
371.576	89.75
371.802	86.75
372.028	85.75
372.254	76.75
372.48	95.75
372.706	89.75
372.932	86.75
373.158	88.75
373.384	80.75
373.61	90.75
373.835	89.75
374.061	76.75
374.287	94.75
374.513	89.75
374.739	90.75
374.965	95.75
375.191	89.75
375.416	76.75
375.642	96.75
375.868	74.75
376.094	90.75
376.319	78.75
376.545	92.75
376.771	81.75
376.997	68.75
377.222	98.75
377.448	81.75
377.674	89.75
377.899	82.75
378.125	87.75
378.35	74.75
378.576	82.75
378.802	80.75
379.027	87.75
379.253	94.75
379.478	90.75
379.704	77.75
379.929	85.75
380.155	89.75
380.38	87.75
380.606	88.75
380.831	72.75
381.057	93.75
381.282	102.75
381.507	82.75
381.733	85.75
381.958	81.75
382.184	75.75
382.409	80.75
382.634	88.75
382.86	84.75
383.085	82.75
383.31	97.75
383.535	95.75
383.761	97.75
383.986	68.75
384.211	66.75
384.436	85.75
384.662	84.75
384.887	84.75
385.112	82.75
385.337	91.75
385.562	85.75
385.787	90.75
386.013	98.75
386.238	90.75
386.463	84.75
386.688	88.75
386.913	85.75
387.138	92.75
387.363	82.75
387.588	72.75
387.813	83.75
388.038	77.75
388.263	86.75
388.488	77.75
388.713	86.75
388.938	79.75
389.163	87.75
389.387	80.75
389.612	81.75
389.837	72.75
390.062	80.75
390.287	84.75
390.512	119.75
390.736	92.75
390.961	85.75
391.186	79.75
391.411	92.75
391.636	84.75
391.86	87.75
392.085	71.75
392.31	73.75
392.534	79.75
392.759	85.75
392.984	78.75
393.208	73.75
393.433	86.75
393.658	82.75
393.882	79.75
394.107	82.75
394.331	72.75
394.556	73.75
394.78	86.75
395.005	108.75
395.229	84.75
395.454	86.75
395.678	85.75
395.903	77.75
396.127	88.75
396.352	80.75
396.576	73.75
396.801	82.75
397.025	96.75
397.249	79.75
397.474	77.75
397.698	79.75
397.922	81.75
398.147	85.75
398.371	80.75
398.595	84.75
398.82	74.75
399.044	79.75
399.268	70.75
399.492	84.75
399.717	88.75
399.941	92.75
400.165	83.75
400.389	96.75
400.613	81.75
400.837	71.75
401.062	79.75
401.286	73.75
401.51	86.75
401.734	82.75
401.958	88.75
402.182	75.75
402.406	80.75
402.63	86.75
402.854	96.75
403.078	96.75
403.302	82.75
403.526	92.75
403.75	80.75
403.974	89.75
404.198	101.75
404.422	78.75
404.645	65.75
404.869	76.75
405.093	84.75
405.317	88.75
405.541	82.75
405.765	74.75
405.988	96.75
406.212	84.75
406.436	80.75
406.66	87.75
406.883	94.75
407.107	92.75
407.331	90.75
407.555	89.75
407.778	82.75
408.002	75.75
408.226	87.75
408.449	97.75
408.673	81.75
408.896	83.75
409.12	80.75
409.344	88.75
409.567	95.75
409.791	86.75
410.014	77.75
410.238	74.75
410.461	80.75
410.685	96.75
410.908	93.75
411.132	85.75
411.355	70.75
411.578	81.75
411.802	82.75
412.025	78.75
412.249	76.75
412.472	71.75
412.695	88.75
412.919	70.75
413.142	87.75
413.365	84.75
413.589	80.75
413.812	86.75
414.035	84.75
414.258	88.75
414.482	88.75
414.705	94.75
414.928	94.75
415.151	98.75
415.374	81.75
415.597	92.75
415.821	80.75
416.044	77.75
416.267	68.75
416.49	89.75
416.713	63.75
416.936	92.75
417.159	81.75
417.382	82.75
417.605	86.75
417.828	74.75
418.051	77.75
418.274	96.75
418.497	81.75
418.72	89.75
418.943	87.75
419.166	89.75
419.389	77.75
419.611	92.75
419.834	72.75
420.057	82.75
420.28	82.75
420.503	70.75
420.726	81.75
420.948	83.75
421.171	75.75
421.394	86.75
421.617	92.75
421.839	82.75
422.062	79.75
422.285	84.75
422.507	71.75
422.73	68.75
422.953	78.75
423.175	88.75
423.398	88.75
423.621	81.75
423.843	75.75
424.066	67.75
424.288	76.75
424.511	74.75
424.733	76.75
424.956	74.75
425.178	77.75
425.401	74.75
425.623	83.75
425.846	74.75
426.068	74.75
426.291	86.75
426.513	81.75
426.735	71.75
426.958	79.75
427.18	80.75
427.402	89.75
427.625	79.75
427.847	73.75
428.069	69.75
428.292	93.75
428.514	81.75
428.736	71.75
428.958	82.75
429.181	76.75
429.403	71.75
429.625	76.75
429.847	76.75
430.069	84.75
430.292	93.75
430.514	84.75
430.736	93.75
430.958	82.75
431.18	73.75
431.402	84.75
431.624	95.75
431.846	69.75
432.068	76.75
432.29	76.75
432.512	91.75
432.734	82.75
432.956	87.75
433.178	96.75
433.4	79.75
433.622	95.75
433.844	70.75
434.066	84.75
434.287	84.75
434.509	77.75
434.731	74.75
434.953	82.75
435.175	86.75
435.397	77.75
435.618	85.75
435.84	74.75
436.062	89.75
436.284	75.75
436.505	69.75
436.727	72.75
436.949	78.75
437.17	75.75
437.392	81.75
437.614	76.75
437.835	80.75
438.057	75.75
438.278	86.75
438.5	69.75
438.721	75.75
438.943	73.75
439.165	79.75
439.386	84.75
439.608	87.75
439.829	77.75
440.05	88.75
440.272	94.75
440.493	76.75
440.715	74.75
440.936	80.75
441.158	66.75
441.379	73.75
441.6	76.75
441.822	90.75
442.043	78.75
442.264	85.75
442.486	77.75
442.707	80.75
442.928	84.75
443.149	81.75
443.371	83.75
443.592	94.75
443.813	76.75
444.034	81.75
444.255	85.75
444.476	80.75
444.698	74.75
444.919	87.75
445.14	142.75
445.361	111.75
445.582	88.75
445.803	82.75
446.024	68.75
446.245	86.75
446.466	84.75
446.687	77.75
446.908	77.75
447.129	75.75
447.35	90.75
447.571	75.75
447.792	92.75
448.013	89.75
448.234	86.75
448.455	67.75
448.675	102.75
448.896	68.75
449.117	83.75
449.338	75.75
449.559	73.75
449.779	80.75
450	73.75
450.221	86.75
450.442	79.75
450.662	75.75
450.883	83.75
451.104	92.75
451.324	89.75
451.545	81.75
451.766	83.75
451.986	89.75
452.207	91.75
452.428	70.75
452.648	81.75
452.869	90.75
453.089	94.75
453.31	74.75
453.53	84.75
453.751	71.75
453.971	73.75
454.192	85.75
454.412	84.75
454.633	90.75
454.853	78.75
455.073	64.75
455.294	84.75
455.514	78.75
455.734	79.75
455.955	81.75
456.175	87.75
456.395	85.75
456.616	83.75
456.836	68.75
457.056	73.75
457.276	81.75
457.497	81.75
457.717	84.75
457.937	76.75
458.157	80.75
458.377	91.75
458.598	87.75
458.818	66.75
459.038	75.75
459.258	76.75
459.478	81.75
459.698	82.75
459.918	90.75
460.138	82.75
460.358	85.75
460.578	71.75
460.798	81.75
461.018	87.75
461.238	74.75
461.458	73.75
461.678	87.75
461.898	90.75
462.118	85.75
462.338	93.75
462.558	82.75
462.777	72.75
462.997	84.75
463.217	82.75
463.437	83.75
463.657	84.75
463.876	90.75
464.096	94.75
464.316	89.75
464.536	74.75
464.755	94.75
464.975	82.75
465.195	85.75
465.414	88.75
465.634	85.75
465.854	94.75
466.073	83.75
466.293	83.75
466.512	92.75
466.732	73.75
466.951	78.75
467.171	76.75
467.391	80.75
467.61	85.75
467.829	87.75
468.049	68.75
468.268	73.75
468.488	78.75
468.707	90.75
468.927	86.75
469.146	83.75
469.365	88.75
469.585	81.75
469.804	77.75
470.023	86.75
470.243	79.75
470.462	74.75
470.681	79.75
470.901	80.75
471.12	90.75
471.339	81.75
471.558	79.75
471.777	77.75
471.997	78.75
472.216	63.75
472.435	80.75
472.654	86.75
472.873	94.75
473.092	81.75
473.311	97.75
473.53	91.75
473.749	97.75
473.968	79.75
474.187	75.75
474.406	86.75
474.625	81.75
474.844	78.75
475.063	86.75
475.282	85.75
475.501	81.75
475.72	83.75
475.939	86.75
476.158	84.75
476.377	72.75
476.596	75.75
476.814	78.75
477.033	81.75
477.252	98.75
477.471	85.75
477.69	82.75
477.908	83.75
478.127	78.75
478.346	78.75
478.564	77.75
478.783	78.75
479.002	79.75
479.22	68.75
479.439	78.75
479.658	80.75
479.876	80.75
480.095	80.75
480.313	97.75
480.532	78.75
480.751	104.75
480.969	76.75
481.188	82.75
481.406	85.75
481.624	84.75
481.843	81.75
482.061	69.75
482.28	86.75
482.498	92.75
482.717	89.75
482.935	78.75
483.153	86.75
483.372	81.75
483.59	84.75
483.808	72.75
484.027	78.75
484.245	104.75
484.463	90.75
484.681	92.75
484.9	81.75
485.118	79.75
485.336	101.75
485.554	77.75
485.772	80.75
485.99	81.75
486.209	81.75
486.427	75.75
486.645	82.75
486.863	74.75
487.081	73.75
487.299	72.75
487.517	68.75
487.735	84.75
487.953	72.75
488.171	101.75
488.389	86.75
488.607	87.75
488.825	74.75
489.043	80.75
489.261	88.75
489.479	93.75
489.696	84.75
489.914	76.75
490.132	82.75
490.35	85.75
490.568	75.75
490.786	86.75
491.003	78.75
491.221	73.75
491.439	77.75
491.657	82.75
491.874	80.75
492.092	81.75
492.31	88.75
492.527	74.75
492.745	86.75
492.963	73.75
493.18	76.75
493.398	85.75
493.615	95.75
493.833	90.75
494.05	74.75
494.268	70.75
494.485	75.75
494.703	88.75
494.92	71.75
495.138	89.75
495.355	104.75
495.573	78.75
495.79	86.75
496.008	84.75
496.225	92.75
496.442	85.75
496.66	100.75
496.877	112.75
497.094	91.75
497.312	76.75
497.529	86.75
497.746	81.75
497.963	85.75
498.181	92.75
498.398	88.75
498.615	78.75
498.832	82.75
499.049	88.75
499.267	95.75
499.484	80.75
499.701	84.75
499.918	102.75
500.135	83.75
500.352	88.75
500.569	85.75
500.786	82.75
501.003	73.75
501.22	80.75
501.437	81.75
501.654	84.75
501.871	88.75
502.088	79.75
502.305	86.75
502.522	82.75
502.739	87.75
502.956	74.75
503.172	85.75
503.389	74.75
503.606	86.75
503.823	84.75
504.04	74.75
504.256	82.75
504.473	88.75
504.69	89.75
504.907	95.75
505.123	88.75
505.34	94.75
505.557	90.75
505.773	83.75
505.99	69.75
506.207	81.75
506.423	89.75
506.64	87.75
506.856	92.75
507.073	93.75
507.289	79.75
507.506	84.75
507.722	80.75
507.939	81.75
508.155	85.75
508.372	73.75
508.588	85.75
508.805	89.75
509.021	91.75
509.238	63.75
509.454	77.75
509.67	88.75
509.887	81.75
510.103	92.75
510.319	82.75
510.536	88.75
510.752	85.75
510.968	63.75
511.184	77.75
511.401	86.75
511.617	93.75
511.833	88.75
512.049	85.75
512.265	62.75
512.481	77.75
512.698	84.75
512.914	85.75
513.13	84.75
513.346	86.75
513.562	82.75
513.778	85.75
513.994	85.75
514.21	66.75
514.426	81.75
514.642	91.75
514.858	88.75
515.074	88.75
515.29	77.75
515.506	84.75
515.721	78.75
515.937	80.75
516.153	90.75
516.369	101.75
516.585	78.75
516.801	89.75
517.016	77.75
517.232	71.75
517.448	80.75
517.664	75.75
517.879	86.75
518.095	92.75
518.311	84.75
518.527	78.75
518.742	96.75
518.958	87.75
519.173	83.75
519.389	96.75
519.605	83.75
519.82	90.75
