Data from Background_3_HRD10591_00077.txt Node
Date: Wed Nov 05 14:49:58 EST 2025
User: Yrep
Spectrometer: HR+D1059
Trigger mode: 1
Integration Time (sec): 1.000000E-1
Scans to average: 1
Electric dark correction enabled: true
Nonlinearity correction enabled: false
Boxcar width: 0
XAxis mode: Wavelengths
Number of Pixels in Spectrum: 2048
>>>>>Begin Spectral Data<<<<<
223.165	-14.88
223.4	-14.88
223.635	-14.88
223.869	-26.88
224.104	-25.88
224.338	-13.88
224.573	-17.88
224.808	0.12
225.042	-1.88
225.277	9.12
225.511	-12.88
225.746	2.12
225.98	-8.88
226.215	21.12
226.449	6.12
226.683	26.12
226.918	33.12
227.152	25.12
227.387	27.12
227.621	36.12
227.856	38.12
228.09	46.12
228.324	49.12
228.559	33.12
228.793	58.12
229.027	58.12
229.262	67.12
229.496	74.12
229.73	66.12
229.964	77.12
230.199	76.12
230.433	59.12
230.667	75.12
230.901	62.12
231.136	78.12
231.37	69.12
231.604	78.12
231.838	95.12
232.072	88.12
232.306	71.12
232.541	87.12
232.775	73.12
233.009	77.12
233.243	71.12
233.477	74.12
233.711	72.12
233.945	95.12
234.179	89.12
234.413	86.12
234.647	80.12
234.881	83.12
235.115	88.12
235.349	79.12
235.583	64.12
235.817	84.12
236.051	81.12
236.285	91.12
236.519	79.12
236.753	88.12
236.987	65.12
237.221	71.12
237.455	71.12
237.689	86.12
237.922	61.12
238.156	76.12
238.39	80.12
238.624	72.12
238.858	84.12
239.091	85.12
239.325	79.12
239.559	77.12
239.793	61.12
240.027	81.12
240.26	73.12
240.494	85.12
240.728	79.12
240.961	78.12
241.195	87.12
241.429	88.12
241.662	82.12
241.896	96.12
242.13	63.12
242.363	76.12
242.597	83.12
242.83	83.12
243.064	60.12
243.298	57.12
243.531	79.12
243.765	72.12
243.998	69.12
244.232	72.12
244.465	60.12
244.699	78.12
244.932	84.12
245.166	79.12
245.399	71.12
245.633	72.12
245.866	87.12
246.099	91.12
246.333	85.12
246.566	76.12
246.8	86.12
247.033	77.12
247.266	81.12
247.5	72.12
247.733	70.12
247.966	91.12
248.2	78.12
248.433	79.12
248.666	91.12
248.899	88.12
249.133	89.12
249.366	85.12
249.599	88.12
249.832	72.12
250.066	83.12
250.299	81.12
250.532	83.12
250.765	81.12
250.998	86.12
251.231	76.12
251.465	83.12
251.698	79.12
251.931	91.12
252.164	83.12
252.397	76.12
252.63	80.12
252.863	75.12
253.096	79.12
253.329	73.12
253.562	81.12
253.795	84.12
254.028	66.12
254.261	90.12
254.494	87.12
254.727	81.12
254.96	81.12
255.193	79.12
255.426	76.12
255.659	83.12
255.892	83.12
256.124	82.12
256.357	82.12
256.59	70.12
256.823	88.12
257.056	97.12
257.289	66.12
257.521	88.12
257.754	81.12
257.987	84.12
258.22	92.12
258.452	87.12
258.685	79.12
258.918	83.12
259.151	69.12
259.383	73.12
259.616	71.12
259.849	67.12
260.081	88.12
260.314	77.12
260.547	86.12
260.779	83.12
261.012	83.12
261.244	79.12
261.477	84.12
261.71	90.12
261.942	88.12
262.175	76.12
262.407	87.12
262.64	67.12
262.872	75.12
263.105	80.12
263.337	88.12
263.57	100.12
263.802	71.12
264.035	81.12
264.267	67.12
264.499	80.12
264.732	80.12
264.964	83.12
265.197	81.12
265.429	80.12
265.661	78.12
265.894	73.12
266.126	85.12
266.358	74.12
266.591	70.12
266.823	96.12
267.055	96.12
267.287	80.12
267.52	89.12
267.752	91.12
267.984	87.12
268.216	84.12
268.448	85.12
268.681	94.12
268.913	92.12
269.145	72.12
269.377	68.12
269.609	81.12
269.841	91.12
270.073	95.12
270.306	80.12
270.538	91.12
270.77	79.12
271.002	81.12
271.234	98.12
271.466	90.12
271.698	86.12
271.93	73.12
272.162	79.12
272.394	87.12
272.626	72.12
272.858	84.12
273.09	86.12
273.322	77.12
273.553	89.12
273.785	70.12
274.017	86.12
274.249	76.12
274.481	91.12
274.713	86.12
274.945	79.12
275.176	67.12
275.408	86.12
275.64	75.12
275.872	75.12
276.104	80.12
276.335	81.12
276.567	80.12
276.799	94.12
277.031	94.12
277.262	84.12
277.494	101.12
277.726	74.12
277.957	82.12
278.189	78.12
278.421	75.12
278.652	88.12
278.884	86.12
279.115	84.12
279.347	91.12
279.579	92.12
279.81	87.12
280.042	75.12
280.273	80.12
280.505	76.12
280.736	84.12
280.968	83.12
281.199	90.12
281.431	69.12
281.662	83.12
281.894	85.12
282.125	72.12
282.356	85.12
282.588	92.12
282.819	87.12
283.051	96.12
283.282	75.12
283.513	87.12
283.745	91.12
283.976	80.12
284.207	93.12
284.439	64.12
284.67	76.12
284.901	93.12
285.132	100.12
285.364	95.12
285.595	92.12
285.826	83.12
286.057	95.12
286.288	88.12
286.52	79.12
286.751	67.12
286.982	61.12
287.213	68.12
287.444	85.12
287.675	84.12
287.906	73.12
288.138	99.12
288.369	82.12
288.6	86.12
288.831	89.12
289.062	83.12
289.293	93.12
289.524	90.12
289.755	78.12
289.986	80.12
290.217	81.12
290.448	91.12
290.679	88.12
290.91	92.12
291.141	83.12
291.371	97.12
291.602	86.12
291.833	85.12
292.064	89.12
292.295	71.12
292.526	94.12
292.757	76.12
292.987	83.12
293.218	91.12
293.449	75.12
293.68	91.12
293.91	81.12
294.141	79.12
294.372	97.12
294.603	77.12
294.833	96.12
295.064	89.12
295.295	98.12
295.525	81.12
295.756	79.12
295.987	77.12
296.217	87.12
296.448	93.12
296.679	84.12
296.909	75.12
297.14	77.12
297.37	76.12
297.601	82.12
297.831	91.12
298.062	85.12
298.292	80.12
298.523	99.12
298.753	83.12
298.984	97.12
299.214	92.12
299.445	91.12
299.675	78.12
299.905	92.12
300.136	84.12
300.366	87.12
300.597	94.12
300.827	89.12
301.057	75.12
301.288	79.12
301.518	93.12
301.748	94.12
301.979	89.12
302.209	79.12
302.439	95.12
302.669	88.12
302.9	72.12
303.13	87.12
303.36	100.12
303.59	86.12
303.82	72.12
304.051	80.12
304.281	88.12
304.511	106.12
304.741	73.12
304.971	89.12
305.201	80.12
305.431	70.12
305.661	86.12
305.891	89.12
306.121	82.12
306.352	79.12
306.582	93.12
306.812	83.12
307.042	91.12
307.272	93.12
307.502	82.12
307.731	81.12
307.961	81.12
308.191	90.12
308.421	85.12
308.651	97.12
308.881	95.12
309.111	82.12
309.341	69.12
309.571	84.12
309.8	86.12
310.03	82.12
310.26	91.12
310.49	103.12
310.72	74.12
310.949	84.12
311.179	73.12
311.409	87.12
311.639	77.12
311.868	81.12
312.098	88.12
312.328	80.12
312.557	89.12
312.787	83.12
313.017	86.12
313.246	77.12
313.476	71.12
313.706	91.12
313.935	75.12
314.165	92.12
314.394	107.12
314.624	87.12
314.853	80.12
315.083	89.12
315.312	87.12
315.542	69.12
315.771	95.12
316.001	92.12
316.23	79.12
316.46	88.12
316.689	88.12
316.919	83.12
317.148	91.12
317.377	84.12
317.607	90.12
317.836	80.12
318.065	90.12
318.295	87.12
318.524	78.12
318.753	79.12
318.983	72.12
319.212	79.12
319.441	86.12
319.67	84.12
319.9	83.12
320.129	81.12
320.358	71.12
320.587	96.12
320.816	82.12
321.046	87.12
321.275	86.12
321.504	91.12
321.733	81.12
321.962	82.12
322.191	88.12
322.42	85.12
322.649	76.12
322.878	86.12
323.108	86.12
323.337	84.12
323.566	91.12
323.795	79.12
324.024	94.12
324.253	73.12
324.482	92.12
324.71	85.12
324.939	89.12
325.168	83.12
325.397	95.12
325.626	80.12
325.855	72.12
326.084	80.12
326.313	88.12
326.542	90.12
326.77	85.12
326.999	87.12
327.228	87.12
327.457	97.12
327.686	89.12
327.914	78.12
328.143	85.12
328.372	88.12
328.6	83.12
328.829	83.12
329.058	85.12
329.287	78.12
329.515	88.12
329.744	84.12
329.972	81.12
330.201	86.12
330.43	81.12
330.658	87.12
330.887	96.12
331.115	78.12
331.344	77.12
331.572	77.12
331.801	80.12
332.03	81.12
332.258	74.12
332.486	95.12
332.715	81.12
332.943	79.12
333.172	76.12
333.4	88.12
333.629	93.12
333.857	86.12
334.085	77.12
334.314	89.12
334.542	87.12
334.771	84.12
334.999	78.12
335.227	87.12
335.455	89.12
335.684	88.12
335.912	73.12
336.14	84.12
336.369	80.12
336.597	92.12
336.825	100.12
337.053	66.12
337.281	92.12
337.51	76.12
337.738	90.12
337.966	78.12
338.194	75.12
338.422	93.12
338.65	88.12
338.878	75.12
339.106	85.12
339.334	88.12
339.562	68.12
339.79	73.12
340.018	79.12
340.246	83.12
340.474	86.12
340.702	83.12
340.93	89.12
341.158	80.12
341.386	86.12
341.614	80.12
341.842	80.12
342.07	89.12
342.298	70.12
342.526	79.12
342.754	79.12
342.981	79.12
343.209	83.12
343.437	105.12
343.665	89.12
343.893	83.12
344.12	98.12
344.348	85.12
344.576	81.12
344.804	73.12
345.031	73.12
345.259	85.12
345.487	98.12
345.714	88.12
345.942	70.12
346.17	86.12
346.397	75.12
346.625	90.12
346.853	83.12
347.08	102.12
347.308	84.12
347.535	79.12
347.763	74.12
347.99	90.12
348.218	65.12
348.445	76.12
348.673	93.12
348.9	84.12
349.128	99.12
349.355	79.12
349.583	93.12
349.81	101.12
350.037	88.12
350.265	90.12
350.492	70.12
350.72	77.12
350.947	91.12
351.174	86.12
351.402	74.12
351.629	97.12
351.856	85.12
352.083	88.12
352.311	77.12
352.538	81.12
352.765	80.12
352.992	86.12
353.22	66.12
353.447	80.12
353.674	91.12
353.901	96.12
354.128	86.12
354.355	87.12
354.583	70.12
354.81	78.12
355.037	93.12
355.264	66.12
355.491	83.12
355.718	91.12
355.945	82.12
356.172	76.12
356.399	98.12
356.626	82.12
356.853	77.12
357.08	86.12
357.307	79.12
357.534	90.12
357.761	83.12
357.988	78.12
358.215	83.12
358.441	88.12
358.668	66.12
358.895	81.12
359.122	91.12
359.349	81.12
359.576	91.12
359.802	77.12
360.029	78.12
360.256	95.12
360.483	79.12
360.709	73.12
360.936	101.12
361.163	85.12
361.39	90.12
361.616	68.12
361.843	95.12
362.07	80.12
362.296	83.12
362.523	89.12
362.749	69.12
362.976	71.12
363.203	77.12
363.429	71.12
363.656	85.12
363.882	88.12
364.109	77.12
364.335	89.12
364.562	71.12
364.788	84.12
365.015	91.12
365.241	74.12
365.468	87.12
365.694	89.12
365.92	84.12
366.147	89.12
366.373	70.12
366.599	73.12
366.826	61.12
367.052	73.12
367.278	76.12
367.505	71.12
367.731	105.12
367.957	86.12
368.184	82.12
368.41	70.12
368.636	71.12
368.862	73.12
369.089	69.12
369.315	81.12
369.541	95.12
369.767	72.12
369.993	78.12
370.219	77.12
370.445	89.12
370.672	91.12
370.898	65.12
371.124	90.12
371.35	82.12
371.576	85.12
371.802	103.12
372.028	86.12
372.254	91.12
372.48	83.12
372.706	86.12
372.932	87.12
373.158	81.12
373.384	85.12
373.61	88.12
373.835	84.12
374.061	86.12
374.287	88.12
374.513	90.12
374.739	80.12
374.965	80.12
375.191	80.12
375.416	83.12
375.642	96.12
375.868	86.12
376.094	86.12
376.319	74.12
376.545	84.12
376.771	87.12
376.997	89.12
377.222	77.12
377.448	85.12
377.674	82.12
377.899	90.12
378.125	88.12
378.35	93.12
378.576	94.12
378.802	79.12
379.027	67.12
379.253	78.12
379.478	85.12
379.704	80.12
379.929	93.12
380.155	91.12
380.38	93.12
380.606	92.12
380.831	93.12
381.057	81.12
381.282	93.12
381.507	77.12
381.733	71.12
381.958	72.12
382.184	90.12
382.409	70.12
382.634	79.12
382.86	79.12
383.085	67.12
383.31	67.12
383.535	69.12
383.761	82.12
383.986	79.12
384.211	71.12
384.436	83.12
384.662	77.12
384.887	79.12
385.112	70.12
385.337	77.12
385.562	100.12
385.787	79.12
386.013	77.12
386.238	93.12
386.463	85.12
386.688	104.12
386.913	88.12
387.138	75.12
387.363	76.12
387.588	75.12
387.813	94.12
388.038	94.12
388.263	76.12
388.488	83.12
388.713	84.12
388.938	89.12
389.163	81.12
389.387	74.12
389.612	78.12
389.837	84.12
390.062	98.12
390.287	85.12
390.512	86.12
390.736	81.12
390.961	83.12
391.186	78.12
391.411	77.12
391.636	76.12
391.86	91.12
392.085	77.12
392.31	79.12
392.534	76.12
392.759	100.12
392.984	97.12
393.208	88.12
393.433	75.12
393.658	79.12
393.882	78.12
394.107	81.12
394.331	90.12
394.556	78.12
394.78	83.12
395.005	80.12
395.229	67.12
395.454	83.12
395.678	77.12
395.903	89.12
396.127	93.12
396.352	78.12
396.576	79.12
396.801	78.12
397.025	80.12
397.249	88.12
397.474	97.12
397.698	76.12
397.922	83.12
398.147	84.12
398.371	69.12
398.595	72.12
398.82	84.12
399.044	93.12
399.268	75.12
399.492	85.12
399.717	73.12
399.941	93.12
400.165	84.12
400.389	80.12
400.613	85.12
400.837	93.12
401.062	84.12
401.286	93.12
401.51	80.12
401.734	88.12
401.958	91.12
402.182	77.12
402.406	80.12
402.63	90.12
402.854	96.12
403.078	96.12
403.302	74.12
403.526	85.12
403.75	75.12
403.974	81.12
404.198	87.12
404.422	85.12
404.645	76.12
404.869	73.12
405.093	89.12
405.317	82.12
405.541	84.12
405.765	79.12
405.988	89.12
406.212	79.12
406.436	86.12
406.66	88.12
406.883	88.12
407.107	94.12
407.331	64.12
407.555	74.12
407.778	80.12
408.002	86.12
408.226	96.12
408.449	82.12
408.673	73.12
408.896	84.12
409.12	68.12
409.344	88.12
409.567	81.12
409.791	73.12
410.014	64.12
410.238	77.12
410.461	80.12
410.685	85.12
410.908	79.12
411.132	100.12
411.355	71.12
411.578	87.12
411.802	85.12
412.025	80.12
412.249	77.12
412.472	76.12
412.695	79.12
412.919	77.12
413.142	80.12
413.365	76.12
413.589	88.12
413.812	83.12
414.035	87.12
414.258	93.12
414.482	71.12
414.705	91.12
414.928	92.12
415.151	91.12
415.374	87.12
415.597	81.12
415.821	84.12
416.044	67.12
416.267	85.12
416.49	79.12
416.713	77.12
416.936	80.12
417.159	66.12
417.382	87.12
417.605	83.12
417.828	88.12
418.051	98.12
418.274	91.12
418.497	74.12
418.72	83.12
418.943	82.12
419.166	83.12
419.389	70.12
419.611	80.12
419.834	83.12
420.057	83.12
420.28	84.12
420.503	70.12
420.726	77.12
420.948	61.12
421.171	68.12
421.394	83.12
421.617	80.12
421.839	90.12
422.062	79.12
422.285	85.12
422.507	94.12
422.73	72.12
422.953	99.12
423.175	77.12
423.398	93.12
423.621	78.12
423.843	66.12
424.066	85.12
424.288	77.12
424.511	80.12
424.733	83.12
424.956	88.12
425.178	93.12
425.401	75.12
425.623	83.12
425.846	90.12
426.068	91.12
426.291	81.12
426.513	85.12
426.735	79.12
426.958	92.12
427.18	82.12
427.402	84.12
427.625	84.12
427.847	86.12
428.069	82.12
428.292	68.12
428.514	67.12
428.736	77.12
428.958	81.12
429.181	89.12
429.403	84.12
429.625	93.12
429.847	89.12
430.069	82.12
430.292	81.12
430.514	88.12
430.736	81.12
430.958	87.12
431.18	71.12
431.402	71.12
431.624	78.12
431.846	84.12
432.068	84.12
432.29	95.12
432.512	79.12
432.734	92.12
432.956	72.12
433.178	80.12
433.4	72.12
433.622	87.12
433.844	82.12
434.066	86.12
434.287	82.12
434.509	82.12
434.731	88.12
434.953	91.12
435.175	77.12
435.397	80.12
435.618	74.12
435.84	86.12
436.062	86.12
436.284	85.12
436.505	77.12
436.727	74.12
436.949	100.12
437.17	91.12
437.392	75.12
437.614	69.12
437.835	70.12
438.057	93.12
438.278	90.12
438.5	86.12
438.721	88.12
438.943	80.12
439.165	79.12
439.386	85.12
439.608	81.12
439.829	89.12
440.05	85.12
440.272	87.12
440.493	84.12
440.715	92.12
440.936	87.12
441.158	80.12
441.379	75.12
441.6	86.12
441.822	87.12
442.043	80.12
442.264	81.12
442.486	79.12
442.707	84.12
442.928	83.12
443.149	86.12
443.371	80.12
443.592	93.12
443.813	73.12
444.034	68.12
444.255	87.12
444.476	87.12
444.698	83.12
444.919	82.12
445.14	165.12
445.361	121.12
445.582	82.12
445.803	85.12
446.024	84.12
446.245	95.12
446.466	87.12
446.687	80.12
446.908	87.12
447.129	86.12
447.35	69.12
447.571	91.12
447.792	76.12
448.013	64.12
448.234	75.12
448.455	76.12
448.675	79.12
448.896	88.12
449.117	93.12
449.338	66.12
449.559	78.12
449.779	92.12
450	83.12
450.221	95.12
450.442	79.12
450.662	85.12
450.883	85.12
451.104	85.12
451.324	71.12
451.545	73.12
451.766	84.12
451.986	92.12
452.207	84.12
452.428	92.12
452.648	87.12
452.869	97.12
453.089	82.12
453.31	83.12
453.53	83.12
453.751	91.12
453.971	81.12
454.192	83.12
454.412	96.12
454.633	75.12
454.853	99.12
455.073	79.12
455.294	80.12
455.514	68.12
455.734	93.12
455.955	86.12
456.175	80.12
456.395	95.12
456.616	86.12
456.836	89.12
457.056	79.12
457.276	76.12
457.497	80.12
457.717	88.12
457.937	85.12
458.157	82.12
458.377	79.12
458.598	87.12
458.818	87.12
459.038	70.12
459.258	72.12
459.478	85.12
459.698	79.12
459.918	97.12
460.138	98.12
460.358	95.12
460.578	93.12
460.798	89.12
461.018	87.12
461.238	76.12
461.458	76.12
461.678	93.12
461.898	80.12
462.118	95.12
462.338	85.12
462.558	86.12
462.777	82.12
462.997	91.12
463.217	81.12
463.437	88.12
463.657	83.12
463.876	74.12
464.096	97.12
464.316	81.12
464.536	88.12
464.755	93.12
464.975	82.12
465.195	77.12
465.414	83.12
465.634	78.12
465.854	95.12
466.073	87.12
466.293	91.12
466.512	97.12
466.732	96.12
466.951	85.12
467.171	81.12
467.391	71.12
467.61	80.12
467.829	72.12
468.049	81.12
468.268	80.12
468.488	76.12
468.707	87.12
468.927	73.12
469.146	78.12
469.365	81.12
469.585	87.12
469.804	77.12
470.023	101.12
470.243	96.12
470.462	84.12
470.681	83.12
470.901	69.12
471.12	80.12
471.339	83.12
471.558	72.12
471.777	88.12
471.997	87.12
472.216	71.12
472.435	71.12
472.654	81.12
472.873	86.12
473.092	80.12
473.311	84.12
473.53	88.12
473.749	77.12
473.968	85.12
474.187	87.12
474.406	85.12
474.625	97.12
474.844	85.12
475.063	91.12
475.282	83.12
475.501	74.12
475.72	84.12
475.939	84.12
476.158	87.12
476.377	76.12
476.596	73.12
476.814	79.12
477.033	88.12
477.252	79.12
477.471	88.12
477.69	75.12
477.908	85.12
478.127	93.12
478.346	84.12
478.564	83.12
478.783	68.12
479.002	75.12
479.22	89.12
479.439	88.12
479.658	88.12
479.876	79.12
480.095	84.12
480.313	74.12
480.532	88.12
480.751	92.12
480.969	79.12
481.188	96.12
481.406	88.12
481.624	73.12
481.843	89.12
482.061	83.12
482.28	75.12
482.498	95.12
482.717	82.12
482.935	82.12
483.153	90.12
483.372	92.12
483.59	90.12
483.808	92.12
484.027	99.12
484.245	86.12
484.463	71.12
484.681	95.12
484.9	88.12
485.118	81.12
485.336	83.12
485.554	86.12
485.772	92.12
485.99	73.12
486.209	89.12
486.427	98.12
486.645	71.12
486.863	64.12
487.081	75.12
487.299	87.12
487.517	83.12
487.735	94.12
487.953	88.12
488.171	92.12
488.389	81.12
488.607	81.12
488.825	88.12
489.043	101.12
489.261	84.12
489.479	91.12
489.696	89.12
489.914	89.12
490.132	89.12
490.35	88.12
490.568	78.12
490.786	96.12
491.003	81.12
491.221	68.12
491.439	77.12
491.657	79.12
491.874	99.12
492.092	74.12
492.31	91.12
492.527	78.12
492.745	82.12
492.963	84.12
493.18	87.12
493.398	84.12
493.615	86.12
493.833	85.12
494.05	95.12
494.268	97.12
494.485	84.12
494.703	82.12
494.92	81.12
495.138	97.12
495.355	87.12
495.573	90.12
495.79	68.12
496.008	82.12
496.225	82.12
496.442	73.12
496.66	83.12
496.877	86.12
497.094	84.12
497.312	87.12
497.529	86.12
497.746	80.12
497.963	93.12
498.181	96.12
498.398	64.12
498.615	72.12
498.832	71.12
499.049	92.12
499.267	95.12
499.484	91.12
499.701	84.12
499.918	77.12
500.135	97.12
500.352	92.12
500.569	91.12
500.786	71.12
501.003	79.12
501.22	87.12
501.437	86.12
501.654	78.12
501.871	86.12
502.088	84.12
502.305	79.12
502.522	89.12
502.739	91.12
502.956	73.12
503.172	85.12
503.389	96.12
503.606	84.12
503.823	79.12
504.04	88.12
504.256	77.12
504.473	79.12
504.69	92.12
504.907	92.12
505.123	78.12
505.34	85.12
505.557	85.12
505.773	87.12
505.99	80.12
506.207	80.12
506.423	79.12
506.64	85.12
506.856	79.12
507.073	76.12
507.289	86.12
507.506	78.12
507.722	92.12
507.939	96.12
508.155	89.12
508.372	74.12
508.588	89.12
508.805	79.12
509.021	85.12
509.238	83.12
509.454	85.12
509.67	82.12
509.887	79.12
510.103	80.12
510.319	74.12
510.536	87.12
510.752	91.12
510.968	81.12
511.184	88.12
511.401	90.12
511.617	89.12
511.833	83.12
512.049	84.12
512.265	76.12
512.481	87.12
512.698	87.12
512.914	87.12
513.13	94.12
513.346	103.12
513.562	94.12
513.778	89.12
513.994	76.12
514.21	79.12
514.426	82.12
514.642	86.12
514.858	85.12
515.074	70.12
515.29	93.12
515.506	90.12
515.721	92.12
515.937	90.12
516.153	79.12
516.369	83.12
516.585	76.12
516.801	80.12
517.016	70.12
517.232	79.12
517.448	93.12
517.664	86.12
517.879	87.12
518.095	81.12
518.311	98.12
518.527	84.12
518.742	76.12
518.958	84.12
519.173	99.12
519.389	97.12
519.605	87.12
519.82	103.12
