Data from Background_3_HRD10591_00066.txt Node
Date: Wed Nov 05 14:49:52 EST 2025
User: Yrep
Spectrometer: HR+D1059
Trigger mode: 1
Integration Time (sec): 1.000000E-1
Scans to average: 1
Electric dark correction enabled: true
Nonlinearity correction enabled: false
Boxcar width: 0
XAxis mode: Wavelengths
Number of Pixels in Spectrum: 2048
>>>>>Begin Spectral Data<<<<<
223.165	-6.56
223.4	-6.56
223.635	-6.56
223.869	-13.56
224.104	-25.56
224.338	-17.56
224.573	-17.56
224.808	-2.56
225.042	6.44
225.277	-2.56
225.511	5.44
225.746	-13.56
225.98	15.44
226.215	5.44
226.449	12.44
226.683	27.44
226.918	4.44
227.152	22.44
227.387	31.44
227.621	49.44
227.856	48.44
228.09	46.44
228.324	63.44
228.559	49.44
228.793	45.44
229.027	61.44
229.262	58.44
229.496	67.44
229.73	81.44
229.964	64.44
230.199	75.44
230.433	78.44
230.667	70.44
230.901	72.44
231.136	72.44
231.37	72.44
231.604	77.44
231.838	86.44
232.072	82.44
232.306	80.44
232.541	86.44
232.775	70.44
233.009	80.44
233.243	87.44
233.477	83.44
233.711	79.44
233.945	83.44
234.179	85.44
234.413	88.44
234.647	76.44
234.881	80.44
235.115	75.44
235.349	62.44
235.583	79.44
235.817	84.44
236.051	76.44
236.285	73.44
236.519	80.44
236.753	68.44
236.987	80.44
237.221	62.44
237.455	69.44
237.689	73.44
237.922	66.44
238.156	90.44
238.39	77.44
238.624	89.44
238.858	93.44
239.091	78.44
239.325	79.44
239.559	75.44
239.793	97.44
240.027	85.44
240.26	76.44
240.494	90.44
240.728	77.44
240.961	77.44
241.195	74.44
241.429	87.44
241.662	80.44
241.896	65.44
242.13	65.44
242.363	69.44
242.597	85.44
242.83	80.44
243.064	84.44
243.298	80.44
243.531	79.44
243.765	86.44
243.998	82.44
244.232	78.44
244.465	65.44
244.699	89.44
244.932	84.44
245.166	81.44
245.399	83.44
245.633	81.44
245.866	64.44
246.099	82.44
246.333	87.44
246.566	75.44
246.8	81.44
247.033	70.44
247.266	71.44
247.5	88.44
247.733	93.44
247.966	62.44
248.2	77.44
248.433	87.44
248.666	89.44
248.899	80.44
249.133	98.44
249.366	92.44
249.599	88.44
249.832	79.44
250.066	86.44
250.299	78.44
250.532	85.44
250.765	80.44
250.998	98.44
251.231	80.44
251.465	75.44
251.698	75.44
251.931	88.44
252.164	60.44
252.397	69.44
252.63	95.44
252.863	73.44
253.096	101.44
253.329	78.44
253.562	79.44
253.795	81.44
254.028	86.44
254.261	85.44
254.494	79.44
254.727	82.44
254.96	83.44
255.193	80.44
255.426	79.44
255.659	74.44
255.892	68.44
256.124	77.44
256.357	83.44
256.59	93.44
256.823	77.44
257.056	86.44
257.289	87.44
257.521	74.44
257.754	73.44
257.987	88.44
258.22	84.44
258.452	81.44
258.685	100.44
258.918	82.44
259.151	102.44
259.383	92.44
259.616	90.44
259.849	86.44
260.081	89.44
260.314	77.44
260.547	83.44
260.779	91.44
261.012	78.44
261.244	85.44
261.477	96.44
261.71	89.44
261.942	87.44
262.175	98.44
262.407	93.44
262.64	88.44
262.872	82.44
263.105	84.44
263.337	84.44
263.57	87.44
263.802	91.44
264.035	95.44
264.267	88.44
264.499	76.44
264.732	79.44
264.964	72.44
265.197	66.44
265.429	93.44
265.661	88.44
265.894	86.44
266.126	81.44
266.358	84.44
266.591	80.44
266.823	83.44
267.055	99.44
267.287	90.44
267.52	84.44
267.752	83.44
267.984	91.44
268.216	91.44
268.448	95.44
268.681	89.44
268.913	73.44
269.145	86.44
269.377	88.44
269.609	80.44
269.841	85.44
270.073	80.44
270.306	100.44
270.538	100.44
270.77	80.44
271.002	77.44
271.234	81.44
271.466	88.44
271.698	70.44
271.93	86.44
272.162	87.44
272.394	98.44
272.626	74.44
272.858	78.44
273.09	88.44
273.322	74.44
273.553	89.44
273.785	91.44
274.017	78.44
274.249	90.44
274.481	80.44
274.713	80.44
274.945	78.44
275.176	89.44
275.408	88.44
275.64	82.44
275.872	75.44
276.104	84.44
276.335	81.44
276.567	90.44
276.799	82.44
277.031	70.44
277.262	78.44
277.494	94.44
277.726	87.44
277.957	86.44
278.189	86.44
278.421	93.44
278.652	78.44
278.884	104.44
279.115	88.44
279.347	94.44
279.579	81.44
279.81	79.44
280.042	83.44
280.273	89.44
280.505	88.44
280.736	91.44
280.968	80.44
281.199	77.44
281.431	68.44
281.662	83.44
281.894	86.44
282.125	90.44
282.356	96.44
282.588	83.44
282.819	88.44
283.051	97.44
283.282	84.44
283.513	86.44
283.745	97.44
283.976	77.44
284.207	65.44
284.439	90.44
284.67	84.44
284.901	94.44
285.132	82.44
285.364	90.44
285.595	79.44
285.826	84.44
286.057	88.44
286.288	105.44
286.52	85.44
286.751	88.44
286.982	86.44
287.213	80.44
287.444	106.44
287.675	85.44
287.906	94.44
288.138	84.44
288.369	83.44
288.6	93.44
288.831	93.44
289.062	92.44
289.293	88.44
289.524	75.44
289.755	85.44
289.986	100.44
290.217	90.44
290.448	74.44
290.679	87.44
290.91	88.44
291.141	94.44
291.371	81.44
291.602	84.44
291.833	72.44
292.064	100.44
292.295	93.44
292.526	95.44
292.757	88.44
292.987	88.44
293.218	99.44
293.449	99.44
293.68	69.44
293.91	58.44
294.141	77.44
294.372	84.44
294.603	89.44
294.833	92.44
295.064	89.44
295.295	84.44
295.525	89.44
295.756	89.44
295.987	92.44
296.217	88.44
296.448	73.44
296.679	99.44
296.909	93.44
297.14	86.44
297.37	82.44
297.601	91.44
297.831	83.44
298.062	72.44
298.292	79.44
298.523	89.44
298.753	75.44
298.984	85.44
299.214	88.44
299.445	87.44
299.675	89.44
299.905	80.44
300.136	74.44
300.366	81.44
300.597	71.44
300.827	89.44
301.057	94.44
301.288	84.44
301.518	88.44
301.748	92.44
301.979	96.44
302.209	84.44
302.439	74.44
302.669	90.44
302.9	101.44
303.13	88.44
303.36	81.44
303.59	88.44
303.82	81.44
304.051	82.44
304.281	94.44
304.511	86.44
304.741	94.44
304.971	93.44
305.201	84.44
305.431	80.44
305.661	80.44
305.891	87.44
306.121	92.44
306.352	86.44
306.582	85.44
306.812	97.44
307.042	98.44
307.272	88.44
307.502	82.44
307.731	89.44
307.961	100.44
308.191	98.44
308.421	79.44
308.651	64.44
308.881	79.44
309.111	75.44
309.341	77.44
309.571	92.44
309.8	94.44
310.03	88.44
310.26	86.44
310.49	89.44
310.72	75.44
310.949	100.44
311.179	100.44
311.409	93.44
311.639	77.44
311.868	81.44
312.098	101.44
312.328	86.44
312.557	78.44
312.787	80.44
313.017	96.44
313.246	89.44
313.476	76.44
313.706	85.44
313.935	104.44
314.165	96.44
314.394	83.44
314.624	87.44
314.853	92.44
315.083	76.44
315.312	98.44
315.542	95.44
315.771	104.44
316.001	96.44
316.23	77.44
316.46	88.44
316.689	86.44
316.919	89.44
317.148	85.44
317.377	88.44
317.607	92.44
317.836	92.44
318.065	85.44
318.295	91.44
318.524	62.44
318.753	68.44
318.983	89.44
319.212	96.44
319.441	88.44
319.67	84.44
319.9	80.44
320.129	81.44
320.358	82.44
320.587	85.44
320.816	86.44
321.046	91.44
321.275	92.44
321.504	81.44
321.733	88.44
321.962	92.44
322.191	82.44
322.42	97.44
322.649	77.44
322.878	94.44
323.108	79.44
323.337	96.44
323.566	84.44
323.795	82.44
324.024	86.44
324.253	90.44
324.482	88.44
324.71	89.44
324.939	73.44
325.168	83.44
325.397	77.44
325.626	96.44
325.855	94.44
326.084	79.44
326.313	86.44
326.542	86.44
326.77	85.44
326.999	78.44
327.228	85.44
327.457	74.44
327.686	86.44
327.914	91.44
328.143	85.44
328.372	80.44
328.6	92.44
328.829	90.44
329.058	101.44
329.287	98.44
329.515	84.44
329.744	81.44
329.972	86.44
330.201	88.44
330.43	104.44
330.658	102.44
330.887	86.44
331.115	90.44
331.344	72.44
331.572	78.44
331.801	83.44
332.03	79.44
332.258	95.44
332.486	78.44
332.715	90.44
332.943	91.44
333.172	79.44
333.4	92.44
333.629	73.44
333.857	74.44
334.085	98.44
334.314	75.44
334.542	84.44
334.771	88.44
334.999	92.44
335.227	85.44
335.455	92.44
335.684	79.44
335.912	79.44
336.14	70.44
336.369	92.44
336.597	94.44
336.825	90.44
337.053	84.44
337.281	76.44
337.51	86.44
337.738	96.44
337.966	92.44
338.194	88.44
338.422	76.44
338.65	84.44
338.878	90.44
339.106	88.44
339.334	83.44
339.562	100.44
339.79	84.44
340.018	88.44
340.246	86.44
340.474	89.44
340.702	72.44
340.93	90.44
341.158	84.44
341.386	87.44
341.614	86.44
341.842	84.44
342.07	71.44
342.298	97.44
342.526	101.44
342.754	87.44
342.981	86.44
343.209	80.44
343.437	100.44
343.665	87.44
343.893	79.44
344.12	92.44
344.348	85.44
344.576	93.44
344.804	79.44
345.031	86.44
345.259	95.44
345.487	103.44
345.714	89.44
345.942	86.44
346.17	89.44
346.397	95.44
346.625	85.44
346.853	76.44
347.08	95.44
347.308	82.44
347.535	81.44
347.763	86.44
347.99	93.44
348.218	84.44
348.445	84.44
348.673	83.44
348.9	96.44
349.128	79.44
349.355	85.44
349.583	81.44
349.81	86.44
350.037	92.44
350.265	81.44
350.492	100.44
350.72	84.44
350.947	100.44
351.174	87.44
351.402	86.44
351.629	60.44
351.856	91.44
352.083	84.44
352.311	84.44
352.538	81.44
352.765	103.44
352.992	83.44
353.22	92.44
353.447	73.44
353.674	79.44
353.901	108.44
354.128	97.44
354.355	78.44
354.583	86.44
354.81	93.44
355.037	95.44
355.264	84.44
355.491	79.44
355.718	81.44
355.945	97.44
356.172	90.44
356.399	92.44
356.626	92.44
356.853	78.44
357.08	79.44
357.307	92.44
357.534	90.44
357.761	79.44
357.988	82.44
358.215	85.44
358.441	81.44
358.668	96.44
358.895	84.44
359.122	87.44
359.349	89.44
359.576	87.44
359.802	81.44
360.029	78.44
360.256	90.44
360.483	76.44
360.709	78.44
360.936	93.44
361.163	88.44
361.39	82.44
361.616	88.44
361.843	88.44
362.07	78.44
362.296	88.44
362.523	90.44
362.749	98.44
362.976	86.44
363.203	92.44
363.429	80.44
363.656	84.44
363.882	65.44
364.109	82.44
364.335	76.44
364.562	94.44
364.788	73.44
365.015	86.44
365.241	99.44
365.468	92.44
365.694	99.44
365.92	86.44
366.147	77.44
366.373	88.44
366.599	89.44
366.826	92.44
367.052	88.44
367.278	95.44
367.505	89.44
367.731	87.44
367.957	78.44
368.184	83.44
368.41	92.44
368.636	91.44
368.862	82.44
369.089	81.44
369.315	68.44
369.541	92.44
369.767	85.44
369.993	87.44
370.219	101.44
370.445	91.44
370.672	94.44
370.898	85.44
371.124	93.44
371.35	86.44
371.576	78.44
371.802	84.44
372.028	80.44
372.254	71.44
372.48	89.44
372.706	101.44
372.932	78.44
373.158	81.44
373.384	95.44
373.61	92.44
373.835	92.44
374.061	70.44
374.287	72.44
374.513	80.44
374.739	78.44
374.965	98.44
375.191	80.44
375.416	74.44
375.642	94.44
375.868	86.44
376.094	77.44
376.319	92.44
376.545	74.44
376.771	85.44
376.997	80.44
377.222	85.44
377.448	90.44
377.674	92.44
377.899	93.44
378.125	86.44
378.35	80.44
378.576	70.44
378.802	90.44
379.027	87.44
379.253	82.44
379.478	84.44
379.704	86.44
379.929	82.44
380.155	97.44
380.38	87.44
380.606	88.44
380.831	88.44
381.057	85.44
381.282	95.44
381.507	89.44
381.733	86.44
381.958	89.44
382.184	90.44
382.409	74.44
382.634	80.44
382.86	70.44
383.085	92.44
383.31	84.44
383.535	88.44
383.761	75.44
383.986	86.44
384.211	81.44
384.436	83.44
384.662	85.44
384.887	81.44
385.112	88.44
385.337	100.44
385.562	93.44
385.787	97.44
386.013	75.44
386.238	94.44
386.463	63.44
386.688	103.44
386.913	73.44
387.138	81.44
387.363	87.44
387.588	93.44
387.813	98.44
388.038	82.44
388.263	81.44
388.488	85.44
388.713	84.44
388.938	92.44
389.163	81.44
389.387	66.44
389.612	76.44
389.837	86.44
390.062	87.44
390.287	82.44
390.512	82.44
390.736	84.44
390.961	73.44
391.186	93.44
391.411	86.44
391.636	81.44
391.86	75.44
392.085	80.44
392.31	85.44
392.534	83.44
392.759	84.44
392.984	80.44
393.208	87.44
393.433	87.44
393.658	88.44
393.882	79.44
394.107	75.44
394.331	82.44
394.556	81.44
394.78	88.44
395.005	88.44
395.229	80.44
395.454	92.44
395.678	84.44
395.903	89.44
396.127	85.44
396.352	83.44
396.576	81.44
396.801	73.44
397.025	81.44
397.249	87.44
397.474	82.44
397.698	79.44
397.922	80.44
398.147	87.44
398.371	87.44
398.595	67.44
398.82	85.44
399.044	84.44
399.268	98.44
399.492	76.44
399.717	77.44
399.941	93.44
400.165	87.44
400.389	87.44
400.613	85.44
400.837	69.44
401.062	77.44
401.286	64.44
401.51	78.44
401.734	87.44
401.958	98.44
402.182	91.44
402.406	66.44
402.63	90.44
402.854	87.44
403.078	84.44
403.302	90.44
403.526	82.44
403.75	85.44
403.974	69.44
404.198	80.44
404.422	80.44
404.645	87.44
404.869	78.44
405.093	84.44
405.317	89.44
405.541	68.44
405.765	84.44
405.988	92.44
406.212	101.44
406.436	86.44
406.66	97.44
406.883	102.44
407.107	70.44
407.331	91.44
407.555	89.44
407.778	78.44
408.002	93.44
408.226	79.44
408.449	79.44
408.673	88.44
408.896	73.44
409.12	83.44
409.344	80.44
409.567	78.44
409.791	89.44
410.014	79.44
410.238	87.44
410.461	78.44
410.685	81.44
410.908	86.44
411.132	82.44
411.355	79.44
411.578	91.44
411.802	91.44
412.025	98.44
412.249	72.44
412.472	75.44
412.695	78.44
412.919	71.44
413.142	76.44
413.365	80.44
413.589	88.44
413.812	74.44
414.035	94.44
414.258	92.44
414.482	89.44
414.705	74.44
414.928	95.44
415.151	92.44
415.374	94.44
415.597	82.44
415.821	84.44
416.044	78.44
416.267	74.44
416.49	95.44
416.713	78.44
416.936	74.44
417.159	89.44
417.382	77.44
417.605	84.44
417.828	82.44
418.051	83.44
418.274	88.44
418.497	76.44
418.72	71.44
418.943	94.44
419.166	70.44
419.389	78.44
419.611	69.44
419.834	89.44
420.057	85.44
420.28	72.44
420.503	82.44
420.726	81.44
420.948	76.44
421.171	88.44
421.394	70.44
421.617	96.44
421.839	72.44
422.062	69.44
422.285	88.44
422.507	66.44
422.73	74.44
422.953	78.44
423.175	60.44
423.398	68.44
423.621	86.44
423.843	79.44
424.066	84.44
424.288	85.44
424.511	89.44
424.733	80.44
424.956	86.44
425.178	90.44
425.401	94.44
425.623	85.44
425.846	80.44
426.068	85.44
426.291	73.44
426.513	84.44
426.735	79.44
426.958	87.44
427.18	90.44
427.402	76.44
427.625	82.44
427.847	87.44
428.069	97.44
428.292	68.44
428.514	88.44
428.736	81.44
428.958	88.44
429.181	93.44
429.403	82.44
429.625	64.44
429.847	85.44
430.069	87.44
430.292	76.44
430.514	88.44
430.736	81.44
430.958	83.44
431.18	77.44
431.402	78.44
431.624	91.44
431.846	80.44
432.068	81.44
432.29	74.44
432.512	85.44
432.734	85.44
432.956	75.44
433.178	86.44
433.4	92.44
433.622	77.44
433.844	72.44
434.066	84.44
434.287	84.44
434.509	90.44
434.731	84.44
434.953	74.44
435.175	86.44
435.397	92.44
435.618	81.44
435.84	98.44
436.062	77.44
436.284	79.44
436.505	74.44
436.727	74.44
436.949	83.44
437.17	78.44
437.392	84.44
437.614	78.44
437.835	80.44
438.057	84.44
438.278	72.44
438.5	79.44
438.721	82.44
438.943	86.44
439.165	72.44
439.386	92.44
439.608	97.44
439.829	89.44
440.05	97.44
440.272	84.44
440.493	80.44
440.715	87.44
440.936	95.44
441.158	99.44
441.379	71.44
441.6	73.44
441.822	80.44
442.043	82.44
442.264	75.44
442.486	80.44
442.707	89.44
442.928	90.44
443.149	80.44
443.371	85.44
443.592	79.44
443.813	74.44
444.034	82.44
444.255	87.44
444.476	78.44
444.698	84.44
444.919	76.44
445.14	158.44
445.361	119.44
445.582	70.44
445.803	87.44
446.024	70.44
446.245	87.44
446.466	82.44
446.687	89.44
446.908	78.44
447.129	83.44
447.35	88.44
447.571	83.44
447.792	71.44
448.013	98.44
448.234	91.44
448.455	68.44
448.675	77.44
448.896	77.44
449.117	85.44
449.338	78.44
449.559	82.44
449.779	93.44
450	74.44
450.221	84.44
450.442	84.44
450.662	82.44
450.883	73.44
451.104	67.44
451.324	79.44
451.545	90.44
451.766	74.44
451.986	69.44
452.207	81.44
452.428	79.44
452.648	93.44
452.869	86.44
453.089	70.44
453.31	84.44
453.53	77.44
453.751	80.44
453.971	82.44
454.192	80.44
454.412	91.44
454.633	74.44
454.853	80.44
455.073	77.44
455.294	85.44
455.514	101.44
455.734	81.44
455.955	85.44
456.175	79.44
456.395	74.44
456.616	74.44
456.836	73.44
457.056	84.44
457.276	77.44
457.497	87.44
457.717	86.44
457.937	98.44
458.157	95.44
458.377	78.44
458.598	70.44
458.818	72.44
459.038	79.44
459.258	77.44
459.478	76.44
459.698	88.44
459.918	85.44
460.138	73.44
460.358	80.44
460.578	68.44
460.798	78.44
461.018	79.44
461.238	86.44
461.458	83.44
461.678	86.44
461.898	97.44
462.118	83.44
462.338	96.44
462.558	86.44
462.777	86.44
462.997	78.44
463.217	89.44
463.437	96.44
463.657	100.44
463.876	90.44
464.096	88.44
464.316	85.44
464.536	74.44
464.755	85.44
464.975	80.44
465.195	94.44
465.414	86.44
465.634	87.44
465.854	81.44
466.073	85.44
466.293	100.44
466.512	73.44
466.732	86.44
466.951	75.44
467.171	81.44
467.391	74.44
467.61	75.44
467.829	88.44
468.049	85.44
468.268	79.44
468.488	75.44
468.707	64.44
468.927	85.44
469.146	66.44
469.365	73.44
469.585	79.44
469.804	98.44
470.023	92.44
470.243	85.44
470.462	92.44
470.681	82.44
470.901	78.44
471.12	75.44
471.339	82.44
471.558	72.44
471.777	76.44
471.997	84.44
472.216	86.44
472.435	88.44
472.654	93.44
472.873	84.44
473.092	93.44
473.311	86.44
473.53	80.44
473.749	92.44
473.968	68.44
474.187	78.44
474.406	90.44
474.625	89.44
474.844	83.44
475.063	79.44
475.282	76.44
475.501	83.44
475.72	91.44
475.939	83.44
476.158	81.44
476.377	75.44
476.596	72.44
476.814	82.44
477.033	82.44
477.252	82.44
477.471	92.44
477.69	79.44
477.908	78.44
478.127	84.44
478.346	84.44
478.564	87.44
478.783	86.44
479.002	71.44
479.22	89.44
479.439	79.44
479.658	95.44
479.876	89.44
480.095	77.44
480.313	89.44
480.532	82.44
480.751	83.44
480.969	85.44
481.188	86.44
481.406	91.44
481.624	92.44
481.843	88.44
482.061	92.44
482.28	80.44
482.498	95.44
482.717	74.44
482.935	83.44
483.153	98.44
483.372	77.44
483.59	89.44
483.808	82.44
484.027	86.44
484.245	89.44
484.463	84.44
484.681	95.44
484.9	88.44
485.118	83.44
485.336	79.44
485.554	89.44
485.772	74.44
485.99	83.44
486.209	86.44
486.427	81.44
486.645	77.44
486.863	85.44
487.081	90.44
487.299	94.44
487.517	96.44
487.735	87.44
487.953	89.44
488.171	82.44
488.389	88.44
488.607	82.44
488.825	86.44
489.043	84.44
489.261	92.44
489.479	84.44
489.696	93.44
489.914	92.44
490.132	80.44
490.35	75.44
490.568	69.44
490.786	72.44
491.003	66.44
491.221	87.44
491.439	86.44
491.657	88.44
491.874	83.44
492.092	72.44
492.31	83.44
492.527	81.44
492.745	90.44
492.963	98.44
493.18	95.44
493.398	80.44
493.615	78.44
493.833	84.44
494.05	84.44
494.268	98.44
494.485	86.44
494.703	88.44
494.92	74.44
495.138	81.44
495.355	82.44
495.573	80.44
495.79	87.44
496.008	83.44
496.225	83.44
496.442	87.44
496.66	88.44
496.877	67.44
497.094	98.44
497.312	94.44
497.529	78.44
497.746	96.44
497.963	95.44
498.181	82.44
498.398	82.44
498.615	91.44
498.832	80.44
499.049	90.44
499.267	82.44
499.484	77.44
499.701	74.44
499.918	77.44
500.135	86.44
500.352	74.44
500.569	80.44
500.786	95.44
501.003	89.44
501.22	94.44
501.437	88.44
501.654	104.44
501.871	93.44
502.088	95.44
502.305	80.44
502.522	89.44
502.739	80.44
502.956	82.44
503.172	87.44
503.389	73.44
503.606	83.44
503.823	75.44
504.04	69.44
504.256	71.44
504.473	85.44
504.69	86.44
504.907	89.44
505.123	95.44
505.34	87.44
505.557	75.44
505.773	81.44
505.99	72.44
506.207	84.44
506.423	80.44
506.64	93.44
506.856	99.44
507.073	94.44
507.289	76.44
507.506	77.44
507.722	98.44
507.939	85.44
508.155	85.44
508.372	81.44
508.588	74.44
508.805	97.44
509.021	89.44
509.238	64.44
509.454	85.44
509.67	73.44
509.887	93.44
510.103	84.44
510.319	74.44
510.536	85.44
510.752	86.44
510.968	75.44
511.184	75.44
511.401	87.44
511.617	86.44
511.833	93.44
512.049	88.44
512.265	87.44
512.481	87.44
512.698	76.44
512.914	86.44
513.13	93.44
513.346	85.44
513.562	85.44
513.778	88.44
513.994	79.44
514.21	84.44
514.426	95.44
514.642	76.44
514.858	78.44
515.074	87.44
515.29	106.44
515.506	90.44
515.721	78.44
515.937	101.44
516.153	89.44
516.369	88.44
516.585	84.44
516.801	99.44
517.016	86.44
517.232	70.44
517.448	96.44
517.664	80.44
517.879	87.44
518.095	85.44
518.311	79.44
518.527	86.44
518.742	86.44
518.958	80.44
519.173	82.44
519.389	92.44
519.605	86.44
