Data from Background_3_HRD10591_00065.txt Node
Date: Wed Nov 05 14:49:52 EST 2025
User: Yrep
Spectrometer: HR+D1059
Trigger mode: 1
Integration Time (sec): 1.000000E-1
Scans to average: 1
Electric dark correction enabled: true
Nonlinearity correction enabled: false
Boxcar width: 0
XAxis mode: Wavelengths
Number of Pixels in Spectrum: 2048
>>>>>Begin Spectral Data<<<<<
223.165	-28.75
223.4	-28.75
223.635	-28.75
223.869	-19.75
224.104	-16.75
224.338	-14.75
224.573	0.25
224.808	-19.75
225.042	-7.75
225.277	-5.75
225.511	0.25
225.746	2.25
225.98	2.25
226.215	10.25
226.449	16.25
226.683	27.25
226.918	18.25
227.152	36.25
227.387	28.25
227.621	40.25
227.856	52.25
228.09	36.25
228.324	53.25
228.559	62.25
228.793	72.25
229.027	63.25
229.262	68.25
229.496	71.25
229.73	76.25
229.964	78.25
230.199	59.25
230.433	70.25
230.667	72.25
230.901	71.25
231.136	72.25
231.37	86.25
231.604	80.25
231.838	78.25
232.072	84.25
232.306	75.25
232.541	71.25
232.775	75.25
233.009	91.25
233.243	80.25
233.477	92.25
233.711	90.25
233.945	85.25
234.179	87.25
234.413	97.25
234.647	78.25
234.881	76.25
235.115	80.25
235.349	73.25
235.583	86.25
235.817	71.25
236.051	95.25
236.285	87.25
236.519	62.25
236.753	84.25
236.987	60.25
237.221	82.25
237.455	82.25
237.689	73.25
237.922	73.25
238.156	76.25
238.39	80.25
238.624	85.25
238.858	71.25
239.091	78.25
239.325	78.25
239.559	80.25
239.793	65.25
240.027	79.25
240.26	84.25
240.494	73.25
240.728	72.25
240.961	72.25
241.195	73.25
241.429	72.25
241.662	77.25
241.896	76.25
242.13	78.25
242.363	87.25
242.597	87.25
242.83	85.25
243.064	84.25
243.298	75.25
243.531	77.25
243.765	79.25
243.998	80.25
244.232	68.25
244.465	73.25
244.699	86.25
244.932	76.25
245.166	74.25
245.399	75.25
245.633	84.25
245.866	71.25
246.099	76.25
246.333	76.25
246.566	73.25
246.8	83.25
247.033	71.25
247.266	81.25
247.5	77.25
247.733	71.25
247.966	99.25
248.2	74.25
248.433	65.25
248.666	85.25
248.899	67.25
249.133	94.25
249.366	78.25
249.599	73.25
249.832	87.25
250.066	92.25
250.299	76.25
250.532	68.25
250.765	79.25
250.998	84.25
251.231	82.25
251.465	76.25
251.698	90.25
251.931	87.25
252.164	68.25
252.397	73.25
252.63	74.25
252.863	68.25
253.096	68.25
253.329	74.25
253.562	94.25
253.795	91.25
254.028	81.25
254.261	79.25
254.494	73.25
254.727	77.25
254.96	90.25
255.193	89.25
255.426	78.25
255.659	85.25
255.892	87.25
256.124	83.25
256.357	75.25
256.59	79.25
256.823	66.25
257.056	90.25
257.289	101.25
257.521	95.25
257.754	78.25
257.987	65.25
258.22	86.25
258.452	82.25
258.685	93.25
258.918	77.25
259.151	85.25
259.383	78.25
259.616	82.25
259.849	74.25
260.081	70.25
260.314	89.25
260.547	84.25
260.779	77.25
261.012	71.25
261.244	83.25
261.477	76.25
261.71	86.25
261.942	76.25
262.175	71.25
262.407	86.25
262.64	81.25
262.872	88.25
263.105	77.25
263.337	88.25
263.57	73.25
263.802	84.25
264.035	81.25
264.267	80.25
264.499	89.25
264.732	82.25
264.964	73.25
265.197	78.25
265.429	86.25
265.661	73.25
265.894	76.25
266.126	82.25
266.358	64.25
266.591	82.25
266.823	79.25
267.055	78.25
267.287	72.25
267.52	82.25
267.752	72.25
267.984	86.25
268.216	86.25
268.448	81.25
268.681	77.25
268.913	89.25
269.145	76.25
269.377	75.25
269.609	78.25
269.841	87.25
270.073	85.25
270.306	92.25
270.538	79.25
270.77	91.25
271.002	82.25
271.234	97.25
271.466	80.25
271.698	78.25
271.93	88.25
272.162	85.25
272.394	78.25
272.626	82.25
272.858	76.25
273.09	84.25
273.322	75.25
273.553	91.25
273.785	86.25
274.017	90.25
274.249	82.25
274.481	70.25
274.713	89.25
274.945	73.25
275.176	78.25
275.408	71.25
275.64	80.25
275.872	90.25
276.104	85.25
276.335	99.25
276.567	99.25
276.799	66.25
277.031	83.25
277.262	83.25
277.494	76.25
277.726	96.25
277.957	79.25
278.189	90.25
278.421	91.25
278.652	71.25
278.884	86.25
279.115	85.25
279.347	90.25
279.579	90.25
279.81	96.25
280.042	74.25
280.273	92.25
280.505	63.25
280.736	75.25
280.968	81.25
281.199	81.25
281.431	96.25
281.662	78.25
281.894	81.25
282.125	86.25
282.356	76.25
282.588	91.25
282.819	83.25
283.051	90.25
283.282	88.25
283.513	93.25
283.745	83.25
283.976	96.25
284.207	101.25
284.439	75.25
284.67	89.25
284.901	85.25
285.132	96.25
285.364	78.25
285.595	70.25
285.826	71.25
286.057	82.25
286.288	86.25
286.52	77.25
286.751	85.25
286.982	90.25
287.213	79.25
287.444	80.25
287.675	84.25
287.906	78.25
288.138	88.25
288.369	84.25
288.6	73.25
288.831	77.25
289.062	98.25
289.293	79.25
289.524	87.25
289.755	88.25
289.986	72.25
290.217	85.25
290.448	81.25
290.679	84.25
290.91	79.25
291.141	82.25
291.371	73.25
291.602	78.25
291.833	85.25
292.064	82.25
292.295	86.25
292.526	73.25
292.757	70.25
292.987	83.25
293.218	88.25
293.449	79.25
293.68	86.25
293.91	74.25
294.141	85.25
294.372	88.25
294.603	85.25
294.833	80.25
295.064	79.25
295.295	84.25
295.525	71.25
295.756	70.25
295.987	82.25
296.217	90.25
296.448	79.25
296.679	90.25
296.909	84.25
297.14	82.25
297.37	70.25
297.601	76.25
297.831	90.25
298.062	88.25
298.292	82.25
298.523	78.25
298.753	71.25
298.984	94.25
299.214	79.25
299.445	86.25
299.675	66.25
299.905	86.25
300.136	85.25
300.366	84.25
300.597	80.25
300.827	97.25
301.057	93.25
301.288	76.25
301.518	96.25
301.748	64.25
301.979	91.25
302.209	81.25
302.439	91.25
302.669	98.25
302.9	83.25
303.13	81.25
303.36	67.25
303.59	78.25
303.82	90.25
304.051	90.25
304.281	83.25
304.511	81.25
304.741	88.25
304.971	75.25
305.201	99.25
305.431	76.25
305.661	87.25
305.891	76.25
306.121	75.25
306.352	85.25
306.582	86.25
306.812	88.25
307.042	98.25
307.272	81.25
307.502	86.25
307.731	92.25
307.961	66.25
308.191	83.25
308.421	82.25
308.651	90.25
308.881	79.25
309.111	91.25
309.341	91.25
309.571	75.25
309.8	83.25
310.03	76.25
310.26	79.25
310.49	87.25
310.72	79.25
310.949	106.25
311.179	87.25
311.409	79.25
311.639	80.25
311.868	79.25
312.098	95.25
312.328	91.25
312.557	92.25
312.787	80.25
313.017	72.25
313.246	94.25
313.476	88.25
313.706	89.25
313.935	77.25
314.165	71.25
314.394	85.25
314.624	85.25
314.853	88.25
315.083	84.25
315.312	75.25
315.542	88.25
315.771	74.25
316.001	82.25
316.23	85.25
316.46	71.25
316.689	89.25
316.919	85.25
317.148	92.25
317.377	83.25
317.607	88.25
317.836	77.25
318.065	84.25
318.295	72.25
318.524	72.25
318.753	76.25
318.983	79.25
319.212	103.25
319.441	97.25
319.67	90.25
319.9	82.25
320.129	75.25
320.358	75.25
320.587	86.25
320.816	84.25
321.046	81.25
321.275	90.25
321.504	85.25
321.733	76.25
321.962	60.25
322.191	86.25
322.42	63.25
322.649	96.25
322.878	81.25
323.108	79.25
323.337	77.25
323.566	98.25
323.795	78.25
324.024	88.25
324.253	88.25
324.482	92.25
324.71	92.25
324.939	94.25
325.168	88.25
325.397	78.25
325.626	82.25
325.855	86.25
326.084	87.25
326.313	90.25
326.542	69.25
326.77	77.25
326.999	69.25
327.228	82.25
327.457	90.25
327.686	88.25
327.914	94.25
328.143	98.25
328.372	97.25
328.6	75.25
328.829	76.25
329.058	102.25
329.287	93.25
329.515	83.25
329.744	94.25
329.972	84.25
330.201	79.25
330.43	78.25
330.658	83.25
330.887	71.25
331.115	93.25
331.344	90.25
331.572	74.25
331.801	87.25
332.03	76.25
332.258	86.25
332.486	79.25
332.715	80.25
332.943	84.25
333.172	94.25
333.4	88.25
333.629	89.25
333.857	76.25
334.085	85.25
334.314	88.25
334.542	83.25
334.771	69.25
334.999	77.25
335.227	78.25
335.455	77.25
335.684	92.25
335.912	102.25
336.14	92.25
336.369	86.25
336.597	76.25
336.825	100.25
337.053	77.25
337.281	93.25
337.51	83.25
337.738	84.25
337.966	70.25
338.194	82.25
338.422	95.25
338.65	92.25
338.878	80.25
339.106	82.25
339.334	103.25
339.562	70.25
339.79	82.25
340.018	96.25
340.246	78.25
340.474	89.25
340.702	82.25
340.93	81.25
341.158	82.25
341.386	78.25
341.614	71.25
341.842	95.25
342.07	90.25
342.298	76.25
342.526	83.25
342.754	90.25
342.981	70.25
343.209	80.25
343.437	100.25
343.665	91.25
343.893	100.25
344.12	107.25
344.348	78.25
344.576	85.25
344.804	83.25
345.031	74.25
345.259	69.25
345.487	79.25
345.714	80.25
345.942	81.25
346.17	81.25
346.397	91.25
346.625	92.25
346.853	79.25
347.08	82.25
347.308	101.25
347.535	91.25
347.763	79.25
347.99	78.25
348.218	80.25
348.445	91.25
348.673	81.25
348.9	86.25
349.128	76.25
349.355	91.25
349.583	91.25
349.81	86.25
350.037	84.25
350.265	92.25
350.492	88.25
350.72	70.25
350.947	87.25
351.174	70.25
351.402	76.25
351.629	83.25
351.856	70.25
352.083	82.25
352.311	85.25
352.538	86.25
352.765	85.25
352.992	91.25
353.22	88.25
353.447	67.25
353.674	92.25
353.901	79.25
354.128	87.25
354.355	91.25
354.583	81.25
354.81	84.25
355.037	86.25
355.264	81.25
355.491	86.25
355.718	85.25
355.945	78.25
356.172	81.25
356.399	79.25
356.626	83.25
356.853	89.25
357.08	98.25
357.307	87.25
357.534	76.25
357.761	86.25
357.988	85.25
358.215	77.25
358.441	90.25
358.668	97.25
358.895	90.25
359.122	92.25
359.349	100.25
359.576	83.25
359.802	84.25
360.029	84.25
360.256	92.25
360.483	82.25
360.709	80.25
360.936	103.25
361.163	95.25
361.39	73.25
361.616	92.25
361.843	81.25
362.07	94.25
362.296	92.25
362.523	73.25
362.749	74.25
362.976	79.25
363.203	91.25
363.429	87.25
363.656	100.25
363.882	86.25
364.109	77.25
364.335	85.25
364.562	83.25
364.788	68.25
365.015	88.25
365.241	78.25
365.468	90.25
365.694	76.25
365.92	81.25
366.147	94.25
366.373	79.25
366.599	76.25
366.826	90.25
367.052	100.25
367.278	79.25
367.505	67.25
367.731	90.25
367.957	85.25
368.184	80.25
368.41	80.25
368.636	87.25
368.862	82.25
369.089	82.25
369.315	84.25
369.541	98.25
369.767	87.25
369.993	84.25
370.219	88.25
370.445	79.25
370.672	83.25
370.898	82.25
371.124	77.25
371.35	90.25
371.576	81.25
371.802	87.25
372.028	86.25
372.254	81.25
372.48	91.25
372.706	75.25
372.932	91.25
373.158	86.25
373.384	80.25
373.61	78.25
373.835	89.25
374.061	89.25
374.287	80.25
374.513	104.25
374.739	92.25
374.965	84.25
375.191	78.25
375.416	85.25
375.642	63.25
375.868	88.25
376.094	77.25
376.319	94.25
376.545	86.25
376.771	85.25
376.997	89.25
377.222	67.25
377.448	84.25
377.674	78.25
377.899	90.25
378.125	95.25
378.35	81.25
378.576	86.25
378.802	94.25
379.027	78.25
379.253	82.25
379.478	78.25
379.704	70.25
379.929	82.25
380.155	72.25
380.38	87.25
380.606	85.25
380.831	90.25
381.057	81.25
381.282	87.25
381.507	82.25
381.733	88.25
381.958	96.25
382.184	87.25
382.409	76.25
382.634	92.25
382.86	98.25
383.085	90.25
383.31	72.25
383.535	78.25
383.761	93.25
383.986	88.25
384.211	76.25
384.436	88.25
384.662	81.25
384.887	76.25
385.112	81.25
385.337	74.25
385.562	83.25
385.787	75.25
386.013	79.25
386.238	84.25
386.463	71.25
386.688	93.25
386.913	70.25
387.138	78.25
387.363	85.25
387.588	77.25
387.813	72.25
388.038	80.25
388.263	82.25
388.488	83.25
388.713	75.25
388.938	82.25
389.163	85.25
389.387	84.25
389.612	87.25
389.837	76.25
390.062	84.25
390.287	88.25
390.512	71.25
390.736	88.25
390.961	78.25
391.186	86.25
391.411	71.25
391.636	80.25
391.86	82.25
392.085	91.25
392.31	67.25
392.534	84.25
392.759	79.25
392.984	82.25
393.208	81.25
393.433	72.25
393.658	82.25
393.882	99.25
394.107	83.25
394.331	87.25
394.556	82.25
394.78	90.25
395.005	82.25
395.229	86.25
395.454	81.25
395.678	76.25
395.903	88.25
396.127	87.25
396.352	79.25
396.576	77.25
396.801	84.25
397.025	84.25
397.249	90.25
397.474	101.25
397.698	102.25
397.922	78.25
398.147	89.25
398.371	82.25
398.595	82.25
398.82	93.25
399.044	79.25
399.268	77.25
399.492	69.25
399.717	82.25
399.941	82.25
400.165	81.25
400.389	75.25
400.613	88.25
400.837	75.25
401.062	68.25
401.286	74.25
401.51	74.25
401.734	78.25
401.958	82.25
402.182	81.25
402.406	85.25
402.63	81.25
402.854	98.25
403.078	74.25
403.302	88.25
403.526	82.25
403.75	76.25
403.974	80.25
404.198	82.25
404.422	84.25
404.645	82.25
404.869	74.25
405.093	92.25
405.317	85.25
405.541	71.25
405.765	65.25
405.988	72.25
406.212	80.25
406.436	78.25
406.66	72.25
406.883	83.25
407.107	71.25
407.331	84.25
407.555	84.25
407.778	67.25
408.002	77.25
408.226	85.25
408.449	87.25
408.673	88.25
408.896	93.25
409.12	87.25
409.344	87.25
409.567	77.25
409.791	74.25
410.014	84.25
410.238	98.25
410.461	79.25
410.685	76.25
410.908	84.25
411.132	98.25
411.355	92.25
411.578	86.25
411.802	70.25
412.025	80.25
412.249	75.25
412.472	84.25
412.695	83.25
412.919	96.25
413.142	83.25
413.365	92.25
413.589	83.25
413.812	56.25
414.035	73.25
414.258	79.25
414.482	87.25
414.705	77.25
414.928	100.25
415.151	82.25
415.374	77.25
415.597	78.25
415.821	72.25
416.044	75.25
416.267	101.25
416.49	79.25
416.713	90.25
416.936	69.25
417.159	68.25
417.382	70.25
417.605	84.25
417.828	81.25
418.051	92.25
418.274	89.25
418.497	77.25
418.72	82.25
418.943	73.25
419.166	88.25
419.389	79.25
419.611	83.25
419.834	99.25
420.057	96.25
420.28	70.25
420.503	90.25
420.726	75.25
420.948	84.25
421.171	87.25
421.394	77.25
421.617	86.25
421.839	79.25
422.062	87.25
422.285	79.25
422.507	72.25
422.73	80.25
422.953	79.25
423.175	69.25
423.398	74.25
423.621	78.25
423.843	70.25
424.066	91.25
424.288	77.25
424.511	70.25
424.733	87.25
424.956	89.25
425.178	89.25
425.401	68.25
425.623	86.25
425.846	88.25
426.068	81.25
426.291	94.25
426.513	72.25
426.735	64.25
426.958	83.25
427.18	78.25
427.402	92.25
427.625	79.25
427.847	87.25
428.069	84.25
428.292	90.25
428.514	75.25
428.736	69.25
428.958	85.25
429.181	84.25
429.403	76.25
429.625	81.25
429.847	65.25
430.069	80.25
430.292	95.25
430.514	83.25
430.736	82.25
430.958	75.25
431.18	68.25
431.402	78.25
431.624	71.25
431.846	82.25
432.068	68.25
432.29	75.25
432.512	78.25
432.734	82.25
432.956	83.25
433.178	83.25
433.4	77.25
433.622	82.25
433.844	73.25
434.066	77.25
434.287	79.25
434.509	79.25
434.731	69.25
434.953	90.25
435.175	76.25
435.397	84.25
435.618	79.25
435.84	79.25
436.062	75.25
436.284	84.25
436.505	66.25
436.727	70.25
436.949	81.25
437.17	94.25
437.392	76.25
437.614	70.25
437.835	84.25
438.057	86.25
438.278	79.25
438.5	68.25
438.721	76.25
438.943	89.25
439.165	88.25
439.386	93.25
439.608	80.25
439.829	88.25
440.05	85.25
440.272	87.25
440.493	78.25
440.715	73.25
440.936	76.25
441.158	78.25
441.379	80.25
441.6	81.25
441.822	89.25
442.043	63.25
442.264	86.25
442.486	89.25
442.707	67.25
442.928	93.25
443.149	87.25
443.371	91.25
443.592	81.25
443.813	74.25
444.034	76.25
444.255	86.25
444.476	77.25
444.698	71.25
444.919	73.25
445.14	156.25
445.361	119.25
445.582	98.25
445.803	70.25
446.024	71.25
446.245	79.25
446.466	69.25
446.687	81.25
446.908	83.25
447.129	90.25
447.35	74.25
447.571	91.25
447.792	89.25
448.013	76.25
448.234	76.25
448.455	87.25
448.675	79.25
448.896	73.25
449.117	74.25
449.338	76.25
449.559	84.25
449.779	78.25
450	65.25
450.221	86.25
450.442	77.25
450.662	88.25
450.883	78.25
451.104	80.25
451.324	72.25
451.545	91.25
451.766	90.25
451.986	79.25
452.207	77.25
452.428	91.25
452.648	78.25
452.869	88.25
453.089	73.25
453.31	76.25
453.53	95.25
453.751	88.25
453.971	91.25
454.192	90.25
454.412	62.25
454.633	64.25
454.853	92.25
455.073	95.25
455.294	89.25
455.514	76.25
455.734	96.25
455.955	92.25
456.175	77.25
456.395	69.25
456.616	81.25
456.836	82.25
457.056	90.25
457.276	92.25
457.497	91.25
457.717	84.25
457.937	87.25
458.157	88.25
458.377	83.25
458.598	78.25
458.818	84.25
459.038	74.25
459.258	88.25
459.478	79.25
459.698	66.25
459.918	88.25
460.138	86.25
460.358	78.25
460.578	86.25
460.798	89.25
461.018	76.25
461.238	83.25
461.458	84.25
461.678	77.25
461.898	81.25
462.118	93.25
462.338	78.25
462.558	85.25
462.777	77.25
462.997	86.25
463.217	92.25
463.437	81.25
463.657	82.25
463.876	83.25
464.096	90.25
464.316	85.25
464.536	68.25
464.755	84.25
464.975	90.25
465.195	76.25
465.414	78.25
465.634	74.25
465.854	81.25
466.073	83.25
466.293	96.25
466.512	81.25
466.732	70.25
466.951	81.25
467.171	94.25
467.391	75.25
467.61	88.25
467.829	95.25
468.049	78.25
468.268	86.25
468.488	84.25
468.707	72.25
468.927	91.25
469.146	89.25
469.365	80.25
469.585	88.25
469.804	87.25
470.023	93.25
470.243	90.25
470.462	91.25
470.681	107.25
470.901	77.25
471.12	96.25
471.339	88.25
471.558	86.25
471.777	81.25
471.997	82.25
472.216	80.25
472.435	86.25
472.654	92.25
472.873	73.25
473.092	74.25
473.311	86.25
473.53	76.25
473.749	76.25
473.968	95.25
474.187	77.25
474.406	111.25
474.625	82.25
474.844	76.25
475.063	92.25
475.282	82.25
475.501	63.25
475.72	82.25
475.939	81.25
476.158	91.25
476.377	80.25
476.596	93.25
476.814	88.25
477.033	74.25
477.252	86.25
477.471	77.25
477.69	79.25
477.908	86.25
478.127	84.25
478.346	82.25
478.564	62.25
478.783	79.25
479.002	79.25
479.22	91.25
479.439	94.25
479.658	75.25
479.876	76.25
480.095	83.25
480.313	83.25
480.532	98.25
480.751	83.25
480.969	85.25
481.188	77.25
481.406	85.25
481.624	102.25
481.843	84.25
482.061	83.25
482.28	75.25
482.498	76.25
482.717	91.25
482.935	106.25
483.153	84.25
483.372	86.25
483.59	82.25
483.808	71.25
484.027	80.25
484.245	82.25
484.463	84.25
484.681	80.25
484.9	77.25
485.118	82.25
485.336	86.25
485.554	73.25
485.772	77.25
485.99	83.25
486.209	88.25
486.427	91.25
486.645	84.25
486.863	85.25
487.081	90.25
487.299	75.25
487.517	98.25
487.735	75.25
487.953	64.25
488.171	79.25
488.389	87.25
488.607	81.25
488.825	91.25
489.043	80.25
489.261	84.25
489.479	84.25
489.696	82.25
489.914	78.25
490.132	90.25
490.35	85.25
490.568	90.25
490.786	91.25
491.003	82.25
491.221	79.25
491.439	82.25
491.657	88.25
491.874	77.25
492.092	92.25
492.31	86.25
492.527	95.25
492.745	85.25
492.963	81.25
493.18	79.25
493.398	85.25
493.615	85.25
493.833	82.25
494.05	78.25
494.268	81.25
494.485	73.25
494.703	68.25
494.92	82.25
495.138	86.25
495.355	80.25
495.573	80.25
495.79	63.25
496.008	66.25
496.225	87.25
496.442	74.25
496.66	80.25
496.877	95.25
497.094	89.25
497.312	75.25
497.529	87.25
497.746	83.25
497.963	83.25
498.181	80.25
498.398	86.25
498.615	84.25
498.832	86.25
499.049	84.25
499.267	90.25
499.484	84.25
499.701	62.25
499.918	88.25
500.135	86.25
500.352	94.25
500.569	87.25
500.786	85.25
501.003	79.25
501.22	82.25
501.437	76.25
501.654	72.25
501.871	79.25
502.088	67.25
502.305	70.25
502.522	76.25
502.739	96.25
502.956	85.25
503.172	86.25
503.389	92.25
503.606	101.25
503.823	78.25
504.04	81.25
504.256	76.25
504.473	78.25
504.69	99.25
504.907	91.25
505.123	93.25
505.34	85.25
505.557	80.25
505.773	79.25
505.99	93.25
506.207	92.25
506.423	80.25
506.64	89.25
506.856	70.25
507.073	76.25
507.289	94.25
507.506	61.25
507.722	75.25
507.939	75.25
508.155	102.25
508.372	86.25
508.588	86.25
508.805	94.25
509.021	81.25
509.238	95.25
509.454	90.25
509.67	92.25
509.887	77.25
510.103	82.25
510.319	87.25
510.536	95.25
510.752	92.25
510.968	86.25
511.184	84.25
511.401	79.25
511.617	86.25
511.833	75.25
512.049	86.25
512.265	90.25
512.481	81.25
512.698	84.25
512.914	89.25
513.13	91.25
513.346	86.25
513.562	87.25
513.778	80.25
513.994	77.25
514.21	76.25
514.426	84.25
514.642	71.25
514.858	92.25
515.074	83.25
515.29	87.25
515.506	85.25
515.721	92.25
515.937	99.25
516.153	79.25
516.369	81.25
516.585	78.25
516.801	94.25
517.016	94.25
517.232	84.25
517.448	87.25
517.664	91.25
517.879	82.25
518.095	75.25
518.311	85.25
518.527	98.25
518.742	84.25
518.958	79.25
519.173	84.25
519.389	78.25
519.605	86.25
519.82	75.25
