Data from Background_3_HRD10591_00005.txt Node
Date: Wed Nov 05 14:49:22 EST 2025
User: Yrep
Spectrometer: HR+D1059
Trigger mode: 1
Integration Time (sec): 1.000000E-1
Scans to average: 1
Electric dark correction enabled: true
Nonlinearity correction enabled: false
Boxcar width: 0
XAxis mode: Wavelengths
Number of Pixels in Spectrum: 2048
>>>>>Begin Spectral Data<<<<<
223.165	-19.75
223.4	-19.75
223.635	-19.75
223.869	-10.75
224.104	-15.75
224.338	-5.75
224.573	-21.75
224.808	5.25
225.042	-8.75
225.277	-17.75
225.511	1.25
225.746	7.25
225.98	5.25
226.215	0.25
226.449	21.25
226.683	17.25
226.918	22.25
227.152	20.25
227.387	28.25
227.621	49.25
227.856	46.25
228.09	46.25
228.324	41.25
228.559	49.25
228.793	54.25
229.027	66.25
229.262	54.25
229.496	87.25
229.73	73.25
229.964	53.25
230.199	64.25
230.433	61.25
230.667	69.25
230.901	77.25
231.136	70.25
231.37	65.25
231.604	66.25
231.838	81.25
232.072	72.25
232.306	83.25
232.541	72.25
232.775	68.25
233.009	79.25
233.243	68.25
233.477	77.25
233.711	75.25
233.945	71.25
234.179	69.25
234.413	76.25
234.647	61.25
234.881	80.25
235.115	72.25
235.349	74.25
235.583	88.25
235.817	71.25
236.051	79.25
236.285	88.25
236.519	74.25
236.753	64.25
236.987	79.25
237.221	82.25
237.455	58.25
237.689	72.25
237.922	78.25
238.156	70.25
238.39	68.25
238.624	70.25
238.858	76.25
239.091	69.25
239.325	64.25
239.559	68.25
239.793	72.25
240.027	81.25
240.26	75.25
240.494	80.25
240.728	73.25
240.961	76.25
241.195	70.25
241.429	76.25
241.662	57.25
241.896	80.25
242.13	74.25
242.363	73.25
242.597	71.25
242.83	77.25
243.064	64.25
243.298	82.25
243.531	77.25
243.765	70.25
243.998	64.25
244.232	62.25
244.465	71.25
244.699	82.25
244.932	80.25
245.166	64.25
245.399	78.25
245.633	76.25
245.866	62.25
246.099	67.25
246.333	69.25
246.566	75.25
246.8	74.25
247.033	66.25
247.266	66.25
247.5	76.25
247.733	64.25
247.966	75.25
248.2	90.25
248.433	76.25
248.666	68.25
248.899	85.25
249.133	87.25
249.366	73.25
249.599	68.25
249.832	78.25
250.066	66.25
250.299	67.25
250.532	72.25
250.765	83.25
250.998	75.25
251.231	73.25
251.465	63.25
251.698	78.25
251.931	67.25
252.164	72.25
252.397	84.25
252.63	85.25
252.863	76.25
253.096	81.25
253.329	74.25
253.562	77.25
253.795	81.25
254.028	74.25
254.261	79.25
254.494	84.25
254.727	81.25
254.96	72.25
255.193	72.25
255.426	56.25
255.659	79.25
255.892	80.25
256.124	76.25
256.357	70.25
256.59	76.25
256.823	74.25
257.056	72.25
257.289	58.25
257.521	88.25
257.754	80.25
257.987	70.25
258.22	81.25
258.452	65.25
258.685	74.25
258.918	78.25
259.151	86.25
259.383	81.25
259.616	78.25
259.849	88.25
260.081	78.25
260.314	82.25
260.547	73.25
260.779	62.25
261.012	78.25
261.244	69.25
261.477	72.25
261.71	91.25
261.942	73.25
262.175	82.25
262.407	69.25
262.64	78.25
262.872	86.25
263.105	70.25
263.337	85.25
263.57	71.25
263.802	79.25
264.035	75.25
264.267	85.25
264.499	77.25
264.732	74.25
264.964	69.25
265.197	95.25
265.429	82.25
265.661	69.25
265.894	81.25
266.126	77.25
266.358	73.25
266.591	64.25
266.823	72.25
267.055	81.25
267.287	77.25
267.52	82.25
267.752	77.25
267.984	87.25
268.216	68.25
268.448	76.25
268.681	58.25
268.913	79.25
269.145	78.25
269.377	82.25
269.609	76.25
269.841	80.25
270.073	70.25
270.306	63.25
270.538	97.25
270.77	84.25
271.002	75.25
271.234	78.25
271.466	83.25
271.698	73.25
271.93	76.25
272.162	82.25
272.394	78.25
272.626	81.25
272.858	74.25
273.09	76.25
273.322	70.25
273.553	84.25
273.785	81.25
274.017	79.25
274.249	78.25
274.481	75.25
274.713	72.25
274.945	76.25
275.176	82.25
275.408	75.25
275.64	88.25
275.872	65.25
276.104	67.25
276.335	78.25
276.567	72.25
276.799	70.25
277.031	85.25
277.262	93.25
277.494	85.25
277.726	83.25
277.957	67.25
278.189	89.25
278.421	69.25
278.652	79.25
278.884	79.25
279.115	85.25
279.347	56.25
279.579	82.25
279.81	68.25
280.042	76.25
280.273	79.25
280.505	75.25
280.736	64.25
280.968	76.25
281.199	71.25
281.431	89.25
281.662	83.25
281.894	90.25
282.125	56.25
282.356	82.25
282.588	77.25
282.819	78.25
283.051	72.25
283.282	71.25
283.513	80.25
283.745	85.25
283.976	84.25
284.207	76.25
284.439	77.25
284.67	78.25
284.901	78.25
285.132	85.25
285.364	84.25
285.595	74.25
285.826	73.25
286.057	76.25
286.288	68.25
286.52	94.25
286.751	64.25
286.982	80.25
287.213	70.25
287.444	92.25
287.675	87.25
287.906	74.25
288.138	81.25
288.369	77.25
288.6	69.25
288.831	75.25
289.062	81.25
289.293	81.25
289.524	100.25
289.755	76.25
289.986	91.25
290.217	76.25
290.448	59.25
290.679	97.25
290.91	82.25
291.141	82.25
291.371	84.25
291.602	81.25
291.833	78.25
292.064	78.25
292.295	100.25
292.526	71.25
292.757	80.25
292.987	72.25
293.218	65.25
293.449	91.25
293.68	78.25
293.91	76.25
294.141	92.25
294.372	73.25
294.603	68.25
294.833	82.25
295.064	71.25
295.295	72.25
295.525	72.25
295.756	90.25
295.987	76.25
296.217	70.25
296.448	89.25
296.679	91.25
296.909	76.25
297.14	86.25
297.37	66.25
297.601	86.25
297.831	88.25
298.062	84.25
298.292	88.25
298.523	90.25
298.753	88.25
298.984	85.25
299.214	87.25
299.445	73.25
299.675	80.25
299.905	83.25
300.136	77.25
300.366	72.25
300.597	84.25
300.827	89.25
301.057	81.25
301.288	71.25
301.518	79.25
301.748	89.25
301.979	89.25
302.209	82.25
302.439	76.25
302.669	86.25
302.9	60.25
303.13	81.25
303.36	68.25
303.59	66.25
303.82	88.25
304.051	81.25
304.281	73.25
304.511	80.25
304.741	82.25
304.971	79.25
305.201	85.25
305.431	76.25
305.661	85.25
305.891	88.25
306.121	96.25
306.352	80.25
306.582	74.25
306.812	71.25
307.042	79.25
307.272	78.25
307.502	67.25
307.731	86.25
307.961	83.25
308.191	61.25
308.421	82.25
308.651	92.25
308.881	76.25
309.111	80.25
309.341	76.25
309.571	69.25
309.8	78.25
310.03	88.25
310.26	72.25
310.49	76.25
310.72	80.25
310.949	78.25
311.179	82.25
311.409	85.25
311.639	69.25
311.868	88.25
312.098	87.25
312.328	76.25
312.557	86.25
312.787	98.25
313.017	86.25
313.246	71.25
313.476	72.25
313.706	87.25
313.935	77.25
314.165	74.25
314.394	68.25
314.624	78.25
314.853	84.25
315.083	81.25
315.312	90.25
315.542	81.25
315.771	97.25
316.001	75.25
316.23	88.25
316.46	86.25
316.689	81.25
316.919	97.25
317.148	79.25
317.377	90.25
317.607	90.25
317.836	86.25
318.065	73.25
318.295	95.25
318.524	75.25
318.753	80.25
318.983	81.25
319.212	74.25
319.441	87.25
319.67	76.25
319.9	80.25
320.129	81.25
320.358	88.25
320.587	80.25
320.816	92.25
321.046	85.25
321.275	84.25
321.504	84.25
321.733	92.25
321.962	75.25
322.191	79.25
322.42	86.25
322.649	92.25
322.878	84.25
323.108	100.25
323.337	75.25
323.566	85.25
323.795	82.25
324.024	72.25
324.253	87.25
324.482	69.25
324.71	85.25
324.939	102.25
325.168	87.25
325.397	78.25
325.626	80.25
325.855	85.25
326.084	81.25
326.313	86.25
326.542	85.25
326.77	94.25
326.999	62.25
327.228	67.25
327.457	77.25
327.686	90.25
327.914	92.25
328.143	81.25
328.372	78.25
328.6	65.25
328.829	77.25
329.058	84.25
329.287	83.25
329.515	78.25
329.744	81.25
329.972	89.25
330.201	70.25
330.43	79.25
330.658	73.25
330.887	81.25
331.115	73.25
331.344	80.25
331.572	92.25
331.801	80.25
332.03	85.25
332.258	86.25
332.486	81.25
332.715	92.25
332.943	69.25
333.172	80.25
333.4	76.25
333.629	74.25
333.857	78.25
334.085	72.25
334.314	78.25
334.542	79.25
334.771	81.25
334.999	70.25
335.227	83.25
335.455	72.25
335.684	76.25
335.912	84.25
336.14	92.25
336.369	72.25
336.597	80.25
336.825	85.25
337.053	79.25
337.281	74.25
337.51	76.25
337.738	80.25
337.966	79.25
338.194	63.25
338.422	93.25
338.65	88.25
338.878	80.25
339.106	65.25
339.334	72.25
339.562	73.25
339.79	95.25
340.018	79.25
340.246	68.25
340.474	80.25
340.702	96.25
340.93	81.25
341.158	76.25
341.386	70.25
341.614	79.25
341.842	64.25
342.07	80.25
342.298	81.25
342.526	66.25
342.754	70.25
342.981	69.25
343.209	64.25
343.437	84.25
343.665	69.25
343.893	82.25
344.12	87.25
344.348	82.25
344.576	70.25
344.804	81.25
345.031	76.25
345.259	86.25
345.487	80.25
345.714	83.25
345.942	79.25
346.17	83.25
346.397	90.25
346.625	84.25
346.853	70.25
347.08	82.25
347.308	82.25
347.535	71.25
347.763	80.25
347.99	80.25
348.218	80.25
348.445	78.25
348.673	70.25
348.9	81.25
349.128	82.25
349.355	85.25
349.583	84.25
349.81	90.25
350.037	86.25
350.265	76.25
350.492	72.25
350.72	90.25
350.947	77.25
351.174	75.25
351.402	107.25
351.629	66.25
351.856	74.25
352.083	71.25
352.311	80.25
352.538	77.25
352.765	72.25
352.992	81.25
353.22	85.25
353.447	76.25
353.674	70.25
353.901	87.25
354.128	92.25
354.355	72.25
354.583	84.25
354.81	81.25
355.037	76.25
355.264	80.25
355.491	70.25
355.718	72.25
355.945	81.25
356.172	84.25
356.399	80.25
356.626	76.25
356.853	97.25
357.08	87.25
357.307	62.25
357.534	80.25
357.761	69.25
357.988	94.25
358.215	83.25
358.441	87.25
358.668	73.25
358.895	82.25
359.122	84.25
359.349	84.25
359.576	69.25
359.802	90.25
360.029	82.25
360.256	77.25
360.483	63.25
360.709	73.25
360.936	85.25
361.163	82.25
361.39	80.25
361.616	71.25
361.843	77.25
362.07	92.25
362.296	66.25
362.523	81.25
362.749	91.25
362.976	75.25
363.203	69.25
363.429	82.25
363.656	73.25
363.882	90.25
364.109	85.25
364.335	78.25
364.562	64.25
364.788	89.25
365.015	74.25
365.241	72.25
365.468	81.25
365.694	72.25
365.92	85.25
366.147	85.25
366.373	81.25
366.599	79.25
366.826	81.25
367.052	82.25
367.278	66.25
367.505	82.25
367.731	72.25
367.957	78.25
368.184	91.25
368.41	78.25
368.636	84.25
368.862	76.25
369.089	88.25
369.315	76.25
369.541	89.25
369.767	83.25
369.993	77.25
370.219	74.25
370.445	68.25
370.672	80.25
370.898	84.25
371.124	67.25
371.35	64.25
371.576	74.25
371.802	69.25
372.028	91.25
372.254	79.25
372.48	65.25
372.706	78.25
372.932	85.25
373.158	77.25
373.384	79.25
373.61	84.25
373.835	78.25
374.061	74.25
374.287	89.25
374.513	75.25
374.739	80.25
374.965	71.25
375.191	86.25
375.416	86.25
375.642	80.25
375.868	84.25
376.094	79.25
376.319	85.25
376.545	79.25
376.771	81.25
376.997	78.25
377.222	76.25
377.448	70.25
377.674	73.25
377.899	76.25
378.125	70.25
378.35	80.25
378.576	83.25
378.802	79.25
379.027	73.25
379.253	82.25
379.478	62.25
379.704	67.25
379.929	70.25
380.155	79.25
380.38	79.25
380.606	81.25
380.831	77.25
381.057	88.25
381.282	79.25
381.507	88.25
381.733	72.25
381.958	86.25
382.184	78.25
382.409	86.25
382.634	80.25
382.86	66.25
383.085	65.25
383.31	75.25
383.535	78.25
383.761	79.25
383.986	65.25
384.211	81.25
384.436	76.25
384.662	79.25
384.887	78.25
385.112	78.25
385.337	70.25
385.562	84.25
385.787	79.25
386.013	89.25
386.238	75.25
386.463	80.25
386.688	78.25
386.913	72.25
387.138	81.25
387.363	78.25
387.588	72.25
387.813	74.25
388.038	66.25
388.263	67.25
388.488	80.25
388.713	84.25
388.938	82.25
389.163	70.25
389.387	83.25
389.612	80.25
389.837	68.25
390.062	76.25
390.287	81.25
390.512	80.25
390.736	68.25
390.961	79.25
391.186	79.25
391.411	77.25
391.636	73.25
391.86	86.25
392.085	73.25
392.31	82.25
392.534	82.25
392.759	69.25
392.984	77.25
393.208	85.25
393.433	73.25
393.658	90.25
393.882	76.25
394.107	84.25
394.331	79.25
394.556	65.25
394.78	74.25
395.005	72.25
395.229	80.25
395.454	77.25
395.678	86.25
395.903	87.25
396.127	79.25
396.352	87.25
396.576	93.25
396.801	78.25
397.025	66.25
397.249	64.25
397.474	77.25
397.698	82.25
397.922	77.25
398.147	80.25
398.371	90.25
398.595	72.25
398.82	65.25
399.044	74.25
399.268	80.25
399.492	78.25
399.717	81.25
399.941	85.25
400.165	80.25
400.389	84.25
400.613	75.25
400.837	88.25
401.062	66.25
401.286	70.25
401.51	58.25
401.734	81.25
401.958	68.25
402.182	70.25
402.406	77.25
402.63	76.25
402.854	74.25
403.078	74.25
403.302	69.25
403.526	78.25
403.75	76.25
403.974	82.25
404.198	82.25
404.422	89.25
404.645	88.25
404.869	88.25
405.093	74.25
405.317	55.25
405.541	63.25
405.765	79.25
405.988	90.25
406.212	77.25
406.436	76.25
406.66	99.25
406.883	71.25
407.107	84.25
407.331	71.25
407.555	57.25
407.778	68.25
408.002	76.25
408.226	78.25
408.449	88.25
408.673	84.25
408.896	69.25
409.12	70.25
409.344	83.25
409.567	64.25
409.791	77.25
410.014	62.25
410.238	72.25
410.461	67.25
410.685	72.25
410.908	66.25
411.132	86.25
411.355	77.25
411.578	64.25
411.802	72.25
412.025	80.25
412.249	92.25
412.472	66.25
412.695	68.25
412.919	77.25
413.142	66.25
413.365	76.25
413.589	69.25
413.812	75.25
414.035	76.25
414.258	74.25
414.482	74.25
414.705	84.25
414.928	81.25
415.151	91.25
415.374	74.25
415.597	76.25
415.821	75.25
416.044	88.25
416.267	72.25
416.49	85.25
416.713	79.25
416.936	85.25
417.159	72.25
417.382	70.25
417.605	73.25
417.828	86.25
418.051	80.25
418.274	72.25
418.497	69.25
418.72	80.25
418.943	80.25
419.166	75.25
419.389	76.25
419.611	75.25
419.834	70.25
420.057	78.25
420.28	72.25
420.503	81.25
420.726	76.25
420.948	91.25
421.171	71.25
421.394	84.25
421.617	72.25
421.839	90.25
422.062	64.25
422.285	60.25
422.507	82.25
422.73	71.25
422.953	62.25
423.175	78.25
423.398	85.25
423.621	71.25
423.843	78.25
424.066	78.25
424.288	48.25
424.511	79.25
424.733	86.25
424.956	74.25
425.178	72.25
425.401	77.25
425.623	74.25
425.846	82.25
426.068	98.25
426.291	65.25
426.513	86.25
426.735	75.25
426.958	81.25
427.18	87.25
427.402	84.25
427.625	75.25
427.847	69.25
428.069	79.25
428.292	65.25
428.514	82.25
428.736	89.25
428.958	69.25
429.181	76.25
429.403	82.25
429.625	72.25
429.847	70.25
430.069	82.25
430.292	85.25
430.514	79.25
430.736	63.25
430.958	76.25
431.18	79.25
431.402	71.25
431.624	73.25
431.846	65.25
432.068	92.25
432.29	88.25
432.512	79.25
432.734	91.25
432.956	75.25
433.178	70.25
433.4	88.25
433.622	76.25
433.844	70.25
434.066	74.25
434.287	72.25
434.509	69.25
434.731	82.25
434.953	84.25
435.175	74.25
435.397	84.25
435.618	81.25
435.84	74.25
436.062	78.25
436.284	59.25
436.505	84.25
436.727	79.25
436.949	88.25
437.17	88.25
437.392	83.25
437.614	80.25
437.835	78.25
438.057	78.25
438.278	68.25
438.5	77.25
438.721	88.25
438.943	74.25
439.165	79.25
439.386	78.25
439.608	80.25
439.829	69.25
440.05	71.25
440.272	74.25
440.493	76.25
440.715	69.25
440.936	80.25
441.158	77.25
441.379	79.25
441.6	77.25
441.822	80.25
442.043	76.25
442.264	77.25
442.486	83.25
442.707	81.25
442.928	82.25
443.149	83.25
443.371	70.25
443.592	81.25
443.813	76.25
444.034	82.25
444.255	71.25
444.476	76.25
444.698	82.25
444.919	81.25
445.14	153.25
445.361	108.25
445.582	74.25
445.803	71.25
446.024	74.25
446.245	86.25
446.466	73.25
446.687	86.25
446.908	76.25
447.129	68.25
447.35	79.25
447.571	78.25
447.792	62.25
448.013	72.25
448.234	76.25
448.455	83.25
448.675	82.25
448.896	84.25
449.117	72.25
449.338	90.25
449.559	85.25
449.779	81.25
450	65.25
450.221	64.25
450.442	60.25
450.662	90.25
450.883	87.25
451.104	73.25
451.324	80.25
451.545	68.25
451.766	82.25
451.986	80.25
452.207	91.25
452.428	77.25
452.648	78.25
452.869	73.25
453.089	80.25
453.31	72.25
453.53	76.25
453.751	77.25
453.971	69.25
454.192	70.25
454.412	76.25
454.633	74.25
454.853	81.25
455.073	72.25
455.294	85.25
455.514	81.25
455.734	82.25
455.955	74.25
456.175	74.25
456.395	84.25
456.616	63.25
456.836	65.25
457.056	82.25
457.276	70.25
457.497	63.25
457.717	86.25
457.937	86.25
458.157	74.25
458.377	70.25
458.598	77.25
458.818	73.25
459.038	80.25
459.258	84.25
459.478	81.25
459.698	64.25
459.918	71.25
460.138	84.25
460.358	71.25
460.578	75.25
460.798	81.25
461.018	74.25
461.238	70.25
461.458	78.25
461.678	65.25
461.898	80.25
462.118	77.25
462.338	75.25
462.558	86.25
462.777	86.25
462.997	84.25
463.217	81.25
463.437	66.25
463.657	72.25
463.876	63.25
464.096	77.25
464.316	81.25
464.536	69.25
464.755	79.25
464.975	76.25
465.195	81.25
465.414	84.25
465.634	87.25
465.854	81.25
466.073	82.25
466.293	71.25
466.512	76.25
466.732	82.25
466.951	74.25
467.171	83.25
467.391	74.25
467.61	81.25
467.829	73.25
468.049	85.25
468.268	88.25
468.488	84.25
468.707	66.25
468.927	73.25
469.146	72.25
469.365	80.25
469.585	61.25
469.804	81.25
470.023	85.25
470.243	84.25
470.462	76.25
470.681	86.25
470.901	76.25
471.12	70.25
471.339	84.25
471.558	57.25
471.777	87.25
471.997	79.25
472.216	87.25
472.435	68.25
472.654	85.25
472.873	72.25
473.092	68.25
473.311	85.25
473.53	68.25
473.749	73.25
473.968	68.25
474.187	73.25
474.406	91.25
474.625	82.25
474.844	82.25
475.063	73.25
475.282	82.25
475.501	59.25
475.72	85.25
475.939	82.25
476.158	77.25
476.377	72.25
476.596	70.25
476.814	69.25
477.033	82.25
477.252	81.25
477.471	72.25
477.69	82.25
477.908	74.25
478.127	74.25
478.346	56.25
478.564	83.25
478.783	71.25
479.002	82.25
479.22	71.25
479.439	72.25
479.658	83.25
479.876	64.25
480.095	71.25
480.313	84.25
480.532	63.25
480.751	72.25
480.969	63.25
481.188	80.25
481.406	74.25
481.624	77.25
481.843	78.25
482.061	74.25
482.28	93.25
482.498	63.25
482.717	78.25
482.935	89.25
483.153	75.25
483.372	74.25
483.59	75.25
483.808	64.25
484.027	64.25
484.245	74.25
484.463	66.25
484.681	74.25
484.9	77.25
485.118	73.25
485.336	80.25
485.554	82.25
485.772	78.25
485.99	75.25
486.209	95.25
486.427	82.25
486.645	76.25
486.863	81.25
487.081	68.25
487.299	81.25
487.517	92.25
487.735	78.25
487.953	76.25
488.171	80.25
488.389	84.25
488.607	80.25
488.825	77.25
489.043	82.25
489.261	74.25
489.479	76.25
489.696	85.25
489.914	79.25
490.132	86.25
490.35	93.25
490.568	80.25
490.786	79.25
491.003	68.25
491.221	66.25
491.439	60.25
491.657	69.25
491.874	80.25
492.092	72.25
492.31	76.25
492.527	80.25
492.745	83.25
492.963	84.25
493.18	67.25
493.398	84.25
493.615	77.25
493.833	72.25
494.05	68.25
494.268	74.25
494.485	81.25
494.703	76.25
494.92	72.25
495.138	78.25
495.355	80.25
495.573	82.25
495.79	84.25
496.008	84.25
496.225	80.25
496.442	77.25
496.66	80.25
496.877	71.25
497.094	88.25
497.312	66.25
497.529	69.25
497.746	75.25
497.963	78.25
498.181	78.25
498.398	76.25
498.615	72.25
498.832	79.25
499.049	80.25
499.267	78.25
499.484	84.25
499.701	76.25
499.918	79.25
500.135	82.25
500.352	71.25
500.569	88.25
500.786	93.25
501.003	76.25
501.22	92.25
501.437	80.25
501.654	72.25
501.871	65.25
502.088	76.25
502.305	68.25
502.522	84.25
502.739	81.25
502.956	86.25
503.172	64.25
503.389	74.25
503.606	84.25
503.823	70.25
504.04	66.25
504.256	70.25
504.473	77.25
504.69	77.25
504.907	87.25
505.123	76.25
505.34	90.25
505.557	74.25
505.773	69.25
505.99	57.25
506.207	80.25
506.423	86.25
506.64	75.25
506.856	67.25
507.073	82.25
507.289	77.25
507.506	84.25
507.722	76.25
507.939	80.25
508.155	81.25
508.372	77.25
508.588	63.25
508.805	84.25
509.021	88.25
509.238	84.25
509.454	76.25
509.67	81.25
509.887	80.25
510.103	72.25
510.319	91.25
510.536	74.25
510.752	71.25
510.968	82.25
511.184	71.25
511.401	78.25
511.617	84.25
511.833	89.25
512.049	73.25
512.265	82.25
512.481	74.25
512.698	96.25
512.914	87.25
513.13	80.25
513.346	84.25
513.562	65.25
513.778	82.25
513.994	94.25
514.21	91.25
514.426	79.25
514.642	73.25
514.858	74.25
515.074	88.25
515.29	82.25
515.506	93.25
515.721	76.25
515.937	74.25
516.153	96.25
516.369	77.25
516.585	83.25
516.801	72.25
517.016	61.25
517.232	80.25
517.448	71.25
517.664	80.25
517.879	90.25
518.095	82.25
518.311	81.25
518.527	68.25
518.742	76.25
518.958	81.25
519.173	80.25
519.389	72.25
519.605	72.25
519.82	82.25
520.036	72.25
520.251	67.25
