Data from Background_3_HRD10591_00096.txt Node
Date: Wed Nov 05 14:50:07 EST 2025
User: Yrep
Spectrometer: HR+D1059
Trigger mode: 1
Integration Time (sec): 1.000000E-1
Scans to average: 1
Electric dark correction enabled: true
Nonlinearity correction enabled: false
Boxcar width: 0
XAxis mode: Wavelengths
Number of Pixels in Spectrum: 2048
>>>>>Begin Spectral Data<<<<<
223.165	-19.06
223.4	-19.06
223.635	-19.06
223.869	-6.06
224.104	-20.06
224.338	-6.06
224.573	-19.06
224.808	-7.06
225.042	-7.06
225.277	2.94
225.511	2.94
225.746	3.94
225.98	3.94
226.215	7.94
226.449	-1.06
226.683	11.94
226.918	16.94
227.152	34.94
227.387	19.94
227.621	35.94
227.856	40.94
228.09	24.94
228.324	47.94
228.559	57.94
228.793	67.94
229.027	71.94
229.262	69.94
229.496	74.94
229.73	67.94
229.964	57.94
230.199	74.94
230.433	74.94
230.667	86.94
230.901	68.94
231.136	77.94
231.37	73.94
231.604	81.94
231.838	82.94
232.072	80.94
232.306	76.94
232.541	73.94
232.775	79.94
233.009	89.94
233.243	81.94
233.477	69.94
233.711	86.94
233.945	71.94
234.179	78.94
234.413	84.94
234.647	85.94
234.881	79.94
235.115	83.94
235.349	73.94
235.583	69.94
235.817	79.94
236.051	70.94
236.285	88.94
236.519	71.94
236.753	81.94
236.987	55.94
237.221	81.94
237.455	82.94
237.689	81.94
237.922	68.94
238.156	74.94
238.39	61.94
238.624	71.94
238.858	77.94
239.091	91.94
239.325	71.94
239.559	65.94
239.793	59.94
240.027	77.94
240.26	82.94
240.494	63.94
240.728	77.94
240.961	71.94
241.195	74.94
241.429	69.94
241.662	79.94
241.896	79.94
242.13	63.94
242.363	72.94
242.597	75.94
242.83	78.94
243.064	71.94
243.298	78.94
243.531	80.94
243.765	78.94
243.998	70.94
244.232	74.94
244.465	78.94
244.699	73.94
244.932	60.94
245.166	79.94
245.399	71.94
245.633	78.94
245.866	73.94
246.099	59.94
246.333	82.94
246.566	64.94
246.8	75.94
247.033	71.94
247.266	67.94
247.5	87.94
247.733	83.94
247.966	77.94
248.2	81.94
248.433	73.94
248.666	74.94
248.899	72.94
249.133	74.94
249.366	74.94
249.599	71.94
249.832	68.94
250.066	61.94
250.299	65.94
250.532	71.94
250.765	64.94
250.998	68.94
251.231	83.94
251.465	89.94
251.698	51.94
251.931	67.94
252.164	90.94
252.397	87.94
252.63	70.94
252.863	71.94
253.096	83.94
253.329	90.94
253.562	68.94
253.795	77.94
254.028	72.94
254.261	75.94
254.494	75.94
254.727	78.94
254.96	73.94
255.193	73.94
255.426	86.94
255.659	67.94
255.892	69.94
256.124	89.94
256.357	85.94
256.59	68.94
256.823	70.94
257.056	81.94
257.289	82.94
257.521	85.94
257.754	77.94
257.987	82.94
258.22	87.94
258.452	71.94
258.685	87.94
258.918	75.94
259.151	74.94
259.383	77.94
259.616	94.94
259.849	67.94
260.081	66.94
260.314	81.94
260.547	76.94
260.779	78.94
261.012	84.94
261.244	74.94
261.477	79.94
261.71	73.94
261.942	79.94
262.175	74.94
262.407	77.94
262.64	81.94
262.872	77.94
263.105	81.94
263.337	78.94
263.57	80.94
263.802	78.94
264.035	80.94
264.267	85.94
264.499	71.94
264.732	64.94
264.964	65.94
265.197	79.94
265.429	76.94
265.661	78.94
265.894	76.94
266.126	73.94
266.358	87.94
266.591	73.94
266.823	72.94
267.055	80.94
267.287	63.94
267.52	71.94
267.752	65.94
267.984	82.94
268.216	96.94
268.448	89.94
268.681	77.94
268.913	92.94
269.145	67.94
269.377	89.94
269.609	74.94
269.841	72.94
270.073	66.94
270.306	88.94
270.538	65.94
270.77	68.94
271.002	87.94
271.234	85.94
271.466	94.94
271.698	74.94
271.93	71.94
272.162	94.94
272.394	79.94
272.626	70.94
272.858	83.94
273.09	71.94
273.322	79.94
273.553	85.94
273.785	85.94
274.017	67.94
274.249	82.94
274.481	85.94
274.713	92.94
274.945	71.94
275.176	92.94
275.408	77.94
275.64	88.94
275.872	85.94
276.104	76.94
276.335	78.94
276.567	76.94
276.799	77.94
277.031	69.94
277.262	86.94
277.494	82.94
277.726	75.94
277.957	74.94
278.189	71.94
278.421	87.94
278.652	83.94
278.884	82.94
279.115	85.94
279.347	83.94
279.579	83.94
279.81	74.94
280.042	91.94
280.273	91.94
280.505	86.94
280.736	79.94
280.968	83.94
281.199	85.94
281.431	73.94
281.662	87.94
281.894	92.94
282.125	79.94
282.356	79.94
282.588	77.94
282.819	70.94
283.051	73.94
283.282	84.94
283.513	73.94
283.745	91.94
283.976	83.94
284.207	82.94
284.439	75.94
284.67	85.94
284.901	77.94
285.132	83.94
285.364	85.94
285.595	80.94
285.826	76.94
286.057	90.94
286.288	90.94
286.52	99.94
286.751	77.94
286.982	76.94
287.213	85.94
287.444	82.94
287.675	86.94
287.906	89.94
288.138	67.94
288.369	89.94
288.6	90.94
288.831	87.94
289.062	83.94
289.293	64.94
289.524	83.94
289.755	65.94
289.986	89.94
290.217	87.94
290.448	87.94
290.679	94.94
290.91	84.94
291.141	80.94
291.371	84.94
291.602	90.94
291.833	90.94
292.064	83.94
292.295	82.94
292.526	91.94
292.757	80.94
292.987	75.94
293.218	84.94
293.449	73.94
293.68	91.94
293.91	89.94
294.141	77.94
294.372	82.94
294.603	81.94
294.833	82.94
295.064	79.94
295.295	79.94
295.525	70.94
295.756	77.94
295.987	81.94
296.217	81.94
296.448	72.94
296.679	88.94
296.909	82.94
297.14	85.94
297.37	80.94
297.601	88.94
297.831	83.94
298.062	84.94
298.292	90.94
298.523	69.94
298.753	70.94
298.984	75.94
299.214	79.94
299.445	72.94
299.675	84.94
299.905	81.94
300.136	75.94
300.366	84.94
300.597	87.94
300.827	110.94
301.057	78.94
301.288	93.94
301.518	79.94
301.748	87.94
301.979	95.94
302.209	75.94
302.439	74.94
302.669	79.94
302.9	75.94
303.13	83.94
303.36	73.94
303.59	62.94
303.82	73.94
304.051	90.94
304.281	91.94
304.511	81.94
304.741	82.94
304.971	80.94
305.201	78.94
305.431	80.94
305.661	90.94
305.891	83.94
306.121	82.94
306.352	87.94
306.582	66.94
306.812	96.94
307.042	83.94
307.272	83.94
307.502	73.94
307.731	65.94
307.961	86.94
308.191	96.94
308.421	80.94
308.651	101.94
308.881	82.94
309.111	88.94
309.341	70.94
309.571	72.94
309.8	95.94
310.03	81.94
310.26	79.94
310.49	71.94
310.72	80.94
310.949	94.94
311.179	79.94
311.409	73.94
311.639	81.94
311.868	73.94
312.098	91.94
312.328	92.94
312.557	97.94
312.787	67.94
313.017	79.94
313.246	85.94
313.476	74.94
313.706	82.94
313.935	80.94
314.165	81.94
314.394	77.94
314.624	75.94
314.853	71.94
315.083	82.94
315.312	86.94
315.542	78.94
315.771	76.94
316.001	65.94
316.23	85.94
316.46	79.94
316.689	78.94
316.919	81.94
317.148	86.94
317.377	72.94
317.607	77.94
317.836	92.94
318.065	67.94
318.295	82.94
318.524	87.94
318.753	77.94
318.983	63.94
319.212	88.94
319.441	76.94
319.67	83.94
319.9	79.94
320.129	74.94
320.358	80.94
320.587	86.94
320.816	71.94
321.046	91.94
321.275	88.94
321.504	86.94
321.733	80.94
321.962	81.94
322.191	83.94
322.42	78.94
322.649	92.94
322.878	83.94
323.108	73.94
323.337	79.94
323.566	64.94
323.795	92.94
324.024	87.94
324.253	90.94
324.482	74.94
324.71	82.94
324.939	83.94
325.168	90.94
325.397	95.94
325.626	98.94
325.855	82.94
326.084	78.94
326.313	65.94
326.542	87.94
326.77	67.94
326.999	75.94
327.228	103.94
327.457	78.94
327.686	74.94
327.914	73.94
328.143	85.94
328.372	79.94
328.6	81.94
328.829	87.94
329.058	87.94
329.287	66.94
329.515	68.94
329.744	79.94
329.972	83.94
330.201	77.94
330.43	91.94
330.658	94.94
330.887	88.94
331.115	83.94
331.344	77.94
331.572	82.94
331.801	73.94
332.03	76.94
332.258	82.94
332.486	81.94
332.715	69.94
332.943	81.94
333.172	74.94
333.4	67.94
333.629	84.94
333.857	85.94
334.085	85.94
334.314	73.94
334.542	72.94
334.771	79.94
334.999	63.94
335.227	75.94
335.455	84.94
335.684	85.94
335.912	78.94
336.14	85.94
336.369	77.94
336.597	78.94
336.825	65.94
337.053	78.94
337.281	92.94
337.51	80.94
337.738	81.94
337.966	89.94
338.194	79.94
338.422	88.94
338.65	76.94
338.878	96.94
339.106	87.94
339.334	87.94
339.562	83.94
339.79	65.94
340.018	65.94
340.246	81.94
340.474	83.94
340.702	92.94
340.93	82.94
341.158	84.94
341.386	90.94
341.614	81.94
341.842	83.94
342.07	86.94
342.298	82.94
342.526	72.94
342.754	63.94
342.981	85.94
343.209	81.94
343.437	98.94
343.665	80.94
343.893	90.94
344.12	85.94
344.348	90.94
344.576	79.94
344.804	77.94
345.031	80.94
345.259	93.94
345.487	85.94
345.714	86.94
345.942	80.94
346.17	91.94
346.397	88.94
346.625	74.94
346.853	80.94
347.08	80.94
347.308	81.94
347.535	85.94
347.763	85.94
347.99	89.94
348.218	81.94
348.445	82.94
348.673	79.94
348.9	83.94
349.128	78.94
349.355	83.94
349.583	83.94
349.81	74.94
350.037	80.94
350.265	85.94
350.492	81.94
350.72	82.94
350.947	77.94
351.174	69.94
351.402	82.94
351.629	71.94
351.856	74.94
352.083	92.94
352.311	73.94
352.538	79.94
352.765	72.94
352.992	82.94
353.22	78.94
353.447	76.94
353.674	100.94
353.901	75.94
354.128	75.94
354.355	82.94
354.583	75.94
354.81	81.94
355.037	70.94
355.264	85.94
355.491	83.94
355.718	81.94
355.945	71.94
356.172	78.94
356.399	77.94
356.626	77.94
356.853	79.94
357.08	88.94
357.307	79.94
357.534	90.94
357.761	80.94
357.988	83.94
358.215	91.94
358.441	71.94
358.668	71.94
358.895	73.94
359.122	82.94
359.349	80.94
359.576	65.94
359.802	81.94
360.029	84.94
360.256	65.94
360.483	67.94
360.709	89.94
360.936	85.94
361.163	90.94
361.39	88.94
361.616	81.94
361.843	94.94
362.07	84.94
362.296	75.94
362.523	93.94
362.749	69.94
362.976	80.94
363.203	87.94
363.429	87.94
363.656	88.94
363.882	79.94
364.109	81.94
364.335	79.94
364.562	72.94
364.788	67.94
365.015	83.94
365.241	89.94
365.468	73.94
365.694	82.94
365.92	80.94
366.147	75.94
366.373	82.94
366.599	71.94
366.826	58.94
367.052	86.94
367.278	80.94
367.505	90.94
367.731	90.94
367.957	87.94
368.184	86.94
368.41	85.94
368.636	80.94
368.862	94.94
369.089	73.94
369.315	79.94
369.541	85.94
369.767	87.94
369.993	82.94
370.219	80.94
370.445	80.94
370.672	73.94
370.898	80.94
371.124	91.94
371.35	97.94
371.576	68.94
371.802	75.94
372.028	81.94
372.254	67.94
372.48	83.94
372.706	75.94
372.932	70.94
373.158	90.94
373.384	77.94
373.61	87.94
373.835	83.94
374.061	85.94
374.287	72.94
374.513	86.94
374.739	85.94
374.965	93.94
375.191	81.94
375.416	65.94
375.642	83.94
375.868	95.94
376.094	74.94
376.319	94.94
376.545	77.94
376.771	76.94
376.997	91.94
377.222	79.94
377.448	82.94
377.674	67.94
377.899	85.94
378.125	68.94
378.35	92.94
378.576	77.94
378.802	87.94
379.027	75.94
379.253	82.94
379.478	80.94
379.704	87.94
379.929	83.94
380.155	77.94
380.38	90.94
380.606	90.94
380.831	83.94
381.057	93.94
381.282	78.94
381.507	86.94
381.733	88.94
381.958	82.94
382.184	83.94
382.409	78.94
382.634	94.94
382.86	70.94
383.085	81.94
383.31	73.94
383.535	79.94
383.761	75.94
383.986	92.94
384.211	78.94
384.436	65.94
384.662	65.94
384.887	74.94
385.112	79.94
385.337	77.94
385.562	90.94
385.787	85.94
386.013	71.94
386.238	92.94
386.463	77.94
386.688	85.94
386.913	77.94
387.138	83.94
387.363	87.94
387.588	89.94
387.813	65.94
388.038	71.94
388.263	82.94
388.488	64.94
388.713	81.94
388.938	76.94
389.163	76.94
389.387	84.94
389.612	70.94
389.837	81.94
390.062	82.94
390.287	82.94
390.512	81.94
390.736	90.94
390.961	61.94
391.186	76.94
391.411	67.94
391.636	72.94
391.86	71.94
392.085	84.94
392.31	76.94
392.534	57.94
392.759	61.94
392.984	66.94
393.208	68.94
393.433	71.94
393.658	97.94
393.882	73.94
394.107	101.94
394.331	66.94
394.556	80.94
394.78	87.94
395.005	74.94
395.229	74.94
395.454	72.94
395.678	59.94
395.903	65.94
396.127	78.94
396.352	64.94
396.576	73.94
396.801	86.94
397.025	74.94
397.249	88.94
397.474	72.94
397.698	88.94
397.922	78.94
398.147	76.94
398.371	71.94
398.595	71.94
398.82	89.94
399.044	62.94
399.268	79.94
399.492	87.94
399.717	75.94
399.941	74.94
400.165	72.94
400.389	64.94
400.613	64.94
400.837	79.94
401.062	89.94
401.286	71.94
401.51	94.94
401.734	71.94
401.958	66.94
402.182	95.94
402.406	74.94
402.63	83.94
402.854	59.94
403.078	73.94
403.302	81.94
403.526	75.94
403.75	71.94
403.974	70.94
404.198	62.94
404.422	80.94
404.645	77.94
404.869	75.94
405.093	84.94
405.317	74.94
405.541	77.94
405.765	70.94
405.988	67.94
406.212	81.94
406.436	80.94
406.66	77.94
406.883	82.94
407.107	70.94
407.331	78.94
407.555	65.94
407.778	83.94
408.002	79.94
408.226	82.94
408.449	68.94
408.673	82.94
408.896	76.94
409.12	81.94
409.344	81.94
409.567	67.94
409.791	88.94
410.014	71.94
410.238	80.94
410.461	90.94
410.685	83.94
410.908	74.94
411.132	93.94
411.355	81.94
411.578	70.94
411.802	75.94
412.025	70.94
412.249	78.94
412.472	72.94
412.695	63.94
412.919	58.94
413.142	77.94
413.365	73.94
413.589	67.94
413.812	68.94
414.035	89.94
414.258	71.94
414.482	63.94
414.705	87.94
414.928	79.94
415.151	78.94
415.374	80.94
415.597	79.94
415.821	65.94
416.044	76.94
416.267	79.94
416.49	81.94
416.713	58.94
416.936	77.94
417.159	90.94
417.382	75.94
417.605	68.94
417.828	62.94
418.051	79.94
418.274	98.94
418.497	71.94
418.72	71.94
418.943	75.94
419.166	64.94
419.389	73.94
419.611	68.94
419.834	70.94
420.057	88.94
420.28	71.94
420.503	85.94
420.726	70.94
420.948	75.94
421.171	70.94
421.394	83.94
421.617	82.94
421.839	78.94
422.062	70.94
422.285	71.94
422.507	83.94
422.73	78.94
422.953	77.94
423.175	71.94
423.398	83.94
423.621	79.94
423.843	77.94
424.066	75.94
424.288	77.94
424.511	74.94
424.733	78.94
424.956	78.94
425.178	90.94
425.401	69.94
425.623	74.94
425.846	88.94
426.068	77.94
426.291	77.94
426.513	73.94
426.735	84.94
426.958	73.94
427.18	74.94
427.402	73.94
427.625	79.94
427.847	80.94
428.069	65.94
428.292	75.94
428.514	73.94
428.736	87.94
428.958	79.94
429.181	70.94
429.403	90.94
429.625	78.94
429.847	94.94
430.069	80.94
430.292	78.94
430.514	84.94
430.736	81.94
430.958	105.94
431.18	73.94
431.402	74.94
431.624	87.94
431.846	89.94
432.068	60.94
432.29	76.94
432.512	79.94
432.734	77.94
432.956	69.94
433.178	80.94
433.4	77.94
433.622	76.94
433.844	67.94
434.066	67.94
434.287	62.94
434.509	62.94
434.731	75.94
434.953	64.94
435.175	76.94
435.397	82.94
435.618	81.94
435.84	73.94
436.062	80.94
436.284	71.94
436.505	73.94
436.727	83.94
436.949	72.94
437.17	75.94
437.392	75.94
437.614	73.94
437.835	77.94
438.057	71.94
438.278	66.94
438.5	75.94
438.721	81.94
438.943	77.94
439.165	87.94
439.386	82.94
439.608	87.94
439.829	79.94
440.05	78.94
440.272	86.94
440.493	73.94
440.715	75.94
440.936	77.94
441.158	79.94
441.379	67.94
441.6	76.94
441.822	75.94
442.043	66.94
442.264	82.94
442.486	72.94
442.707	84.94
442.928	70.94
443.149	71.94
443.371	75.94
443.592	85.94
443.813	77.94
444.034	73.94
444.255	81.94
444.476	73.94
444.698	76.94
444.919	73.94
445.14	139.94
445.361	107.94
445.582	79.94
445.803	66.94
446.024	67.94
446.245	71.94
446.466	73.94
446.687	71.94
446.908	86.94
447.129	69.94
447.35	78.94
447.571	78.94
447.792	66.94
448.013	73.94
448.234	74.94
448.455	68.94
448.675	77.94
448.896	76.94
449.117	91.94
449.338	70.94
449.559	73.94
449.779	67.94
450	67.94
450.221	82.94
450.442	81.94
450.662	81.94
450.883	71.94
451.104	74.94
451.324	69.94
451.545	92.94
451.766	79.94
451.986	69.94
452.207	61.94
452.428	75.94
452.648	81.94
452.869	70.94
453.089	73.94
453.31	81.94
453.53	85.94
453.751	71.94
453.971	99.94
454.192	72.94
454.412	77.94
454.633	88.94
454.853	79.94
455.073	70.94
455.294	79.94
455.514	77.94
455.734	82.94
455.955	78.94
456.175	65.94
456.395	75.94
456.616	64.94
456.836	72.94
457.056	77.94
457.276	70.94
457.497	80.94
457.717	71.94
457.937	64.94
458.157	82.94
458.377	80.94
458.598	87.94
458.818	78.94
459.038	74.94
459.258	83.94
459.478	75.94
459.698	63.94
459.918	72.94
460.138	71.94
460.358	83.94
460.578	87.94
460.798	73.94
461.018	79.94
461.238	75.94
461.458	78.94
461.678	57.94
461.898	88.94
462.118	93.94
462.338	74.94
462.558	98.94
462.777	75.94
462.997	71.94
463.217	82.94
463.437	66.94
463.657	75.94
463.876	80.94
464.096	93.94
464.316	74.94
464.536	72.94
464.755	85.94
464.975	75.94
465.195	76.94
465.414	69.94
465.634	68.94
465.854	70.94
466.073	75.94
466.293	77.94
466.512	57.94
466.732	71.94
466.951	75.94
467.171	63.94
467.391	90.94
467.61	76.94
467.829	68.94
468.049	80.94
468.268	70.94
468.488	71.94
468.707	77.94
468.927	90.94
469.146	79.94
469.365	73.94
469.585	81.94
469.804	67.94
470.023	85.94
470.243	72.94
470.462	80.94
470.681	70.94
470.901	67.94
471.12	87.94
471.339	82.94
471.558	77.94
471.777	57.94
471.997	90.94
472.216	75.94
472.435	82.94
472.654	85.94
472.873	81.94
473.092	88.94
473.311	81.94
473.53	71.94
473.749	77.94
473.968	69.94
474.187	75.94
474.406	82.94
474.625	81.94
474.844	77.94
475.063	76.94
475.282	91.94
475.501	82.94
475.72	91.94
475.939	51.94
476.158	90.94
476.377	68.94
476.596	73.94
476.814	83.94
477.033	70.94
477.252	81.94
477.471	57.94
477.69	74.94
477.908	75.94
478.127	69.94
478.346	80.94
478.564	67.94
478.783	69.94
479.002	73.94
479.22	89.94
479.439	72.94
479.658	78.94
479.876	76.94
480.095	75.94
480.313	85.94
480.532	69.94
480.751	77.94
480.969	71.94
481.188	82.94
481.406	92.94
481.624	87.94
481.843	81.94
482.061	73.94
482.28	79.94
482.498	82.94
482.717	71.94
482.935	69.94
483.153	82.94
483.372	78.94
483.59	79.94
483.808	94.94
484.027	77.94
484.245	73.94
484.463	85.94
484.681	85.94
484.9	83.94
485.118	73.94
485.336	85.94
485.554	81.94
485.772	69.94
485.99	65.94
486.209	85.94
486.427	78.94
486.645	67.94
486.863	85.94
487.081	83.94
487.299	86.94
487.517	89.94
487.735	86.94
487.953	82.94
488.171	78.94
488.389	84.94
488.607	73.94
488.825	73.94
489.043	75.94
489.261	70.94
489.479	93.94
489.696	80.94
489.914	81.94
490.132	86.94
490.35	77.94
490.568	72.94
490.786	66.94
491.003	79.94
491.221	88.94
491.439	73.94
491.657	81.94
491.874	75.94
492.092	79.94
492.31	75.94
492.527	74.94
492.745	69.94
492.963	78.94
493.18	87.94
493.398	65.94
493.615	79.94
493.833	77.94
494.05	75.94
494.268	74.94
494.485	64.94
494.703	76.94
494.92	86.94
495.138	81.94
495.355	85.94
495.573	75.94
495.79	83.94
496.008	88.94
496.225	82.94
496.442	86.94
496.66	101.94
496.877	85.94
497.094	90.94
497.312	61.94
497.529	75.94
497.746	82.94
497.963	77.94
498.181	68.94
498.398	89.94
498.615	75.94
498.832	86.94
499.049	68.94
499.267	78.94
499.484	95.94
499.701	63.94
499.918	81.94
500.135	82.94
500.352	86.94
500.569	78.94
500.786	73.94
501.003	57.94
501.22	72.94
501.437	86.94
501.654	85.94
501.871	89.94
502.088	93.94
502.305	68.94
502.522	80.94
502.739	72.94
502.956	77.94
503.172	77.94
503.389	86.94
503.606	75.94
503.823	73.94
504.04	88.94
504.256	71.94
504.473	83.94
504.69	75.94
504.907	95.94
505.123	70.94
505.34	83.94
505.557	75.94
505.773	93.94
505.99	90.94
506.207	94.94
506.423	81.94
506.64	86.94
506.856	76.94
507.073	88.94
507.289	86.94
507.506	86.94
507.722	73.94
507.939	69.94
508.155	88.94
508.372	76.94
508.588	79.94
508.805	82.94
509.021	82.94
509.238	75.94
509.454	70.94
509.67	64.94
509.887	77.94
510.103	77.94
510.319	79.94
510.536	89.94
510.752	83.94
510.968	71.94
511.184	75.94
511.401	69.94
511.617	71.94
511.833	83.94
512.049	88.94
512.265	68.94
512.481	76.94
512.698	83.94
512.914	72.94
513.13	65.94
513.346	73.94
513.562	75.94
513.778	78.94
513.994	81.94
514.21	88.94
514.426	71.94
514.642	72.94
514.858	82.94
515.074	66.94
515.29	97.94
515.506	81.94
515.721	72.94
515.937	74.94
516.153	75.94
516.369	79.94
516.585	68.94
516.801	78.94
517.016	73.94
517.232	71.94
517.448	77.94
517.664	86.94
517.879	85.94
518.095	88.94
518.311	76.94
518.527	79.94
518.742	89.94
518.958	81.94
519.173	83.94
519.389	87.94
519.605	65.94
519.82	73.94
520.036	87.94
520.251	75.94
