Data from Background_3_HRD10591_00038.txt Node
Date: Wed Nov 05 14:49:38 EST 2025
User: Yrep
Spectrometer: HR+D1059
Trigger mode: 1
Integration Time (sec): 1.000000E-1
Scans to average: 1
Electric dark correction enabled: true
Nonlinearity correction enabled: false
Boxcar width: 0
XAxis mode: Wavelengths
Number of Pixels in Spectrum: 2048
>>>>>Begin Spectral Data<<<<<
223.165	-2.06
223.4	-2.06
223.635	-2.06
223.869	-22.06
224.104	-29.06
224.338	-26.06
224.573	-12.06
224.808	-29.06
225.042	-5.06
225.277	0.94
225.511	2.94
225.746	-10.06
225.98	12.94
226.215	16.94
226.449	28.94
226.683	26.94
226.918	13.94
227.152	31.94
227.387	21.94
227.621	44.94
227.856	42.94
228.09	37.94
228.324	40.94
228.559	47.94
228.793	58.94
229.027	56.94
229.262	60.94
229.496	74.94
229.73	67.94
229.964	70.94
230.199	75.94
230.433	62.94
230.667	58.94
230.901	70.94
231.136	84.94
231.37	76.94
231.604	83.94
231.838	84.94
232.072	92.94
232.306	78.94
232.541	78.94
232.775	66.94
233.009	97.94
233.243	76.94
233.477	78.94
233.711	80.94
233.945	84.94
234.179	80.94
234.413	69.94
234.647	64.94
234.881	82.94
235.115	74.94
235.349	77.94
235.583	95.94
235.817	70.94
236.051	71.94
236.285	87.94
236.519	69.94
236.753	78.94
236.987	74.94
237.221	75.94
237.455	76.94
237.689	71.94
237.922	76.94
238.156	81.94
238.39	65.94
238.624	65.94
238.858	65.94
239.091	69.94
239.325	56.94
239.559	72.94
239.793	67.94
240.027	64.94
240.26	80.94
240.494	72.94
240.728	81.94
240.961	67.94
241.195	70.94
241.429	77.94
241.662	65.94
241.896	85.94
242.13	83.94
242.363	64.94
242.597	80.94
242.83	72.94
243.064	69.94
243.298	71.94
243.531	64.94
243.765	88.94
243.998	82.94
244.232	60.94
244.465	70.94
244.699	68.94
244.932	69.94
245.166	58.94
245.399	89.94
245.633	60.94
245.866	75.94
246.099	85.94
246.333	76.94
246.566	74.94
246.8	77.94
247.033	71.94
247.266	53.94
247.5	85.94
247.733	63.94
247.966	79.94
248.2	80.94
248.433	82.94
248.666	73.94
248.899	86.94
249.133	81.94
249.366	78.94
249.599	74.94
249.832	81.94
250.066	90.94
250.299	102.94
250.532	78.94
250.765	67.94
250.998	76.94
251.231	74.94
251.465	67.94
251.698	88.94
251.931	75.94
252.164	75.94
252.397	69.94
252.63	91.94
252.863	73.94
253.096	80.94
253.329	74.94
253.562	59.94
253.795	71.94
254.028	80.94
254.261	81.94
254.494	81.94
254.727	80.94
254.96	79.94
255.193	69.94
255.426	64.94
255.659	70.94
255.892	76.94
256.124	74.94
256.357	78.94
256.59	81.94
256.823	92.94
257.056	77.94
257.289	82.94
257.521	85.94
257.754	74.94
257.987	84.94
258.22	92.94
258.452	89.94
258.685	82.94
258.918	78.94
259.151	75.94
259.383	73.94
259.616	69.94
259.849	65.94
260.081	75.94
260.314	74.94
260.547	77.94
260.779	67.94
261.012	74.94
261.244	69.94
261.477	94.94
261.71	92.94
261.942	81.94
262.175	69.94
262.407	80.94
262.64	80.94
262.872	76.94
263.105	71.94
263.337	81.94
263.57	75.94
263.802	78.94
264.035	85.94
264.267	74.94
264.499	76.94
264.732	92.94
264.964	91.94
265.197	86.94
265.429	79.94
265.661	85.94
265.894	70.94
266.126	83.94
266.358	73.94
266.591	80.94
266.823	86.94
267.055	80.94
267.287	72.94
267.52	72.94
267.752	68.94
267.984	74.94
268.216	79.94
268.448	87.94
268.681	84.94
268.913	74.94
269.145	91.94
269.377	78.94
269.609	75.94
269.841	86.94
270.073	82.94
270.306	78.94
270.538	76.94
270.77	84.94
271.002	81.94
271.234	88.94
271.466	83.94
271.698	80.94
271.93	73.94
272.162	81.94
272.394	90.94
272.626	92.94
272.858	94.94
273.09	90.94
273.322	89.94
273.553	76.94
273.785	82.94
274.017	86.94
274.249	70.94
274.481	79.94
274.713	88.94
274.945	84.94
275.176	70.94
275.408	78.94
275.64	80.94
275.872	83.94
276.104	88.94
276.335	84.94
276.567	71.94
276.799	71.94
277.031	70.94
277.262	82.94
277.494	80.94
277.726	97.94
277.957	87.94
278.189	78.94
278.421	87.94
278.652	69.94
278.884	84.94
279.115	72.94
279.347	67.94
279.579	83.94
279.81	68.94
280.042	66.94
280.273	71.94
280.505	81.94
280.736	82.94
280.968	81.94
281.199	70.94
281.431	78.94
281.662	83.94
281.894	78.94
282.125	80.94
282.356	100.94
282.588	78.94
282.819	72.94
283.051	84.94
283.282	68.94
283.513	77.94
283.745	88.94
283.976	90.94
284.207	83.94
284.439	88.94
284.67	82.94
284.901	78.94
285.132	70.94
285.364	76.94
285.595	77.94
285.826	75.94
286.057	77.94
286.288	78.94
286.52	85.94
286.751	79.94
286.982	80.94
287.213	73.94
287.444	66.94
287.675	89.94
287.906	84.94
288.138	86.94
288.369	81.94
288.6	78.94
288.831	80.94
289.062	70.94
289.293	90.94
289.524	85.94
289.755	91.94
289.986	74.94
290.217	77.94
290.448	81.94
290.679	78.94
290.91	91.94
291.141	70.94
291.371	76.94
291.602	76.94
291.833	58.94
292.064	93.94
292.295	88.94
292.526	96.94
292.757	86.94
292.987	90.94
293.218	93.94
293.449	86.94
293.68	75.94
293.91	72.94
294.141	92.94
294.372	93.94
294.603	71.94
294.833	81.94
295.064	85.94
295.295	85.94
295.525	86.94
295.756	85.94
295.987	77.94
296.217	86.94
296.448	85.94
296.679	83.94
296.909	86.94
297.14	68.94
297.37	81.94
297.601	80.94
297.831	64.94
298.062	87.94
298.292	76.94
298.523	60.94
298.753	78.94
298.984	86.94
299.214	89.94
299.445	82.94
299.675	85.94
299.905	95.94
300.136	96.94
300.366	77.94
300.597	80.94
300.827	85.94
301.057	74.94
301.288	66.94
301.518	82.94
301.748	93.94
301.979	97.94
302.209	88.94
302.439	93.94
302.669	76.94
302.9	98.94
303.13	84.94
303.36	71.94
303.59	78.94
303.82	78.94
304.051	74.94
304.281	78.94
304.511	76.94
304.741	89.94
304.971	88.94
305.201	100.94
305.431	80.94
305.661	70.94
305.891	75.94
306.121	74.94
306.352	85.94
306.582	82.94
306.812	85.94
307.042	86.94
307.272	77.94
307.502	76.94
307.731	99.94
307.961	76.94
308.191	90.94
308.421	98.94
308.651	106.94
308.881	84.94
309.111	81.94
309.341	99.94
309.571	74.94
309.8	85.94
310.03	94.94
310.26	82.94
310.49	83.94
310.72	88.94
310.949	85.94
311.179	82.94
311.409	99.94
311.639	95.94
311.868	75.94
312.098	76.94
312.328	81.94
312.557	77.94
312.787	98.94
313.017	82.94
313.246	87.94
313.476	89.94
313.706	92.94
313.935	83.94
314.165	84.94
314.394	93.94
314.624	76.94
314.853	80.94
315.083	86.94
315.312	78.94
315.542	107.94
315.771	83.94
316.001	85.94
316.23	82.94
316.46	78.94
316.689	80.94
316.919	89.94
317.148	84.94
317.377	97.94
317.607	84.94
317.836	76.94
318.065	77.94
318.295	76.94
318.524	77.94
318.753	69.94
318.983	95.94
319.212	95.94
319.441	92.94
319.67	89.94
319.9	88.94
320.129	87.94
320.358	89.94
320.587	80.94
320.816	84.94
321.046	76.94
321.275	82.94
321.504	74.94
321.733	82.94
321.962	70.94
322.191	83.94
322.42	76.94
322.649	80.94
322.878	79.94
323.108	90.94
323.337	88.94
323.566	77.94
323.795	93.94
324.024	75.94
324.253	83.94
324.482	79.94
324.71	78.94
324.939	78.94
325.168	77.94
325.397	91.94
325.626	92.94
325.855	83.94
326.084	74.94
326.313	87.94
326.542	80.94
326.77	94.94
326.999	88.94
327.228	86.94
327.457	77.94
327.686	86.94
327.914	83.94
328.143	93.94
328.372	80.94
328.6	91.94
328.829	90.94
329.058	84.94
329.287	85.94
329.515	75.94
329.744	92.94
329.972	76.94
330.201	77.94
330.43	94.94
330.658	75.94
330.887	74.94
331.115	83.94
331.344	74.94
331.572	92.94
331.801	79.94
332.03	81.94
332.258	79.94
332.486	79.94
332.715	90.94
332.943	98.94
333.172	91.94
333.4	88.94
333.629	82.94
333.857	79.94
334.085	99.94
334.314	87.94
334.542	85.94
334.771	80.94
334.999	74.94
335.227	82.94
335.455	79.94
335.684	93.94
335.912	83.94
336.14	94.94
336.369	78.94
336.597	83.94
336.825	76.94
337.053	68.94
337.281	88.94
337.51	87.94
337.738	93.94
337.966	93.94
338.194	73.94
338.422	68.94
338.65	68.94
338.878	76.94
339.106	88.94
339.334	90.94
339.562	93.94
339.79	74.94
340.018	77.94
340.246	72.94
340.474	71.94
340.702	75.94
340.93	88.94
341.158	92.94
341.386	73.94
341.614	80.94
341.842	82.94
342.07	85.94
342.298	91.94
342.526	74.94
342.754	91.94
342.981	80.94
343.209	78.94
343.437	98.94
343.665	69.94
343.893	77.94
344.12	88.94
344.348	90.94
344.576	78.94
344.804	83.94
345.031	77.94
345.259	97.94
345.487	86.94
345.714	88.94
345.942	77.94
346.17	98.94
346.397	78.94
346.625	83.94
346.853	85.94
347.08	77.94
347.308	84.94
347.535	72.94
347.763	83.94
347.99	84.94
348.218	68.94
348.445	75.94
348.673	80.94
348.9	74.94
349.128	85.94
349.355	78.94
349.583	93.94
349.81	86.94
350.037	100.94
350.265	81.94
350.492	90.94
350.72	82.94
350.947	71.94
351.174	92.94
351.402	83.94
351.629	86.94
351.856	87.94
352.083	58.94
352.311	88.94
352.538	77.94
352.765	83.94
352.992	89.94
353.22	82.94
353.447	95.94
353.674	85.94
353.901	96.94
354.128	82.94
354.355	88.94
354.583	82.94
354.81	92.94
355.037	70.94
355.264	93.94
355.491	84.94
355.718	85.94
355.945	81.94
356.172	89.94
356.399	75.94
356.626	81.94
356.853	73.94
357.08	88.94
357.307	82.94
357.534	86.94
357.761	87.94
357.988	94.94
358.215	89.94
358.441	82.94
358.668	87.94
358.895	74.94
359.122	83.94
359.349	76.94
359.576	88.94
359.802	70.94
360.029	65.94
360.256	78.94
360.483	88.94
360.709	90.94
360.936	77.94
361.163	85.94
361.39	80.94
361.616	85.94
361.843	78.94
362.07	66.94
362.296	81.94
362.523	85.94
362.749	83.94
362.976	86.94
363.203	76.94
363.429	75.94
363.656	85.94
363.882	99.94
364.109	94.94
364.335	82.94
364.562	82.94
364.788	90.94
365.015	82.94
365.241	81.94
365.468	80.94
365.694	77.94
365.92	76.94
366.147	84.94
366.373	71.94
366.599	88.94
366.826	78.94
367.052	86.94
367.278	70.94
367.505	86.94
367.731	79.94
367.957	84.94
368.184	82.94
368.41	74.94
368.636	64.94
368.862	88.94
369.089	70.94
369.315	75.94
369.541	86.94
369.767	84.94
369.993	75.94
370.219	70.94
370.445	78.94
370.672	76.94
370.898	81.94
371.124	80.94
371.35	79.94
371.576	81.94
371.802	78.94
372.028	74.94
372.254	70.94
372.48	80.94
372.706	74.94
372.932	82.94
373.158	75.94
373.384	85.94
373.61	92.94
373.835	79.94
374.061	84.94
374.287	85.94
374.513	69.94
374.739	73.94
374.965	85.94
375.191	70.94
375.416	73.94
375.642	80.94
375.868	69.94
376.094	75.94
376.319	77.94
376.545	89.94
376.771	80.94
376.997	83.94
377.222	75.94
377.448	90.94
377.674	82.94
377.899	90.94
378.125	69.94
378.35	92.94
378.576	82.94
378.802	80.94
379.027	69.94
379.253	77.94
379.478	80.94
379.704	74.94
379.929	84.94
380.155	82.94
380.38	91.94
380.606	84.94
380.831	90.94
381.057	80.94
381.282	81.94
381.507	80.94
381.733	77.94
381.958	88.94
382.184	69.94
382.409	72.94
382.634	70.94
382.86	85.94
383.085	76.94
383.31	79.94
383.535	76.94
383.761	90.94
383.986	85.94
384.211	100.94
384.436	83.94
384.662	69.94
384.887	93.94
385.112	77.94
385.337	74.94
385.562	94.94
385.787	89.94
386.013	92.94
386.238	76.94
386.463	87.94
386.688	85.94
386.913	97.94
387.138	76.94
387.363	78.94
387.588	77.94
387.813	70.94
388.038	75.94
388.263	80.94
388.488	66.94
388.713	86.94
388.938	86.94
389.163	81.94
389.387	69.94
389.612	79.94
389.837	79.94
390.062	71.94
390.287	84.94
390.512	80.94
390.736	85.94
390.961	75.94
391.186	76.94
391.411	82.94
391.636	80.94
391.86	78.94
392.085	75.94
392.31	79.94
392.534	87.94
392.759	85.94
392.984	82.94
393.208	92.94
393.433	88.94
393.658	84.94
393.882	83.94
394.107	69.94
394.331	74.94
394.556	77.94
394.78	86.94
395.005	82.94
395.229	82.94
395.454	82.94
395.678	69.94
395.903	81.94
396.127	79.94
396.352	77.94
396.576	89.94
396.801	84.94
397.025	81.94
397.249	70.94
397.474	81.94
397.698	75.94
397.922	84.94
398.147	77.94
398.371	78.94
398.595	81.94
398.82	75.94
399.044	68.94
399.268	70.94
399.492	63.94
399.717	86.94
399.941	82.94
400.165	90.94
400.389	82.94
400.613	76.94
400.837	84.94
401.062	81.94
401.286	83.94
401.51	77.94
401.734	80.94
401.958	69.94
402.182	78.94
402.406	66.94
402.63	66.94
402.854	81.94
403.078	88.94
403.302	72.94
403.526	76.94
403.75	78.94
403.974	87.94
404.198	90.94
404.422	80.94
404.645	81.94
404.869	81.94
405.093	71.94
405.317	88.94
405.541	75.94
405.765	76.94
405.988	70.94
406.212	86.94
406.436	80.94
406.66	89.94
406.883	73.94
407.107	77.94
407.331	85.94
407.555	76.94
407.778	73.94
408.002	81.94
408.226	88.94
408.449	85.94
408.673	85.94
408.896	81.94
409.12	69.94
409.344	84.94
409.567	78.94
409.791	77.94
410.014	83.94
410.238	88.94
410.461	78.94
410.685	77.94
410.908	76.94
411.132	74.94
411.355	78.94
411.578	72.94
411.802	71.94
412.025	69.94
412.249	78.94
412.472	88.94
412.695	77.94
412.919	66.94
413.142	78.94
413.365	88.94
413.589	78.94
413.812	94.94
414.035	89.94
414.258	94.94
414.482	81.94
414.705	84.94
414.928	80.94
415.151	93.94
415.374	80.94
415.597	74.94
415.821	78.94
416.044	79.94
416.267	78.94
416.49	78.94
416.713	88.94
416.936	78.94
417.159	67.94
417.382	79.94
417.605	79.94
417.828	83.94
418.051	77.94
418.274	71.94
418.497	82.94
418.72	78.94
418.943	86.94
419.166	69.94
419.389	67.94
419.611	67.94
419.834	65.94
420.057	93.94
420.28	74.94
420.503	73.94
420.726	83.94
420.948	74.94
421.171	82.94
421.394	87.94
421.617	70.94
421.839	70.94
422.062	72.94
422.285	84.94
422.507	80.94
422.73	81.94
422.953	74.94
423.175	65.94
423.398	79.94
423.621	69.94
423.843	72.94
424.066	59.94
424.288	68.94
424.511	78.94
424.733	84.94
424.956	86.94
425.178	66.94
425.401	76.94
425.623	77.94
425.846	82.94
426.068	82.94
426.291	71.94
426.513	60.94
426.735	82.94
426.958	82.94
427.18	77.94
427.402	73.94
427.625	78.94
427.847	64.94
428.069	81.94
428.292	82.94
428.514	81.94
428.736	80.94
428.958	65.94
429.181	82.94
429.403	77.94
429.625	74.94
429.847	70.94
430.069	82.94
430.292	83.94
430.514	81.94
430.736	75.94
430.958	88.94
431.18	83.94
431.402	82.94
431.624	77.94
431.846	83.94
432.068	82.94
432.29	65.94
432.512	86.94
432.734	78.94
432.956	86.94
433.178	71.94
433.4	77.94
433.622	80.94
433.844	72.94
434.066	91.94
434.287	85.94
434.509	81.94
434.731	71.94
434.953	70.94
435.175	82.94
435.397	64.94
435.618	75.94
435.84	71.94
436.062	71.94
436.284	87.94
436.505	84.94
436.727	82.94
436.949	75.94
437.17	80.94
437.392	81.94
437.614	84.94
437.835	71.94
438.057	79.94
438.278	78.94
438.5	82.94
438.721	78.94
438.943	71.94
439.165	78.94
439.386	86.94
439.608	69.94
439.829	97.94
440.05	84.94
440.272	84.94
440.493	84.94
440.715	85.94
440.936	80.94
441.158	84.94
441.379	89.94
441.6	79.94
441.822	85.94
442.043	75.94
442.264	88.94
442.486	66.94
442.707	80.94
442.928	85.94
443.149	79.94
443.371	87.94
443.592	76.94
443.813	78.94
444.034	70.94
444.255	76.94
444.476	59.94
444.698	80.94
444.919	85.94
445.14	136.94
445.361	108.94
445.582	84.94
445.803	78.94
446.024	76.94
446.245	76.94
446.466	69.94
446.687	60.94
446.908	84.94
447.129	84.94
447.35	78.94
447.571	82.94
447.792	67.94
448.013	62.94
448.234	58.94
448.455	70.94
448.675	86.94
448.896	75.94
449.117	74.94
449.338	88.94
449.559	88.94
449.779	103.94
450	89.94
450.221	83.94
450.442	69.94
450.662	88.94
450.883	93.94
451.104	89.94
451.324	80.94
451.545	85.94
451.766	67.94
451.986	71.94
452.207	75.94
452.428	73.94
452.648	70.94
452.869	77.94
453.089	76.94
453.31	88.94
453.53	72.94
453.751	77.94
453.971	83.94
454.192	73.94
454.412	75.94
454.633	82.94
454.853	76.94
455.073	84.94
455.294	82.94
455.514	83.94
455.734	74.94
455.955	82.94
456.175	82.94
456.395	66.94
456.616	67.94
456.836	88.94
457.056	87.94
457.276	87.94
457.497	86.94
457.717	90.94
457.937	72.94
458.157	76.94
458.377	72.94
458.598	84.94
458.818	69.94
459.038	95.94
459.258	79.94
459.478	79.94
459.698	84.94
459.918	85.94
460.138	77.94
460.358	79.94
460.578	78.94
460.798	66.94
461.018	75.94
461.238	75.94
461.458	70.94
461.678	76.94
461.898	61.94
462.118	89.94
462.338	75.94
462.558	74.94
462.777	90.94
462.997	88.94
463.217	73.94
463.437	70.94
463.657	69.94
463.876	71.94
464.096	62.94
464.316	86.94
464.536	85.94
464.755	84.94
464.975	78.94
465.195	80.94
465.414	81.94
465.634	68.94
465.854	78.94
466.073	69.94
466.293	68.94
466.512	84.94
466.732	74.94
466.951	69.94
467.171	80.94
467.391	71.94
467.61	78.94
467.829	75.94
468.049	59.94
468.268	72.94
468.488	84.94
468.707	73.94
468.927	77.94
469.146	86.94
469.365	82.94
469.585	75.94
469.804	77.94
470.023	70.94
470.243	84.94
470.462	81.94
470.681	78.94
470.901	69.94
471.12	80.94
471.339	81.94
471.558	66.94
471.777	82.94
471.997	71.94
472.216	83.94
472.435	63.94
472.654	88.94
472.873	87.94
473.092	80.94
473.311	81.94
473.53	68.94
473.749	70.94
473.968	90.94
474.187	91.94
474.406	80.94
474.625	92.94
474.844	78.94
475.063	73.94
475.282	68.94
475.501	80.94
475.72	71.94
475.939	77.94
476.158	73.94
476.377	82.94
476.596	76.94
476.814	70.94
477.033	75.94
477.252	72.94
477.471	71.94
477.69	78.94
477.908	84.94
478.127	69.94
478.346	77.94
478.564	85.94
478.783	77.94
479.002	78.94
479.22	85.94
479.439	68.94
479.658	74.94
479.876	70.94
480.095	78.94
480.313	87.94
480.532	78.94
480.751	83.94
480.969	75.94
481.188	76.94
481.406	86.94
481.624	76.94
481.843	64.94
482.061	87.94
482.28	76.94
482.498	90.94
482.717	79.94
482.935	77.94
483.153	70.94
483.372	60.94
483.59	80.94
483.808	86.94
484.027	74.94
484.245	70.94
484.463	69.94
484.681	85.94
484.9	84.94
485.118	73.94
485.336	85.94
485.554	70.94
485.772	81.94
485.99	70.94
486.209	81.94
486.427	76.94
486.645	77.94
486.863	81.94
487.081	67.94
487.299	74.94
487.517	74.94
487.735	78.94
487.953	75.94
488.171	78.94
488.389	79.94
488.607	72.94
488.825	93.94
489.043	77.94
489.261	76.94
489.479	84.94
489.696	83.94
489.914	78.94
490.132	79.94
490.35	76.94
490.568	77.94
490.786	92.94
491.003	79.94
491.221	70.94
491.439	68.94
491.657	85.94
491.874	73.94
492.092	73.94
492.31	87.94
492.527	80.94
492.745	76.94
492.963	78.94
493.18	87.94
493.398	97.94
493.615	80.94
493.833	68.94
494.05	85.94
494.268	85.94
494.485	78.94
494.703	92.94
494.92	77.94
495.138	89.94
495.355	80.94
495.573	72.94
495.79	75.94
496.008	89.94
496.225	82.94
496.442	77.94
496.66	76.94
496.877	82.94
497.094	92.94
497.312	83.94
497.529	90.94
497.746	78.94
497.963	67.94
498.181	92.94
498.398	84.94
498.615	69.94
498.832	82.94
499.049	90.94
499.267	75.94
499.484	73.94
499.701	80.94
499.918	81.94
500.135	74.94
500.352	78.94
500.569	71.94
500.786	78.94
501.003	87.94
501.22	66.94
501.437	74.94
501.654	70.94
501.871	78.94
502.088	86.94
502.305	78.94
502.522	93.94
502.739	87.94
502.956	77.94
503.172	72.94
503.389	87.94
503.606	77.94
503.823	77.94
504.04	67.94
504.256	79.94
504.473	69.94
504.69	87.94
504.907	84.94
505.123	89.94
505.34	90.94
505.557	82.94
505.773	78.94
505.99	85.94
506.207	88.94
506.423	92.94
506.64	90.94
506.856	78.94
507.073	75.94
507.289	71.94
507.506	74.94
507.722	78.94
507.939	77.94
508.155	86.94
508.372	96.94
508.588	76.94
508.805	85.94
509.021	85.94
509.238	83.94
509.454	79.94
509.67	71.94
509.887	82.94
510.103	77.94
510.319	86.94
510.536	82.94
510.752	75.94
510.968	77.94
511.184	71.94
511.401	73.94
511.617	85.94
511.833	86.94
512.049	70.94
512.265	81.94
512.481	70.94
512.698	82.94
512.914	63.94
513.13	75.94
513.346	77.94
513.562	66.94
513.778	85.94
513.994	80.94
514.21	74.94
514.426	102.94
514.642	83.94
514.858	83.94
515.074	81.94
515.29	82.94
515.506	82.94
515.721	89.94
515.937	79.94
516.153	80.94
516.369	68.94
516.585	75.94
516.801	82.94
517.016	76.94
517.232	82.94
517.448	76.94
517.664	76.94
517.879	80.94
518.095	75.94
518.311	89.94
518.527	78.94
518.742	76.94
518.958	86.94
519.173	81.94
519.389	85.94
519.605	83.94
519.82	81.94
520.036	88.94
