Data from Background_3_HRD10591_00049.txt Node
Date: Wed Nov 05 14:49:44 EST 2025
User: Yrep
Spectrometer: HR+D1059
Trigger mode: 1
Integration Time (sec): 1.000000E-1
Scans to average: 1
Electric dark correction enabled: true
Nonlinearity correction enabled: false
Boxcar width: 0
XAxis mode: Wavelengths
Number of Pixels in Spectrum: 2048
>>>>>Begin Spectral Data<<<<<
223.165	-18.62
223.4	-18.62
223.635	-18.62
223.869	-27.62
224.104	-17.62
224.338	-20.62
224.573	-4.62
224.808	-20.62
225.042	-1.62
225.277	2.38
225.511	-12.62
225.746	0.38
225.98	4.38
226.215	8.38
226.449	17.38
226.683	22.38
226.918	24.38
227.152	44.38
227.387	29.38
227.621	26.38
227.856	41.38
228.09	40.38
228.324	47.38
228.559	59.38
228.793	56.38
229.027	82.38
229.262	69.38
229.496	72.38
229.73	63.38
229.964	82.38
230.199	76.38
230.433	65.38
230.667	71.38
230.901	76.38
231.136	80.38
231.37	83.38
231.604	83.38
231.838	80.38
232.072	74.38
232.306	71.38
232.541	63.38
232.775	65.38
233.009	74.38
233.243	76.38
233.477	86.38
233.711	85.38
233.945	82.38
234.179	75.38
234.413	75.38
234.647	82.38
234.881	84.38
235.115	73.38
235.349	77.38
235.583	82.38
235.817	66.38
236.051	75.38
236.285	74.38
236.519	74.38
236.753	79.38
236.987	66.38
237.221	62.38
237.455	89.38
237.689	67.38
237.922	68.38
238.156	72.38
238.39	96.38
238.624	79.38
238.858	75.38
239.091	90.38
239.325	83.38
239.559	86.38
239.793	66.38
240.027	75.38
240.26	75.38
240.494	79.38
240.728	82.38
240.961	57.38
241.195	84.38
241.429	70.38
241.662	84.38
241.896	67.38
242.13	69.38
242.363	73.38
242.597	71.38
242.83	59.38
243.064	61.38
243.298	63.38
243.531	62.38
243.765	66.38
243.998	82.38
244.232	81.38
244.465	79.38
244.699	68.38
244.932	70.38
245.166	71.38
245.399	74.38
245.633	80.38
245.866	72.38
246.099	84.38
246.333	65.38
246.566	78.38
246.8	82.38
247.033	96.38
247.266	70.38
247.5	60.38
247.733	74.38
247.966	76.38
248.2	82.38
248.433	74.38
248.666	82.38
248.899	73.38
249.133	81.38
249.366	78.38
249.599	81.38
249.832	80.38
250.066	78.38
250.299	77.38
250.532	80.38
250.765	90.38
250.998	81.38
251.231	68.38
251.465	75.38
251.698	80.38
251.931	72.38
252.164	74.38
252.397	69.38
252.63	81.38
252.863	72.38
253.096	72.38
253.329	73.38
253.562	66.38
253.795	78.38
254.028	88.38
254.261	73.38
254.494	66.38
254.727	89.38
254.96	79.38
255.193	94.38
255.426	70.38
255.659	58.38
255.892	85.38
256.124	68.38
256.357	74.38
256.59	77.38
256.823	87.38
257.056	78.38
257.289	76.38
257.521	81.38
257.754	83.38
257.987	70.38
258.22	82.38
258.452	74.38
258.685	82.38
258.918	71.38
259.151	63.38
259.383	68.38
259.616	71.38
259.849	75.38
260.081	73.38
260.314	71.38
260.547	82.38
260.779	74.38
261.012	60.38
261.244	92.38
261.477	78.38
261.71	89.38
261.942	78.38
262.175	86.38
262.407	66.38
262.64	78.38
262.872	82.38
263.105	72.38
263.337	77.38
263.57	73.38
263.802	76.38
264.035	72.38
264.267	70.38
264.499	84.38
264.732	82.38
264.964	87.38
265.197	89.38
265.429	77.38
265.661	76.38
265.894	82.38
266.126	71.38
266.358	73.38
266.591	85.38
266.823	86.38
267.055	78.38
267.287	66.38
267.52	76.38
267.752	83.38
267.984	91.38
268.216	73.38
268.448	87.38
268.681	82.38
268.913	67.38
269.145	78.38
269.377	77.38
269.609	93.38
269.841	91.38
270.073	87.38
270.306	84.38
270.538	77.38
270.77	88.38
271.002	74.38
271.234	84.38
271.466	89.38
271.698	79.38
271.93	91.38
272.162	86.38
272.394	90.38
272.626	79.38
272.858	67.38
273.09	88.38
273.322	92.38
273.553	73.38
273.785	66.38
274.017	83.38
274.249	74.38
274.481	66.38
274.713	84.38
274.945	74.38
275.176	77.38
275.408	81.38
275.64	80.38
275.872	81.38
276.104	90.38
276.335	80.38
276.567	83.38
276.799	82.38
277.031	79.38
277.262	83.38
277.494	79.38
277.726	74.38
277.957	65.38
278.189	68.38
278.421	72.38
278.652	78.38
278.884	77.38
279.115	73.38
279.347	74.38
279.579	86.38
279.81	71.38
280.042	76.38
280.273	86.38
280.505	73.38
280.736	92.38
280.968	81.38
281.199	85.38
281.431	77.38
281.662	87.38
281.894	67.38
282.125	80.38
282.356	88.38
282.588	87.38
282.819	79.38
283.051	82.38
283.282	93.38
283.513	87.38
283.745	80.38
283.976	83.38
284.207	74.38
284.439	86.38
284.67	89.38
284.901	74.38
285.132	89.38
285.364	89.38
285.595	72.38
285.826	83.38
286.057	90.38
286.288	80.38
286.52	78.38
286.751	68.38
286.982	89.38
287.213	80.38
287.444	86.38
287.675	93.38
287.906	96.38
288.138	86.38
288.369	81.38
288.6	88.38
288.831	88.38
289.062	62.38
289.293	75.38
289.524	67.38
289.755	91.38
289.986	91.38
290.217	84.38
290.448	80.38
290.679	81.38
290.91	91.38
291.141	93.38
291.371	86.38
291.602	92.38
291.833	80.38
292.064	94.38
292.295	79.38
292.526	87.38
292.757	72.38
292.987	83.38
293.218	79.38
293.449	72.38
293.68	90.38
293.91	73.38
294.141	79.38
294.372	87.38
294.603	82.38
294.833	82.38
295.064	85.38
295.295	74.38
295.525	90.38
295.756	84.38
295.987	80.38
296.217	85.38
296.448	82.38
296.679	70.38
296.909	67.38
297.14	82.38
297.37	81.38
297.601	94.38
297.831	80.38
298.062	94.38
298.292	94.38
298.523	92.38
298.753	90.38
298.984	77.38
299.214	69.38
299.445	68.38
299.675	86.38
299.905	86.38
300.136	74.38
300.366	81.38
300.597	77.38
300.827	71.38
301.057	78.38
301.288	79.38
301.518	74.38
301.748	82.38
301.979	90.38
302.209	84.38
302.439	84.38
302.669	94.38
302.9	75.38
303.13	83.38
303.36	84.38
303.59	87.38
303.82	82.38
304.051	92.38
304.281	88.38
304.511	104.38
304.741	78.38
304.971	99.38
305.201	93.38
305.431	77.38
305.661	76.38
305.891	76.38
306.121	83.38
306.352	81.38
306.582	87.38
306.812	76.38
307.042	88.38
307.272	68.38
307.502	89.38
307.731	81.38
307.961	82.38
308.191	75.38
308.421	85.38
308.651	95.38
308.881	88.38
309.111	82.38
309.341	80.38
309.571	88.38
309.8	81.38
310.03	81.38
310.26	70.38
310.49	89.38
310.72	83.38
310.949	81.38
311.179	79.38
311.409	92.38
311.639	81.38
311.868	77.38
312.098	71.38
312.328	89.38
312.557	82.38
312.787	88.38
313.017	89.38
313.246	63.38
313.476	98.38
313.706	91.38
313.935	97.38
314.165	90.38
314.394	80.38
314.624	93.38
314.853	84.38
315.083	81.38
315.312	84.38
315.542	88.38
315.771	92.38
316.001	88.38
316.23	88.38
316.46	90.38
316.689	76.38
316.919	95.38
317.148	79.38
317.377	84.38
317.607	96.38
317.836	90.38
318.065	75.38
318.295	84.38
318.524	77.38
318.753	99.38
318.983	90.38
319.212	70.38
319.441	83.38
319.67	79.38
319.9	87.38
320.129	86.38
320.358	82.38
320.587	96.38
320.816	85.38
321.046	73.38
321.275	83.38
321.504	83.38
321.733	97.38
321.962	83.38
322.191	81.38
322.42	75.38
322.649	81.38
322.878	80.38
323.108	78.38
323.337	80.38
323.566	89.38
323.795	91.38
324.024	75.38
324.253	79.38
324.482	76.38
324.71	78.38
324.939	81.38
325.168	87.38
325.397	65.38
325.626	89.38
325.855	82.38
326.084	86.38
326.313	74.38
326.542	77.38
326.77	84.38
326.999	103.38
327.228	90.38
327.457	79.38
327.686	83.38
327.914	71.38
328.143	95.38
328.372	93.38
328.6	86.38
328.829	81.38
329.058	78.38
329.287	78.38
329.515	83.38
329.744	86.38
329.972	80.38
330.201	67.38
330.43	83.38
330.658	70.38
330.887	82.38
331.115	74.38
331.344	75.38
331.572	82.38
331.801	86.38
332.03	95.38
332.258	82.38
332.486	85.38
332.715	90.38
332.943	88.38
333.172	77.38
333.4	92.38
333.629	87.38
333.857	82.38
334.085	87.38
334.314	80.38
334.542	72.38
334.771	91.38
334.999	77.38
335.227	78.38
335.455	85.38
335.684	88.38
335.912	78.38
336.14	87.38
336.369	89.38
336.597	78.38
336.825	78.38
337.053	75.38
337.281	78.38
337.51	98.38
337.738	91.38
337.966	87.38
338.194	73.38
338.422	84.38
338.65	87.38
338.878	86.38
339.106	82.38
339.334	84.38
339.562	81.38
339.79	80.38
340.018	77.38
340.246	80.38
340.474	72.38
340.702	75.38
340.93	86.38
341.158	64.38
341.386	89.38
341.614	80.38
341.842	84.38
342.07	87.38
342.298	82.38
342.526	86.38
342.754	86.38
342.981	86.38
343.209	86.38
343.437	98.38
343.665	86.38
343.893	81.38
344.12	78.38
344.348	83.38
344.576	82.38
344.804	84.38
345.031	71.38
345.259	86.38
345.487	81.38
345.714	84.38
345.942	87.38
346.17	91.38
346.397	86.38
346.625	86.38
346.853	75.38
347.08	80.38
347.308	83.38
347.535	81.38
347.763	90.38
347.99	87.38
348.218	85.38
348.445	82.38
348.673	76.38
348.9	90.38
349.128	92.38
349.355	76.38
349.583	66.38
349.81	82.38
350.037	82.38
350.265	86.38
350.492	78.38
350.72	74.38
350.947	75.38
351.174	78.38
351.402	79.38
351.629	76.38
351.856	77.38
352.083	80.38
352.311	86.38
352.538	79.38
352.765	80.38
352.992	80.38
353.22	86.38
353.447	79.38
353.674	84.38
353.901	100.38
354.128	72.38
354.355	85.38
354.583	89.38
354.81	86.38
355.037	90.38
355.264	80.38
355.491	79.38
355.718	80.38
355.945	67.38
356.172	86.38
356.399	90.38
356.626	81.38
356.853	76.38
357.08	89.38
357.307	66.38
357.534	87.38
357.761	82.38
357.988	86.38
358.215	68.38
358.441	96.38
358.668	77.38
358.895	98.38
359.122	82.38
359.349	67.38
359.576	96.38
359.802	75.38
360.029	78.38
360.256	86.38
360.483	88.38
360.709	78.38
360.936	88.38
361.163	80.38
361.39	71.38
361.616	86.38
361.843	88.38
362.07	83.38
362.296	62.38
362.523	64.38
362.749	79.38
362.976	77.38
363.203	92.38
363.429	76.38
363.656	78.38
363.882	73.38
364.109	86.38
364.335	87.38
364.562	74.38
364.788	79.38
365.015	73.38
365.241	82.38
365.468	78.38
365.694	92.38
365.92	76.38
366.147	78.38
366.373	82.38
366.599	87.38
366.826	86.38
367.052	69.38
367.278	84.38
367.505	86.38
367.731	94.38
367.957	91.38
368.184	68.38
368.41	72.38
368.636	74.38
368.862	83.38
369.089	65.38
369.315	73.38
369.541	80.38
369.767	88.38
369.993	70.38
370.219	91.38
370.445	79.38
370.672	86.38
370.898	91.38
371.124	90.38
371.35	74.38
371.576	77.38
371.802	67.38
372.028	77.38
372.254	83.38
372.48	77.38
372.706	87.38
372.932	92.38
373.158	92.38
373.384	73.38
373.61	82.38
373.835	81.38
374.061	82.38
374.287	84.38
374.513	67.38
374.739	82.38
374.965	79.38
375.191	80.38
375.416	76.38
375.642	75.38
375.868	83.38
376.094	82.38
376.319	80.38
376.545	80.38
376.771	81.38
376.997	78.38
377.222	80.38
377.448	82.38
377.674	86.38
377.899	74.38
378.125	84.38
378.35	91.38
378.576	79.38
378.802	78.38
379.027	81.38
379.253	76.38
379.478	68.38
379.704	71.38
379.929	86.38
380.155	85.38
380.38	79.38
380.606	88.38
380.831	70.38
381.057	77.38
381.282	79.38
381.507	73.38
381.733	80.38
381.958	77.38
382.184	82.38
382.409	90.38
382.634	92.38
382.86	88.38
383.085	92.38
383.31	86.38
383.535	80.38
383.761	83.38
383.986	68.38
384.211	79.38
384.436	76.38
384.662	66.38
384.887	83.38
385.112	66.38
385.337	88.38
385.562	72.38
385.787	82.38
386.013	80.38
386.238	82.38
386.463	95.38
386.688	90.38
386.913	83.38
387.138	72.38
387.363	84.38
387.588	95.38
387.813	66.38
388.038	74.38
388.263	82.38
388.488	78.38
388.713	77.38
388.938	63.38
389.163	79.38
389.387	77.38
389.612	98.38
389.837	84.38
390.062	86.38
390.287	87.38
390.512	74.38
390.736	74.38
390.961	89.38
391.186	86.38
391.411	72.38
391.636	67.38
391.86	80.38
392.085	70.38
392.31	68.38
392.534	78.38
392.759	70.38
392.984	68.38
393.208	76.38
393.433	74.38
393.658	61.38
393.882	78.38
394.107	87.38
394.331	70.38
394.556	74.38
394.78	85.38
395.005	79.38
395.229	72.38
395.454	72.38
395.678	73.38
395.903	84.38
396.127	74.38
396.352	84.38
396.576	71.38
396.801	94.38
397.025	76.38
397.249	78.38
397.474	81.38
397.698	90.38
397.922	74.38
398.147	62.38
398.371	82.38
398.595	90.38
398.82	80.38
399.044	86.38
399.268	82.38
399.492	82.38
399.717	81.38
399.941	95.38
400.165	93.38
400.389	73.38
400.613	81.38
400.837	76.38
401.062	75.38
401.286	85.38
401.51	84.38
401.734	85.38
401.958	80.38
402.182	88.38
402.406	75.38
402.63	76.38
402.854	76.38
403.078	63.38
403.302	79.38
403.526	85.38
403.75	68.38
403.974	81.38
404.198	80.38
404.422	83.38
404.645	80.38
404.869	76.38
405.093	84.38
405.317	89.38
405.541	81.38
405.765	84.38
405.988	78.38
406.212	73.38
406.436	74.38
406.66	88.38
406.883	82.38
407.107	83.38
407.331	81.38
407.555	91.38
407.778	72.38
408.002	56.38
408.226	51.38
408.449	76.38
408.673	78.38
408.896	76.38
409.12	79.38
409.344	74.38
409.567	65.38
409.791	84.38
410.014	69.38
410.238	76.38
410.461	80.38
410.685	83.38
410.908	69.38
411.132	82.38
411.355	74.38
411.578	68.38
411.802	68.38
412.025	69.38
412.249	80.38
412.472	80.38
412.695	83.38
412.919	72.38
413.142	83.38
413.365	82.38
413.589	67.38
413.812	70.38
414.035	89.38
414.258	65.38
414.482	65.38
414.705	76.38
414.928	72.38
415.151	81.38
415.374	74.38
415.597	73.38
415.821	86.38
416.044	75.38
416.267	87.38
416.49	74.38
416.713	83.38
416.936	97.38
417.159	65.38
417.382	72.38
417.605	73.38
417.828	72.38
418.051	81.38
418.274	75.38
418.497	80.38
418.72	85.38
418.943	86.38
419.166	89.38
419.389	80.38
419.611	90.38
419.834	74.38
420.057	80.38
420.28	65.38
420.503	78.38
420.726	93.38
420.948	78.38
421.171	91.38
421.394	88.38
421.617	86.38
421.839	64.38
422.062	91.38
422.285	70.38
422.507	71.38
422.73	83.38
422.953	89.38
423.175	88.38
423.398	66.38
423.621	75.38
423.843	69.38
424.066	80.38
424.288	77.38
424.511	91.38
424.733	81.38
424.956	73.38
425.178	75.38
425.401	78.38
425.623	83.38
425.846	90.38
426.068	81.38
426.291	81.38
426.513	72.38
426.735	79.38
426.958	87.38
427.18	90.38
427.402	80.38
427.625	66.38
427.847	89.38
428.069	75.38
428.292	66.38
428.514	74.38
428.736	54.38
428.958	88.38
429.181	75.38
429.403	76.38
429.625	75.38
429.847	70.38
430.069	79.38
430.292	68.38
430.514	65.38
430.736	87.38
430.958	77.38
431.18	75.38
431.402	83.38
431.624	76.38
431.846	60.38
432.068	83.38
432.29	68.38
432.512	80.38
432.734	70.38
432.956	92.38
433.178	73.38
433.4	87.38
433.622	77.38
433.844	75.38
434.066	75.38
434.287	76.38
434.509	90.38
434.731	74.38
434.953	69.38
435.175	68.38
435.397	76.38
435.618	74.38
435.84	49.38
436.062	63.38
436.284	80.38
436.505	86.38
436.727	67.38
436.949	86.38
437.17	74.38
437.392	69.38
437.614	85.38
437.835	79.38
438.057	76.38
438.278	74.38
438.5	76.38
438.721	86.38
438.943	87.38
439.165	70.38
439.386	69.38
439.608	75.38
439.829	62.38
440.05	76.38
440.272	70.38
440.493	83.38
440.715	86.38
440.936	86.38
441.158	74.38
441.379	75.38
441.6	77.38
441.822	72.38
442.043	80.38
442.264	74.38
442.486	64.38
442.707	74.38
442.928	76.38
443.149	86.38
443.371	87.38
443.592	83.38
443.813	81.38
444.034	83.38
444.255	74.38
444.476	67.38
444.698	82.38
444.919	77.38
445.14	146.38
445.361	108.38
445.582	83.38
445.803	75.38
446.024	68.38
446.245	86.38
446.466	73.38
446.687	89.38
446.908	68.38
447.129	87.38
447.35	82.38
447.571	85.38
447.792	82.38
448.013	81.38
448.234	83.38
448.455	70.38
448.675	93.38
448.896	78.38
449.117	66.38
449.338	81.38
449.559	89.38
449.779	81.38
450	79.38
450.221	88.38
450.442	72.38
450.662	79.38
450.883	90.38
451.104	84.38
451.324	81.38
451.545	62.38
451.766	66.38
451.986	68.38
452.207	71.38
452.428	78.38
452.648	76.38
452.869	72.38
453.089	71.38
453.31	74.38
453.53	74.38
453.751	81.38
453.971	78.38
454.192	77.38
454.412	85.38
454.633	96.38
454.853	83.38
455.073	86.38
455.294	64.38
455.514	85.38
455.734	71.38
455.955	73.38
456.175	73.38
456.395	76.38
456.616	82.38
456.836	68.38
457.056	71.38
457.276	81.38
457.497	79.38
457.717	63.38
457.937	66.38
458.157	78.38
458.377	67.38
458.598	65.38
458.818	73.38
459.038	74.38
459.258	79.38
459.478	70.38
459.698	72.38
459.918	86.38
460.138	82.38
460.358	77.38
460.578	74.38
460.798	88.38
461.018	76.38
461.238	84.38
461.458	84.38
461.678	75.38
461.898	89.38
462.118	88.38
462.338	80.38
462.558	90.38
462.777	89.38
462.997	85.38
463.217	91.38
463.437	78.38
463.657	55.38
463.876	74.38
464.096	72.38
464.316	76.38
464.536	75.38
464.755	79.38
464.975	76.38
465.195	87.38
465.414	95.38
465.634	82.38
465.854	70.38
466.073	75.38
466.293	72.38
466.512	74.38
466.732	71.38
466.951	68.38
467.171	76.38
467.391	76.38
467.61	78.38
467.829	82.38
468.049	80.38
468.268	93.38
468.488	72.38
468.707	77.38
468.927	79.38
469.146	78.38
469.365	68.38
469.585	80.38
469.804	73.38
470.023	64.38
470.243	64.38
470.462	82.38
470.681	74.38
470.901	79.38
471.12	76.38
471.339	89.38
471.558	68.38
471.777	67.38
471.997	69.38
472.216	69.38
472.435	68.38
472.654	82.38
472.873	75.38
473.092	80.38
473.311	79.38
473.53	82.38
473.749	77.38
473.968	77.38
474.187	73.38
474.406	91.38
474.625	88.38
474.844	89.38
475.063	73.38
475.282	64.38
475.501	78.38
475.72	74.38
475.939	73.38
476.158	73.38
476.377	74.38
476.596	79.38
476.814	75.38
477.033	87.38
477.252	74.38
477.471	74.38
477.69	74.38
477.908	74.38
478.127	74.38
478.346	87.38
478.564	86.38
478.783	87.38
479.002	81.38
479.22	80.38
479.439	83.38
479.658	66.38
479.876	78.38
480.095	68.38
480.313	81.38
480.532	71.38
480.751	84.38
480.969	82.38
481.188	97.38
481.406	74.38
481.624	84.38
481.843	66.38
482.061	80.38
482.28	74.38
482.498	90.38
482.717	78.38
482.935	65.38
483.153	67.38
483.372	67.38
483.59	86.38
483.808	80.38
484.027	89.38
484.245	72.38
484.463	76.38
484.681	82.38
484.9	86.38
485.118	86.38
485.336	72.38
485.554	82.38
485.772	78.38
485.99	73.38
486.209	80.38
486.427	78.38
486.645	97.38
486.863	84.38
487.081	74.38
487.299	76.38
487.517	66.38
487.735	89.38
487.953	66.38
488.171	80.38
488.389	84.38
488.607	65.38
488.825	78.38
489.043	78.38
489.261	79.38
489.479	79.38
489.696	85.38
489.914	75.38
490.132	85.38
490.35	82.38
490.568	78.38
490.786	73.38
491.003	80.38
491.221	71.38
491.439	79.38
491.657	79.38
491.874	82.38
492.092	70.38
492.31	81.38
492.527	71.38
492.745	84.38
492.963	75.38
493.18	69.38
493.398	76.38
493.615	82.38
493.833	76.38
494.05	96.38
494.268	75.38
494.485	59.38
494.703	91.38
494.92	81.38
495.138	59.38
495.355	69.38
495.573	84.38
495.79	85.38
496.008	95.38
496.225	86.38
496.442	82.38
496.66	77.38
496.877	97.38
497.094	82.38
497.312	75.38
497.529	87.38
497.746	76.38
497.963	70.38
498.181	64.38
498.398	66.38
498.615	82.38
498.832	71.38
499.049	74.38
499.267	87.38
499.484	78.38
499.701	82.38
499.918	75.38
500.135	74.38
500.352	70.38
500.569	77.38
500.786	76.38
501.003	73.38
501.22	79.38
501.437	68.38
501.654	67.38
501.871	81.38
502.088	80.38
502.305	80.38
502.522	72.38
502.739	76.38
502.956	66.38
503.172	82.38
503.389	83.38
503.606	74.38
503.823	90.38
504.04	74.38
504.256	67.38
504.473	71.38
504.69	86.38
504.907	70.38
505.123	79.38
505.34	82.38
505.557	75.38
505.773	76.38
505.99	77.38
506.207	94.38
506.423	74.38
506.64	83.38
506.856	82.38
507.073	89.38
507.289	70.38
507.506	83.38
507.722	68.38
507.939	92.38
508.155	95.38
508.372	70.38
508.588	75.38
508.805	71.38
509.021	82.38
509.238	86.38
509.454	80.38
509.67	84.38
509.887	67.38
510.103	81.38
510.319	81.38
510.536	71.38
510.752	67.38
510.968	77.38
511.184	74.38
511.401	80.38
511.617	86.38
511.833	90.38
512.049	76.38
512.265	71.38
512.481	80.38
512.698	81.38
512.914	84.38
513.13	86.38
513.346	85.38
513.562	82.38
513.778	82.38
513.994	63.38
514.21	78.38
514.426	78.38
514.642	77.38
514.858	77.38
515.074	73.38
515.29	76.38
515.506	86.38
515.721	85.38
515.937	76.38
516.153	75.38
516.369	87.38
516.585	78.38
516.801	91.38
517.016	84.38
517.232	84.38
517.448	78.38
517.664	83.38
517.879	87.38
518.095	79.38
518.311	72.38
518.527	81.38
518.742	80.38
518.958	79.38
519.173	75.38
519.389	78.38
519.605	80.38
519.82	77.38
520.036	99.38
520.251	79.38
