Data from Background_3_HRD10591_00094.txt Node
Date: Wed Nov 05 14:50:06 EST 2025
User: Yrep
Spectrometer: HR+D1059
Trigger mode: 1
Integration Time (sec): 1.000000E-1
Scans to average: 1
Electric dark correction enabled: true
Nonlinearity correction enabled: false
Boxcar width: 0
XAxis mode: Wavelengths
Number of Pixels in Spectrum: 2048
>>>>>Begin Spectral Data<<<<<
223.165	-15.88
223.4	-15.88
223.635	-15.88
223.869	-15.88
224.104	-19.88
224.338	-26.88
224.573	-13.88
224.808	-14.88
225.042	-7.88
225.277	-0.88
225.511	1.12
225.746	14.12
225.98	14.12
226.215	-0.88
226.449	18.12
226.683	13.12
226.918	29.12
227.152	27.12
227.387	35.12
227.621	22.12
227.856	44.12
228.09	45.12
228.324	55.12
228.559	50.12
228.793	56.12
229.027	61.12
229.262	69.12
229.496	65.12
229.73	65.12
229.964	84.12
230.199	78.12
230.433	80.12
230.667	80.12
230.901	77.12
231.136	63.12
231.37	70.12
231.604	79.12
231.838	75.12
232.072	81.12
232.306	87.12
232.541	80.12
232.775	70.12
233.009	79.12
233.243	81.12
233.477	85.12
233.711	76.12
233.945	83.12
234.179	88.12
234.413	83.12
234.647	77.12
234.881	80.12
235.115	75.12
235.349	68.12
235.583	77.12
235.817	74.12
236.051	92.12
236.285	78.12
236.519	74.12
236.753	71.12
236.987	64.12
237.221	71.12
237.455	79.12
237.689	77.12
237.922	56.12
238.156	77.12
238.39	75.12
238.624	76.12
238.858	87.12
239.091	70.12
239.325	74.12
239.559	84.12
239.793	75.12
240.027	67.12
240.26	66.12
240.494	78.12
240.728	80.12
240.961	76.12
241.195	80.12
241.429	80.12
241.662	72.12
241.896	67.12
242.13	72.12
242.363	72.12
242.597	69.12
242.83	68.12
243.064	81.12
243.298	73.12
243.531	76.12
243.765	77.12
243.998	74.12
244.232	74.12
244.465	66.12
244.699	71.12
244.932	84.12
245.166	80.12
245.399	80.12
245.633	67.12
245.866	82.12
246.099	66.12
246.333	74.12
246.566	78.12
246.8	76.12
247.033	66.12
247.266	82.12
247.5	62.12
247.733	75.12
247.966	80.12
248.2	73.12
248.433	80.12
248.666	80.12
248.899	81.12
249.133	76.12
249.366	77.12
249.599	89.12
249.832	73.12
250.066	70.12
250.299	82.12
250.532	68.12
250.765	66.12
250.998	87.12
251.231	78.12
251.465	81.12
251.698	82.12
251.931	74.12
252.164	80.12
252.397	83.12
252.63	79.12
252.863	73.12
253.096	62.12
253.329	60.12
253.562	81.12
253.795	80.12
254.028	95.12
254.261	84.12
254.494	80.12
254.727	73.12
254.96	81.12
255.193	88.12
255.426	73.12
255.659	70.12
255.892	88.12
256.124	75.12
256.357	83.12
256.59	81.12
256.823	72.12
257.056	88.12
257.289	81.12
257.521	79.12
257.754	69.12
257.987	83.12
258.22	76.12
258.452	75.12
258.685	87.12
258.918	71.12
259.151	80.12
259.383	98.12
259.616	83.12
259.849	81.12
260.081	90.12
260.314	81.12
260.547	78.12
260.779	74.12
261.012	71.12
261.244	71.12
261.477	74.12
261.71	75.12
261.942	69.12
262.175	78.12
262.407	78.12
262.64	71.12
262.872	84.12
263.105	75.12
263.337	78.12
263.57	86.12
263.802	95.12
264.035	82.12
264.267	73.12
264.499	79.12
264.732	75.12
264.964	87.12
265.197	75.12
265.429	91.12
265.661	89.12
265.894	89.12
266.126	77.12
266.358	75.12
266.591	83.12
266.823	86.12
267.055	71.12
267.287	84.12
267.52	85.12
267.752	90.12
267.984	72.12
268.216	86.12
268.448	84.12
268.681	74.12
268.913	58.12
269.145	66.12
269.377	76.12
269.609	76.12
269.841	68.12
270.073	94.12
270.306	77.12
270.538	80.12
270.77	81.12
271.002	88.12
271.234	78.12
271.466	78.12
271.698	75.12
271.93	84.12
272.162	97.12
272.394	92.12
272.626	78.12
272.858	74.12
273.09	83.12
273.322	74.12
273.553	76.12
273.785	78.12
274.017	97.12
274.249	78.12
274.481	83.12
274.713	88.12
274.945	65.12
275.176	81.12
275.408	76.12
275.64	84.12
275.872	91.12
276.104	80.12
276.335	81.12
276.567	74.12
276.799	78.12
277.031	72.12
277.262	81.12
277.494	80.12
277.726	90.12
277.957	86.12
278.189	65.12
278.421	68.12
278.652	80.12
278.884	70.12
279.115	87.12
279.347	74.12
279.579	74.12
279.81	86.12
280.042	76.12
280.273	84.12
280.505	68.12
280.736	94.12
280.968	81.12
281.199	87.12
281.431	79.12
281.662	78.12
281.894	81.12
282.125	79.12
282.356	78.12
282.588	78.12
282.819	77.12
283.051	85.12
283.282	85.12
283.513	87.12
283.745	68.12
283.976	85.12
284.207	70.12
284.439	88.12
284.67	92.12
284.901	88.12
285.132	91.12
285.364	75.12
285.595	75.12
285.826	91.12
286.057	90.12
286.288	78.12
286.52	84.12
286.751	79.12
286.982	59.12
287.213	91.12
287.444	87.12
287.675	75.12
287.906	88.12
288.138	73.12
288.369	86.12
288.6	86.12
288.831	84.12
289.062	78.12
289.293	78.12
289.524	69.12
289.755	82.12
289.986	74.12
290.217	87.12
290.448	86.12
290.679	94.12
290.91	71.12
291.141	76.12
291.371	91.12
291.602	77.12
291.833	71.12
292.064	67.12
292.295	75.12
292.526	78.12
292.757	92.12
292.987	89.12
293.218	79.12
293.449	79.12
293.68	75.12
293.91	65.12
294.141	83.12
294.372	85.12
294.603	63.12
294.833	90.12
295.064	91.12
295.295	84.12
295.525	82.12
295.756	88.12
295.987	90.12
296.217	75.12
296.448	86.12
296.679	65.12
296.909	82.12
297.14	83.12
297.37	94.12
297.601	79.12
297.831	76.12
298.062	85.12
298.292	71.12
298.523	82.12
298.753	64.12
298.984	74.12
299.214	86.12
299.445	72.12
299.675	85.12
299.905	82.12
300.136	70.12
300.366	109.12
300.597	77.12
300.827	81.12
301.057	91.12
301.288	91.12
301.518	85.12
301.748	79.12
301.979	97.12
302.209	92.12
302.439	82.12
302.669	68.12
302.9	79.12
303.13	82.12
303.36	82.12
303.59	92.12
303.82	80.12
304.051	81.12
304.281	82.12
304.511	74.12
304.741	74.12
304.971	65.12
305.201	78.12
305.431	85.12
305.661	81.12
305.891	100.12
306.121	81.12
306.352	81.12
306.582	82.12
306.812	75.12
307.042	64.12
307.272	78.12
307.502	92.12
307.731	70.12
307.961	79.12
308.191	75.12
308.421	88.12
308.651	79.12
308.881	76.12
309.111	79.12
309.341	78.12
309.571	83.12
309.8	90.12
310.03	68.12
310.26	59.12
310.49	94.12
310.72	72.12
310.949	84.12
311.179	93.12
311.409	81.12
311.639	78.12
311.868	85.12
312.098	80.12
312.328	97.12
312.557	82.12
312.787	90.12
313.017	74.12
313.246	82.12
313.476	79.12
313.706	83.12
313.935	76.12
314.165	76.12
314.394	87.12
314.624	76.12
314.853	82.12
315.083	89.12
315.312	80.12
315.542	78.12
315.771	81.12
316.001	76.12
316.23	88.12
316.46	84.12
316.689	94.12
316.919	98.12
317.148	87.12
317.377	78.12
317.607	90.12
317.836	77.12
318.065	81.12
318.295	80.12
318.524	84.12
318.753	87.12
318.983	89.12
319.212	93.12
319.441	78.12
319.67	73.12
319.9	77.12
320.129	78.12
320.358	76.12
320.587	69.12
320.816	86.12
321.046	88.12
321.275	83.12
321.504	80.12
321.733	88.12
321.962	97.12
322.191	79.12
322.42	85.12
322.649	77.12
322.878	69.12
323.108	76.12
323.337	98.12
323.566	69.12
323.795	78.12
324.024	67.12
324.253	74.12
324.482	77.12
324.71	90.12
324.939	78.12
325.168	76.12
325.397	83.12
325.626	90.12
325.855	76.12
326.084	75.12
326.313	78.12
326.542	74.12
326.77	70.12
326.999	55.12
327.228	76.12
327.457	82.12
327.686	84.12
327.914	78.12
328.143	86.12
328.372	81.12
328.6	84.12
328.829	89.12
329.058	78.12
329.287	81.12
329.515	76.12
329.744	76.12
329.972	91.12
330.201	82.12
330.43	91.12
330.658	80.12
330.887	78.12
331.115	71.12
331.344	85.12
331.572	87.12
331.801	72.12
332.03	96.12
332.258	92.12
332.486	85.12
332.715	83.12
332.943	87.12
333.172	80.12
333.4	81.12
333.629	78.12
333.857	83.12
334.085	95.12
334.314	87.12
334.542	89.12
334.771	86.12
334.999	84.12
335.227	75.12
335.455	68.12
335.684	86.12
335.912	73.12
336.14	77.12
336.369	78.12
336.597	72.12
336.825	79.12
337.053	83.12
337.281	84.12
337.51	85.12
337.738	83.12
337.966	79.12
338.194	83.12
338.422	86.12
338.65	90.12
338.878	85.12
339.106	83.12
339.334	73.12
339.562	81.12
339.79	82.12
340.018	89.12
340.246	72.12
340.474	79.12
340.702	75.12
340.93	82.12
341.158	75.12
341.386	92.12
341.614	75.12
341.842	86.12
342.07	85.12
342.298	84.12
342.526	82.12
342.754	75.12
342.981	83.12
343.209	80.12
343.437	83.12
343.665	82.12
343.893	69.12
344.12	84.12
344.348	78.12
344.576	74.12
344.804	69.12
345.031	80.12
345.259	90.12
345.487	77.12
345.714	85.12
345.942	83.12
346.17	107.12
346.397	76.12
346.625	73.12
346.853	78.12
347.08	78.12
347.308	84.12
347.535	89.12
347.763	80.12
347.99	98.12
348.218	69.12
348.445	77.12
348.673	70.12
348.9	77.12
349.128	82.12
349.355	88.12
349.583	82.12
349.81	82.12
350.037	79.12
350.265	66.12
350.492	68.12
350.72	75.12
350.947	91.12
351.174	91.12
351.402	76.12
351.629	75.12
351.856	69.12
352.083	65.12
352.311	93.12
352.538	75.12
352.765	81.12
352.992	81.12
353.22	75.12
353.447	72.12
353.674	82.12
353.901	98.12
354.128	91.12
354.355	74.12
354.583	75.12
354.81	93.12
355.037	75.12
355.264	74.12
355.491	74.12
355.718	80.12
355.945	68.12
356.172	74.12
356.399	88.12
356.626	72.12
356.853	93.12
357.08	87.12
357.307	79.12
357.534	90.12
357.761	92.12
357.988	91.12
358.215	91.12
358.441	94.12
358.668	72.12
358.895	81.12
359.122	82.12
359.349	85.12
359.576	83.12
359.802	81.12
360.029	80.12
360.256	85.12
360.483	88.12
360.709	72.12
360.936	76.12
361.163	88.12
361.39	83.12
361.616	88.12
361.843	83.12
362.07	89.12
362.296	87.12
362.523	79.12
362.749	81.12
362.976	81.12
363.203	81.12
363.429	71.12
363.656	75.12
363.882	96.12
364.109	86.12
364.335	87.12
364.562	68.12
364.788	87.12
365.015	78.12
365.241	74.12
365.468	91.12
365.694	78.12
365.92	86.12
366.147	86.12
366.373	84.12
366.599	81.12
366.826	88.12
367.052	77.12
367.278	80.12
367.505	86.12
367.731	83.12
367.957	70.12
368.184	84.12
368.41	73.12
368.636	84.12
368.862	75.12
369.089	80.12
369.315	72.12
369.541	83.12
369.767	79.12
369.993	79.12
370.219	73.12
370.445	74.12
370.672	83.12
370.898	75.12
371.124	68.12
371.35	81.12
371.576	84.12
371.802	88.12
372.028	83.12
372.254	83.12
372.48	82.12
372.706	84.12
372.932	78.12
373.158	86.12
373.384	76.12
373.61	66.12
373.835	82.12
374.061	64.12
374.287	79.12
374.513	86.12
374.739	89.12
374.965	71.12
375.191	76.12
375.416	81.12
375.642	79.12
375.868	87.12
376.094	86.12
376.319	77.12
376.545	77.12
376.771	73.12
376.997	74.12
377.222	81.12
377.448	78.12
377.674	86.12
377.899	71.12
378.125	81.12
378.35	81.12
378.576	71.12
378.802	80.12
379.027	80.12
379.253	86.12
379.478	80.12
379.704	83.12
379.929	73.12
380.155	77.12
380.38	74.12
380.606	66.12
380.831	81.12
381.057	80.12
381.282	76.12
381.507	85.12
381.733	77.12
381.958	77.12
382.184	77.12
382.409	72.12
382.634	86.12
382.86	75.12
383.085	80.12
383.31	70.12
383.535	80.12
383.761	89.12
383.986	58.12
384.211	74.12
384.436	72.12
384.662	66.12
384.887	79.12
385.112	72.12
385.337	76.12
385.562	83.12
385.787	74.12
386.013	90.12
386.238	79.12
386.463	78.12
386.688	87.12
386.913	88.12
387.138	73.12
387.363	86.12
387.588	74.12
387.813	87.12
388.038	85.12
388.263	85.12
388.488	83.12
388.713	63.12
388.938	94.12
389.163	80.12
389.387	64.12
389.612	75.12
389.837	59.12
390.062	76.12
390.287	80.12
390.512	79.12
390.736	78.12
390.961	74.12
391.186	75.12
391.411	77.12
391.636	79.12
391.86	91.12
392.085	78.12
392.31	69.12
392.534	67.12
392.759	81.12
392.984	80.12
393.208	66.12
393.433	81.12
393.658	67.12
393.882	66.12
394.107	74.12
394.331	81.12
394.556	74.12
394.78	78.12
395.005	78.12
395.229	72.12
395.454	73.12
395.678	80.12
395.903	76.12
396.127	65.12
396.352	92.12
396.576	90.12
396.801	71.12
397.025	71.12
397.249	93.12
397.474	77.12
397.698	83.12
397.922	80.12
398.147	81.12
398.371	76.12
398.595	81.12
398.82	87.12
399.044	76.12
399.268	86.12
399.492	74.12
399.717	71.12
399.941	80.12
400.165	81.12
400.389	74.12
400.613	78.12
400.837	81.12
401.062	83.12
401.286	85.12
401.51	73.12
401.734	76.12
401.958	76.12
402.182	59.12
402.406	98.12
402.63	82.12
402.854	74.12
403.078	89.12
403.302	80.12
403.526	87.12
403.75	88.12
403.974	76.12
404.198	79.12
404.422	72.12
404.645	74.12
404.869	80.12
405.093	79.12
405.317	93.12
405.541	74.12
405.765	76.12
405.988	71.12
406.212	67.12
406.436	61.12
406.66	62.12
406.883	88.12
407.107	68.12
407.331	80.12
407.555	83.12
407.778	82.12
408.002	78.12
408.226	91.12
408.449	58.12
408.673	66.12
408.896	93.12
409.12	69.12
409.344	81.12
409.567	86.12
409.791	88.12
410.014	66.12
410.238	79.12
410.461	89.12
410.685	68.12
410.908	80.12
411.132	98.12
411.355	89.12
411.578	84.12
411.802	76.12
412.025	84.12
412.249	69.12
412.472	92.12
412.695	63.12
412.919	84.12
413.142	82.12
413.365	83.12
413.589	83.12
413.812	67.12
414.035	80.12
414.258	75.12
414.482	68.12
414.705	73.12
414.928	80.12
415.151	76.12
415.374	83.12
415.597	72.12
415.821	70.12
416.044	71.12
416.267	75.12
416.49	74.12
416.713	77.12
416.936	83.12
417.159	90.12
417.382	80.12
417.605	66.12
417.828	78.12
418.051	88.12
418.274	82.12
418.497	77.12
418.72	84.12
418.943	77.12
419.166	86.12
419.389	84.12
419.611	83.12
419.834	66.12
420.057	91.12
420.28	79.12
420.503	86.12
420.726	69.12
420.948	74.12
421.171	73.12
421.394	77.12
421.617	72.12
421.839	75.12
422.062	83.12
422.285	62.12
422.507	72.12
422.73	72.12
422.953	67.12
423.175	67.12
423.398	66.12
423.621	83.12
423.843	87.12
424.066	71.12
424.288	78.12
424.511	79.12
424.733	83.12
424.956	91.12
425.178	74.12
425.401	74.12
425.623	86.12
425.846	63.12
426.068	83.12
426.291	87.12
426.513	86.12
426.735	72.12
426.958	80.12
427.18	64.12
427.402	79.12
427.625	59.12
427.847	68.12
428.069	79.12
428.292	58.12
428.514	84.12
428.736	79.12
428.958	99.12
429.181	84.12
429.403	78.12
429.625	81.12
429.847	80.12
430.069	76.12
430.292	99.12
430.514	95.12
430.736	77.12
430.958	87.12
431.18	65.12
431.402	80.12
431.624	86.12
431.846	80.12
432.068	83.12
432.29	77.12
432.512	88.12
432.734	92.12
432.956	86.12
433.178	80.12
433.4	89.12
433.622	79.12
433.844	77.12
434.066	79.12
434.287	80.12
434.509	72.12
434.731	62.12
434.953	79.12
435.175	76.12
435.397	71.12
435.618	74.12
435.84	90.12
436.062	79.12
436.284	82.12
436.505	71.12
436.727	72.12
436.949	71.12
437.17	68.12
437.392	78.12
437.614	77.12
437.835	76.12
438.057	84.12
438.278	65.12
438.5	70.12
438.721	76.12
438.943	67.12
439.165	71.12
439.386	78.12
439.608	77.12
439.829	71.12
440.05	74.12
440.272	86.12
440.493	75.12
440.715	88.12
440.936	77.12
441.158	80.12
441.379	79.12
441.6	86.12
441.822	74.12
442.043	77.12
442.264	88.12
442.486	83.12
442.707	67.12
442.928	80.12
443.149	79.12
443.371	66.12
443.592	74.12
443.813	91.12
444.034	72.12
444.255	76.12
444.476	69.12
444.698	86.12
444.919	82.12
445.14	153.12
445.361	106.12
445.582	84.12
445.803	68.12
446.024	71.12
446.245	90.12
446.466	67.12
446.687	85.12
446.908	71.12
447.129	78.12
447.35	70.12
447.571	74.12
447.792	74.12
448.013	81.12
448.234	69.12
448.455	75.12
448.675	91.12
448.896	68.12
449.117	86.12
449.338	82.12
449.559	77.12
449.779	83.12
450	74.12
450.221	86.12
450.442	77.12
450.662	78.12
450.883	64.12
451.104	74.12
451.324	83.12
451.545	95.12
451.766	92.12
451.986	80.12
452.207	64.12
452.428	78.12
452.648	83.12
452.869	88.12
453.089	77.12
453.31	60.12
453.53	76.12
453.751	75.12
453.971	80.12
454.192	64.12
454.412	74.12
454.633	83.12
454.853	64.12
455.073	72.12
455.294	70.12
455.514	77.12
455.734	78.12
455.955	98.12
456.175	76.12
456.395	71.12
456.616	68.12
456.836	93.12
457.056	79.12
457.276	80.12
457.497	73.12
457.717	75.12
457.937	83.12
458.157	83.12
458.377	63.12
458.598	77.12
458.818	60.12
459.038	89.12
459.258	79.12
459.478	73.12
459.698	89.12
459.918	76.12
460.138	82.12
460.358	77.12
460.578	72.12
460.798	66.12
461.018	81.12
461.238	80.12
461.458	71.12
461.678	87.12
461.898	81.12
462.118	84.12
462.338	84.12
462.558	79.12
462.777	61.12
462.997	82.12
463.217	72.12
463.437	61.12
463.657	77.12
463.876	78.12
464.096	74.12
464.316	76.12
464.536	92.12
464.755	72.12
464.975	81.12
465.195	87.12
465.414	78.12
465.634	82.12
465.854	72.12
466.073	74.12
466.293	69.12
466.512	80.12
466.732	67.12
466.951	88.12
467.171	82.12
467.391	80.12
467.61	82.12
467.829	72.12
468.049	68.12
468.268	65.12
468.488	79.12
468.707	82.12
468.927	82.12
469.146	82.12
469.365	72.12
469.585	68.12
469.804	92.12
470.023	72.12
470.243	83.12
470.462	80.12
470.681	74.12
470.901	84.12
471.12	72.12
471.339	87.12
471.558	69.12
471.777	81.12
471.997	77.12
472.216	83.12
472.435	94.12
472.654	72.12
472.873	79.12
473.092	87.12
473.311	81.12
473.53	79.12
473.749	86.12
473.968	81.12
474.187	72.12
474.406	89.12
474.625	88.12
474.844	79.12
475.063	74.12
475.282	80.12
475.501	79.12
475.72	84.12
475.939	88.12
476.158	82.12
476.377	88.12
476.596	72.12
476.814	74.12
477.033	83.12
477.252	84.12
477.471	78.12
477.69	80.12
477.908	79.12
478.127	64.12
478.346	76.12
478.564	80.12
478.783	70.12
479.002	79.12
479.22	72.12
479.439	76.12
479.658	90.12
479.876	72.12
480.095	78.12
480.313	89.12
480.532	78.12
480.751	71.12
480.969	76.12
481.188	71.12
481.406	82.12
481.624	90.12
481.843	97.12
482.061	68.12
482.28	83.12
482.498	86.12
482.717	73.12
482.935	75.12
483.153	85.12
483.372	78.12
483.59	77.12
483.808	71.12
484.027	83.12
484.245	74.12
484.463	89.12
484.681	91.12
484.9	74.12
485.118	86.12
485.336	66.12
485.554	76.12
485.772	84.12
485.99	82.12
486.209	82.12
486.427	82.12
486.645	84.12
486.863	77.12
487.081	77.12
487.299	82.12
487.517	68.12
487.735	80.12
487.953	83.12
488.171	76.12
488.389	94.12
488.607	63.12
488.825	74.12
489.043	68.12
489.261	79.12
489.479	69.12
489.696	77.12
489.914	79.12
490.132	77.12
490.35	71.12
490.568	81.12
490.786	78.12
491.003	88.12
491.221	79.12
491.439	98.12
491.657	74.12
491.874	95.12
492.092	74.12
492.31	85.12
492.527	84.12
492.745	80.12
492.963	87.12
493.18	78.12
493.398	90.12
493.615	78.12
493.833	72.12
494.05	71.12
494.268	70.12
494.485	87.12
494.703	87.12
494.92	81.12
495.138	73.12
495.355	81.12
495.573	87.12
495.79	79.12
496.008	95.12
496.225	72.12
496.442	86.12
496.66	91.12
496.877	83.12
497.094	76.12
497.312	81.12
497.529	82.12
497.746	91.12
497.963	75.12
498.181	64.12
498.398	61.12
498.615	74.12
498.832	97.12
499.049	74.12
499.267	86.12
499.484	80.12
499.701	80.12
499.918	96.12
500.135	84.12
500.352	87.12
500.569	83.12
500.786	75.12
501.003	66.12
501.22	87.12
501.437	86.12
501.654	80.12
501.871	75.12
502.088	70.12
502.305	75.12
502.522	70.12
502.739	80.12
502.956	92.12
503.172	90.12
503.389	72.12
503.606	62.12
503.823	76.12
504.04	62.12
504.256	86.12
504.473	81.12
504.69	72.12
504.907	96.12
505.123	76.12
505.34	74.12
505.557	76.12
505.773	80.12
505.99	74.12
506.207	80.12
506.423	82.12
506.64	90.12
506.856	81.12
507.073	67.12
507.289	85.12
507.506	79.12
507.722	70.12
507.939	81.12
508.155	77.12
508.372	82.12
508.588	75.12
508.805	79.12
509.021	82.12
509.238	96.12
509.454	82.12
509.67	68.12
509.887	61.12
510.103	93.12
510.319	60.12
510.536	74.12
510.752	77.12
510.968	76.12
511.184	78.12
511.401	64.12
511.617	82.12
511.833	68.12
512.049	78.12
512.265	64.12
512.481	80.12
512.698	79.12
512.914	83.12
513.13	79.12
513.346	79.12
513.562	84.12
513.778	82.12
513.994	90.12
514.21	89.12
514.426	81.12
514.642	80.12
514.858	77.12
515.074	82.12
515.29	73.12
515.506	78.12
515.721	82.12
515.937	77.12
516.153	80.12
516.369	83.12
516.585	73.12
516.801	74.12
517.016	102.12
517.232	92.12
517.448	76.12
517.664	59.12
517.879	87.12
518.095	82.12
518.311	74.12
518.527	65.12
518.742	82.12
518.958	64.12
519.173	81.12
519.389	82.12
519.605	72.12
519.82	84.12
520.036	67.12
