Data from Background_3_HRD10591_00079.txt Node
Date: Wed Nov 05 14:49:59 EST 2025
User: Yrep
Spectrometer: HR+D1059
Trigger mode: 1
Integration Time (sec): 1.000000E-1
Scans to average: 1
Electric dark correction enabled: true
Nonlinearity correction enabled: false
Boxcar width: 0
XAxis mode: Wavelengths
Number of Pixels in Spectrum: 2048
>>>>>Begin Spectral Data<<<<<
223.165	-16.31
223.4	-16.31
223.635	-16.31
223.869	-13.31
224.104	-13.31
224.338	-23.31
224.573	-20.31
224.808	-13.31
225.042	-15.31
225.277	-13.31
225.511	3.69
225.746	12.69
225.98	5.69
226.215	8.69
226.449	19.69
226.683	15.69
226.918	28.69
227.152	33.69
227.387	38.69
227.621	33.69
227.856	42.69
228.09	53.69
228.324	40.69
228.559	62.69
228.793	59.69
229.027	54.69
229.262	56.69
229.496	67.69
229.73	77.69
229.964	72.69
230.199	82.69
230.433	64.69
230.667	69.69
230.901	74.69
231.136	80.69
231.37	79.69
231.604	62.69
231.838	62.69
232.072	82.69
232.306	96.69
232.541	68.69
232.775	68.69
233.009	79.69
233.243	78.69
233.477	76.69
233.711	74.69
233.945	81.69
234.179	69.69
234.413	72.69
234.647	84.69
234.881	60.69
235.115	66.69
235.349	68.69
235.583	67.69
235.817	74.69
236.051	74.69
236.285	72.69
236.519	82.69
236.753	68.69
236.987	60.69
237.221	67.69
237.455	82.69
237.689	76.69
237.922	69.69
238.156	74.69
238.39	76.69
238.624	69.69
238.858	76.69
239.091	63.69
239.325	70.69
239.559	80.69
239.793	78.69
240.027	82.69
240.26	78.69
240.494	74.69
240.728	75.69
240.961	74.69
241.195	63.69
241.429	76.69
241.662	87.69
241.896	60.69
242.13	74.69
242.363	85.69
242.597	69.69
242.83	79.69
243.064	70.69
243.298	71.69
243.531	62.69
243.765	70.69
243.998	75.69
244.232	72.69
244.465	70.69
244.699	67.69
244.932	78.69
245.166	79.69
245.399	79.69
245.633	66.69
245.866	77.69
246.099	63.69
246.333	64.69
246.566	66.69
246.8	72.69
247.033	74.69
247.266	78.69
247.5	78.69
247.733	75.69
247.966	74.69
248.2	73.69
248.433	75.69
248.666	82.69
248.899	79.69
249.133	84.69
249.366	77.69
249.599	61.69
249.832	71.69
250.066	72.69
250.299	83.69
250.532	67.69
250.765	81.69
250.998	83.69
251.231	81.69
251.465	67.69
251.698	87.69
251.931	77.69
252.164	66.69
252.397	72.69
252.63	74.69
252.863	72.69
253.096	76.69
253.329	75.69
253.562	70.69
253.795	79.69
254.028	76.69
254.261	74.69
254.494	75.69
254.727	71.69
254.96	59.69
255.193	78.69
255.426	64.69
255.659	78.69
255.892	68.69
256.124	81.69
256.357	68.69
256.59	72.69
256.823	70.69
257.056	94.69
257.289	74.69
257.521	85.69
257.754	87.69
257.987	75.69
258.22	79.69
258.452	80.69
258.685	69.69
258.918	73.69
259.151	64.69
259.383	72.69
259.616	62.69
259.849	78.69
260.081	70.69
260.314	78.69
260.547	76.69
260.779	70.69
261.012	80.69
261.244	78.69
261.477	86.69
261.71	76.69
261.942	71.69
262.175	84.69
262.407	74.69
262.64	72.69
262.872	73.69
263.105	58.69
263.337	96.69
263.57	84.69
263.802	82.69
264.035	69.69
264.267	83.69
264.499	72.69
264.732	78.69
264.964	71.69
265.197	78.69
265.429	72.69
265.661	74.69
265.894	77.69
266.126	89.69
266.358	72.69
266.591	84.69
266.823	83.69
267.055	77.69
267.287	87.69
267.52	90.69
267.752	70.69
267.984	79.69
268.216	90.69
268.448	78.69
268.681	81.69
268.913	87.69
269.145	92.69
269.377	81.69
269.609	84.69
269.841	81.69
270.073	74.69
270.306	92.69
270.538	76.69
270.77	79.69
271.002	78.69
271.234	77.69
271.466	94.69
271.698	78.69
271.93	81.69
272.162	79.69
272.394	80.69
272.626	83.69
272.858	86.69
273.09	76.69
273.322	78.69
273.553	75.69
273.785	77.69
274.017	72.69
274.249	76.69
274.481	88.69
274.713	80.69
274.945	73.69
275.176	85.69
275.408	79.69
275.64	90.69
275.872	72.69
276.104	80.69
276.335	77.69
276.567	87.69
276.799	76.69
277.031	74.69
277.262	60.69
277.494	73.69
277.726	79.69
277.957	96.69
278.189	79.69
278.421	83.69
278.652	81.69
278.884	86.69
279.115	86.69
279.347	76.69
279.579	76.69
279.81	65.69
280.042	85.69
280.273	84.69
280.505	82.69
280.736	81.69
280.968	83.69
281.199	89.69
281.431	83.69
281.662	83.69
281.894	78.69
282.125	94.69
282.356	83.69
282.588	68.69
282.819	68.69
283.051	81.69
283.282	78.69
283.513	84.69
283.745	80.69
283.976	87.69
284.207	82.69
284.439	83.69
284.67	99.69
284.901	73.69
285.132	78.69
285.364	80.69
285.595	82.69
285.826	91.69
286.057	88.69
286.288	87.69
286.52	94.69
286.751	74.69
286.982	67.69
287.213	73.69
287.444	66.69
287.675	77.69
287.906	62.69
288.138	77.69
288.369	98.69
288.6	82.69
288.831	82.69
289.062	82.69
289.293	79.69
289.524	82.69
289.755	83.69
289.986	87.69
290.217	82.69
290.448	74.69
290.679	81.69
290.91	82.69
291.141	84.69
291.371	71.69
291.602	83.69
291.833	71.69
292.064	83.69
292.295	81.69
292.526	78.69
292.757	73.69
292.987	74.69
293.218	80.69
293.449	81.69
293.68	81.69
293.91	79.69
294.141	78.69
294.372	71.69
294.603	80.69
294.833	78.69
295.064	81.69
295.295	90.69
295.525	92.69
295.756	83.69
295.987	77.69
296.217	71.69
296.448	81.69
296.679	64.69
296.909	78.69
297.14	82.69
297.37	89.69
297.601	77.69
297.831	78.69
298.062	79.69
298.292	83.69
298.523	95.69
298.753	78.69
298.984	72.69
299.214	80.69
299.445	89.69
299.675	68.69
299.905	84.69
300.136	77.69
300.366	84.69
300.597	79.69
300.827	76.69
301.057	89.69
301.288	71.69
301.518	79.69
301.748	73.69
301.979	89.69
302.209	83.69
302.439	83.69
302.669	82.69
302.9	82.69
303.13	79.69
303.36	82.69
303.59	84.69
303.82	84.69
304.051	82.69
304.281	87.69
304.511	94.69
304.741	83.69
304.971	76.69
305.201	75.69
305.431	86.69
305.661	63.69
305.891	73.69
306.121	78.69
306.352	66.69
306.582	74.69
306.812	87.69
307.042	71.69
307.272	80.69
307.502	83.69
307.731	84.69
307.961	69.69
308.191	87.69
308.421	81.69
308.651	80.69
308.881	78.69
309.111	87.69
309.341	83.69
309.571	79.69
309.8	81.69
310.03	86.69
310.26	79.69
310.49	72.69
310.72	76.69
310.949	85.69
311.179	72.69
311.409	80.69
311.639	80.69
311.868	82.69
312.098	60.69
312.328	72.69
312.557	90.69
312.787	85.69
313.017	82.69
313.246	76.69
313.476	84.69
313.706	86.69
313.935	85.69
314.165	87.69
314.394	71.69
314.624	80.69
314.853	90.69
315.083	94.69
315.312	69.69
315.542	83.69
315.771	94.69
316.001	87.69
316.23	66.69
316.46	84.69
316.689	85.69
316.919	92.69
317.148	79.69
317.377	96.69
317.607	81.69
317.836	78.69
318.065	76.69
318.295	66.69
318.524	69.69
318.753	89.69
318.983	89.69
319.212	85.69
319.441	78.69
319.67	89.69
319.9	82.69
320.129	86.69
320.358	76.69
320.587	78.69
320.816	90.69
321.046	85.69
321.275	81.69
321.504	78.69
321.733	84.69
321.962	81.69
322.191	91.69
322.42	90.69
322.649	79.69
322.878	78.69
323.108	93.69
323.337	82.69
323.566	79.69
323.795	96.69
324.024	94.69
324.253	75.69
324.482	82.69
324.71	77.69
324.939	86.69
325.168	81.69
325.397	62.69
325.626	86.69
325.855	75.69
326.084	79.69
326.313	76.69
326.542	96.69
326.77	76.69
326.999	79.69
327.228	87.69
327.457	81.69
327.686	102.69
327.914	81.69
328.143	88.69
328.372	84.69
328.6	86.69
328.829	77.69
329.058	83.69
329.287	86.69
329.515	86.69
329.744	76.69
329.972	79.69
330.201	81.69
330.43	80.69
330.658	72.69
330.887	81.69
331.115	82.69
331.344	68.69
331.572	72.69
331.801	72.69
332.03	86.69
332.258	62.69
332.486	67.69
332.715	82.69
332.943	76.69
333.172	86.69
333.4	72.69
333.629	76.69
333.857	82.69
334.085	84.69
334.314	67.69
334.542	73.69
334.771	66.69
334.999	81.69
335.227	67.69
335.455	84.69
335.684	76.69
335.912	76.69
336.14	71.69
336.369	80.69
336.597	83.69
336.825	63.69
337.053	81.69
337.281	81.69
337.51	88.69
337.738	83.69
337.966	68.69
338.194	94.69
338.422	90.69
338.65	75.69
338.878	83.69
339.106	90.69
339.334	79.69
339.562	74.69
339.79	94.69
340.018	77.69
340.246	74.69
340.474	83.69
340.702	89.69
340.93	82.69
341.158	78.69
341.386	72.69
341.614	76.69
341.842	66.69
342.07	81.69
342.298	87.69
342.526	87.69
342.754	79.69
342.981	76.69
343.209	70.69
343.437	87.69
343.665	68.69
343.893	76.69
344.12	82.69
344.348	74.69
344.576	78.69
344.804	78.69
345.031	87.69
345.259	80.69
345.487	79.69
345.714	77.69
345.942	66.69
346.17	64.69
346.397	71.69
346.625	80.69
346.853	79.69
347.08	93.69
347.308	85.69
347.535	91.69
347.763	74.69
347.99	81.69
348.218	90.69
348.445	78.69
348.673	88.69
348.9	83.69
349.128	90.69
349.355	82.69
349.583	77.69
349.81	79.69
350.037	87.69
350.265	68.69
350.492	83.69
350.72	83.69
350.947	69.69
351.174	96.69
351.402	80.69
351.629	83.69
351.856	90.69
352.083	86.69
352.311	101.69
352.538	87.69
352.765	82.69
352.992	92.69
353.22	65.69
353.447	89.69
353.674	83.69
353.901	70.69
354.128	82.69
354.355	82.69
354.583	78.69
354.81	83.69
355.037	86.69
355.264	69.69
355.491	76.69
355.718	71.69
355.945	94.69
356.172	74.69
356.399	78.69
356.626	70.69
356.853	78.69
357.08	76.69
357.307	88.69
357.534	86.69
357.761	68.69
357.988	81.69
358.215	90.69
358.441	74.69
358.668	76.69
358.895	87.69
359.122	76.69
359.349	69.69
359.576	78.69
359.802	82.69
360.029	83.69
360.256	89.69
360.483	83.69
360.709	85.69
360.936	75.69
361.163	84.69
361.39	82.69
361.616	72.69
361.843	78.69
362.07	85.69
362.296	78.69
362.523	82.69
362.749	86.69
362.976	65.69
363.203	85.69
363.429	78.69
363.656	69.69
363.882	66.69
364.109	84.69
364.335	85.69
364.562	90.69
364.788	84.69
365.015	84.69
365.241	67.69
365.468	68.69
365.694	68.69
365.92	76.69
366.147	72.69
366.373	77.69
366.599	81.69
366.826	81.69
367.052	80.69
367.278	81.69
367.505	62.69
367.731	91.69
367.957	84.69
368.184	73.69
368.41	87.69
368.636	67.69
368.862	76.69
369.089	97.69
369.315	84.69
369.541	74.69
369.767	79.69
369.993	83.69
370.219	76.69
370.445	69.69
370.672	69.69
370.898	88.69
371.124	73.69
371.35	83.69
371.576	66.69
371.802	81.69
372.028	78.69
372.254	61.69
372.48	71.69
372.706	72.69
372.932	78.69
373.158	70.69
373.384	108.69
373.61	72.69
373.835	75.69
374.061	75.69
374.287	89.69
374.513	89.69
374.739	78.69
374.965	76.69
375.191	80.69
375.416	74.69
375.642	68.69
375.868	67.69
376.094	77.69
376.319	77.69
376.545	78.69
376.771	84.69
376.997	92.69
377.222	84.69
377.448	75.69
377.674	73.69
377.899	86.69
378.125	87.69
378.35	82.69
378.576	79.69
378.802	73.69
379.027	76.69
379.253	84.69
379.478	94.69
379.704	74.69
379.929	86.69
380.155	84.69
380.38	76.69
380.606	74.69
380.831	87.69
381.057	87.69
381.282	81.69
381.507	69.69
381.733	77.69
381.958	83.69
382.184	67.69
382.409	85.69
382.634	74.69
382.86	74.69
383.085	82.69
383.31	75.69
383.535	86.69
383.761	78.69
383.986	83.69
384.211	67.69
384.436	74.69
384.662	91.69
384.887	84.69
385.112	80.69
385.337	78.69
385.562	71.69
385.787	80.69
386.013	78.69
386.238	79.69
386.463	83.69
386.688	91.69
386.913	79.69
387.138	82.69
387.363	83.69
387.588	88.69
387.813	85.69
388.038	69.69
388.263	83.69
388.488	86.69
388.713	62.69
388.938	86.69
389.163	68.69
389.387	76.69
389.612	74.69
389.837	73.69
390.062	88.69
390.287	78.69
390.512	82.69
390.736	78.69
390.961	86.69
391.186	80.69
391.411	89.69
391.636	84.69
391.86	76.69
392.085	83.69
392.31	72.69
392.534	76.69
392.759	80.69
392.984	74.69
393.208	69.69
393.433	72.69
393.658	71.69
393.882	83.69
394.107	75.69
394.331	91.69
394.556	72.69
394.78	99.69
395.005	74.69
395.229	83.69
395.454	84.69
395.678	75.69
395.903	78.69
396.127	73.69
396.352	77.69
396.576	78.69
396.801	71.69
397.025	75.69
397.249	75.69
397.474	76.69
397.698	79.69
397.922	72.69
398.147	65.69
398.371	62.69
398.595	60.69
398.82	80.69
399.044	70.69
399.268	66.69
399.492	78.69
399.717	83.69
399.941	82.69
400.165	60.69
400.389	70.69
400.613	67.69
400.837	82.69
401.062	87.69
401.286	90.69
401.51	80.69
401.734	87.69
401.958	84.69
402.182	65.69
402.406	72.69
402.63	73.69
402.854	74.69
403.078	79.69
403.302	68.69
403.526	79.69
403.75	82.69
403.974	76.69
404.198	74.69
404.422	55.69
404.645	82.69
404.869	94.69
405.093	81.69
405.317	84.69
405.541	68.69
405.765	60.69
405.988	67.69
406.212	63.69
406.436	85.69
406.66	82.69
406.883	103.69
407.107	84.69
407.331	78.69
407.555	76.69
407.778	81.69
408.002	74.69
408.226	61.69
408.449	78.69
408.673	71.69
408.896	80.69
409.12	82.69
409.344	79.69
409.567	80.69
409.791	82.69
410.014	78.69
410.238	79.69
410.461	61.69
410.685	73.69
410.908	82.69
411.132	70.69
411.355	77.69
411.578	74.69
411.802	75.69
412.025	70.69
412.249	82.69
412.472	82.69
412.695	91.69
412.919	106.69
413.142	81.69
413.365	83.69
413.589	90.69
413.812	80.69
414.035	82.69
414.258	90.69
414.482	81.69
414.705	78.69
414.928	78.69
415.151	75.69
415.374	80.69
415.597	79.69
415.821	68.69
416.044	74.69
416.267	82.69
416.49	83.69
416.713	76.69
416.936	82.69
417.159	79.69
417.382	75.69
417.605	74.69
417.828	86.69
418.051	54.69
418.274	82.69
418.497	76.69
418.72	66.69
418.943	84.69
419.166	89.69
419.389	74.69
419.611	87.69
419.834	79.69
420.057	65.69
420.28	78.69
420.503	67.69
420.726	84.69
420.948	86.69
421.171	79.69
421.394	80.69
421.617	80.69
421.839	89.69
422.062	86.69
422.285	76.69
422.507	84.69
422.73	75.69
422.953	79.69
423.175	79.69
423.398	82.69
423.621	75.69
423.843	82.69
424.066	67.69
424.288	81.69
424.511	81.69
424.733	84.69
424.956	79.69
425.178	78.69
425.401	63.69
425.623	76.69
425.846	82.69
426.068	76.69
426.291	83.69
426.513	82.69
426.735	89.69
426.958	81.69
427.18	84.69
427.402	72.69
427.625	74.69
427.847	69.69
428.069	73.69
428.292	88.69
428.514	71.69
428.736	75.69
428.958	68.69
429.181	88.69
429.403	84.69
429.625	86.69
429.847	83.69
430.069	81.69
430.292	67.69
430.514	90.69
430.736	69.69
430.958	78.69
431.18	79.69
431.402	66.69
431.624	67.69
431.846	81.69
432.068	64.69
432.29	75.69
432.512	71.69
432.734	79.69
432.956	83.69
433.178	86.69
433.4	87.69
433.622	85.69
433.844	71.69
434.066	79.69
434.287	73.69
434.509	90.69
434.731	70.69
434.953	74.69
435.175	79.69
435.397	91.69
435.618	84.69
435.84	75.69
436.062	75.69
436.284	70.69
436.505	73.69
436.727	81.69
436.949	63.69
437.17	79.69
437.392	80.69
437.614	91.69
437.835	69.69
438.057	81.69
438.278	86.69
438.5	69.69
438.721	76.69
438.943	84.69
439.165	74.69
439.386	68.69
439.608	77.69
439.829	87.69
440.05	62.69
440.272	72.69
440.493	74.69
440.715	67.69
440.936	81.69
441.158	72.69
441.379	90.69
441.6	80.69
441.822	86.69
442.043	73.69
442.264	84.69
442.486	73.69
442.707	81.69
442.928	71.69
443.149	78.69
443.371	78.69
443.592	71.69
443.813	81.69
444.034	69.69
444.255	83.69
444.476	78.69
444.698	84.69
444.919	77.69
445.14	158.69
445.361	109.69
445.582	82.69
445.803	82.69
446.024	75.69
446.245	92.69
446.466	91.69
446.687	81.69
446.908	81.69
447.129	82.69
447.35	84.69
447.571	68.69
447.792	89.69
448.013	70.69
448.234	96.69
448.455	72.69
448.675	76.69
448.896	83.69
449.117	78.69
449.338	58.69
449.559	74.69
449.779	72.69
450	74.69
450.221	72.69
450.442	79.69
450.662	68.69
450.883	74.69
451.104	67.69
451.324	74.69
451.545	72.69
451.766	75.69
451.986	77.69
452.207	72.69
452.428	79.69
452.648	88.69
452.869	82.69
453.089	81.69
453.31	64.69
453.53	86.69
453.751	83.69
453.971	78.69
454.192	74.69
454.412	80.69
454.633	71.69
454.853	75.69
455.073	75.69
455.294	81.69
455.514	75.69
455.734	87.69
455.955	71.69
456.175	71.69
456.395	87.69
456.616	76.69
456.836	74.69
457.056	84.69
457.276	72.69
457.497	87.69
457.717	83.69
457.937	75.69
458.157	82.69
458.377	64.69
458.598	86.69
458.818	67.69
459.038	77.69
459.258	80.69
459.478	90.69
459.698	80.69
459.918	81.69
460.138	76.69
460.358	88.69
460.578	93.69
460.798	81.69
461.018	84.69
461.238	94.69
461.458	79.69
461.678	76.69
461.898	80.69
462.118	79.69
462.338	91.69
462.558	79.69
462.777	80.69
462.997	78.69
463.217	69.69
463.437	76.69
463.657	77.69
463.876	68.69
464.096	76.69
464.316	81.69
464.536	86.69
464.755	72.69
464.975	84.69
465.195	68.69
465.414	80.69
465.634	75.69
465.854	72.69
466.073	68.69
466.293	69.69
466.512	72.69
466.732	79.69
466.951	83.69
467.171	79.69
467.391	69.69
467.61	78.69
467.829	69.69
468.049	90.69
468.268	76.69
468.488	88.69
468.707	83.69
468.927	70.69
469.146	78.69
469.365	68.69
469.585	70.69
469.804	74.69
470.023	79.69
470.243	62.69
470.462	66.69
470.681	79.69
470.901	72.69
471.12	86.69
471.339	81.69
471.558	74.69
471.777	76.69
471.997	86.69
472.216	74.69
472.435	83.69
472.654	72.69
472.873	87.69
473.092	81.69
473.311	77.69
473.53	79.69
473.749	88.69
473.968	90.69
474.187	84.69
474.406	74.69
474.625	92.69
474.844	83.69
475.063	74.69
475.282	83.69
475.501	84.69
475.72	78.69
475.939	81.69
476.158	66.69
476.377	90.69
476.596	82.69
476.814	75.69
477.033	68.69
477.252	85.69
477.471	77.69
477.69	88.69
477.908	70.69
478.127	69.69
478.346	73.69
478.564	81.69
478.783	87.69
479.002	79.69
479.22	81.69
479.439	80.69
479.658	81.69
479.876	70.69
480.095	72.69
480.313	82.69
480.532	79.69
480.751	90.69
480.969	84.69
481.188	84.69
481.406	80.69
481.624	92.69
481.843	67.69
482.061	87.69
482.28	79.69
482.498	77.69
482.717	76.69
482.935	80.69
483.153	83.69
483.372	76.69
483.59	72.69
483.808	80.69
484.027	79.69
484.245	81.69
484.463	92.69
484.681	78.69
484.9	68.69
485.118	81.69
485.336	75.69
485.554	66.69
485.772	76.69
485.99	72.69
486.209	83.69
486.427	82.69
486.645	93.69
486.863	86.69
487.081	72.69
487.299	78.69
487.517	80.69
487.735	69.69
487.953	75.69
488.171	86.69
488.389	85.69
488.607	86.69
488.825	84.69
489.043	69.69
489.261	71.69
489.479	80.69
489.696	84.69
489.914	82.69
490.132	69.69
490.35	82.69
490.568	83.69
490.786	72.69
491.003	88.69
491.221	76.69
491.439	67.69
491.657	86.69
491.874	82.69
492.092	95.69
492.31	94.69
492.527	96.69
492.745	93.69
492.963	68.69
493.18	88.69
493.398	78.69
493.615	81.69
493.833	91.69
494.05	69.69
494.268	87.69
494.485	86.69
494.703	67.69
494.92	79.69
495.138	65.69
495.355	83.69
495.573	78.69
495.79	76.69
496.008	75.69
496.225	83.69
496.442	78.69
496.66	79.69
496.877	82.69
497.094	77.69
497.312	90.69
497.529	97.69
497.746	64.69
497.963	79.69
498.181	76.69
498.398	72.69
498.615	79.69
498.832	92.69
499.049	73.69
499.267	93.69
499.484	82.69
499.701	77.69
499.918	80.69
500.135	78.69
500.352	89.69
500.569	75.69
500.786	87.69
501.003	70.69
501.22	83.69
501.437	67.69
501.654	102.69
501.871	72.69
502.088	77.69
502.305	87.69
502.522	74.69
502.739	100.69
502.956	73.69
503.172	65.69
503.389	87.69
503.606	65.69
503.823	70.69
504.04	80.69
504.256	77.69
504.473	82.69
504.69	82.69
504.907	92.69
505.123	72.69
505.34	80.69
505.557	84.69
505.773	92.69
505.99	83.69
506.207	69.69
506.423	80.69
506.64	89.69
506.856	79.69
507.073	77.69
507.289	90.69
507.506	87.69
507.722	74.69
507.939	84.69
508.155	84.69
508.372	80.69
508.588	90.69
508.805	80.69
509.021	80.69
509.238	83.69
509.454	83.69
509.67	82.69
509.887	83.69
510.103	72.69
510.319	74.69
510.536	87.69
510.752	84.69
510.968	79.69
511.184	72.69
511.401	97.69
511.617	92.69
511.833	84.69
512.049	86.69
512.265	68.69
512.481	79.69
512.698	75.69
512.914	92.69
513.13	81.69
513.346	74.69
513.562	74.69
513.778	81.69
513.994	87.69
514.21	80.69
514.426	93.69
514.642	77.69
514.858	78.69
515.074	73.69
515.29	86.69
515.506	93.69
515.721	72.69
515.937	80.69
516.153	73.69
516.369	84.69
516.585	95.69
516.801	83.69
517.016	73.69
517.232	82.69
517.448	83.69
517.664	78.69
517.879	86.69
518.095	73.69
518.311	79.69
518.527	83.69
518.742	69.69
518.958	73.69
519.173	88.69
519.389	74.69
519.605	82.69
519.82	80.69
520.036	72.69
