Data from Background_3_HRD10591_00020.txt Node
Date: Wed Nov 05 14:49:29 EST 2025
User: Yrep
Spectrometer: HR+D1059
Trigger mode: 1
Integration Time (sec): 1.000000E-1
Scans to average: 1
Electric dark correction enabled: true
Nonlinearity correction enabled: false
Boxcar width: 0
XAxis mode: Wavelengths
Number of Pixels in Spectrum: 2048
>>>>>Begin Spectral Data<<<<<
223.165	-24.06
223.4	-24.06
223.635	-24.06
223.869	-5.06
224.104	-23.06
224.338	-20.06
224.573	-15.06
224.808	-17.06
225.042	-9.06
225.277	2.94
225.511	-7.06
225.746	-0.06
225.98	14.94
226.215	-0.06
226.449	21.94
226.683	13.94
226.918	26.94
227.152	39.94
227.387	34.94
227.621	14.94
227.856	51.94
228.09	40.94
228.324	55.94
228.559	76.94
228.793	58.94
229.027	51.94
229.262	47.94
229.496	64.94
229.73	70.94
229.964	73.94
230.199	69.94
230.433	69.94
230.667	81.94
230.901	68.94
231.136	75.94
231.37	63.94
231.604	82.94
231.838	78.94
232.072	72.94
232.306	78.94
232.541	74.94
232.775	77.94
233.009	84.94
233.243	82.94
233.477	78.94
233.711	73.94
233.945	62.94
234.179	79.94
234.413	78.94
234.647	75.94
234.881	83.94
235.115	82.94
235.349	90.94
235.583	73.94
235.817	84.94
236.051	73.94
236.285	69.94
236.519	77.94
236.753	69.94
236.987	68.94
237.221	84.94
237.455	83.94
237.689	75.94
237.922	84.94
238.156	66.94
238.39	70.94
238.624	69.94
238.858	83.94
239.091	90.94
239.325	62.94
239.559	88.94
239.793	77.94
240.027	83.94
240.26	64.94
240.494	66.94
240.728	69.94
240.961	68.94
241.195	78.94
241.429	82.94
241.662	79.94
241.896	73.94
242.13	71.94
242.363	79.94
242.597	67.94
242.83	72.94
243.064	80.94
243.298	76.94
243.531	76.94
243.765	74.94
243.998	85.94
244.232	62.94
244.465	68.94
244.699	82.94
244.932	64.94
245.166	75.94
245.399	72.94
245.633	81.94
245.866	72.94
246.099	69.94
246.333	76.94
246.566	76.94
246.8	91.94
247.033	82.94
247.266	84.94
247.5	71.94
247.733	74.94
247.966	72.94
248.2	74.94
248.433	72.94
248.666	68.94
248.899	78.94
249.133	77.94
249.366	92.94
249.599	84.94
249.832	94.94
250.066	82.94
250.299	86.94
250.532	75.94
250.765	69.94
250.998	78.94
251.231	77.94
251.465	70.94
251.698	80.94
251.931	75.94
252.164	87.94
252.397	67.94
252.63	77.94
252.863	82.94
253.096	78.94
253.329	77.94
253.562	72.94
253.795	74.94
254.028	82.94
254.261	70.94
254.494	81.94
254.727	85.94
254.96	83.94
255.193	78.94
255.426	86.94
255.659	70.94
255.892	65.94
256.124	66.94
256.357	87.94
256.59	70.94
256.823	77.94
257.056	86.94
257.289	91.94
257.521	80.94
257.754	66.94
257.987	86.94
258.22	68.94
258.452	66.94
258.685	86.94
258.918	76.94
259.151	74.94
259.383	69.94
259.616	76.94
259.849	75.94
260.081	78.94
260.314	84.94
260.547	86.94
260.779	77.94
261.012	70.94
261.244	84.94
261.477	86.94
261.71	88.94
261.942	81.94
262.175	68.94
262.407	71.94
262.64	64.94
262.872	91.94
263.105	83.94
263.337	70.94
263.57	70.94
263.802	73.94
264.035	82.94
264.267	63.94
264.499	72.94
264.732	91.94
264.964	81.94
265.197	84.94
265.429	70.94
265.661	81.94
265.894	56.94
266.126	90.94
266.358	83.94
266.591	86.94
266.823	84.94
267.055	82.94
267.287	78.94
267.52	73.94
267.752	73.94
267.984	72.94
268.216	72.94
268.448	86.94
268.681	83.94
268.913	92.94
269.145	74.94
269.377	79.94
269.609	78.94
269.841	85.94
270.073	78.94
270.306	87.94
270.538	67.94
270.77	74.94
271.002	94.94
271.234	72.94
271.466	82.94
271.698	79.94
271.93	86.94
272.162	90.94
272.394	75.94
272.626	92.94
272.858	78.94
273.09	83.94
273.322	61.94
273.553	82.94
273.785	76.94
274.017	89.94
274.249	70.94
274.481	76.94
274.713	69.94
274.945	74.94
275.176	90.94
275.408	75.94
275.64	68.94
275.872	75.94
276.104	81.94
276.335	68.94
276.567	76.94
276.799	75.94
277.031	87.94
277.262	77.94
277.494	80.94
277.726	80.94
277.957	79.94
278.189	88.94
278.421	87.94
278.652	74.94
278.884	70.94
279.115	88.94
279.347	82.94
279.579	77.94
279.81	75.94
280.042	79.94
280.273	74.94
280.505	76.94
280.736	74.94
280.968	71.94
281.199	78.94
281.431	78.94
281.662	84.94
281.894	78.94
282.125	93.94
282.356	87.94
282.588	84.94
282.819	86.94
283.051	91.94
283.282	72.94
283.513	70.94
283.745	77.94
283.976	70.94
284.207	81.94
284.439	87.94
284.67	65.94
284.901	78.94
285.132	74.94
285.364	83.94
285.595	80.94
285.826	84.94
286.057	78.94
286.288	81.94
286.52	81.94
286.751	82.94
286.982	67.94
287.213	74.94
287.444	93.94
287.675	95.94
287.906	82.94
288.138	90.94
288.369	80.94
288.6	82.94
288.831	74.94
289.062	86.94
289.293	86.94
289.524	75.94
289.755	89.94
289.986	75.94
290.217	72.94
290.448	87.94
290.679	91.94
290.91	89.94
291.141	87.94
291.371	81.94
291.602	72.94
291.833	79.94
292.064	77.94
292.295	78.94
292.526	82.94
292.757	66.94
292.987	88.94
293.218	95.94
293.449	76.94
293.68	82.94
293.91	81.94
294.141	88.94
294.372	87.94
294.603	71.94
294.833	63.94
295.064	80.94
295.295	81.94
295.525	93.94
295.756	61.94
295.987	67.94
296.217	87.94
296.448	94.94
296.679	70.94
296.909	89.94
297.14	83.94
297.37	78.94
297.601	79.94
297.831	79.94
298.062	94.94
298.292	81.94
298.523	80.94
298.753	63.94
298.984	82.94
299.214	72.94
299.445	82.94
299.675	66.94
299.905	88.94
300.136	76.94
300.366	87.94
300.597	94.94
300.827	86.94
301.057	75.94
301.288	91.94
301.518	82.94
301.748	90.94
301.979	99.94
302.209	86.94
302.439	76.94
302.669	78.94
302.9	81.94
303.13	86.94
303.36	65.94
303.59	78.94
303.82	78.94
304.051	87.94
304.281	86.94
304.511	99.94
304.741	63.94
304.971	66.94
305.201	83.94
305.431	76.94
305.661	66.94
305.891	97.94
306.121	81.94
306.352	89.94
306.582	67.94
306.812	79.94
307.042	84.94
307.272	86.94
307.502	79.94
307.731	79.94
307.961	76.94
308.191	76.94
308.421	81.94
308.651	90.94
308.881	86.94
309.111	90.94
309.341	69.94
309.571	78.94
309.8	75.94
310.03	82.94
310.26	71.94
310.49	86.94
310.72	72.94
310.949	84.94
311.179	73.94
311.409	76.94
311.639	74.94
311.868	93.94
312.098	77.94
312.328	84.94
312.557	96.94
312.787	82.94
313.017	86.94
313.246	80.94
313.476	85.94
313.706	79.94
313.935	82.94
314.165	80.94
314.394	74.94
314.624	78.94
314.853	88.94
315.083	70.94
315.312	87.94
315.542	89.94
315.771	61.94
316.001	68.94
316.23	85.94
316.46	79.94
316.689	68.94
316.919	74.94
317.148	69.94
317.377	98.94
317.607	90.94
317.836	83.94
318.065	72.94
318.295	94.94
318.524	89.94
318.753	82.94
318.983	72.94
319.212	82.94
319.441	77.94
319.67	86.94
319.9	82.94
320.129	92.94
320.358	80.94
320.587	82.94
320.816	76.94
321.046	91.94
321.275	71.94
321.504	90.94
321.733	79.94
321.962	79.94
322.191	83.94
322.42	77.94
322.649	88.94
322.878	90.94
323.108	87.94
323.337	75.94
323.566	61.94
323.795	89.94
324.024	90.94
324.253	76.94
324.482	97.94
324.71	83.94
324.939	95.94
325.168	74.94
325.397	92.94
325.626	84.94
325.855	85.94
326.084	77.94
326.313	74.94
326.542	93.94
326.77	80.94
326.999	82.94
327.228	96.94
327.457	76.94
327.686	77.94
327.914	78.94
328.143	66.94
328.372	68.94
328.6	65.94
328.829	87.94
329.058	79.94
329.287	78.94
329.515	90.94
329.744	88.94
329.972	86.94
330.201	70.94
330.43	81.94
330.658	85.94
330.887	91.94
331.115	77.94
331.344	81.94
331.572	76.94
331.801	78.94
332.03	84.94
332.258	86.94
332.486	84.94
332.715	93.94
332.943	72.94
333.172	88.94
333.4	78.94
333.629	91.94
333.857	83.94
334.085	72.94
334.314	76.94
334.542	83.94
334.771	84.94
334.999	78.94
335.227	80.94
335.455	92.94
335.684	82.94
335.912	86.94
336.14	82.94
336.369	84.94
336.597	81.94
336.825	76.94
337.053	91.94
337.281	86.94
337.51	75.94
337.738	90.94
337.966	83.94
338.194	74.94
338.422	60.94
338.65	72.94
338.878	82.94
339.106	81.94
339.334	83.94
339.562	73.94
339.79	74.94
340.018	86.94
340.246	89.94
340.474	78.94
340.702	90.94
340.93	85.94
341.158	97.94
341.386	76.94
341.614	87.94
341.842	69.94
342.07	72.94
342.298	83.94
342.526	86.94
342.754	74.94
342.981	79.94
343.209	78.94
343.437	96.94
343.665	100.94
343.893	97.94
344.12	89.94
344.348	86.94
344.576	90.94
344.804	79.94
345.031	74.94
345.259	88.94
345.487	68.94
345.714	80.94
345.942	88.94
346.17	79.94
346.397	94.94
346.625	74.94
346.853	84.94
347.08	82.94
347.308	76.94
347.535	74.94
347.763	75.94
347.99	89.94
348.218	80.94
348.445	84.94
348.673	73.94
348.9	69.94
349.128	82.94
349.355	71.94
349.583	79.94
349.81	66.94
350.037	84.94
350.265	62.94
350.492	77.94
350.72	74.94
350.947	85.94
351.174	84.94
351.402	78.94
351.629	71.94
351.856	68.94
352.083	62.94
352.311	74.94
352.538	72.94
352.765	82.94
352.992	102.94
353.22	91.94
353.447	73.94
353.674	76.94
353.901	88.94
354.128	79.94
354.355	79.94
354.583	87.94
354.81	96.94
355.037	81.94
355.264	68.94
355.491	86.94
355.718	66.94
355.945	82.94
356.172	81.94
356.399	65.94
356.626	88.94
356.853	74.94
357.08	88.94
357.307	95.94
357.534	92.94
357.761	78.94
357.988	89.94
358.215	96.94
358.441	66.94
358.668	81.94
358.895	86.94
359.122	74.94
359.349	75.94
359.576	84.94
359.802	79.94
360.029	71.94
360.256	69.94
360.483	64.94
360.709	68.94
360.936	72.94
361.163	82.94
361.39	88.94
361.616	80.94
361.843	90.94
362.07	93.94
362.296	79.94
362.523	82.94
362.749	80.94
362.976	68.94
363.203	76.94
363.429	69.94
363.656	75.94
363.882	83.94
364.109	73.94
364.335	88.94
364.562	63.94
364.788	82.94
365.015	86.94
365.241	87.94
365.468	96.94
365.694	75.94
365.92	88.94
366.147	74.94
366.373	74.94
366.599	80.94
366.826	86.94
367.052	58.94
367.278	84.94
367.505	78.94
367.731	90.94
367.957	74.94
368.184	91.94
368.41	76.94
368.636	73.94
368.862	86.94
369.089	83.94
369.315	69.94
369.541	86.94
369.767	81.94
369.993	75.94
370.219	82.94
370.445	54.94
370.672	80.94
370.898	74.94
371.124	65.94
371.35	84.94
371.576	90.94
371.802	76.94
372.028	79.94
372.254	72.94
372.48	96.94
372.706	84.94
372.932	86.94
373.158	85.94
373.384	92.94
373.61	80.94
373.835	83.94
374.061	98.94
374.287	74.94
374.513	89.94
374.739	91.94
374.965	86.94
375.191	64.94
375.416	85.94
375.642	67.94
375.868	64.94
376.094	75.94
376.319	74.94
376.545	79.94
376.771	83.94
376.997	83.94
377.222	72.94
377.448	82.94
377.674	74.94
377.899	78.94
378.125	76.94
378.35	91.94
378.576	82.94
378.802	85.94
379.027	81.94
379.253	78.94
379.478	71.94
379.704	81.94
379.929	81.94
380.155	76.94
380.38	82.94
380.606	77.94
380.831	93.94
381.057	96.94
381.282	82.94
381.507	80.94
381.733	70.94
381.958	79.94
382.184	68.94
382.409	84.94
382.634	87.94
382.86	94.94
383.085	90.94
383.31	58.94
383.535	71.94
383.761	83.94
383.986	68.94
384.211	67.94
384.436	88.94
384.662	81.94
384.887	82.94
385.112	96.94
385.337	86.94
385.562	82.94
385.787	81.94
386.013	77.94
386.238	80.94
386.463	78.94
386.688	96.94
386.913	78.94
387.138	76.94
387.363	68.94
387.588	69.94
387.813	77.94
388.038	82.94
388.263	85.94
388.488	85.94
388.713	66.94
388.938	76.94
389.163	69.94
389.387	64.94
389.612	78.94
389.837	84.94
390.062	72.94
390.287	81.94
390.512	77.94
390.736	67.94
390.961	77.94
391.186	83.94
391.411	72.94
391.636	76.94
391.86	71.94
392.085	78.94
392.31	83.94
392.534	82.94
392.759	78.94
392.984	86.94
393.208	89.94
393.433	64.94
393.658	78.94
393.882	79.94
394.107	87.94
394.331	82.94
394.556	67.94
394.78	82.94
395.005	89.94
395.229	73.94
395.454	71.94
395.678	79.94
395.903	86.94
396.127	84.94
396.352	98.94
396.576	97.94
396.801	66.94
397.025	81.94
397.249	78.94
397.474	76.94
397.698	75.94
397.922	82.94
398.147	78.94
398.371	85.94
398.595	95.94
398.82	85.94
399.044	82.94
399.268	71.94
399.492	65.94
399.717	83.94
399.941	84.94
400.165	85.94
400.389	71.94
400.613	91.94
400.837	75.94
401.062	82.94
401.286	93.94
401.51	86.94
401.734	73.94
401.958	84.94
402.182	67.94
402.406	72.94
402.63	89.94
402.854	82.94
403.078	86.94
403.302	71.94
403.526	66.94
403.75	92.94
403.974	69.94
404.198	71.94
404.422	74.94
404.645	83.94
404.869	67.94
405.093	77.94
405.317	95.94
405.541	74.94
405.765	79.94
405.988	75.94
406.212	68.94
406.436	86.94
406.66	89.94
406.883	81.94
407.107	81.94
407.331	80.94
407.555	74.94
407.778	75.94
408.002	73.94
408.226	76.94
408.449	82.94
408.673	63.94
408.896	82.94
409.12	75.94
409.344	73.94
409.567	68.94
409.791	78.94
410.014	68.94
410.238	78.94
410.461	91.94
410.685	74.94
410.908	78.94
411.132	91.94
411.355	82.94
411.578	80.94
411.802	89.94
412.025	79.94
412.249	71.94
412.472	83.94
412.695	72.94
412.919	82.94
413.142	73.94
413.365	72.94
413.589	74.94
413.812	79.94
414.035	80.94
414.258	70.94
414.482	68.94
414.705	81.94
414.928	93.94
415.151	85.94
415.374	65.94
415.597	82.94
415.821	84.94
416.044	63.94
416.267	88.94
416.49	97.94
416.713	94.94
416.936	76.94
417.159	90.94
417.382	93.94
417.605	69.94
417.828	86.94
418.051	75.94
418.274	67.94
418.497	82.94
418.72	78.94
418.943	87.94
419.166	92.94
419.389	75.94
419.611	82.94
419.834	77.94
420.057	85.94
420.28	90.94
420.503	74.94
420.726	76.94
420.948	72.94
421.171	73.94
421.394	66.94
421.617	81.94
421.839	76.94
422.062	80.94
422.285	88.94
422.507	78.94
422.73	77.94
422.953	79.94
423.175	80.94
423.398	86.94
423.621	78.94
423.843	80.94
424.066	75.94
424.288	80.94
424.511	68.94
424.733	88.94
424.956	77.94
425.178	70.94
425.401	76.94
425.623	82.94
425.846	84.94
426.068	67.94
426.291	76.94
426.513	78.94
426.735	87.94
426.958	84.94
427.18	88.94
427.402	89.94
427.625	77.94
427.847	82.94
428.069	90.94
428.292	84.94
428.514	74.94
428.736	75.94
428.958	72.94
429.181	72.94
429.403	96.94
429.625	71.94
429.847	74.94
430.069	84.94
430.292	69.94
430.514	79.94
430.736	78.94
430.958	74.94
431.18	78.94
431.402	74.94
431.624	90.94
431.846	60.94
432.068	74.94
432.29	79.94
432.512	74.94
432.734	76.94
432.956	80.94
433.178	86.94
433.4	82.94
433.622	78.94
433.844	73.94
434.066	72.94
434.287	75.94
434.509	78.94
434.731	77.94
434.953	70.94
435.175	76.94
435.397	93.94
435.618	76.94
435.84	72.94
436.062	88.94
436.284	76.94
436.505	90.94
436.727	71.94
436.949	80.94
437.17	86.94
437.392	72.94
437.614	89.94
437.835	80.94
438.057	78.94
438.278	76.94
438.5	81.94
438.721	60.94
438.943	88.94
439.165	82.94
439.386	74.94
439.608	81.94
439.829	73.94
440.05	79.94
440.272	77.94
440.493	74.94
440.715	80.94
440.936	69.94
441.158	89.94
441.379	61.94
441.6	61.94
441.822	86.94
442.043	78.94
442.264	82.94
442.486	89.94
442.707	67.94
442.928	80.94
443.149	89.94
443.371	68.94
443.592	60.94
443.813	77.94
444.034	82.94
444.255	78.94
444.476	76.94
444.698	75.94
444.919	70.94
445.14	138.94
445.361	114.94
445.582	75.94
445.803	76.94
446.024	82.94
446.245	77.94
446.466	73.94
446.687	78.94
446.908	66.94
447.129	72.94
447.35	81.94
447.571	88.94
447.792	78.94
448.013	71.94
448.234	83.94
448.455	85.94
448.675	66.94
448.896	80.94
449.117	91.94
449.338	87.94
449.559	68.94
449.779	84.94
450	74.94
450.221	82.94
450.442	86.94
450.662	81.94
450.883	77.94
451.104	88.94
451.324	76.94
451.545	74.94
451.766	72.94
451.986	78.94
452.207	82.94
452.428	71.94
452.648	72.94
452.869	66.94
453.089	78.94
453.31	74.94
453.53	65.94
453.751	78.94
453.971	84.94
454.192	75.94
454.412	79.94
454.633	77.94
454.853	80.94
455.073	83.94
455.294	80.94
455.514	66.94
455.734	86.94
455.955	77.94
456.175	80.94
456.395	91.94
456.616	91.94
456.836	69.94
457.056	76.94
457.276	73.94
457.497	77.94
457.717	78.94
457.937	83.94
458.157	85.94
458.377	81.94
458.598	85.94
458.818	74.94
459.038	92.94
459.258	76.94
459.478	72.94
459.698	84.94
459.918	81.94
460.138	72.94
460.358	79.94
460.578	68.94
460.798	79.94
461.018	86.94
461.238	72.94
461.458	80.94
461.678	91.94
461.898	88.94
462.118	91.94
462.338	82.94
462.558	85.94
462.777	74.94
462.997	77.94
463.217	60.94
463.437	90.94
463.657	82.94
463.876	80.94
464.096	71.94
464.316	71.94
464.536	76.94
464.755	82.94
464.975	66.94
465.195	78.94
465.414	86.94
465.634	62.94
465.854	76.94
466.073	76.94
466.293	88.94
466.512	80.94
466.732	84.94
466.951	73.94
467.171	74.94
467.391	64.94
467.61	75.94
467.829	80.94
468.049	74.94
468.268	84.94
468.488	80.94
468.707	67.94
468.927	80.94
469.146	64.94
469.365	74.94
469.585	91.94
469.804	86.94
470.023	84.94
470.243	85.94
470.462	87.94
470.681	91.94
470.901	80.94
471.12	75.94
471.339	71.94
471.558	84.94
471.777	79.94
471.997	91.94
472.216	78.94
472.435	58.94
472.654	57.94
472.873	81.94
473.092	80.94
473.311	95.94
473.53	79.94
473.749	75.94
473.968	74.94
474.187	91.94
474.406	80.94
474.625	72.94
474.844	84.94
475.063	76.94
475.282	95.94
475.501	78.94
475.72	82.94
475.939	79.94
476.158	80.94
476.377	84.94
476.596	76.94
476.814	91.94
477.033	76.94
477.252	86.94
477.471	72.94
477.69	67.94
477.908	78.94
478.127	83.94
478.346	86.94
478.564	63.94
478.783	88.94
479.002	73.94
479.22	64.94
479.439	72.94
479.658	75.94
479.876	77.94
480.095	78.94
480.313	80.94
480.532	69.94
480.751	80.94
480.969	90.94
481.188	77.94
481.406	74.94
481.624	56.94
481.843	83.94
482.061	82.94
482.28	83.94
482.498	73.94
482.717	86.94
482.935	70.94
483.153	71.94
483.372	79.94
483.59	78.94
483.808	75.94
484.027	86.94
484.245	76.94
484.463	88.94
484.681	84.94
484.9	86.94
485.118	78.94
485.336	89.94
485.554	56.94
485.772	70.94
485.99	82.94
486.209	72.94
486.427	82.94
486.645	84.94
486.863	74.94
487.081	87.94
487.299	91.94
487.517	73.94
487.735	59.94
487.953	84.94
488.171	88.94
488.389	78.94
488.607	83.94
488.825	87.94
489.043	67.94
489.261	67.94
489.479	76.94
489.696	76.94
489.914	88.94
490.132	69.94
490.35	89.94
490.568	82.94
490.786	78.94
491.003	67.94
491.221	75.94
491.439	81.94
491.657	77.94
491.874	79.94
492.092	72.94
492.31	84.94
492.527	86.94
492.745	83.94
492.963	79.94
493.18	76.94
493.398	73.94
493.615	88.94
493.833	74.94
494.05	74.94
494.268	69.94
494.485	104.94
494.703	73.94
494.92	84.94
495.138	90.94
495.355	80.94
495.573	90.94
495.79	76.94
496.008	71.94
496.225	79.94
496.442	76.94
496.66	96.94
496.877	65.94
497.094	79.94
497.312	67.94
497.529	77.94
497.746	82.94
497.963	76.94
498.181	72.94
498.398	86.94
498.615	73.94
498.832	87.94
499.049	78.94
499.267	82.94
499.484	73.94
499.701	80.94
499.918	78.94
500.135	86.94
500.352	75.94
500.569	74.94
500.786	74.94
501.003	83.94
501.22	78.94
501.437	79.94
501.654	83.94
501.871	93.94
502.088	78.94
502.305	91.94
502.522	80.94
502.739	77.94
502.956	88.94
503.172	85.94
503.389	78.94
503.606	73.94
503.823	83.94
504.04	88.94
504.256	82.94
504.473	84.94
504.69	80.94
504.907	79.94
505.123	72.94
505.34	87.94
505.557	82.94
505.773	80.94
505.99	86.94
506.207	87.94
506.423	72.94
506.64	93.94
506.856	86.94
507.073	66.94
507.289	70.94
507.506	92.94
507.722	74.94
507.939	83.94
508.155	94.94
508.372	87.94
508.588	74.94
508.805	84.94
509.021	78.94
509.238	68.94
509.454	82.94
509.67	87.94
509.887	78.94
510.103	89.94
510.319	81.94
510.536	87.94
510.752	80.94
510.968	65.94
511.184	76.94
511.401	82.94
511.617	86.94
511.833	77.94
512.049	78.94
512.265	77.94
512.481	79.94
512.698	76.94
512.914	79.94
513.13	74.94
513.346	79.94
513.562	83.94
513.778	75.94
513.994	81.94
514.21	86.94
514.426	83.94
514.642	89.94
514.858	81.94
515.074	71.94
515.29	73.94
515.506	76.94
515.721	82.94
515.937	88.94
516.153	88.94
516.369	79.94
516.585	94.94
516.801	85.94
517.016	78.94
517.232	78.94
517.448	87.94
517.664	95.94
517.879	91.94
518.095	83.94
518.311	73.94
518.527	74.94
518.742	62.94
518.958	74.94
519.173	88.94
519.389	74.94
519.605	91.94
519.82	91.94
520.036	72.94
520.251	79.94
