Data from Background_3_HRD10591_00047.txt Node
Date: Wed Nov 05 14:49:43 EST 2025
User: Yrep
Spectrometer: HR+D1059
Trigger mode: 1
Integration Time (sec): 1.000000E-1
Scans to average: 1
Electric dark correction enabled: true
Nonlinearity correction enabled: false
Boxcar width: 0
XAxis mode: Wavelengths
Number of Pixels in Spectrum: 2048
>>>>>Begin Spectral Data<<<<<
223.165	-23.19
223.4	-23.19
223.635	-23.19
223.869	-18.19
224.104	-15.19
224.338	-15.19
224.573	-14.19
224.808	-15.19
225.042	2.81
225.277	9.81
225.511	-0.19
225.746	-7.19
225.98	8.81
226.215	1.81
226.449	24.81
226.683	5.81
226.918	17.81
227.152	36.81
227.387	38.81
227.621	54.81
227.856	40.81
228.09	48.81
228.324	42.81
228.559	52.81
228.793	43.81
229.027	48.81
229.262	51.81
229.496	61.81
229.73	60.81
229.964	79.81
230.199	68.81
230.433	83.81
230.667	73.81
230.901	65.81
231.136	65.81
231.37	79.81
231.604	72.81
231.838	90.81
232.072	77.81
232.306	90.81
232.541	97.81
232.775	71.81
233.009	67.81
233.243	88.81
233.477	78.81
233.711	60.81
233.945	85.81
234.179	76.81
234.413	83.81
234.647	67.81
234.881	70.81
235.115	71.81
235.349	56.81
235.583	67.81
235.817	72.81
236.051	63.81
236.285	75.81
236.519	84.81
236.753	70.81
236.987	79.81
237.221	62.81
237.455	78.81
237.689	63.81
237.922	73.81
238.156	92.81
238.39	65.81
238.624	85.81
238.858	64.81
239.091	66.81
239.325	71.81
239.559	70.81
239.793	85.81
240.027	63.81
240.26	70.81
240.494	78.81
240.728	69.81
240.961	82.81
241.195	78.81
241.429	82.81
241.662	62.81
241.896	65.81
242.13	73.81
242.363	70.81
242.597	71.81
242.83	63.81
243.064	78.81
243.298	74.81
243.531	60.81
243.765	66.81
243.998	57.81
244.232	64.81
244.465	64.81
244.699	80.81
244.932	75.81
245.166	79.81
245.399	83.81
245.633	79.81
245.866	67.81
246.099	65.81
246.333	71.81
246.566	76.81
246.8	76.81
247.033	86.81
247.266	79.81
247.5	75.81
247.733	68.81
247.966	67.81
248.2	84.81
248.433	75.81
248.666	82.81
248.899	61.81
249.133	75.81
249.366	75.81
249.599	79.81
249.832	56.81
250.066	61.81
250.299	65.81
250.532	90.81
250.765	71.81
250.998	72.81
251.231	68.81
251.465	75.81
251.698	64.81
251.931	80.81
252.164	62.81
252.397	73.81
252.63	87.81
252.863	83.81
253.096	72.81
253.329	67.81
253.562	71.81
253.795	79.81
254.028	75.81
254.261	77.81
254.494	79.81
254.727	81.81
254.96	70.81
255.193	92.81
255.426	71.81
255.659	82.81
255.892	69.81
256.124	80.81
256.357	87.81
256.59	77.81
256.823	91.81
257.056	80.81
257.289	95.81
257.521	75.81
257.754	75.81
257.987	65.81
258.22	73.81
258.452	70.81
258.685	63.81
258.918	65.81
259.151	76.81
259.383	70.81
259.616	64.81
259.849	67.81
260.081	70.81
260.314	76.81
260.547	89.81
260.779	75.81
261.012	71.81
261.244	75.81
261.477	76.81
261.71	72.81
261.942	89.81
262.175	79.81
262.407	83.81
262.64	78.81
262.872	71.81
263.105	81.81
263.337	81.81
263.57	76.81
263.802	63.81
264.035	79.81
264.267	74.81
264.499	79.81
264.732	84.81
264.964	82.81
265.197	76.81
265.429	89.81
265.661	72.81
265.894	83.81
266.126	84.81
266.358	62.81
266.591	63.81
266.823	61.81
267.055	62.81
267.287	63.81
267.52	88.81
267.752	72.81
267.984	77.81
268.216	75.81
268.448	78.81
268.681	81.81
268.913	83.81
269.145	85.81
269.377	71.81
269.609	86.81
269.841	79.81
270.073	64.81
270.306	69.81
270.538	69.81
270.77	69.81
271.002	66.81
271.234	71.81
271.466	73.81
271.698	78.81
271.93	68.81
272.162	88.81
272.394	94.81
272.626	75.81
272.858	76.81
273.09	74.81
273.322	77.81
273.553	79.81
273.785	79.81
274.017	79.81
274.249	86.81
274.481	87.81
274.713	78.81
274.945	73.81
275.176	70.81
275.408	80.81
275.64	71.81
275.872	86.81
276.104	82.81
276.335	86.81
276.567	79.81
276.799	87.81
277.031	66.81
277.262	80.81
277.494	92.81
277.726	85.81
277.957	90.81
278.189	88.81
278.421	85.81
278.652	63.81
278.884	81.81
279.115	63.81
279.347	96.81
279.579	81.81
279.81	78.81
280.042	88.81
280.273	82.81
280.505	76.81
280.736	73.81
280.968	72.81
281.199	71.81
281.431	69.81
281.662	71.81
281.894	71.81
282.125	83.81
282.356	93.81
282.588	93.81
282.819	71.81
283.051	68.81
283.282	76.81
283.513	86.81
283.745	77.81
283.976	85.81
284.207	75.81
284.439	76.81
284.67	73.81
284.901	94.81
285.132	75.81
285.364	70.81
285.595	84.81
285.826	63.81
286.057	58.81
286.288	75.81
286.52	61.81
286.751	73.81
286.982	91.81
287.213	75.81
287.444	85.81
287.675	84.81
287.906	75.81
288.138	79.81
288.369	76.81
288.6	81.81
288.831	69.81
289.062	82.81
289.293	78.81
289.524	95.81
289.755	79.81
289.986	62.81
290.217	76.81
290.448	76.81
290.679	81.81
290.91	78.81
291.141	79.81
291.371	79.81
291.602	91.81
291.833	87.81
292.064	89.81
292.295	76.81
292.526	92.81
292.757	80.81
292.987	71.81
293.218	75.81
293.449	85.81
293.68	67.81
293.91	87.81
294.141	75.81
294.372	74.81
294.603	81.81
294.833	84.81
295.064	85.81
295.295	78.81
295.525	69.81
295.756	89.81
295.987	81.81
296.217	86.81
296.448	69.81
296.679	67.81
296.909	83.81
297.14	80.81
297.37	94.81
297.601	69.81
297.831	64.81
298.062	79.81
298.292	93.81
298.523	91.81
298.753	81.81
298.984	63.81
299.214	92.81
299.445	80.81
299.675	68.81
299.905	69.81
300.136	80.81
300.366	76.81
300.597	81.81
300.827	81.81
301.057	84.81
301.288	88.81
301.518	71.81
301.748	71.81
301.979	105.81
302.209	80.81
302.439	89.81
302.669	79.81
302.9	75.81
303.13	76.81
303.36	85.81
303.59	83.81
303.82	84.81
304.051	76.81
304.281	80.81
304.511	72.81
304.741	72.81
304.971	75.81
305.201	85.81
305.431	69.81
305.661	88.81
305.891	89.81
306.121	78.81
306.352	80.81
306.582	81.81
306.812	61.81
307.042	70.81
307.272	83.81
307.502	77.81
307.731	80.81
307.961	81.81
308.191	89.81
308.421	73.81
308.651	80.81
308.881	78.81
309.111	77.81
309.341	73.81
309.571	85.81
309.8	78.81
310.03	76.81
310.26	87.81
310.49	94.81
310.72	86.81
310.949	70.81
311.179	83.81
311.409	84.81
311.639	85.81
311.868	80.81
312.098	87.81
312.328	81.81
312.557	79.81
312.787	66.81
313.017	73.81
313.246	76.81
313.476	73.81
313.706	71.81
313.935	78.81
314.165	83.81
314.394	92.81
314.624	75.81
314.853	83.81
315.083	75.81
315.312	80.81
315.542	83.81
315.771	79.81
316.001	90.81
316.23	74.81
316.46	75.81
316.689	64.81
316.919	76.81
317.148	82.81
317.377	79.81
317.607	91.81
317.836	75.81
318.065	76.81
318.295	75.81
318.524	72.81
318.753	73.81
318.983	83.81
319.212	88.81
319.441	73.81
319.67	73.81
319.9	85.81
320.129	103.81
320.358	84.81
320.587	81.81
320.816	69.81
321.046	77.81
321.275	85.81
321.504	80.81
321.733	69.81
321.962	61.81
322.191	89.81
322.42	71.81
322.649	83.81
322.878	86.81
323.108	81.81
323.337	77.81
323.566	75.81
323.795	79.81
324.024	81.81
324.253	82.81
324.482	69.81
324.71	79.81
324.939	91.81
325.168	88.81
325.397	80.81
325.626	96.81
325.855	71.81
326.084	71.81
326.313	88.81
326.542	75.81
326.77	79.81
326.999	81.81
327.228	85.81
327.457	79.81
327.686	91.81
327.914	92.81
328.143	103.81
328.372	78.81
328.6	77.81
328.829	75.81
329.058	75.81
329.287	79.81
329.515	76.81
329.744	85.81
329.972	77.81
330.201	70.81
330.43	93.81
330.658	75.81
330.887	90.81
331.115	99.81
331.344	66.81
331.572	86.81
331.801	80.81
332.03	92.81
332.258	89.81
332.486	85.81
332.715	59.81
332.943	70.81
333.172	73.81
333.4	78.81
333.629	76.81
333.857	77.81
334.085	75.81
334.314	66.81
334.542	76.81
334.771	72.81
334.999	81.81
335.227	63.81
335.455	64.81
335.684	85.81
335.912	85.81
336.14	88.81
336.369	76.81
336.597	70.81
336.825	78.81
337.053	70.81
337.281	69.81
337.51	87.81
337.738	88.81
337.966	84.81
338.194	84.81
338.422	76.81
338.65	60.81
338.878	87.81
339.106	82.81
339.334	86.81
339.562	71.81
339.79	63.81
340.018	77.81
340.246	78.81
340.474	73.81
340.702	81.81
340.93	67.81
341.158	81.81
341.386	79.81
341.614	85.81
341.842	66.81
342.07	67.81
342.298	86.81
342.526	88.81
342.754	87.81
342.981	79.81
343.209	89.81
343.437	100.81
343.665	86.81
343.893	85.81
344.12	93.81
344.348	78.81
344.576	79.81
344.804	78.81
345.031	91.81
345.259	73.81
345.487	68.81
345.714	73.81
345.942	80.81
346.17	80.81
346.397	81.81
346.625	62.81
346.853	79.81
347.08	76.81
347.308	89.81
347.535	81.81
347.763	87.81
347.99	87.81
348.218	84.81
348.445	91.81
348.673	72.81
348.9	80.81
349.128	98.81
349.355	83.81
349.583	72.81
349.81	80.81
350.037	78.81
350.265	73.81
350.492	88.81
350.72	83.81
350.947	94.81
351.174	55.81
351.402	77.81
351.629	81.81
351.856	69.81
352.083	89.81
352.311	72.81
352.538	79.81
352.765	78.81
352.992	92.81
353.22	71.81
353.447	57.81
353.674	76.81
353.901	64.81
354.128	89.81
354.355	87.81
354.583	68.81
354.81	76.81
355.037	87.81
355.264	60.81
355.491	67.81
355.718	91.81
355.945	81.81
356.172	67.81
356.399	88.81
356.626	91.81
356.853	84.81
357.08	78.81
357.307	84.81
357.534	85.81
357.761	73.81
357.988	68.81
358.215	95.81
358.441	77.81
358.668	92.81
358.895	67.81
359.122	75.81
359.349	86.81
359.576	81.81
359.802	87.81
360.029	82.81
360.256	75.81
360.483	82.81
360.709	75.81
360.936	98.81
361.163	75.81
361.39	83.81
361.616	66.81
361.843	68.81
362.07	87.81
362.296	75.81
362.523	65.81
362.749	77.81
362.976	71.81
363.203	87.81
363.429	79.81
363.656	89.81
363.882	72.81
364.109	75.81
364.335	75.81
364.562	61.81
364.788	83.81
365.015	67.81
365.241	73.81
365.468	88.81
365.694	75.81
365.92	79.81
366.147	62.81
366.373	77.81
366.599	80.81
366.826	83.81
367.052	75.81
367.278	92.81
367.505	64.81
367.731	86.81
367.957	75.81
368.184	71.81
368.41	72.81
368.636	78.81
368.862	73.81
369.089	75.81
369.315	75.81
369.541	87.81
369.767	64.81
369.993	69.81
370.219	68.81
370.445	75.81
370.672	77.81
370.898	89.81
371.124	85.81
371.35	75.81
371.576	74.81
371.802	86.81
372.028	83.81
372.254	77.81
372.48	73.81
372.706	87.81
372.932	79.81
373.158	70.81
373.384	77.81
373.61	76.81
373.835	87.81
374.061	76.81
374.287	59.81
374.513	71.81
374.739	90.81
374.965	84.81
375.191	86.81
375.416	92.81
375.642	76.81
375.868	92.81
376.094	84.81
376.319	79.81
376.545	83.81
376.771	72.81
376.997	92.81
377.222	82.81
377.448	80.81
377.674	73.81
377.899	80.81
378.125	80.81
378.35	89.81
378.576	80.81
378.802	81.81
379.027	71.81
379.253	77.81
379.478	76.81
379.704	79.81
379.929	79.81
380.155	83.81
380.38	59.81
380.606	78.81
380.831	71.81
381.057	88.81
381.282	89.81
381.507	81.81
381.733	61.81
381.958	68.81
382.184	76.81
382.409	73.81
382.634	85.81
382.86	65.81
383.085	77.81
383.31	73.81
383.535	96.81
383.761	74.81
383.986	76.81
384.211	79.81
384.436	69.81
384.662	80.81
384.887	72.81
385.112	78.81
385.337	81.81
385.562	84.81
385.787	86.81
386.013	71.81
386.238	85.81
386.463	87.81
386.688	87.81
386.913	74.81
387.138	89.81
387.363	87.81
387.588	92.81
387.813	72.81
388.038	75.81
388.263	79.81
388.488	71.81
388.713	81.81
388.938	77.81
389.163	69.81
389.387	92.81
389.612	87.81
389.837	75.81
390.062	79.81
390.287	85.81
390.512	78.81
390.736	85.81
390.961	72.81
391.186	66.81
391.411	81.81
391.636	73.81
391.86	70.81
392.085	73.81
392.31	71.81
392.534	82.81
392.759	77.81
392.984	71.81
393.208	76.81
393.433	90.81
393.658	73.81
393.882	79.81
394.107	73.81
394.331	84.81
394.556	78.81
394.78	61.81
395.005	71.81
395.229	86.81
395.454	78.81
395.678	70.81
395.903	80.81
396.127	73.81
396.352	74.81
396.576	63.81
396.801	72.81
397.025	68.81
397.249	81.81
397.474	75.81
397.698	81.81
397.922	73.81
398.147	65.81
398.371	77.81
398.595	81.81
398.82	61.81
399.044	80.81
399.268	80.81
399.492	84.81
399.717	76.81
399.941	77.81
400.165	71.81
400.389	78.81
400.613	75.81
400.837	70.81
401.062	77.81
401.286	81.81
401.51	87.81
401.734	75.81
401.958	71.81
402.182	70.81
402.406	69.81
402.63	72.81
402.854	71.81
403.078	79.81
403.302	71.81
403.526	74.81
403.75	74.81
403.974	73.81
404.198	71.81
404.422	96.81
404.645	62.81
404.869	87.81
405.093	84.81
405.317	77.81
405.541	77.81
405.765	73.81
405.988	63.81
406.212	77.81
406.436	71.81
406.66	74.81
406.883	85.81
407.107	75.81
407.331	70.81
407.555	71.81
407.778	82.81
408.002	76.81
408.226	75.81
408.449	85.81
408.673	78.81
408.896	77.81
409.12	71.81
409.344	83.81
409.567	81.81
409.791	65.81
410.014	82.81
410.238	75.81
410.461	57.81
410.685	76.81
410.908	70.81
411.132	82.81
411.355	77.81
411.578	76.81
411.802	79.81
412.025	74.81
412.249	79.81
412.472	84.81
412.695	72.81
412.919	83.81
413.142	88.81
413.365	64.81
413.589	69.81
413.812	72.81
414.035	84.81
414.258	74.81
414.482	71.81
414.705	68.81
414.928	87.81
415.151	84.81
415.374	61.81
415.597	93.81
415.821	65.81
416.044	65.81
416.267	80.81
416.49	67.81
416.713	81.81
416.936	72.81
417.159	70.81
417.382	77.81
417.605	71.81
417.828	73.81
418.051	78.81
418.274	68.81
418.497	76.81
418.72	83.81
418.943	87.81
419.166	93.81
419.389	59.81
419.611	73.81
419.834	79.81
420.057	77.81
420.28	78.81
420.503	65.81
420.726	69.81
420.948	80.81
421.171	83.81
421.394	72.81
421.617	73.81
421.839	79.81
422.062	71.81
422.285	73.81
422.507	61.81
422.73	78.81
422.953	79.81
423.175	84.81
423.398	71.81
423.621	82.81
423.843	83.81
424.066	69.81
424.288	84.81
424.511	72.81
424.733	87.81
424.956	73.81
425.178	78.81
425.401	72.81
425.623	73.81
425.846	76.81
426.068	65.81
426.291	81.81
426.513	67.81
426.735	81.81
426.958	93.81
427.18	83.81
427.402	69.81
427.625	71.81
427.847	76.81
428.069	73.81
428.292	83.81
428.514	73.81
428.736	77.81
428.958	74.81
429.181	75.81
429.403	91.81
429.625	87.81
429.847	77.81
430.069	77.81
430.292	74.81
430.514	72.81
430.736	75.81
430.958	89.81
431.18	75.81
431.402	85.81
431.624	81.81
431.846	66.81
432.068	75.81
432.29	78.81
432.512	83.81
432.734	75.81
432.956	73.81
433.178	86.81
433.4	67.81
433.622	69.81
433.844	75.81
434.066	67.81
434.287	76.81
434.509	77.81
434.731	63.81
434.953	72.81
435.175	73.81
435.397	84.81
435.618	65.81
435.84	73.81
436.062	72.81
436.284	79.81
436.505	85.81
436.727	79.81
436.949	67.81
437.17	69.81
437.392	74.81
437.614	67.81
437.835	67.81
438.057	72.81
438.278	77.81
438.5	80.81
438.721	83.81
438.943	79.81
439.165	65.81
439.386	78.81
439.608	87.81
439.829	85.81
440.05	77.81
440.272	78.81
440.493	79.81
440.715	66.81
440.936	93.81
441.158	79.81
441.379	85.81
441.6	72.81
441.822	87.81
442.043	71.81
442.264	65.81
442.486	72.81
442.707	65.81
442.928	59.81
443.149	79.81
443.371	75.81
443.592	80.81
443.813	77.81
444.034	75.81
444.255	71.81
444.476	69.81
444.698	73.81
444.919	65.81
445.14	125.81
445.361	95.81
445.582	73.81
445.803	84.81
446.024	72.81
446.245	85.81
446.466	77.81
446.687	66.81
446.908	76.81
447.129	74.81
447.35	87.81
447.571	77.81
447.792	79.81
448.013	68.81
448.234	64.81
448.455	79.81
448.675	84.81
448.896	84.81
449.117	84.81
449.338	78.81
449.559	72.81
449.779	79.81
450	64.81
450.221	66.81
450.442	75.81
450.662	71.81
450.883	74.81
451.104	84.81
451.324	77.81
451.545	75.81
451.766	74.81
451.986	68.81
452.207	78.81
452.428	90.81
452.648	53.81
452.869	71.81
453.089	74.81
453.31	86.81
453.53	69.81
453.751	74.81
453.971	75.81
454.192	69.81
454.412	86.81
454.633	71.81
454.853	86.81
455.073	73.81
455.294	63.81
455.514	64.81
455.734	76.81
455.955	84.81
456.175	74.81
456.395	85.81
456.616	69.81
456.836	86.81
457.056	83.81
457.276	82.81
457.497	79.81
457.717	71.81
457.937	61.81
458.157	70.81
458.377	87.81
458.598	76.81
458.818	79.81
459.038	80.81
459.258	76.81
459.478	70.81
459.698	76.81
459.918	94.81
460.138	87.81
460.358	85.81
460.578	82.81
460.798	64.81
461.018	85.81
461.238	72.81
461.458	67.81
461.678	92.81
461.898	82.81
462.118	84.81
462.338	75.81
462.558	77.81
462.777	74.81
462.997	82.81
463.217	76.81
463.437	63.81
463.657	80.81
463.876	75.81
464.096	77.81
464.316	74.81
464.536	75.81
464.755	74.81
464.975	71.81
465.195	77.81
465.414	86.81
465.634	81.81
465.854	71.81
466.073	81.81
466.293	81.81
466.512	81.81
466.732	81.81
466.951	71.81
467.171	67.81
467.391	76.81
467.61	90.81
467.829	82.81
468.049	77.81
468.268	78.81
468.488	64.81
468.707	87.81
468.927	90.81
469.146	84.81
469.365	79.81
469.585	86.81
469.804	76.81
470.023	83.81
470.243	79.81
470.462	80.81
470.681	63.81
470.901	85.81
471.12	83.81
471.339	87.81
471.558	80.81
471.777	75.81
471.997	76.81
472.216	73.81
472.435	75.81
472.654	83.81
472.873	89.81
473.092	80.81
473.311	74.81
473.53	73.81
473.749	71.81
473.968	83.81
474.187	75.81
474.406	71.81
474.625	82.81
474.844	72.81
475.063	79.81
475.282	83.81
475.501	84.81
475.72	71.81
475.939	81.81
476.158	95.81
476.377	62.81
476.596	71.81
476.814	63.81
477.033	72.81
477.252	85.81
477.471	77.81
477.69	92.81
477.908	91.81
478.127	70.81
478.346	84.81
478.564	81.81
478.783	80.81
479.002	79.81
479.22	89.81
479.439	80.81
479.658	92.81
479.876	76.81
480.095	82.81
480.313	73.81
480.532	70.81
480.751	85.81
480.969	67.81
481.188	81.81
481.406	78.81
481.624	67.81
481.843	69.81
482.061	72.81
482.28	83.81
482.498	73.81
482.717	80.81
482.935	72.81
483.153	76.81
483.372	92.81
483.59	86.81
483.808	80.81
484.027	85.81
484.245	49.81
484.463	83.81
484.681	71.81
484.9	71.81
485.118	71.81
485.336	77.81
485.554	75.81
485.772	92.81
485.99	81.81
486.209	68.81
486.427	74.81
486.645	90.81
486.863	76.81
487.081	84.81
487.299	84.81
487.517	71.81
487.735	75.81
487.953	71.81
488.171	60.81
488.389	74.81
488.607	80.81
488.825	91.81
489.043	78.81
489.261	87.81
489.479	76.81
489.696	85.81
489.914	90.81
490.132	91.81
490.35	82.81
490.568	79.81
490.786	78.81
491.003	68.81
491.221	85.81
491.439	85.81
491.657	76.81
491.874	71.81
492.092	74.81
492.31	61.81
492.527	79.81
492.745	74.81
492.963	69.81
493.18	82.81
493.398	82.81
493.615	79.81
493.833	76.81
494.05	74.81
494.268	77.81
494.485	65.81
494.703	66.81
494.92	67.81
495.138	72.81
495.355	85.81
495.573	83.81
495.79	71.81
496.008	59.81
496.225	79.81
496.442	85.81
496.66	83.81
496.877	65.81
497.094	76.81
497.312	83.81
497.529	69.81
497.746	81.81
497.963	52.81
498.181	83.81
498.398	83.81
498.615	73.81
498.832	77.81
499.049	66.81
499.267	80.81
499.484	80.81
499.701	79.81
499.918	51.81
500.135	71.81
500.352	78.81
500.569	76.81
500.786	86.81
501.003	87.81
501.22	65.81
501.437	88.81
501.654	73.81
501.871	72.81
502.088	75.81
502.305	86.81
502.522	63.81
502.739	83.81
502.956	90.81
503.172	84.81
503.389	96.81
503.606	83.81
503.823	72.81
504.04	68.81
504.256	75.81
504.473	62.81
504.69	87.81
504.907	88.81
505.123	67.81
505.34	87.81
505.557	83.81
505.773	79.81
505.99	73.81
506.207	66.81
506.423	77.81
506.64	77.81
506.856	74.81
507.073	84.81
507.289	89.81
507.506	87.81
507.722	79.81
507.939	67.81
508.155	64.81
508.372	74.81
508.588	85.81
508.805	78.81
509.021	74.81
509.238	68.81
509.454	83.81
509.67	90.81
509.887	76.81
510.103	86.81
510.319	76.81
510.536	83.81
510.752	83.81
510.968	86.81
511.184	85.81
511.401	65.81
511.617	79.81
511.833	77.81
512.049	66.81
512.265	95.81
512.481	81.81
512.698	71.81
512.914	75.81
513.13	72.81
513.346	70.81
513.562	77.81
513.778	71.81
513.994	73.81
514.21	71.81
514.426	67.81
514.642	64.81
514.858	81.81
515.074	85.81
515.29	79.81
515.506	70.81
515.721	83.81
515.937	81.81
516.153	62.81
516.369	93.81
516.585	80.81
516.801	69.81
517.016	69.81
517.232	75.81
517.448	94.81
517.664	76.81
517.879	82.81
518.095	77.81
518.311	63.81
518.527	73.81
518.742	69.81
518.958	91.81
519.173	84.81
519.389	63.81
519.605	75.81
519.82	69.81
520.036	73.81
520.251	69.81
