Data from Background_3_HRD10591_00080.txt Node
Date: Wed Nov 05 14:49:59 EST 2025
User: Yrep
Spectrometer: HR+D1059
Trigger mode: 1
Integration Time (sec): 1.000000E-1
Scans to average: 1
Electric dark correction enabled: true
Nonlinearity correction enabled: false
Boxcar width: 0
XAxis mode: Wavelengths
Number of Pixels in Spectrum: 2048
>>>>>Begin Spectral Data<<<<<
223.165	-12.56
223.4	-12.56
223.635	-12.56
223.869	-14.56
224.104	-27.56
224.338	-3.56
224.573	-15.56
224.808	-15.56
225.042	-12.56
225.277	-10.56
225.511	-6.56
225.746	9.44
225.98	1.44
226.215	18.44
226.449	20.44
226.683	15.44
226.918	20.44
227.152	33.44
227.387	34.44
227.621	35.44
227.856	49.44
228.09	52.44
228.324	41.44
228.559	50.44
228.793	61.44
229.027	51.44
229.262	64.44
229.496	64.44
229.73	77.44
229.964	74.44
230.199	66.44
230.433	74.44
230.667	83.44
230.901	68.44
231.136	85.44
231.37	73.44
231.604	89.44
231.838	69.44
232.072	74.44
232.306	88.44
232.541	76.44
232.775	85.44
233.009	66.44
233.243	76.44
233.477	85.44
233.711	85.44
233.945	92.44
234.179	70.44
234.413	84.44
234.647	78.44
234.881	80.44
235.115	67.44
235.349	82.44
235.583	83.44
235.817	89.44
236.051	85.44
236.285	83.44
236.519	82.44
236.753	78.44
236.987	87.44
237.221	64.44
237.455	74.44
237.689	71.44
237.922	88.44
238.156	68.44
238.39	82.44
238.624	76.44
238.858	81.44
239.091	74.44
239.325	71.44
239.559	80.44
239.793	68.44
240.027	88.44
240.26	76.44
240.494	74.44
240.728	82.44
240.961	77.44
241.195	84.44
241.429	69.44
241.662	76.44
241.896	84.44
242.13	77.44
242.363	66.44
242.597	82.44
242.83	79.44
243.064	78.44
243.298	58.44
243.531	80.44
243.765	69.44
243.998	72.44
244.232	78.44
244.465	67.44
244.699	78.44
244.932	88.44
245.166	79.44
245.399	71.44
245.633	86.44
245.866	74.44
246.099	74.44
246.333	83.44
246.566	82.44
246.8	80.44
247.033	69.44
247.266	74.44
247.5	64.44
247.733	87.44
247.966	87.44
248.2	70.44
248.433	89.44
248.666	74.44
248.899	73.44
249.133	88.44
249.366	76.44
249.599	73.44
249.832	74.44
250.066	78.44
250.299	70.44
250.532	83.44
250.765	77.44
250.998	84.44
251.231	89.44
251.465	70.44
251.698	71.44
251.931	70.44
252.164	88.44
252.397	72.44
252.63	80.44
252.863	69.44
253.096	64.44
253.329	86.44
253.562	95.44
253.795	75.44
254.028	82.44
254.261	77.44
254.494	79.44
254.727	82.44
254.96	89.44
255.193	79.44
255.426	82.44
255.659	97.44
255.892	81.44
256.124	78.44
256.357	82.44
256.59	89.44
256.823	90.44
257.056	86.44
257.289	85.44
257.521	68.44
257.754	81.44
257.987	81.44
258.22	85.44
258.452	79.44
258.685	79.44
258.918	88.44
259.151	81.44
259.383	67.44
259.616	90.44
259.849	76.44
260.081	74.44
260.314	81.44
260.547	70.44
260.779	78.44
261.012	88.44
261.244	80.44
261.477	68.44
261.71	80.44
261.942	78.44
262.175	83.44
262.407	76.44
262.64	85.44
262.872	84.44
263.105	78.44
263.337	81.44
263.57	79.44
263.802	88.44
264.035	82.44
264.267	80.44
264.499	87.44
264.732	97.44
264.964	81.44
265.197	93.44
265.429	92.44
265.661	76.44
265.894	88.44
266.126	73.44
266.358	68.44
266.591	66.44
266.823	79.44
267.055	80.44
267.287	94.44
267.52	74.44
267.752	85.44
267.984	79.44
268.216	100.44
268.448	85.44
268.681	77.44
268.913	88.44
269.145	77.44
269.377	92.44
269.609	94.44
269.841	96.44
270.073	84.44
270.306	86.44
270.538	80.44
270.77	82.44
271.002	81.44
271.234	92.44
271.466	84.44
271.698	78.44
271.93	82.44
272.162	85.44
272.394	85.44
272.626	89.44
272.858	87.44
273.09	81.44
273.322	80.44
273.553	92.44
273.785	94.44
274.017	91.44
274.249	80.44
274.481	88.44
274.713	75.44
274.945	77.44
275.176	81.44
275.408	82.44
275.64	86.44
275.872	84.44
276.104	88.44
276.335	97.44
276.567	70.44
276.799	86.44
277.031	83.44
277.262	77.44
277.494	84.44
277.726	94.44
277.957	84.44
278.189	72.44
278.421	83.44
278.652	86.44
278.884	90.44
279.115	81.44
279.347	76.44
279.579	92.44
279.81	70.44
280.042	94.44
280.273	65.44
280.505	78.44
280.736	88.44
280.968	94.44
281.199	83.44
281.431	92.44
281.662	80.44
281.894	81.44
282.125	75.44
282.356	82.44
282.588	96.44
282.819	92.44
283.051	97.44
283.282	79.44
283.513	90.44
283.745	70.44
283.976	72.44
284.207	87.44
284.439	93.44
284.67	93.44
284.901	91.44
285.132	88.44
285.364	94.44
285.595	69.44
285.826	96.44
286.057	78.44
286.288	74.44
286.52	81.44
286.751	82.44
286.982	81.44
287.213	78.44
287.444	91.44
287.675	104.44
287.906	97.44
288.138	94.44
288.369	84.44
288.6	84.44
288.831	93.44
289.062	88.44
289.293	99.44
289.524	81.44
289.755	101.44
289.986	110.44
290.217	80.44
290.448	91.44
290.679	81.44
290.91	94.44
291.141	82.44
291.371	81.44
291.602	93.44
291.833	89.44
292.064	86.44
292.295	93.44
292.526	66.44
292.757	93.44
292.987	89.44
293.218	86.44
293.449	90.44
293.68	81.44
293.91	92.44
294.141	88.44
294.372	88.44
294.603	81.44
294.833	91.44
295.064	86.44
295.295	87.44
295.525	76.44
295.756	87.44
295.987	83.44
296.217	66.44
296.448	68.44
296.679	69.44
296.909	87.44
297.14	93.44
297.37	78.44
297.601	79.44
297.831	86.44
298.062	76.44
298.292	72.44
298.523	93.44
298.753	93.44
298.984	86.44
299.214	71.44
299.445	77.44
299.675	79.44
299.905	92.44
300.136	83.44
300.366	83.44
300.597	80.44
300.827	96.44
301.057	104.44
301.288	79.44
301.518	79.44
301.748	81.44
301.979	103.44
302.209	84.44
302.439	77.44
302.669	80.44
302.9	84.44
303.13	81.44
303.36	82.44
303.59	79.44
303.82	81.44
304.051	100.44
304.281	92.44
304.511	92.44
304.741	91.44
304.971	80.44
305.201	75.44
305.431	78.44
305.661	84.44
305.891	70.44
306.121	94.44
306.352	78.44
306.582	78.44
306.812	77.44
307.042	92.44
307.272	74.44
307.502	104.44
307.731	78.44
307.961	74.44
308.191	90.44
308.421	91.44
308.651	78.44
308.881	90.44
309.111	100.44
309.341	83.44
309.571	88.44
309.8	85.44
310.03	85.44
310.26	93.44
310.49	92.44
310.72	84.44
310.949	90.44
311.179	82.44
311.409	74.44
311.639	84.44
311.868	89.44
312.098	95.44
312.328	88.44
312.557	84.44
312.787	93.44
313.017	78.44
313.246	86.44
313.476	87.44
313.706	90.44
313.935	91.44
314.165	90.44
314.394	88.44
314.624	83.44
314.853	80.44
315.083	74.44
315.312	96.44
315.542	81.44
315.771	83.44
316.001	90.44
316.23	78.44
316.46	81.44
316.689	90.44
316.919	77.44
317.148	83.44
317.377	79.44
317.607	97.44
317.836	82.44
318.065	82.44
318.295	90.44
318.524	80.44
318.753	85.44
318.983	81.44
319.212	79.44
319.441	101.44
319.67	98.44
319.9	96.44
320.129	83.44
320.358	82.44
320.587	93.44
320.816	84.44
321.046	84.44
321.275	90.44
321.504	76.44
321.733	86.44
321.962	96.44
322.191	92.44
322.42	71.44
322.649	89.44
322.878	68.44
323.108	97.44
323.337	86.44
323.566	83.44
323.795	80.44
324.024	93.44
324.253	91.44
324.482	85.44
324.71	84.44
324.939	85.44
325.168	93.44
325.397	100.44
325.626	88.44
325.855	70.44
326.084	92.44
326.313	94.44
326.542	93.44
326.77	99.44
326.999	71.44
327.228	70.44
327.457	90.44
327.686	82.44
327.914	90.44
328.143	86.44
328.372	85.44
328.6	80.44
328.829	69.44
329.058	71.44
329.287	88.44
329.515	90.44
329.744	80.44
329.972	86.44
330.201	92.44
330.43	83.44
330.658	74.44
330.887	85.44
331.115	84.44
331.344	84.44
331.572	89.44
331.801	80.44
332.03	87.44
332.258	84.44
332.486	79.44
332.715	79.44
332.943	87.44
333.172	85.44
333.4	88.44
333.629	97.44
333.857	92.44
334.085	84.44
334.314	86.44
334.542	68.44
334.771	74.44
334.999	93.44
335.227	81.44
335.455	94.44
335.684	84.44
335.912	71.44
336.14	89.44
336.369	96.44
336.597	78.44
336.825	80.44
337.053	80.44
337.281	81.44
337.51	73.44
337.738	88.44
337.966	80.44
338.194	65.44
338.422	88.44
338.65	73.44
338.878	83.44
339.106	90.44
339.334	86.44
339.562	74.44
339.79	82.44
340.018	79.44
340.246	83.44
340.474	102.44
340.702	80.44
340.93	83.44
341.158	91.44
341.386	76.44
341.614	92.44
341.842	84.44
342.07	76.44
342.298	81.44
342.526	97.44
342.754	85.44
342.981	91.44
343.209	93.44
343.437	97.44
343.665	73.44
343.893	86.44
344.12	85.44
344.348	97.44
344.576	84.44
344.804	82.44
345.031	80.44
345.259	85.44
345.487	72.44
345.714	60.44
345.942	89.44
346.17	95.44
346.397	70.44
346.625	95.44
346.853	81.44
347.08	87.44
347.308	68.44
347.535	84.44
347.763	77.44
347.99	83.44
348.218	90.44
348.445	79.44
348.673	85.44
348.9	76.44
349.128	104.44
349.355	83.44
349.583	84.44
349.81	81.44
350.037	80.44
350.265	83.44
350.492	82.44
350.72	84.44
350.947	85.44
351.174	90.44
351.402	87.44
351.629	86.44
351.856	74.44
352.083	74.44
352.311	93.44
352.538	97.44
352.765	92.44
352.992	86.44
353.22	88.44
353.447	80.44
353.674	80.44
353.901	91.44
354.128	85.44
354.355	84.44
354.583	77.44
354.81	86.44
355.037	90.44
355.264	84.44
355.491	75.44
355.718	86.44
355.945	81.44
356.172	75.44
356.399	81.44
356.626	89.44
356.853	92.44
357.08	83.44
357.307	74.44
357.534	74.44
357.761	77.44
357.988	84.44
358.215	93.44
358.441	80.44
358.668	75.44
358.895	85.44
359.122	103.44
359.349	88.44
359.576	80.44
359.802	83.44
360.029	79.44
360.256	63.44
360.483	86.44
360.709	91.44
360.936	93.44
361.163	76.44
361.39	86.44
361.616	96.44
361.843	79.44
362.07	74.44
362.296	101.44
362.523	84.44
362.749	68.44
362.976	77.44
363.203	84.44
363.429	89.44
363.656	84.44
363.882	64.44
364.109	84.44
364.335	81.44
364.562	79.44
364.788	70.44
365.015	99.44
365.241	85.44
365.468	106.44
365.694	78.44
365.92	72.44
366.147	73.44
366.373	90.44
366.599	97.44
366.826	77.44
367.052	93.44
367.278	91.44
367.505	94.44
367.731	97.44
367.957	77.44
368.184	80.44
368.41	70.44
368.636	83.44
368.862	92.44
369.089	78.44
369.315	84.44
369.541	80.44
369.767	82.44
369.993	88.44
370.219	76.44
370.445	79.44
370.672	89.44
370.898	71.44
371.124	83.44
371.35	73.44
371.576	85.44
371.802	78.44
372.028	81.44
372.254	74.44
372.48	79.44
372.706	90.44
372.932	71.44
373.158	82.44
373.384	81.44
373.61	107.44
373.835	80.44
374.061	79.44
374.287	77.44
374.513	78.44
374.739	89.44
374.965	87.44
375.191	76.44
375.416	78.44
375.642	78.44
375.868	83.44
376.094	81.44
376.319	90.44
376.545	80.44
376.771	70.44
376.997	70.44
377.222	86.44
377.448	78.44
377.674	72.44
377.899	90.44
378.125	83.44
378.35	90.44
378.576	85.44
378.802	86.44
379.027	80.44
379.253	78.44
379.478	78.44
379.704	93.44
379.929	96.44
380.155	78.44
380.38	80.44
380.606	86.44
380.831	99.44
381.057	92.44
381.282	82.44
381.507	78.44
381.733	76.44
381.958	81.44
382.184	80.44
382.409	69.44
382.634	86.44
382.86	90.44
383.085	80.44
383.31	80.44
383.535	82.44
383.761	74.44
383.986	92.44
384.211	87.44
384.436	80.44
384.662	82.44
384.887	82.44
385.112	73.44
385.337	89.44
385.562	83.44
385.787	82.44
386.013	88.44
386.238	71.44
386.463	92.44
386.688	93.44
386.913	74.44
387.138	54.44
387.363	93.44
387.588	77.44
387.813	75.44
388.038	77.44
388.263	92.44
388.488	72.44
388.713	86.44
388.938	90.44
389.163	82.44
389.387	75.44
389.612	84.44
389.837	78.44
390.062	82.44
390.287	85.44
390.512	73.44
390.736	93.44
390.961	77.44
391.186	101.44
391.411	82.44
391.636	87.44
391.86	84.44
392.085	69.44
392.31	70.44
392.534	62.44
392.759	87.44
392.984	77.44
393.208	85.44
393.433	84.44
393.658	76.44
393.882	85.44
394.107	86.44
394.331	76.44
394.556	71.44
394.78	76.44
395.005	68.44
395.229	73.44
395.454	85.44
395.678	92.44
395.903	64.44
396.127	68.44
396.352	71.44
396.576	76.44
396.801	65.44
397.025	91.44
397.249	78.44
397.474	75.44
397.698	72.44
397.922	80.44
398.147	86.44
398.371	79.44
398.595	75.44
398.82	80.44
399.044	80.44
399.268	73.44
399.492	77.44
399.717	85.44
399.941	84.44
400.165	84.44
400.389	70.44
400.613	79.44
400.837	90.44
401.062	87.44
401.286	88.44
401.51	70.44
401.734	68.44
401.958	79.44
402.182	73.44
402.406	82.44
402.63	70.44
402.854	77.44
403.078	77.44
403.302	81.44
403.526	75.44
403.75	85.44
403.974	83.44
404.198	84.44
404.422	77.44
404.645	83.44
404.869	81.44
405.093	87.44
405.317	90.44
405.541	81.44
405.765	91.44
405.988	82.44
406.212	71.44
406.436	81.44
406.66	82.44
406.883	86.44
407.107	76.44
407.331	76.44
407.555	90.44
407.778	75.44
408.002	82.44
408.226	88.44
408.449	85.44
408.673	64.44
408.896	75.44
409.12	80.44
409.344	82.44
409.567	70.44
409.791	78.44
410.014	78.44
410.238	81.44
410.461	80.44
410.685	86.44
410.908	73.44
411.132	91.44
411.355	76.44
411.578	85.44
411.802	76.44
412.025	87.44
412.249	79.44
412.472	75.44
412.695	81.44
412.919	69.44
413.142	76.44
413.365	74.44
413.589	78.44
413.812	80.44
414.035	81.44
414.258	74.44
414.482	87.44
414.705	75.44
414.928	71.44
415.151	76.44
415.374	77.44
415.597	94.44
415.821	87.44
416.044	86.44
416.267	82.44
416.49	65.44
416.713	79.44
416.936	80.44
417.159	83.44
417.382	68.44
417.605	81.44
417.828	99.44
418.051	81.44
418.274	80.44
418.497	75.44
418.72	82.44
418.943	73.44
419.166	63.44
419.389	87.44
419.611	90.44
419.834	86.44
420.057	78.44
420.28	79.44
420.503	84.44
420.726	85.44
420.948	84.44
421.171	79.44
421.394	78.44
421.617	68.44
421.839	85.44
422.062	76.44
422.285	90.44
422.507	81.44
422.73	81.44
422.953	79.44
423.175	80.44
423.398	75.44
423.621	87.44
423.843	83.44
424.066	71.44
424.288	81.44
424.511	70.44
424.733	74.44
424.956	88.44
425.178	72.44
425.401	71.44
425.623	89.44
425.846	72.44
426.068	80.44
426.291	75.44
426.513	77.44
426.735	80.44
426.958	75.44
427.18	76.44
427.402	77.44
427.625	73.44
427.847	92.44
428.069	79.44
428.292	91.44
428.514	76.44
428.736	77.44
428.958	80.44
429.181	89.44
429.403	80.44
429.625	76.44
429.847	72.44
430.069	94.44
430.292	93.44
430.514	67.44
430.736	79.44
430.958	68.44
431.18	70.44
431.402	93.44
431.624	83.44
431.846	78.44
432.068	85.44
432.29	82.44
432.512	61.44
432.734	75.44
432.956	68.44
433.178	76.44
433.4	81.44
433.622	88.44
433.844	81.44
434.066	77.44
434.287	67.44
434.509	79.44
434.731	81.44
434.953	77.44
435.175	70.44
435.397	83.44
435.618	77.44
435.84	82.44
436.062	82.44
436.284	71.44
436.505	68.44
436.727	81.44
436.949	70.44
437.17	72.44
437.392	92.44
437.614	72.44
437.835	77.44
438.057	81.44
438.278	76.44
438.5	87.44
438.721	79.44
438.943	85.44
439.165	81.44
439.386	68.44
439.608	82.44
439.829	81.44
440.05	93.44
440.272	61.44
440.493	69.44
440.715	88.44
440.936	68.44
441.158	91.44
441.379	84.44
441.6	78.44
441.822	73.44
442.043	82.44
442.264	75.44
442.486	80.44
442.707	93.44
442.928	75.44
443.149	71.44
443.371	85.44
443.592	74.44
443.813	77.44
444.034	83.44
444.255	84.44
444.476	82.44
444.698	96.44
444.919	68.44
445.14	158.44
445.361	107.44
445.582	99.44
445.803	68.44
446.024	88.44
446.245	77.44
446.466	70.44
446.687	95.44
446.908	78.44
447.129	85.44
447.35	76.44
447.571	83.44
447.792	93.44
448.013	83.44
448.234	84.44
448.455	66.44
448.675	87.44
448.896	76.44
449.117	80.44
449.338	72.44
449.559	86.44
449.779	88.44
450	81.44
450.221	69.44
450.442	69.44
450.662	82.44
450.883	86.44
451.104	91.44
451.324	86.44
451.545	76.44
451.766	84.44
451.986	75.44
452.207	77.44
452.428	70.44
452.648	70.44
452.869	76.44
453.089	80.44
453.31	80.44
453.53	88.44
453.751	92.44
453.971	97.44
454.192	89.44
454.412	79.44
454.633	72.44
454.853	83.44
455.073	84.44
455.294	96.44
455.514	66.44
455.734	89.44
455.955	83.44
456.175	86.44
456.395	89.44
456.616	88.44
456.836	76.44
457.056	90.44
457.276	88.44
457.497	79.44
457.717	86.44
457.937	94.44
458.157	83.44
458.377	76.44
458.598	82.44
458.818	80.44
459.038	79.44
459.258	88.44
459.478	85.44
459.698	69.44
459.918	84.44
460.138	93.44
460.358	72.44
460.578	80.44
460.798	88.44
461.018	74.44
461.238	95.44
461.458	78.44
461.678	85.44
461.898	86.44
462.118	84.44
462.338	92.44
462.558	67.44
462.777	86.44
462.997	80.44
463.217	78.44
463.437	86.44
463.657	68.44
463.876	88.44
464.096	96.44
464.316	82.44
464.536	76.44
464.755	76.44
464.975	68.44
465.195	75.44
465.414	82.44
465.634	79.44
465.854	79.44
466.073	67.44
466.293	87.44
466.512	79.44
466.732	93.44
466.951	77.44
467.171	82.44
467.391	88.44
467.61	89.44
467.829	93.44
468.049	71.44
468.268	76.44
468.488	76.44
468.707	81.44
468.927	82.44
469.146	69.44
469.365	82.44
469.585	70.44
469.804	82.44
470.023	85.44
470.243	94.44
470.462	81.44
470.681	69.44
470.901	58.44
471.12	85.44
471.339	94.44
471.558	92.44
471.777	89.44
471.997	85.44
472.216	75.44
472.435	91.44
472.654	87.44
472.873	77.44
473.092	88.44
473.311	89.44
473.53	72.44
473.749	76.44
473.968	109.44
474.187	78.44
474.406	72.44
474.625	91.44
474.844	83.44
475.063	90.44
475.282	89.44
475.501	76.44
475.72	89.44
475.939	90.44
476.158	79.44
476.377	82.44
476.596	72.44
476.814	87.44
477.033	65.44
477.252	70.44
477.471	91.44
477.69	89.44
477.908	80.44
478.127	80.44
478.346	84.44
478.564	77.44
478.783	85.44
479.002	75.44
479.22	76.44
479.439	86.44
479.658	90.44
479.876	77.44
480.095	76.44
480.313	73.44
480.532	73.44
480.751	74.44
480.969	78.44
481.188	84.44
481.406	86.44
481.624	82.44
481.843	86.44
482.061	82.44
482.28	90.44
482.498	77.44
482.717	93.44
482.935	99.44
483.153	91.44
483.372	96.44
483.59	76.44
483.808	79.44
484.027	85.44
484.245	78.44
484.463	78.44
484.681	90.44
484.9	84.44
485.118	85.44
485.336	73.44
485.554	78.44
485.772	79.44
485.99	81.44
486.209	66.44
486.427	81.44
486.645	74.44
486.863	90.44
487.081	89.44
487.299	81.44
487.517	91.44
487.735	91.44
487.953	93.44
488.171	106.44
488.389	84.44
488.607	76.44
488.825	88.44
489.043	80.44
489.261	90.44
489.479	88.44
489.696	99.44
489.914	70.44
490.132	81.44
490.35	84.44
490.568	83.44
490.786	82.44
491.003	83.44
491.221	79.44
491.439	85.44
491.657	85.44
491.874	82.44
492.092	87.44
492.31	83.44
492.527	70.44
492.745	84.44
492.963	89.44
493.18	81.44
493.398	70.44
493.615	95.44
493.833	70.44
494.05	78.44
494.268	59.44
494.485	86.44
494.703	76.44
494.92	90.44
495.138	86.44
495.355	101.44
495.573	88.44
495.79	80.44
496.008	81.44
496.225	74.44
496.442	75.44
496.66	81.44
496.877	91.44
497.094	92.44
497.312	81.44
497.529	76.44
497.746	89.44
497.963	76.44
498.181	73.44
498.398	80.44
498.615	92.44
498.832	91.44
499.049	80.44
499.267	82.44
499.484	76.44
499.701	78.44
499.918	78.44
500.135	74.44
500.352	73.44
500.569	77.44
500.786	84.44
501.003	70.44
501.22	83.44
501.437	76.44
501.654	76.44
501.871	83.44
502.088	74.44
502.305	71.44
502.522	91.44
502.739	84.44
502.956	99.44
503.172	87.44
503.389	81.44
503.606	84.44
503.823	80.44
504.04	92.44
504.256	94.44
504.473	84.44
504.69	78.44
504.907	81.44
505.123	86.44
505.34	89.44
505.557	85.44
505.773	76.44
505.99	81.44
506.207	92.44
506.423	87.44
506.64	64.44
506.856	93.44
507.073	76.44
507.289	91.44
507.506	88.44
507.722	82.44
507.939	81.44
508.155	79.44
508.372	79.44
508.588	94.44
508.805	84.44
509.021	103.44
509.238	81.44
509.454	82.44
509.67	87.44
509.887	91.44
510.103	83.44
510.319	101.44
510.536	79.44
510.752	84.44
510.968	85.44
511.184	98.44
511.401	88.44
511.617	89.44
511.833	82.44
512.049	83.44
512.265	79.44
512.481	83.44
512.698	96.44
512.914	104.44
513.13	90.44
513.346	81.44
513.562	76.44
513.778	61.44
513.994	80.44
514.21	87.44
514.426	70.44
514.642	72.44
514.858	89.44
515.074	85.44
515.29	87.44
515.506	95.44
515.721	88.44
515.937	86.44
516.153	84.44
516.369	66.44
516.585	76.44
516.801	78.44
517.016	76.44
517.232	84.44
517.448	84.44
517.664	83.44
517.879	94.44
518.095	93.44
518.311	90.44
518.527	87.44
518.742	76.44
518.958	81.44
519.173	88.44
519.389	88.44
519.605	93.44
519.82	81.44
