Data from Background_3_HRD10591_00022.txt Node
Date: Wed Nov 05 14:49:30 EST 2025
User: Yrep
Spectrometer: HR+D1059
Trigger mode: 1
Integration Time (sec): 1.000000E-1
Scans to average: 1
Electric dark correction enabled: true
Nonlinearity correction enabled: false
Boxcar width: 0
XAxis mode: Wavelengths
Number of Pixels in Spectrum: 2048
>>>>>Begin Spectral Data<<<<<
223.165	-10.81
223.4	-10.81
223.635	-10.81
223.869	-21.81
224.104	-27.81
224.338	-11.81
224.573	-27.81
224.808	-15.81
225.042	-9.81
225.277	-6.81
225.511	13.19
225.746	16.19
225.98	8.19
226.215	19.19
226.449	14.19
226.683	24.19
226.918	24.19
227.152	13.19
227.387	43.19
227.621	43.19
227.856	47.19
228.09	47.19
228.324	55.19
228.559	64.19
228.793	54.19
229.027	53.19
229.262	67.19
229.496	85.19
229.73	61.19
229.964	60.19
230.199	63.19
230.433	71.19
230.667	83.19
230.901	71.19
231.136	80.19
231.37	86.19
231.604	69.19
231.838	86.19
232.072	79.19
232.306	90.19
232.541	81.19
232.775	79.19
233.009	88.19
233.243	75.19
233.477	80.19
233.711	85.19
233.945	71.19
234.179	74.19
234.413	72.19
234.647	73.19
234.881	80.19
235.115	86.19
235.349	74.19
235.583	80.19
235.817	76.19
236.051	78.19
236.285	72.19
236.519	82.19
236.753	72.19
236.987	82.19
237.221	81.19
237.455	77.19
237.689	71.19
237.922	81.19
238.156	77.19
238.39	58.19
238.624	67.19
238.858	75.19
239.091	76.19
239.325	81.19
239.559	83.19
239.793	81.19
240.027	72.19
240.26	79.19
240.494	77.19
240.728	78.19
240.961	71.19
241.195	78.19
241.429	80.19
241.662	74.19
241.896	83.19
242.13	77.19
242.363	68.19
242.597	81.19
242.83	69.19
243.064	78.19
243.298	81.19
243.531	69.19
243.765	78.19
243.998	74.19
244.232	75.19
244.465	84.19
244.699	72.19
244.932	70.19
245.166	92.19
245.399	72.19
245.633	93.19
245.866	72.19
246.099	76.19
246.333	83.19
246.566	87.19
246.8	77.19
247.033	74.19
247.266	79.19
247.5	72.19
247.733	70.19
247.966	71.19
248.2	78.19
248.433	78.19
248.666	66.19
248.899	82.19
249.133	77.19
249.366	86.19
249.599	63.19
249.832	80.19
250.066	71.19
250.299	85.19
250.532	85.19
250.765	80.19
250.998	80.19
251.231	81.19
251.465	79.19
251.698	77.19
251.931	85.19
252.164	61.19
252.397	78.19
252.63	76.19
252.863	68.19
253.096	73.19
253.329	78.19
253.562	73.19
253.795	84.19
254.028	89.19
254.261	83.19
254.494	65.19
254.727	78.19
254.96	89.19
255.193	89.19
255.426	86.19
255.659	88.19
255.892	77.19
256.124	74.19
256.357	69.19
256.59	71.19
256.823	70.19
257.056	74.19
257.289	86.19
257.521	83.19
257.754	75.19
257.987	79.19
258.22	80.19
258.452	74.19
258.685	76.19
258.918	82.19
259.151	87.19
259.383	81.19
259.616	80.19
259.849	72.19
260.081	79.19
260.314	79.19
260.547	85.19
260.779	91.19
261.012	83.19
261.244	82.19
261.477	96.19
261.71	87.19
261.942	91.19
262.175	83.19
262.407	86.19
262.64	87.19
262.872	98.19
263.105	86.19
263.337	92.19
263.57	67.19
263.802	78.19
264.035	71.19
264.267	70.19
264.499	72.19
264.732	93.19
264.964	90.19
265.197	75.19
265.429	85.19
265.661	79.19
265.894	86.19
266.126	74.19
266.358	80.19
266.591	79.19
266.823	62.19
267.055	65.19
267.287	81.19
267.52	64.19
267.752	68.19
267.984	82.19
268.216	82.19
268.448	76.19
268.681	93.19
268.913	88.19
269.145	68.19
269.377	82.19
269.609	82.19
269.841	82.19
270.073	86.19
270.306	78.19
270.538	84.19
270.77	78.19
271.002	79.19
271.234	76.19
271.466	75.19
271.698	78.19
271.93	68.19
272.162	89.19
272.394	69.19
272.626	91.19
272.858	74.19
273.09	77.19
273.322	84.19
273.553	85.19
273.785	92.19
274.017	82.19
274.249	85.19
274.481	84.19
274.713	76.19
274.945	89.19
275.176	72.19
275.408	78.19
275.64	76.19
275.872	87.19
276.104	92.19
276.335	85.19
276.567	100.19
276.799	84.19
277.031	91.19
277.262	78.19
277.494	86.19
277.726	90.19
277.957	79.19
278.189	100.19
278.421	89.19
278.652	85.19
278.884	86.19
279.115	75.19
279.347	68.19
279.579	76.19
279.81	88.19
280.042	77.19
280.273	85.19
280.505	91.19
280.736	74.19
280.968	89.19
281.199	82.19
281.431	87.19
281.662	79.19
281.894	82.19
282.125	69.19
282.356	87.19
282.588	84.19
282.819	76.19
283.051	85.19
283.282	90.19
283.513	102.19
283.745	83.19
283.976	80.19
284.207	89.19
284.439	93.19
284.67	85.19
284.901	91.19
285.132	70.19
285.364	84.19
285.595	80.19
285.826	86.19
286.057	72.19
286.288	80.19
286.52	85.19
286.751	90.19
286.982	76.19
287.213	86.19
287.444	77.19
287.675	65.19
287.906	82.19
288.138	91.19
288.369	78.19
288.6	86.19
288.831	70.19
289.062	78.19
289.293	82.19
289.524	71.19
289.755	78.19
289.986	76.19
290.217	87.19
290.448	95.19
290.679	80.19
290.91	89.19
291.141	78.19
291.371	94.19
291.602	92.19
291.833	87.19
292.064	76.19
292.295	72.19
292.526	86.19
292.757	94.19
292.987	87.19
293.218	82.19
293.449	80.19
293.68	69.19
293.91	71.19
294.141	84.19
294.372	77.19
294.603	80.19
294.833	86.19
295.064	81.19
295.295	87.19
295.525	80.19
295.756	73.19
295.987	85.19
296.217	80.19
296.448	75.19
296.679	92.19
296.909	86.19
297.14	80.19
297.37	76.19
297.601	86.19
297.831	86.19
298.062	88.19
298.292	86.19
298.523	89.19
298.753	87.19
298.984	81.19
299.214	76.19
299.445	79.19
299.675	88.19
299.905	72.19
300.136	62.19
300.366	77.19
300.597	78.19
300.827	96.19
301.057	92.19
301.288	95.19
301.518	79.19
301.748	82.19
301.979	90.19
302.209	70.19
302.439	76.19
302.669	82.19
302.9	91.19
303.13	91.19
303.36	92.19
303.59	86.19
303.82	87.19
304.051	86.19
304.281	96.19
304.511	87.19
304.741	87.19
304.971	91.19
305.201	77.19
305.431	100.19
305.661	85.19
305.891	83.19
306.121	84.19
306.352	84.19
306.582	90.19
306.812	76.19
307.042	78.19
307.272	75.19
307.502	81.19
307.731	81.19
307.961	84.19
308.191	94.19
308.421	87.19
308.651	85.19
308.881	84.19
309.111	92.19
309.341	85.19
309.571	92.19
309.8	68.19
310.03	82.19
310.26	84.19
310.49	74.19
310.72	86.19
310.949	89.19
311.179	91.19
311.409	84.19
311.639	83.19
311.868	78.19
312.098	84.19
312.328	74.19
312.557	78.19
312.787	98.19
313.017	78.19
313.246	76.19
313.476	101.19
313.706	86.19
313.935	75.19
314.165	95.19
314.394	80.19
314.624	84.19
314.853	90.19
315.083	98.19
315.312	87.19
315.542	70.19
315.771	77.19
316.001	89.19
316.23	92.19
316.46	83.19
316.689	78.19
316.919	90.19
317.148	84.19
317.377	93.19
317.607	91.19
317.836	78.19
318.065	91.19
318.295	83.19
318.524	87.19
318.753	83.19
318.983	79.19
319.212	89.19
319.441	78.19
319.67	84.19
319.9	75.19
320.129	81.19
320.358	91.19
320.587	76.19
320.816	80.19
321.046	100.19
321.275	94.19
321.504	87.19
321.733	96.19
321.962	84.19
322.191	95.19
322.42	87.19
322.649	87.19
322.878	95.19
323.108	83.19
323.337	87.19
323.566	95.19
323.795	83.19
324.024	93.19
324.253	88.19
324.482	82.19
324.71	63.19
324.939	71.19
325.168	82.19
325.397	88.19
325.626	84.19
325.855	74.19
326.084	89.19
326.313	82.19
326.542	78.19
326.77	84.19
326.999	80.19
327.228	83.19
327.457	78.19
327.686	78.19
327.914	60.19
328.143	92.19
328.372	78.19
328.6	84.19
328.829	78.19
329.058	72.19
329.287	84.19
329.515	73.19
329.744	91.19
329.972	83.19
330.201	70.19
330.43	80.19
330.658	90.19
330.887	82.19
331.115	102.19
331.344	78.19
331.572	90.19
331.801	87.19
332.03	85.19
332.258	92.19
332.486	94.19
332.715	84.19
332.943	76.19
333.172	71.19
333.4	84.19
333.629	84.19
333.857	78.19
334.085	74.19
334.314	72.19
334.542	72.19
334.771	76.19
334.999	77.19
335.227	82.19
335.455	78.19
335.684	95.19
335.912	97.19
336.14	87.19
336.369	78.19
336.597	87.19
336.825	83.19
337.053	82.19
337.281	76.19
337.51	82.19
337.738	75.19
337.966	87.19
338.194	70.19
338.422	75.19
338.65	83.19
338.878	90.19
339.106	88.19
339.334	87.19
339.562	76.19
339.79	85.19
340.018	82.19
340.246	87.19
340.474	80.19
340.702	86.19
340.93	85.19
341.158	92.19
341.386	83.19
341.614	66.19
341.842	79.19
342.07	94.19
342.298	97.19
342.526	75.19
342.754	72.19
342.981	88.19
343.209	94.19
343.437	98.19
343.665	90.19
343.893	81.19
344.12	87.19
344.348	81.19
344.576	78.19
344.804	91.19
345.031	80.19
345.259	86.19
345.487	60.19
345.714	70.19
345.942	77.19
346.17	84.19
346.397	83.19
346.625	85.19
346.853	89.19
347.08	81.19
347.308	75.19
347.535	80.19
347.763	89.19
347.99	84.19
348.218	79.19
348.445	79.19
348.673	93.19
348.9	99.19
349.128	77.19
349.355	80.19
349.583	79.19
349.81	79.19
350.037	81.19
350.265	91.19
350.492	88.19
350.72	87.19
350.947	76.19
351.174	88.19
351.402	85.19
351.629	87.19
351.856	88.19
352.083	83.19
352.311	82.19
352.538	86.19
352.765	84.19
352.992	71.19
353.22	82.19
353.447	69.19
353.674	86.19
353.901	92.19
354.128	87.19
354.355	76.19
354.583	91.19
354.81	70.19
355.037	90.19
355.264	97.19
355.491	85.19
355.718	84.19
355.945	79.19
356.172	71.19
356.399	73.19
356.626	80.19
356.853	88.19
357.08	84.19
357.307	100.19
357.534	73.19
357.761	97.19
357.988	94.19
358.215	86.19
358.441	71.19
358.668	80.19
358.895	66.19
359.122	87.19
359.349	86.19
359.576	82.19
359.802	72.19
360.029	86.19
360.256	87.19
360.483	84.19
360.709	73.19
360.936	96.19
361.163	96.19
361.39	77.19
361.616	81.19
361.843	79.19
362.07	83.19
362.296	77.19
362.523	79.19
362.749	76.19
362.976	94.19
363.203	79.19
363.429	86.19
363.656	81.19
363.882	79.19
364.109	83.19
364.335	89.19
364.562	79.19
364.788	84.19
365.015	82.19
365.241	83.19
365.468	100.19
365.694	81.19
365.92	80.19
366.147	79.19
366.373	75.19
366.599	82.19
366.826	82.19
367.052	79.19
367.278	79.19
367.505	93.19
367.731	83.19
367.957	86.19
368.184	82.19
368.41	84.19
368.636	80.19
368.862	93.19
369.089	94.19
369.315	78.19
369.541	82.19
369.767	95.19
369.993	82.19
370.219	64.19
370.445	82.19
370.672	84.19
370.898	75.19
371.124	84.19
371.35	75.19
371.576	78.19
371.802	82.19
372.028	70.19
372.254	88.19
372.48	79.19
372.706	84.19
372.932	97.19
373.158	77.19
373.384	83.19
373.61	73.19
373.835	92.19
374.061	76.19
374.287	77.19
374.513	85.19
374.739	87.19
374.965	78.19
375.191	81.19
375.416	72.19
375.642	87.19
375.868	95.19
376.094	76.19
376.319	106.19
376.545	80.19
376.771	74.19
376.997	96.19
377.222	87.19
377.448	99.19
377.674	81.19
377.899	79.19
378.125	77.19
378.35	80.19
378.576	64.19
378.802	88.19
379.027	97.19
379.253	87.19
379.478	79.19
379.704	85.19
379.929	89.19
380.155	80.19
380.38	87.19
380.606	80.19
380.831	74.19
381.057	83.19
381.282	80.19
381.507	99.19
381.733	96.19
381.958	82.19
382.184	72.19
382.409	80.19
382.634	60.19
382.86	84.19
383.085	91.19
383.31	79.19
383.535	82.19
383.761	84.19
383.986	79.19
384.211	89.19
384.436	83.19
384.662	79.19
384.887	63.19
385.112	82.19
385.337	78.19
385.562	82.19
385.787	81.19
386.013	92.19
386.238	86.19
386.463	77.19
386.688	98.19
386.913	94.19
387.138	72.19
387.363	72.19
387.588	79.19
387.813	85.19
388.038	69.19
388.263	86.19
388.488	76.19
388.713	75.19
388.938	80.19
389.163	79.19
389.387	72.19
389.612	82.19
389.837	85.19
390.062	66.19
390.287	81.19
390.512	76.19
390.736	90.19
390.961	85.19
391.186	89.19
391.411	80.19
391.636	77.19
391.86	76.19
392.085	81.19
392.31	95.19
392.534	68.19
392.759	85.19
392.984	98.19
393.208	94.19
393.433	86.19
393.658	87.19
393.882	83.19
394.107	72.19
394.331	86.19
394.556	84.19
394.78	80.19
395.005	83.19
395.229	87.19
395.454	78.19
395.678	72.19
395.903	81.19
396.127	71.19
396.352	82.19
396.576	73.19
396.801	74.19
397.025	79.19
397.249	84.19
397.474	90.19
397.698	79.19
397.922	86.19
398.147	89.19
398.371	66.19
398.595	85.19
398.82	82.19
399.044	97.19
399.268	83.19
399.492	84.19
399.717	78.19
399.941	83.19
400.165	88.19
400.389	77.19
400.613	95.19
400.837	82.19
401.062	67.19
401.286	82.19
401.51	95.19
401.734	88.19
401.958	80.19
402.182	79.19
402.406	75.19
402.63	84.19
402.854	85.19
403.078	94.19
403.302	87.19
403.526	90.19
403.75	91.19
403.974	84.19
404.198	86.19
404.422	87.19
404.645	83.19
404.869	85.19
405.093	91.19
405.317	92.19
405.541	91.19
405.765	77.19
405.988	86.19
406.212	82.19
406.436	85.19
406.66	82.19
406.883	68.19
407.107	79.19
407.331	72.19
407.555	77.19
407.778	76.19
408.002	67.19
408.226	88.19
408.449	87.19
408.673	72.19
408.896	84.19
409.12	87.19
409.344	86.19
409.567	87.19
409.791	87.19
410.014	91.19
410.238	81.19
410.461	88.19
410.685	72.19
410.908	71.19
411.132	85.19
411.355	79.19
411.578	101.19
411.802	94.19
412.025	78.19
412.249	84.19
412.472	90.19
412.695	62.19
412.919	80.19
413.142	69.19
413.365	89.19
413.589	82.19
413.812	77.19
414.035	93.19
414.258	80.19
414.482	80.19
414.705	89.19
414.928	82.19
415.151	88.19
415.374	80.19
415.597	72.19
415.821	86.19
416.044	84.19
416.267	82.19
416.49	76.19
416.713	72.19
416.936	76.19
417.159	74.19
417.382	80.19
417.605	88.19
417.828	78.19
418.051	95.19
418.274	67.19
418.497	83.19
418.72	71.19
418.943	64.19
419.166	90.19
419.389	87.19
419.611	66.19
419.834	76.19
420.057	75.19
420.28	81.19
420.503	81.19
420.726	86.19
420.948	82.19
421.171	84.19
421.394	77.19
421.617	91.19
421.839	84.19
422.062	86.19
422.285	86.19
422.507	70.19
422.73	82.19
422.953	80.19
423.175	83.19
423.398	80.19
423.621	87.19
423.843	98.19
424.066	80.19
424.288	93.19
424.511	92.19
424.733	94.19
424.956	85.19
425.178	91.19
425.401	75.19
425.623	77.19
425.846	82.19
426.068	89.19
426.291	71.19
426.513	67.19
426.735	95.19
426.958	71.19
427.18	74.19
427.402	94.19
427.625	75.19
427.847	84.19
428.069	90.19
428.292	91.19
428.514	73.19
428.736	82.19
428.958	67.19
429.181	77.19
429.403	79.19
429.625	86.19
429.847	87.19
430.069	96.19
430.292	80.19
430.514	87.19
430.736	92.19
430.958	82.19
431.18	71.19
431.402	76.19
431.624	82.19
431.846	75.19
432.068	82.19
432.29	71.19
432.512	83.19
432.734	70.19
432.956	83.19
433.178	79.19
433.4	84.19
433.622	84.19
433.844	81.19
434.066	80.19
434.287	86.19
434.509	74.19
434.731	82.19
434.953	83.19
435.175	90.19
435.397	87.19
435.618	77.19
435.84	83.19
436.062	73.19
436.284	85.19
436.505	76.19
436.727	86.19
436.949	74.19
437.17	82.19
437.392	83.19
437.614	74.19
437.835	86.19
438.057	107.19
438.278	78.19
438.5	78.19
438.721	79.19
438.943	81.19
439.165	77.19
439.386	66.19
439.608	86.19
439.829	87.19
440.05	94.19
440.272	82.19
440.493	70.19
440.715	80.19
440.936	82.19
441.158	85.19
441.379	81.19
441.6	87.19
441.822	85.19
442.043	77.19
442.264	70.19
442.486	89.19
442.707	80.19
442.928	85.19
443.149	76.19
443.371	72.19
443.592	64.19
443.813	92.19
444.034	97.19
444.255	99.19
444.476	73.19
444.698	79.19
444.919	73.19
445.14	163.19
445.361	119.19
445.582	81.19
445.803	81.19
446.024	91.19
446.245	83.19
446.466	85.19
446.687	75.19
446.908	78.19
447.129	79.19
447.35	83.19
447.571	78.19
447.792	70.19
448.013	73.19
448.234	90.19
448.455	79.19
448.675	85.19
448.896	69.19
449.117	83.19
449.338	93.19
449.559	91.19
449.779	87.19
450	75.19
450.221	76.19
450.442	84.19
450.662	87.19
450.883	79.19
451.104	89.19
451.324	82.19
451.545	84.19
451.766	81.19
451.986	78.19
452.207	84.19
452.428	82.19
452.648	83.19
452.869	81.19
453.089	78.19
453.31	78.19
453.53	91.19
453.751	88.19
453.971	92.19
454.192	67.19
454.412	81.19
454.633	83.19
454.853	79.19
455.073	78.19
455.294	81.19
455.514	103.19
455.734	75.19
455.955	70.19
456.175	82.19
456.395	88.19
456.616	95.19
456.836	78.19
457.056	75.19
457.276	94.19
457.497	82.19
457.717	82.19
457.937	88.19
458.157	75.19
458.377	67.19
458.598	82.19
458.818	79.19
459.038	83.19
459.258	91.19
459.478	88.19
459.698	84.19
459.918	82.19
460.138	83.19
460.358	77.19
460.578	81.19
460.798	81.19
461.018	90.19
461.238	86.19
461.458	86.19
461.678	63.19
461.898	92.19
462.118	68.19
462.338	88.19
462.558	79.19
462.777	89.19
462.997	78.19
463.217	80.19
463.437	86.19
463.657	67.19
463.876	76.19
464.096	87.19
464.316	67.19
464.536	95.19
464.755	83.19
464.975	73.19
465.195	76.19
465.414	84.19
465.634	85.19
465.854	71.19
466.073	82.19
466.293	72.19
466.512	81.19
466.732	76.19
466.951	80.19
467.171	82.19
467.391	73.19
467.61	70.19
467.829	83.19
468.049	64.19
468.268	87.19
468.488	89.19
468.707	83.19
468.927	84.19
469.146	91.19
469.365	90.19
469.585	76.19
469.804	84.19
470.023	75.19
470.243	85.19
470.462	78.19
470.681	71.19
470.901	73.19
471.12	78.19
471.339	71.19
471.558	83.19
471.777	82.19
471.997	89.19
472.216	80.19
472.435	76.19
472.654	84.19
472.873	93.19
473.092	90.19
473.311	89.19
473.53	87.19
473.749	91.19
473.968	78.19
474.187	86.19
474.406	93.19
474.625	80.19
474.844	74.19
475.063	88.19
475.282	90.19
475.501	90.19
475.72	88.19
475.939	91.19
476.158	85.19
476.377	84.19
476.596	91.19
476.814	65.19
477.033	91.19
477.252	78.19
477.471	78.19
477.69	84.19
477.908	82.19
478.127	72.19
478.346	84.19
478.564	85.19
478.783	82.19
479.002	60.19
479.22	67.19
479.439	78.19
479.658	90.19
479.876	93.19
480.095	85.19
480.313	72.19
480.532	88.19
480.751	84.19
480.969	77.19
481.188	78.19
481.406	86.19
481.624	68.19
481.843	73.19
482.061	66.19
482.28	82.19
482.498	78.19
482.717	71.19
482.935	89.19
483.153	87.19
483.372	91.19
483.59	84.19
483.808	81.19
484.027	71.19
484.245	78.19
484.463	76.19
484.681	90.19
484.9	91.19
485.118	89.19
485.336	81.19
485.554	82.19
485.772	100.19
485.99	69.19
486.209	84.19
486.427	86.19
486.645	84.19
486.863	90.19
487.081	66.19
487.299	81.19
487.517	86.19
487.735	75.19
487.953	92.19
488.171	77.19
488.389	83.19
488.607	70.19
488.825	85.19
489.043	88.19
489.261	85.19
489.479	94.19
489.696	98.19
489.914	85.19
490.132	86.19
490.35	68.19
490.568	73.19
490.786	77.19
491.003	76.19
491.221	80.19
491.439	79.19
491.657	74.19
491.874	87.19
492.092	77.19
492.31	87.19
492.527	84.19
492.745	99.19
492.963	90.19
493.18	79.19
493.398	85.19
493.615	89.19
493.833	66.19
494.05	71.19
494.268	100.19
494.485	79.19
494.703	65.19
494.92	73.19
495.138	78.19
495.355	78.19
495.573	102.19
495.79	85.19
496.008	83.19
496.225	82.19
496.442	85.19
496.66	95.19
496.877	78.19
497.094	84.19
497.312	92.19
497.529	93.19
497.746	87.19
497.963	92.19
498.181	75.19
498.398	90.19
498.615	89.19
498.832	80.19
499.049	92.19
499.267	102.19
499.484	82.19
499.701	82.19
499.918	79.19
500.135	78.19
500.352	75.19
500.569	69.19
500.786	68.19
501.003	79.19
501.22	83.19
501.437	85.19
501.654	87.19
501.871	88.19
502.088	62.19
502.305	77.19
502.522	83.19
502.739	97.19
502.956	79.19
503.172	82.19
503.389	97.19
503.606	89.19
503.823	96.19
504.04	76.19
504.256	82.19
504.473	83.19
504.69	86.19
504.907	98.19
505.123	96.19
505.34	81.19
505.557	87.19
505.773	83.19
505.99	82.19
506.207	108.19
506.423	98.19
506.64	83.19
506.856	81.19
507.073	83.19
507.289	89.19
507.506	77.19
507.722	93.19
507.939	78.19
508.155	82.19
508.372	85.19
508.588	84.19
508.805	93.19
509.021	77.19
509.238	83.19
509.454	78.19
509.67	85.19
509.887	78.19
510.103	86.19
510.319	77.19
510.536	79.19
510.752	64.19
510.968	86.19
511.184	92.19
511.401	74.19
511.617	88.19
511.833	87.19
512.049	70.19
512.265	73.19
512.481	94.19
512.698	93.19
512.914	88.19
513.13	84.19
513.346	75.19
513.562	84.19
513.778	88.19
513.994	85.19
514.21	80.19
514.426	91.19
514.642	85.19
514.858	87.19
515.074	86.19
515.29	102.19
515.506	86.19
515.721	74.19
515.937	87.19
516.153	93.19
516.369	79.19
516.585	65.19
516.801	86.19
517.016	79.19
517.232	86.19
517.448	69.19
517.664	83.19
517.879	80.19
518.095	77.19
518.311	86.19
518.527	72.19
518.742	87.19
518.958	84.19
519.173	89.19
519.389	82.19
519.605	80.19
519.82	76.19
