Data from Background_3_HRD10591_00075.txt Node
Date: Wed Nov 05 14:49:57 EST 2025
User: Yrep
Spectrometer: HR+D1059
Trigger mode: 1
Integration Time (sec): 1.000000E-1
Scans to average: 1
Electric dark correction enabled: true
Nonlinearity correction enabled: false
Boxcar width: 0
XAxis mode: Wavelengths
Number of Pixels in Spectrum: 2048
>>>>>Begin Spectral Data<<<<<
223.165	-25.44
223.4	-25.44
223.635	-25.44
223.869	-16.44
224.104	-19.44
224.338	-11.44
224.573	-25.44
224.808	-3.44
225.042	-12.44
225.277	1.56
225.511	-2.44
225.746	14.56
225.98	3.56
226.215	15.56
226.449	9.56
226.683	24.56
226.918	7.56
227.152	39.56
227.387	30.56
227.621	50.56
227.856	48.56
228.09	43.56
228.324	54.56
228.559	57.56
228.793	48.56
229.027	72.56
229.262	61.56
229.496	58.56
229.73	63.56
229.964	85.56
230.199	70.56
230.433	65.56
230.667	65.56
230.901	82.56
231.136	72.56
231.37	89.56
231.604	85.56
231.838	77.56
232.072	74.56
232.306	70.56
232.541	76.56
232.775	87.56
233.009	91.56
233.243	82.56
233.477	86.56
233.711	75.56
233.945	79.56
234.179	74.56
234.413	89.56
234.647	99.56
234.881	75.56
235.115	61.56
235.349	71.56
235.583	78.56
235.817	72.56
236.051	83.56
236.285	66.56
236.519	79.56
236.753	67.56
236.987	66.56
237.221	74.56
237.455	67.56
237.689	73.56
237.922	69.56
238.156	68.56
238.39	79.56
238.624	70.56
238.858	83.56
239.091	86.56
239.325	73.56
239.559	84.56
239.793	80.56
240.027	71.56
240.26	67.56
240.494	68.56
240.728	79.56
240.961	72.56
241.195	80.56
241.429	78.56
241.662	74.56
241.896	81.56
242.13	82.56
242.363	75.56
242.597	77.56
242.83	78.56
243.064	66.56
243.298	80.56
243.531	76.56
243.765	58.56
243.998	75.56
244.232	76.56
244.465	72.56
244.699	62.56
244.932	77.56
245.166	65.56
245.399	65.56
245.633	72.56
245.866	85.56
246.099	72.56
246.333	90.56
246.566	61.56
246.8	68.56
247.033	69.56
247.266	67.56
247.5	83.56
247.733	82.56
247.966	81.56
248.2	84.56
248.433	76.56
248.666	74.56
248.899	69.56
249.133	70.56
249.366	92.56
249.599	82.56
249.832	89.56
250.066	77.56
250.299	74.56
250.532	76.56
250.765	85.56
250.998	76.56
251.231	73.56
251.465	75.56
251.698	83.56
251.931	81.56
252.164	97.56
252.397	61.56
252.63	89.56
252.863	94.56
253.096	81.56
253.329	84.56
253.562	73.56
253.795	90.56
254.028	81.56
254.261	70.56
254.494	89.56
254.727	89.56
254.96	81.56
255.193	75.56
255.426	84.56
255.659	85.56
255.892	86.56
256.124	82.56
256.357	76.56
256.59	77.56
256.823	86.56
257.056	76.56
257.289	77.56
257.521	76.56
257.754	82.56
257.987	78.56
258.22	77.56
258.452	77.56
258.685	69.56
258.918	89.56
259.151	81.56
259.383	73.56
259.616	88.56
259.849	77.56
260.081	71.56
260.314	84.56
260.547	86.56
260.779	90.56
261.012	74.56
261.244	82.56
261.477	86.56
261.71	66.56
261.942	71.56
262.175	81.56
262.407	65.56
262.64	74.56
262.872	97.56
263.105	88.56
263.337	82.56
263.57	81.56
263.802	79.56
264.035	80.56
264.267	89.56
264.499	88.56
264.732	83.56
264.964	68.56
265.197	78.56
265.429	84.56
265.661	101.56
265.894	81.56
266.126	97.56
266.358	70.56
266.591	82.56
266.823	81.56
267.055	81.56
267.287	98.56
267.52	81.56
267.752	85.56
267.984	95.56
268.216	89.56
268.448	84.56
268.681	79.56
268.913	78.56
269.145	93.56
269.377	79.56
269.609	70.56
269.841	91.56
270.073	81.56
270.306	83.56
270.538	83.56
270.77	74.56
271.002	78.56
271.234	80.56
271.466	85.56
271.698	83.56
271.93	84.56
272.162	87.56
272.394	86.56
272.626	92.56
272.858	94.56
273.09	84.56
273.322	91.56
273.553	84.56
273.785	77.56
274.017	82.56
274.249	81.56
274.481	89.56
274.713	75.56
274.945	82.56
275.176	78.56
275.408	90.56
275.64	85.56
275.872	77.56
276.104	105.56
276.335	99.56
276.567	80.56
276.799	73.56
277.031	70.56
277.262	86.56
277.494	75.56
277.726	71.56
277.957	87.56
278.189	80.56
278.421	82.56
278.652	76.56
278.884	86.56
279.115	73.56
279.347	83.56
279.579	71.56
279.81	77.56
280.042	93.56
280.273	81.56
280.505	89.56
280.736	87.56
280.968	86.56
281.199	81.56
281.431	74.56
281.662	73.56
281.894	98.56
282.125	79.56
282.356	87.56
282.588	72.56
282.819	80.56
283.051	77.56
283.282	79.56
283.513	85.56
283.745	75.56
283.976	95.56
284.207	89.56
284.439	78.56
284.67	84.56
284.901	94.56
285.132	95.56
285.364	92.56
285.595	78.56
285.826	86.56
286.057	90.56
286.288	95.56
286.52	96.56
286.751	78.56
286.982	81.56
287.213	81.56
287.444	86.56
287.675	85.56
287.906	85.56
288.138	91.56
288.369	100.56
288.6	93.56
288.831	77.56
289.062	85.56
289.293	87.56
289.524	94.56
289.755	85.56
289.986	88.56
290.217	86.56
290.448	79.56
290.679	69.56
290.91	82.56
291.141	85.56
291.371	98.56
291.602	86.56
291.833	89.56
292.064	81.56
292.295	92.56
292.526	89.56
292.757	82.56
292.987	82.56
293.218	86.56
293.449	76.56
293.68	87.56
293.91	90.56
294.141	81.56
294.372	94.56
294.603	111.56
294.833	61.56
295.064	68.56
295.295	74.56
295.525	86.56
295.756	92.56
295.987	98.56
296.217	86.56
296.448	91.56
296.679	76.56
296.909	81.56
297.14	89.56
297.37	80.56
297.601	83.56
297.831	82.56
298.062	85.56
298.292	84.56
298.523	88.56
298.753	68.56
298.984	78.56
299.214	77.56
299.445	72.56
299.675	87.56
299.905	86.56
300.136	91.56
300.366	69.56
300.597	90.56
300.827	84.56
301.057	98.56
301.288	105.56
301.518	86.56
301.748	90.56
301.979	88.56
302.209	83.56
302.439	87.56
302.669	84.56
302.9	82.56
303.13	91.56
303.36	81.56
303.59	88.56
303.82	87.56
304.051	81.56
304.281	86.56
304.511	98.56
304.741	93.56
304.971	80.56
305.201	89.56
305.431	89.56
305.661	80.56
305.891	76.56
306.121	81.56
306.352	84.56
306.582	84.56
306.812	89.56
307.042	80.56
307.272	91.56
307.502	85.56
307.731	78.56
307.961	90.56
308.191	97.56
308.421	94.56
308.651	94.56
308.881	98.56
309.111	85.56
309.341	77.56
309.571	78.56
309.8	83.56
310.03	77.56
310.26	83.56
310.49	96.56
310.72	81.56
310.949	78.56
311.179	83.56
311.409	83.56
311.639	82.56
311.868	87.56
312.098	90.56
312.328	85.56
312.557	72.56
312.787	81.56
313.017	85.56
313.246	86.56
313.476	97.56
313.706	91.56
313.935	88.56
314.165	93.56
314.394	103.56
314.624	86.56
314.853	84.56
315.083	79.56
315.312	74.56
315.542	85.56
315.771	78.56
316.001	83.56
316.23	85.56
316.46	91.56
316.689	95.56
316.919	89.56
317.148	87.56
317.377	93.56
317.607	88.56
317.836	72.56
318.065	82.56
318.295	79.56
318.524	105.56
318.753	93.56
318.983	89.56
319.212	98.56
319.441	98.56
319.67	82.56
319.9	81.56
320.129	90.56
320.358	95.56
320.587	85.56
320.816	86.56
321.046	88.56
321.275	96.56
321.504	80.56
321.733	69.56
321.962	88.56
322.191	85.56
322.42	92.56
322.649	72.56
322.878	85.56
323.108	97.56
323.337	99.56
323.566	96.56
323.795	76.56
324.024	83.56
324.253	74.56
324.482	73.56
324.71	83.56
324.939	90.56
325.168	77.56
325.397	78.56
325.626	73.56
325.855	91.56
326.084	79.56
326.313	82.56
326.542	86.56
326.77	79.56
326.999	92.56
327.228	98.56
327.457	85.56
327.686	82.56
327.914	61.56
328.143	85.56
328.372	103.56
328.6	86.56
328.829	84.56
329.058	83.56
329.287	75.56
329.515	93.56
329.744	101.56
329.972	75.56
330.201	85.56
330.43	78.56
330.658	95.56
330.887	89.56
331.115	77.56
331.344	79.56
331.572	73.56
331.801	83.56
332.03	69.56
332.258	82.56
332.486	67.56
332.715	86.56
332.943	93.56
333.172	87.56
333.4	83.56
333.629	85.56
333.857	78.56
334.085	77.56
334.314	81.56
334.542	91.56
334.771	71.56
334.999	86.56
335.227	75.56
335.455	79.56
335.684	102.56
335.912	82.56
336.14	79.56
336.369	87.56
336.597	80.56
336.825	73.56
337.053	83.56
337.281	84.56
337.51	78.56
337.738	85.56
337.966	86.56
338.194	79.56
338.422	90.56
338.65	89.56
338.878	79.56
339.106	81.56
339.334	93.56
339.562	87.56
339.79	89.56
340.018	72.56
340.246	78.56
340.474	85.56
340.702	67.56
340.93	85.56
341.158	89.56
341.386	89.56
341.614	96.56
341.842	71.56
342.07	88.56
342.298	80.56
342.526	70.56
342.754	85.56
342.981	76.56
343.209	88.56
343.437	91.56
343.665	91.56
343.893	79.56
344.12	92.56
344.348	89.56
344.576	78.56
344.804	71.56
345.031	71.56
345.259	77.56
345.487	94.56
345.714	83.56
345.942	91.56
346.17	97.56
346.397	81.56
346.625	74.56
346.853	84.56
347.08	82.56
347.308	81.56
347.535	86.56
347.763	89.56
347.99	101.56
348.218	95.56
348.445	73.56
348.673	88.56
348.9	77.56
349.128	78.56
349.355	78.56
349.583	83.56
349.81	77.56
350.037	90.56
350.265	88.56
350.492	74.56
350.72	81.56
350.947	88.56
351.174	84.56
351.402	65.56
351.629	77.56
351.856	74.56
352.083	87.56
352.311	86.56
352.538	90.56
352.765	99.56
352.992	83.56
353.22	85.56
353.447	94.56
353.674	90.56
353.901	90.56
354.128	74.56
354.355	86.56
354.583	105.56
354.81	81.56
355.037	88.56
355.264	75.56
355.491	77.56
355.718	79.56
355.945	94.56
356.172	74.56
356.399	86.56
356.626	80.56
356.853	83.56
357.08	72.56
357.307	85.56
357.534	80.56
357.761	100.56
357.988	102.56
358.215	93.56
358.441	75.56
358.668	95.56
358.895	85.56
359.122	75.56
359.349	82.56
359.576	90.56
359.802	90.56
360.029	81.56
360.256	92.56
360.483	91.56
360.709	87.56
360.936	82.56
361.163	83.56
361.39	80.56
361.616	78.56
361.843	103.56
362.07	84.56
362.296	81.56
362.523	87.56
362.749	77.56
362.976	71.56
363.203	72.56
363.429	85.56
363.656	82.56
363.882	89.56
364.109	90.56
364.335	85.56
364.562	85.56
364.788	88.56
365.015	82.56
365.241	81.56
365.468	93.56
365.694	77.56
365.92	72.56
366.147	70.56
366.373	80.56
366.599	92.56
366.826	91.56
367.052	80.56
367.278	78.56
367.505	78.56
367.731	80.56
367.957	88.56
368.184	84.56
368.41	85.56
368.636	80.56
368.862	84.56
369.089	82.56
369.315	83.56
369.541	87.56
369.767	79.56
369.993	91.56
370.219	87.56
370.445	80.56
370.672	86.56
370.898	71.56
371.124	71.56
371.35	81.56
371.576	85.56
371.802	91.56
372.028	93.56
372.254	80.56
372.48	82.56
372.706	84.56
372.932	86.56
373.158	76.56
373.384	75.56
373.61	84.56
373.835	88.56
374.061	85.56
374.287	77.56
374.513	91.56
374.739	77.56
374.965	77.56
375.191	74.56
375.416	75.56
375.642	70.56
375.868	82.56
376.094	70.56
376.319	72.56
376.545	75.56
376.771	94.56
376.997	58.56
377.222	92.56
377.448	66.56
377.674	78.56
377.899	89.56
378.125	64.56
378.35	82.56
378.576	82.56
378.802	82.56
379.027	81.56
379.253	83.56
379.478	75.56
379.704	75.56
379.929	64.56
380.155	78.56
380.38	88.56
380.606	69.56
380.831	80.56
381.057	95.56
381.282	83.56
381.507	77.56
381.733	82.56
381.958	83.56
382.184	84.56
382.409	78.56
382.634	72.56
382.86	86.56
383.085	77.56
383.31	69.56
383.535	85.56
383.761	85.56
383.986	84.56
384.211	78.56
384.436	79.56
384.662	83.56
384.887	80.56
385.112	72.56
385.337	92.56
385.562	74.56
385.787	78.56
386.013	69.56
386.238	79.56
386.463	83.56
386.688	99.56
386.913	83.56
387.138	84.56
387.363	89.56
387.588	69.56
387.813	74.56
388.038	75.56
388.263	80.56
388.488	75.56
388.713	69.56
388.938	72.56
389.163	84.56
389.387	85.56
389.612	75.56
389.837	75.56
390.062	95.56
390.287	87.56
390.512	93.56
390.736	77.56
390.961	79.56
391.186	82.56
391.411	84.56
391.636	76.56
391.86	81.56
392.085	84.56
392.31	81.56
392.534	85.56
392.759	79.56
392.984	85.56
393.208	71.56
393.433	89.56
393.658	59.56
393.882	91.56
394.107	77.56
394.331	89.56
394.556	72.56
394.78	78.56
395.005	66.56
395.229	87.56
395.454	84.56
395.678	89.56
395.903	89.56
396.127	82.56
396.352	69.56
396.576	81.56
396.801	72.56
397.025	77.56
397.249	88.56
397.474	80.56
397.698	62.56
397.922	79.56
398.147	74.56
398.371	87.56
398.595	89.56
398.82	87.56
399.044	71.56
399.268	69.56
399.492	67.56
399.717	85.56
399.941	78.56
400.165	89.56
400.389	68.56
400.613	79.56
400.837	74.56
401.062	77.56
401.286	75.56
401.51	77.56
401.734	77.56
401.958	67.56
402.182	89.56
402.406	86.56
402.63	90.56
402.854	75.56
403.078	77.56
403.302	77.56
403.526	75.56
403.75	80.56
403.974	77.56
404.198	78.56
404.422	96.56
404.645	85.56
404.869	86.56
405.093	78.56
405.317	78.56
405.541	72.56
405.765	67.56
405.988	93.56
406.212	78.56
406.436	75.56
406.66	84.56
406.883	82.56
407.107	61.56
407.331	75.56
407.555	71.56
407.778	78.56
408.002	76.56
408.226	67.56
408.449	79.56
408.673	74.56
408.896	72.56
409.12	68.56
409.344	86.56
409.567	75.56
409.791	60.56
410.014	81.56
410.238	73.56
410.461	79.56
410.685	81.56
410.908	65.56
411.132	89.56
411.355	89.56
411.578	90.56
411.802	84.56
412.025	79.56
412.249	75.56
412.472	77.56
412.695	90.56
412.919	83.56
413.142	71.56
413.365	72.56
413.589	74.56
413.812	73.56
414.035	70.56
414.258	85.56
414.482	76.56
414.705	83.56
414.928	87.56
415.151	67.56
415.374	90.56
415.597	70.56
415.821	75.56
416.044	71.56
416.267	93.56
416.49	93.56
416.713	75.56
416.936	82.56
417.159	79.56
417.382	99.56
417.605	92.56
417.828	84.56
418.051	83.56
418.274	83.56
418.497	108.56
418.72	81.56
418.943	86.56
419.166	83.56
419.389	66.56
419.611	88.56
419.834	95.56
420.057	82.56
420.28	80.56
420.503	82.56
420.726	69.56
420.948	81.56
421.171	89.56
421.394	80.56
421.617	70.56
421.839	80.56
422.062	87.56
422.285	79.56
422.507	71.56
422.73	81.56
422.953	85.56
423.175	75.56
423.398	79.56
423.621	72.56
423.843	82.56
424.066	73.56
424.288	87.56
424.511	80.56
424.733	91.56
424.956	90.56
425.178	82.56
425.401	86.56
425.623	76.56
425.846	70.56
426.068	81.56
426.291	91.56
426.513	90.56
426.735	81.56
426.958	81.56
427.18	66.56
427.402	74.56
427.625	77.56
427.847	82.56
428.069	59.56
428.292	84.56
428.514	81.56
428.736	71.56
428.958	69.56
429.181	84.56
429.403	82.56
429.625	69.56
429.847	70.56
430.069	88.56
430.292	76.56
430.514	75.56
430.736	72.56
430.958	70.56
431.18	75.56
431.402	77.56
431.624	74.56
431.846	69.56
432.068	81.56
432.29	99.56
432.512	93.56
432.734	86.56
432.956	81.56
433.178	93.56
433.4	65.56
433.622	86.56
433.844	60.56
434.066	78.56
434.287	77.56
434.509	85.56
434.731	70.56
434.953	81.56
435.175	65.56
435.397	66.56
435.618	87.56
435.84	83.56
436.062	90.56
436.284	81.56
436.505	74.56
436.727	86.56
436.949	64.56
437.17	76.56
437.392	85.56
437.614	69.56
437.835	74.56
438.057	79.56
438.278	69.56
438.5	81.56
438.721	75.56
438.943	76.56
439.165	85.56
439.386	71.56
439.608	80.56
439.829	89.56
440.05	97.56
440.272	78.56
440.493	79.56
440.715	85.56
440.936	74.56
441.158	82.56
441.379	81.56
441.6	82.56
441.822	70.56
442.043	89.56
442.264	91.56
442.486	84.56
442.707	75.56
442.928	66.56
443.149	73.56
443.371	82.56
443.592	81.56
443.813	93.56
444.034	69.56
444.255	70.56
444.476	78.56
444.698	82.56
444.919	77.56
445.14	156.56
445.361	116.56
445.582	83.56
445.803	72.56
446.024	85.56
446.245	77.56
446.466	77.56
446.687	82.56
446.908	74.56
447.129	80.56
447.35	77.56
447.571	77.56
447.792	71.56
448.013	67.56
448.234	86.56
448.455	81.56
448.675	77.56
448.896	69.56
449.117	74.56
449.338	81.56
449.559	84.56
449.779	81.56
450	78.56
450.221	89.56
450.442	90.56
450.662	79.56
450.883	94.56
451.104	73.56
451.324	82.56
451.545	78.56
451.766	85.56
451.986	75.56
452.207	82.56
452.428	70.56
452.648	89.56
452.869	79.56
453.089	89.56
453.31	75.56
453.53	82.56
453.751	66.56
453.971	80.56
454.192	88.56
454.412	72.56
454.633	78.56
454.853	74.56
455.073	64.56
455.294	66.56
455.514	80.56
455.734	80.56
455.955	69.56
456.175	76.56
456.395	83.56
456.616	92.56
456.836	76.56
457.056	93.56
457.276	90.56
457.497	93.56
457.717	84.56
457.937	73.56
458.157	81.56
458.377	84.56
458.598	86.56
458.818	80.56
459.038	75.56
459.258	90.56
459.478	79.56
459.698	83.56
459.918	97.56
460.138	85.56
460.358	66.56
460.578	77.56
460.798	73.56
461.018	69.56
461.238	86.56
461.458	92.56
461.678	77.56
461.898	74.56
462.118	77.56
462.338	85.56
462.558	80.56
462.777	85.56
462.997	86.56
463.217	70.56
463.437	78.56
463.657	83.56
463.876	81.56
464.096	82.56
464.316	81.56
464.536	74.56
464.755	89.56
464.975	78.56
465.195	90.56
465.414	90.56
465.634	93.56
465.854	84.56
466.073	85.56
466.293	79.56
466.512	96.56
466.732	93.56
466.951	90.56
467.171	95.56
467.391	81.56
467.61	83.56
467.829	82.56
468.049	91.56
468.268	72.56
468.488	77.56
468.707	99.56
468.927	82.56
469.146	91.56
469.365	82.56
469.585	57.56
469.804	80.56
470.023	78.56
470.243	78.56
470.462	87.56
470.681	94.56
470.901	84.56
471.12	90.56
471.339	86.56
471.558	84.56
471.777	91.56
471.997	90.56
472.216	101.56
472.435	90.56
472.654	98.56
472.873	99.56
473.092	91.56
473.311	71.56
473.53	64.56
473.749	83.56
473.968	81.56
474.187	78.56
474.406	78.56
474.625	92.56
474.844	71.56
475.063	85.56
475.282	74.56
475.501	75.56
475.72	83.56
475.939	77.56
476.158	75.56
476.377	89.56
476.596	81.56
476.814	89.56
477.033	72.56
477.252	90.56
477.471	72.56
477.69	98.56
477.908	77.56
478.127	75.56
478.346	88.56
478.564	79.56
478.783	67.56
479.002	73.56
479.22	71.56
479.439	89.56
479.658	87.56
479.876	70.56
480.095	76.56
480.313	73.56
480.532	67.56
480.751	86.56
480.969	74.56
481.188	80.56
481.406	84.56
481.624	66.56
481.843	64.56
482.061	75.56
482.28	98.56
482.498	82.56
482.717	73.56
482.935	82.56
483.153	88.56
483.372	56.56
483.59	78.56
483.808	79.56
484.027	78.56
484.245	77.56
484.463	86.56
484.681	90.56
484.9	64.56
485.118	81.56
485.336	74.56
485.554	81.56
485.772	79.56
485.99	73.56
486.209	97.56
486.427	92.56
486.645	73.56
486.863	75.56
487.081	69.56
487.299	66.56
487.517	76.56
487.735	79.56
487.953	93.56
488.171	76.56
488.389	88.56
488.607	87.56
488.825	70.56
489.043	74.56
489.261	78.56
489.479	82.56
489.696	74.56
489.914	75.56
490.132	77.56
490.35	83.56
490.568	82.56
490.786	83.56
491.003	74.56
491.221	86.56
491.439	91.56
491.657	89.56
491.874	90.56
492.092	86.56
492.31	77.56
492.527	92.56
492.745	81.56
492.963	75.56
493.18	71.56
493.398	87.56
493.615	85.56
493.833	77.56
494.05	73.56
494.268	93.56
494.485	83.56
494.703	86.56
494.92	83.56
495.138	74.56
495.355	84.56
495.573	87.56
495.79	79.56
496.008	76.56
496.225	84.56
496.442	78.56
496.66	90.56
496.877	78.56
497.094	76.56
497.312	72.56
497.529	85.56
497.746	91.56
497.963	74.56
498.181	86.56
498.398	89.56
498.615	95.56
498.832	78.56
499.049	90.56
499.267	82.56
499.484	75.56
499.701	78.56
499.918	84.56
500.135	84.56
500.352	88.56
500.569	70.56
500.786	77.56
501.003	84.56
501.22	80.56
501.437	84.56
501.654	85.56
501.871	81.56
502.088	72.56
502.305	78.56
502.522	88.56
502.739	75.56
502.956	78.56
503.172	94.56
503.389	71.56
503.606	93.56
503.823	82.56
504.04	89.56
504.256	92.56
504.473	83.56
504.69	75.56
504.907	70.56
505.123	75.56
505.34	87.56
505.557	95.56
505.773	76.56
505.99	81.56
506.207	81.56
506.423	65.56
506.64	97.56
506.856	78.56
507.073	82.56
507.289	88.56
507.506	84.56
507.722	80.56
507.939	77.56
508.155	83.56
508.372	71.56
508.588	64.56
508.805	82.56
509.021	94.56
509.238	93.56
509.454	73.56
509.67	76.56
509.887	85.56
510.103	89.56
510.319	83.56
510.536	79.56
510.752	77.56
510.968	83.56
511.184	83.56
511.401	76.56
511.617	85.56
511.833	71.56
512.049	93.56
512.265	79.56
512.481	92.56
512.698	74.56
512.914	77.56
513.13	79.56
513.346	69.56
513.562	88.56
513.778	76.56
513.994	69.56
514.21	77.56
514.426	85.56
514.642	79.56
514.858	81.56
515.074	95.56
515.29	86.56
515.506	89.56
515.721	77.56
515.937	85.56
516.153	76.56
516.369	79.56
516.585	82.56
516.801	79.56
517.016	76.56
517.232	70.56
517.448	84.56
517.664	89.56
517.879	77.56
518.095	83.56
518.311	80.56
518.527	89.56
518.742	74.56
518.958	77.56
519.173	69.56
519.389	93.56
519.605	75.56
519.82	81.56
520.036	81.56
