Data from Background_3_HRD10591_00006.txt Node
Date: Wed Nov 05 14:49:23 EST 2025
User: Yrep
Spectrometer: HR+D1059
Trigger mode: 1
Integration Time (sec): 1.000000E-1
Scans to average: 1
Electric dark correction enabled: true
Nonlinearity correction enabled: false
Boxcar width: 0
XAxis mode: Wavelengths
Number of Pixels in Spectrum: 2048
>>>>>Begin Spectral Data<<<<<
223.165	-27.5
223.4	-27.5
223.635	-27.5
223.869	-30.5
224.104	-28.5
224.338	-19.5
224.573	-14.5
224.808	-13.5
225.042	-5.5
225.277	-11.5
225.511	4.5
225.746	5.5
225.98	0.5
226.215	17.5
226.449	12.5
226.683	32.5
226.918	35.5
227.152	42.5
227.387	31.5
227.621	47.5
227.856	46.5
228.09	44.5
228.324	48.5
228.559	54.5
228.793	67.5
229.027	63.5
229.262	65.5
229.496	59.5
229.73	73.5
229.964	81.5
230.199	68.5
230.433	72.5
230.667	78.5
230.901	77.5
231.136	73.5
231.37	75.5
231.604	64.5
231.838	74.5
232.072	76.5
232.306	80.5
232.541	81.5
232.775	93.5
233.009	88.5
233.243	91.5
233.477	82.5
233.711	90.5
233.945	71.5
234.179	86.5
234.413	68.5
234.647	85.5
234.881	76.5
235.115	74.5
235.349	85.5
235.583	86.5
235.817	65.5
236.051	85.5
236.285	86.5
236.519	86.5
236.753	78.5
236.987	78.5
237.221	74.5
237.455	59.5
237.689	88.5
237.922	71.5
238.156	92.5
238.39	78.5
238.624	84.5
238.858	89.5
239.091	74.5
239.325	71.5
239.559	81.5
239.793	79.5
240.027	78.5
240.26	83.5
240.494	70.5
240.728	82.5
240.961	79.5
241.195	70.5
241.429	63.5
241.662	73.5
241.896	76.5
242.13	72.5
242.363	78.5
242.597	74.5
242.83	77.5
243.064	83.5
243.298	86.5
243.531	90.5
243.765	81.5
243.998	73.5
244.232	74.5
244.465	74.5
244.699	82.5
244.932	75.5
245.166	74.5
245.399	75.5
245.633	80.5
245.866	76.5
246.099	79.5
246.333	66.5
246.566	81.5
246.8	70.5
247.033	87.5
247.266	72.5
247.5	58.5
247.733	69.5
247.966	79.5
248.2	83.5
248.433	70.5
248.666	76.5
248.899	75.5
249.133	72.5
249.366	85.5
249.599	88.5
249.832	89.5
250.066	81.5
250.299	76.5
250.532	84.5
250.765	87.5
250.998	76.5
251.231	69.5
251.465	90.5
251.698	79.5
251.931	74.5
252.164	77.5
252.397	74.5
252.63	84.5
252.863	78.5
253.096	80.5
253.329	85.5
253.562	77.5
253.795	86.5
254.028	89.5
254.261	81.5
254.494	63.5
254.727	69.5
254.96	70.5
255.193	76.5
255.426	81.5
255.659	78.5
255.892	85.5
256.124	82.5
256.357	79.5
256.59	88.5
256.823	89.5
257.056	77.5
257.289	85.5
257.521	86.5
257.754	76.5
257.987	86.5
258.22	91.5
258.452	76.5
258.685	74.5
258.918	77.5
259.151	84.5
259.383	84.5
259.616	91.5
259.849	74.5
260.081	96.5
260.314	85.5
260.547	70.5
260.779	69.5
261.012	89.5
261.244	79.5
261.477	82.5
261.71	79.5
261.942	81.5
262.175	77.5
262.407	66.5
262.64	78.5
262.872	87.5
263.105	82.5
263.337	89.5
263.57	80.5
263.802	86.5
264.035	79.5
264.267	82.5
264.499	90.5
264.732	85.5
264.964	80.5
265.197	90.5
265.429	78.5
265.661	91.5
265.894	89.5
266.126	78.5
266.358	92.5
266.591	82.5
266.823	81.5
267.055	86.5
267.287	83.5
267.52	87.5
267.752	89.5
267.984	86.5
268.216	78.5
268.448	96.5
268.681	84.5
268.913	91.5
269.145	83.5
269.377	69.5
269.609	84.5
269.841	72.5
270.073	70.5
270.306	69.5
270.538	94.5
270.77	87.5
271.002	83.5
271.234	81.5
271.466	90.5
271.698	80.5
271.93	83.5
272.162	90.5
272.394	92.5
272.626	75.5
272.858	69.5
273.09	84.5
273.322	64.5
273.553	67.5
273.785	85.5
274.017	86.5
274.249	71.5
274.481	80.5
274.713	88.5
274.945	82.5
275.176	78.5
275.408	91.5
275.64	90.5
275.872	88.5
276.104	77.5
276.335	76.5
276.567	93.5
276.799	80.5
277.031	66.5
277.262	77.5
277.494	77.5
277.726	83.5
277.957	75.5
278.189	84.5
278.421	87.5
278.652	89.5
278.884	75.5
279.115	80.5
279.347	79.5
279.579	79.5
279.81	83.5
280.042	72.5
280.273	81.5
280.505	90.5
280.736	88.5
280.968	85.5
281.199	81.5
281.431	77.5
281.662	85.5
281.894	70.5
282.125	79.5
282.356	88.5
282.588	85.5
282.819	77.5
283.051	85.5
283.282	90.5
283.513	85.5
283.745	88.5
283.976	84.5
284.207	82.5
284.439	76.5
284.67	91.5
284.901	81.5
285.132	81.5
285.364	92.5
285.595	83.5
285.826	91.5
286.057	79.5
286.288	72.5
286.52	83.5
286.751	82.5
286.982	70.5
287.213	87.5
287.444	87.5
287.675	96.5
287.906	104.5
288.138	90.5
288.369	71.5
288.6	81.5
288.831	101.5
289.062	95.5
289.293	98.5
289.524	99.5
289.755	88.5
289.986	76.5
290.217	81.5
290.448	69.5
290.679	81.5
290.91	86.5
291.141	86.5
291.371	77.5
291.602	93.5
291.833	79.5
292.064	82.5
292.295	88.5
292.526	86.5
292.757	78.5
292.987	84.5
293.218	84.5
293.449	78.5
293.68	93.5
293.91	82.5
294.141	90.5
294.372	91.5
294.603	97.5
294.833	95.5
295.064	87.5
295.295	81.5
295.525	88.5
295.756	76.5
295.987	76.5
296.217	82.5
296.448	90.5
296.679	85.5
296.909	90.5
297.14	85.5
297.37	79.5
297.601	84.5
297.831	77.5
298.062	80.5
298.292	95.5
298.523	96.5
298.753	74.5
298.984	93.5
299.214	77.5
299.445	95.5
299.675	99.5
299.905	82.5
300.136	76.5
300.366	81.5
300.597	83.5
300.827	88.5
301.057	78.5
301.288	84.5
301.518	88.5
301.748	95.5
301.979	99.5
302.209	92.5
302.439	85.5
302.669	92.5
302.9	82.5
303.13	99.5
303.36	83.5
303.59	86.5
303.82	91.5
304.051	90.5
304.281	83.5
304.511	94.5
304.741	82.5
304.971	82.5
305.201	93.5
305.431	86.5
305.661	89.5
305.891	89.5
306.121	91.5
306.352	89.5
306.582	92.5
306.812	94.5
307.042	80.5
307.272	89.5
307.502	84.5
307.731	84.5
307.961	88.5
308.191	77.5
308.421	71.5
308.651	75.5
308.881	88.5
309.111	88.5
309.341	80.5
309.571	81.5
309.8	88.5
310.03	93.5
310.26	77.5
310.49	80.5
310.72	82.5
310.949	91.5
311.179	86.5
311.409	87.5
311.639	77.5
311.868	83.5
312.098	89.5
312.328	98.5
312.557	85.5
312.787	78.5
313.017	83.5
313.246	72.5
313.476	66.5
313.706	89.5
313.935	83.5
314.165	84.5
314.394	86.5
314.624	85.5
314.853	81.5
315.083	76.5
315.312	84.5
315.542	83.5
315.771	82.5
316.001	79.5
316.23	83.5
316.46	85.5
316.689	74.5
316.919	77.5
317.148	84.5
317.377	85.5
317.607	73.5
317.836	65.5
318.065	70.5
318.295	82.5
318.524	78.5
318.753	78.5
318.983	86.5
319.212	78.5
319.441	91.5
319.67	84.5
319.9	82.5
320.129	92.5
320.358	92.5
320.587	96.5
320.816	75.5
321.046	80.5
321.275	57.5
321.504	95.5
321.733	85.5
321.962	92.5
322.191	83.5
322.42	85.5
322.649	71.5
322.878	78.5
323.108	85.5
323.337	89.5
323.566	78.5
323.795	96.5
324.024	74.5
324.253	86.5
324.482	94.5
324.71	78.5
324.939	99.5
325.168	88.5
325.397	80.5
325.626	92.5
325.855	80.5
326.084	78.5
326.313	80.5
326.542	72.5
326.77	86.5
326.999	79.5
327.228	73.5
327.457	97.5
327.686	87.5
327.914	89.5
328.143	83.5
328.372	89.5
328.6	80.5
328.829	83.5
329.058	88.5
329.287	92.5
329.515	88.5
329.744	67.5
329.972	90.5
330.201	90.5
330.43	97.5
330.658	83.5
330.887	81.5
331.115	98.5
331.344	83.5
331.572	91.5
331.801	82.5
332.03	79.5
332.258	83.5
332.486	83.5
332.715	93.5
332.943	81.5
333.172	78.5
333.4	94.5
333.629	70.5
333.857	80.5
334.085	74.5
334.314	86.5
334.542	79.5
334.771	71.5
334.999	76.5
335.227	85.5
335.455	80.5
335.684	90.5
335.912	91.5
336.14	93.5
336.369	66.5
336.597	80.5
336.825	91.5
337.053	82.5
337.281	70.5
337.51	89.5
337.738	71.5
337.966	92.5
338.194	83.5
338.422	76.5
338.65	92.5
338.878	93.5
339.106	94.5
339.334	82.5
339.562	76.5
339.79	85.5
340.018	91.5
340.246	79.5
340.474	69.5
340.702	92.5
340.93	83.5
341.158	70.5
341.386	84.5
341.614	77.5
341.842	50.5
342.07	94.5
342.298	78.5
342.526	88.5
342.754	88.5
342.981	95.5
343.209	89.5
343.437	94.5
343.665	86.5
343.893	78.5
344.12	83.5
344.348	82.5
344.576	70.5
344.804	68.5
345.031	61.5
345.259	92.5
345.487	82.5
345.714	88.5
345.942	78.5
346.17	77.5
346.397	86.5
346.625	70.5
346.853	94.5
347.08	83.5
347.308	72.5
347.535	77.5
347.763	80.5
347.99	95.5
348.218	82.5
348.445	77.5
348.673	82.5
348.9	96.5
349.128	94.5
349.355	68.5
349.583	73.5
349.81	93.5
350.037	70.5
350.265	88.5
350.492	78.5
350.72	75.5
350.947	77.5
351.174	106.5
351.402	78.5
351.629	84.5
351.856	92.5
352.083	87.5
352.311	82.5
352.538	77.5
352.765	79.5
352.992	91.5
353.22	86.5
353.447	81.5
353.674	81.5
353.901	79.5
354.128	66.5
354.355	84.5
354.583	88.5
354.81	86.5
355.037	93.5
355.264	81.5
355.491	85.5
355.718	86.5
355.945	78.5
356.172	87.5
356.399	77.5
356.626	80.5
356.853	93.5
357.08	71.5
357.307	82.5
357.534	80.5
357.761	91.5
357.988	101.5
358.215	83.5
358.441	76.5
358.668	96.5
358.895	78.5
359.122	87.5
359.349	78.5
359.576	81.5
359.802	77.5
360.029	88.5
360.256	89.5
360.483	80.5
360.709	93.5
360.936	94.5
361.163	75.5
361.39	69.5
361.616	91.5
361.843	64.5
362.07	59.5
362.296	68.5
362.523	69.5
362.749	87.5
362.976	85.5
363.203	94.5
363.429	85.5
363.656	74.5
363.882	76.5
364.109	86.5
364.335	84.5
364.562	104.5
364.788	76.5
365.015	76.5
365.241	88.5
365.468	85.5
365.694	86.5
365.92	78.5
366.147	95.5
366.373	80.5
366.599	82.5
366.826	81.5
367.052	82.5
367.278	86.5
367.505	84.5
367.731	98.5
367.957	76.5
368.184	70.5
368.41	85.5
368.636	93.5
368.862	92.5
369.089	78.5
369.315	84.5
369.541	92.5
369.767	86.5
369.993	82.5
370.219	87.5
370.445	82.5
370.672	83.5
370.898	83.5
371.124	97.5
371.35	77.5
371.576	90.5
371.802	86.5
372.028	86.5
372.254	86.5
372.48	73.5
372.706	72.5
372.932	81.5
373.158	82.5
373.384	97.5
373.61	80.5
373.835	86.5
374.061	78.5
374.287	84.5
374.513	75.5
374.739	88.5
374.965	82.5
375.191	83.5
375.416	99.5
375.642	78.5
375.868	88.5
376.094	79.5
376.319	90.5
376.545	80.5
376.771	93.5
376.997	85.5
377.222	84.5
377.448	72.5
377.674	81.5
377.899	99.5
378.125	76.5
378.35	85.5
378.576	73.5
378.802	89.5
379.027	76.5
379.253	78.5
379.478	76.5
379.704	71.5
379.929	69.5
380.155	78.5
380.38	101.5
380.606	76.5
380.831	89.5
381.057	104.5
381.282	80.5
381.507	73.5
381.733	90.5
381.958	84.5
382.184	82.5
382.409	80.5
382.634	68.5
382.86	77.5
383.085	76.5
383.31	71.5
383.535	78.5
383.761	84.5
383.986	82.5
384.211	80.5
384.436	81.5
384.662	78.5
384.887	89.5
385.112	78.5
385.337	78.5
385.562	76.5
385.787	79.5
386.013	101.5
386.238	89.5
386.463	73.5
386.688	91.5
386.913	84.5
387.138	82.5
387.363	79.5
387.588	91.5
387.813	80.5
388.038	87.5
388.263	87.5
388.488	83.5
388.713	80.5
388.938	78.5
389.163	85.5
389.387	83.5
389.612	73.5
389.837	78.5
390.062	89.5
390.287	75.5
390.512	84.5
390.736	73.5
390.961	78.5
391.186	86.5
391.411	91.5
391.636	85.5
391.86	88.5
392.085	92.5
392.31	85.5
392.534	97.5
392.759	92.5
392.984	88.5
393.208	80.5
393.433	84.5
393.658	99.5
393.882	83.5
394.107	76.5
394.331	67.5
394.556	73.5
394.78	72.5
395.005	84.5
395.229	84.5
395.454	85.5
395.678	78.5
395.903	84.5
396.127	73.5
396.352	74.5
396.576	82.5
396.801	78.5
397.025	85.5
397.249	89.5
397.474	90.5
397.698	79.5
397.922	90.5
398.147	81.5
398.371	77.5
398.595	83.5
398.82	69.5
399.044	67.5
399.268	76.5
399.492	85.5
399.717	89.5
399.941	78.5
400.165	76.5
400.389	89.5
400.613	84.5
400.837	84.5
401.062	63.5
401.286	79.5
401.51	89.5
401.734	71.5
401.958	74.5
402.182	85.5
402.406	99.5
402.63	90.5
402.854	60.5
403.078	69.5
403.302	57.5
403.526	85.5
403.75	83.5
403.974	89.5
404.198	97.5
404.422	86.5
404.645	75.5
404.869	82.5
405.093	83.5
405.317	76.5
405.541	88.5
405.765	90.5
405.988	97.5
406.212	86.5
406.436	88.5
406.66	80.5
406.883	73.5
407.107	87.5
407.331	84.5
407.555	82.5
407.778	85.5
408.002	80.5
408.226	80.5
408.449	79.5
408.673	84.5
408.896	81.5
409.12	87.5
409.344	90.5
409.567	86.5
409.791	80.5
410.014	69.5
410.238	77.5
410.461	80.5
410.685	76.5
410.908	85.5
411.132	85.5
411.355	86.5
411.578	93.5
411.802	95.5
412.025	82.5
412.249	75.5
412.472	90.5
412.695	87.5
412.919	94.5
413.142	83.5
413.365	86.5
413.589	82.5
413.812	82.5
414.035	86.5
414.258	70.5
414.482	74.5
414.705	94.5
414.928	76.5
415.151	81.5
415.374	85.5
415.597	79.5
415.821	90.5
416.044	84.5
416.267	78.5
416.49	83.5
416.713	81.5
416.936	89.5
417.159	86.5
417.382	83.5
417.605	92.5
417.828	72.5
418.051	77.5
418.274	64.5
418.497	76.5
418.72	82.5
418.943	60.5
419.166	80.5
419.389	84.5
419.611	83.5
419.834	80.5
420.057	83.5
420.28	78.5
420.503	82.5
420.726	90.5
420.948	98.5
421.171	90.5
421.394	89.5
421.617	83.5
421.839	85.5
422.062	70.5
422.285	76.5
422.507	91.5
422.73	81.5
422.953	68.5
423.175	76.5
423.398	85.5
423.621	75.5
423.843	89.5
424.066	83.5
424.288	77.5
424.511	69.5
424.733	74.5
424.956	76.5
425.178	85.5
425.401	76.5
425.623	76.5
425.846	70.5
426.068	82.5
426.291	85.5
426.513	87.5
426.735	89.5
426.958	70.5
427.18	77.5
427.402	85.5
427.625	70.5
427.847	86.5
428.069	75.5
428.292	76.5
428.514	81.5
428.736	80.5
428.958	85.5
429.181	86.5
429.403	93.5
429.625	80.5
429.847	98.5
430.069	78.5
430.292	94.5
430.514	75.5
430.736	75.5
430.958	80.5
431.18	83.5
431.402	85.5
431.624	85.5
431.846	79.5
432.068	88.5
432.29	69.5
432.512	74.5
432.734	86.5
432.956	93.5
433.178	78.5
433.4	84.5
433.622	85.5
433.844	78.5
434.066	87.5
434.287	108.5
434.509	77.5
434.731	74.5
434.953	75.5
435.175	80.5
435.397	78.5
435.618	81.5
435.84	84.5
436.062	79.5
436.284	74.5
436.505	76.5
436.727	90.5
436.949	83.5
437.17	88.5
437.392	84.5
437.614	78.5
437.835	84.5
438.057	86.5
438.278	84.5
438.5	79.5
438.721	83.5
438.943	73.5
439.165	85.5
439.386	76.5
439.608	80.5
439.829	84.5
440.05	89.5
440.272	71.5
440.493	80.5
440.715	73.5
440.936	94.5
441.158	84.5
441.379	69.5
441.6	77.5
441.822	88.5
442.043	94.5
442.264	89.5
442.486	78.5
442.707	82.5
442.928	82.5
443.149	87.5
443.371	91.5
443.592	72.5
443.813	74.5
444.034	94.5
444.255	90.5
444.476	72.5
444.698	91.5
444.919	83.5
445.14	154.5
445.361	133.5
445.582	79.5
445.803	70.5
446.024	68.5
446.245	73.5
446.466	82.5
446.687	87.5
446.908	73.5
447.129	83.5
447.35	76.5
447.571	78.5
447.792	105.5
448.013	81.5
448.234	80.5
448.455	76.5
448.675	79.5
448.896	80.5
449.117	85.5
449.338	83.5
449.559	75.5
449.779	86.5
450	79.5
450.221	85.5
450.442	81.5
450.662	70.5
450.883	74.5
451.104	81.5
451.324	87.5
451.545	82.5
451.766	97.5
451.986	88.5
452.207	76.5
452.428	96.5
452.648	87.5
452.869	72.5
453.089	70.5
453.31	81.5
453.53	92.5
453.751	84.5
453.971	97.5
454.192	78.5
454.412	81.5
454.633	92.5
454.853	69.5
455.073	88.5
455.294	87.5
455.514	72.5
455.734	74.5
455.955	74.5
456.175	82.5
456.395	91.5
456.616	96.5
456.836	93.5
457.056	85.5
457.276	67.5
457.497	92.5
457.717	92.5
457.937	87.5
458.157	79.5
458.377	73.5
458.598	82.5
458.818	76.5
459.038	76.5
459.258	54.5
459.478	84.5
459.698	90.5
459.918	79.5
460.138	80.5
460.358	86.5
460.578	86.5
460.798	73.5
461.018	84.5
461.238	78.5
461.458	86.5
461.678	86.5
461.898	100.5
462.118	81.5
462.338	90.5
462.558	91.5
462.777	80.5
462.997	64.5
463.217	79.5
463.437	81.5
463.657	83.5
463.876	89.5
464.096	84.5
464.316	76.5
464.536	80.5
464.755	80.5
464.975	92.5
465.195	70.5
465.414	74.5
465.634	88.5
465.854	98.5
466.073	98.5
466.293	77.5
466.512	76.5
466.732	74.5
466.951	76.5
467.171	81.5
467.391	72.5
467.61	74.5
467.829	76.5
468.049	76.5
468.268	75.5
468.488	78.5
468.707	81.5
468.927	85.5
469.146	86.5
469.365	79.5
469.585	88.5
469.804	77.5
470.023	89.5
470.243	84.5
470.462	72.5
470.681	68.5
470.901	79.5
471.12	62.5
471.339	83.5
471.558	80.5
471.777	82.5
471.997	89.5
472.216	86.5
472.435	80.5
472.654	76.5
472.873	87.5
473.092	85.5
473.311	78.5
473.53	75.5
473.749	86.5
473.968	98.5
474.187	84.5
474.406	78.5
474.625	82.5
474.844	83.5
475.063	78.5
475.282	88.5
475.501	80.5
475.72	83.5
475.939	88.5
476.158	78.5
476.377	83.5
476.596	94.5
476.814	79.5
477.033	88.5
477.252	73.5
477.471	85.5
477.69	80.5
477.908	93.5
478.127	81.5
478.346	84.5
478.564	73.5
478.783	85.5
479.002	80.5
479.22	85.5
479.439	84.5
479.658	84.5
479.876	67.5
480.095	82.5
480.313	111.5
480.532	93.5
480.751	78.5
480.969	90.5
481.188	88.5
481.406	94.5
481.624	90.5
481.843	72.5
482.061	84.5
482.28	76.5
482.498	82.5
482.717	71.5
482.935	80.5
483.153	81.5
483.372	91.5
483.59	88.5
483.808	84.5
484.027	92.5
484.245	78.5
484.463	68.5
484.681	82.5
484.9	77.5
485.118	86.5
485.336	83.5
485.554	82.5
485.772	76.5
485.99	87.5
486.209	73.5
486.427	85.5
486.645	69.5
486.863	75.5
487.081	86.5
487.299	94.5
487.517	85.5
487.735	75.5
487.953	92.5
488.171	87.5
488.389	75.5
488.607	81.5
488.825	85.5
489.043	90.5
489.261	83.5
489.479	76.5
489.696	83.5
489.914	81.5
490.132	80.5
490.35	80.5
490.568	87.5
490.786	85.5
491.003	92.5
491.221	80.5
491.439	94.5
491.657	80.5
491.874	88.5
492.092	82.5
492.31	98.5
492.527	76.5
492.745	74.5
492.963	83.5
493.18	84.5
493.398	94.5
493.615	71.5
493.833	70.5
494.05	76.5
494.268	94.5
494.485	82.5
494.703	79.5
494.92	78.5
495.138	89.5
495.355	91.5
495.573	93.5
495.79	79.5
496.008	91.5
496.225	54.5
496.442	77.5
496.66	95.5
496.877	90.5
497.094	74.5
497.312	88.5
497.529	70.5
497.746	81.5
497.963	71.5
498.181	76.5
498.398	85.5
498.615	66.5
498.832	86.5
499.049	85.5
499.267	91.5
499.484	88.5
499.701	92.5
499.918	85.5
500.135	81.5
500.352	73.5
500.569	70.5
500.786	84.5
501.003	86.5
501.22	92.5
501.437	96.5
501.654	84.5
501.871	61.5
502.088	63.5
502.305	95.5
502.522	70.5
502.739	85.5
502.956	78.5
503.172	93.5
503.389	77.5
503.606	86.5
503.823	75.5
504.04	97.5
504.256	83.5
504.473	75.5
504.69	79.5
504.907	93.5
505.123	88.5
505.34	91.5
505.557	88.5
505.773	69.5
505.99	88.5
506.207	85.5
506.423	82.5
506.64	69.5
506.856	73.5
507.073	77.5
507.289	77.5
507.506	84.5
507.722	77.5
507.939	84.5
508.155	68.5
508.372	78.5
508.588	75.5
508.805	88.5
509.021	80.5
509.238	90.5
509.454	82.5
509.67	82.5
509.887	93.5
510.103	94.5
510.319	82.5
510.536	88.5
510.752	85.5
510.968	73.5
511.184	81.5
511.401	94.5
511.617	85.5
511.833	86.5
512.049	94.5
512.265	78.5
512.481	75.5
512.698	89.5
512.914	94.5
513.13	94.5
513.346	84.5
513.562	81.5
513.778	74.5
513.994	84.5
514.21	82.5
514.426	101.5
514.642	83.5
514.858	83.5
515.074	77.5
515.29	90.5
515.506	77.5
515.721	79.5
515.937	82.5
516.153	86.5
516.369	86.5
516.585	81.5
516.801	86.5
517.016	74.5
517.232	89.5
517.448	74.5
517.664	83.5
517.879	89.5
518.095	70.5
518.311	82.5
518.527	75.5
518.742	83.5
518.958	78.5
519.173	76.5
519.389	79.5
519.605	88.5
519.82	80.5
520.036	83.5
520.251	89.5
520.467	81.5
520.682	78.5
520.898	79.5
521.113	91.5
521.329	82.5
521.544	84.5
521.76	76.5
521.975	86.5
522.19	80.5
522.406	68.5
522.621	86.5
522.836	83.5
523.052	94.5
523.267	72.5
523.482	64.5
523.698	86.5
523.913	77.5
524.128	81.5
524.343	81.5
524.559	73.5
524.774	84.5
524.989	84.5
525.204	88.5
525.419	71.5
525.634	74.5
525.849	92.5
526.064	70.5
526.28	92.5
526.495	78.5
526.71	90.5
526.925	85.5
527.14	87.5
527.355	77.5
527.57	88.5
527.785	90.5
527.999	87.5
528.214	82.5
528.429	70.5
528.644	75.5
528.859	85.5
529.074	78.5
529.289	82.5
529.503	79.5
529.718	80.5
529.933	76.5
530.148	93.5
530.363	82.5
530.577	77.5
530.792	84.5
531.007	76.5
531.221	94.5
531.436	76.5
531.651	91.5
531.865	83.5
532.08	80.5
532.295	89.5
532.509	77.5
532.724	99.5
532.938	69.5
533.153	80.5
533.367	70.5
533.582	92.5
533.796	85.5
534.011	83.5
534.225	87.5
534.44	85.5
534.654	93.5
534.868	74.5
535.083	92.5
535.297	86.5
535.511	82.5
535.726	93.5
535.94	100.5
536.154	89.5
536.369	89.5
536.583	86.5
536.797	82.5
537.011	92.5
537.225	83.5
537.44	81.5
537.654	85.5
537.868	84.5
538.082	92.5
538.296	72.5
538.51	85.5
538.724	72.5
538.938	77.5
539.153	87.5
539.367	82.5
539.581	83.5
539.795	84.5
540.009	80.5
540.222	89.5
540.436	80.5
