Data from Background_3_HRD10591_00035.txt Node
Date: Wed Nov 05 14:49:37 EST 2025
User: Yrep
Spectrometer: HR+D1059
Trigger mode: 1
Integration Time (sec): 1.000000E-1
Scans to average: 1
Electric dark correction enabled: true
Nonlinearity correction enabled: false
Boxcar width: 0
XAxis mode: Wavelengths
Number of Pixels in Spectrum: 2048
>>>>>Begin Spectral Data<<<<<
223.165	-25.88
223.4	-25.88
223.635	-25.88
223.869	-17.88
224.104	-28.88
224.338	-5.88
224.573	-6.88
224.808	-14.88
225.042	1.12
225.277	-6.88
225.511	-1.88
225.746	8.12
225.98	9.12
226.215	17.12
226.449	16.12
226.683	31.12
226.918	11.12
227.152	15.12
227.387	31.12
227.621	43.12
227.856	32.12
228.09	49.12
228.324	43.12
228.559	51.12
228.793	49.12
229.027	60.12
229.262	67.12
229.496	69.12
229.73	63.12
229.964	66.12
230.199	69.12
230.433	74.12
230.667	61.12
230.901	67.12
231.136	64.12
231.37	73.12
231.604	78.12
231.838	76.12
232.072	81.12
232.306	79.12
232.541	100.12
232.775	73.12
233.009	79.12
233.243	85.12
233.477	73.12
233.711	82.12
233.945	65.12
234.179	65.12
234.413	62.12
234.647	73.12
234.881	78.12
235.115	71.12
235.349	73.12
235.583	83.12
235.817	73.12
236.051	74.12
236.285	80.12
236.519	77.12
236.753	68.12
236.987	78.12
237.221	81.12
237.455	75.12
237.689	80.12
237.922	75.12
238.156	75.12
238.39	79.12
238.624	74.12
238.858	68.12
239.091	74.12
239.325	73.12
239.559	73.12
239.793	75.12
240.027	76.12
240.26	73.12
240.494	64.12
240.728	61.12
240.961	68.12
241.195	68.12
241.429	77.12
241.662	79.12
241.896	73.12
242.13	73.12
242.363	70.12
242.597	66.12
242.83	61.12
243.064	73.12
243.298	75.12
243.531	67.12
243.765	62.12
243.998	74.12
244.232	82.12
244.465	78.12
244.699	76.12
244.932	58.12
245.166	70.12
245.399	74.12
245.633	84.12
245.866	84.12
246.099	83.12
246.333	74.12
246.566	87.12
246.8	79.12
247.033	83.12
247.266	76.12
247.5	83.12
247.733	71.12
247.966	83.12
248.2	75.12
248.433	86.12
248.666	75.12
248.899	69.12
249.133	82.12
249.366	78.12
249.599	75.12
249.832	73.12
250.066	77.12
250.299	63.12
250.532	78.12
250.765	89.12
250.998	83.12
251.231	82.12
251.465	97.12
251.698	73.12
251.931	77.12
252.164	71.12
252.397	90.12
252.63	87.12
252.863	76.12
253.096	82.12
253.329	85.12
253.562	85.12
253.795	73.12
254.028	85.12
254.261	72.12
254.494	81.12
254.727	74.12
254.96	82.12
255.193	76.12
255.426	73.12
255.659	82.12
255.892	96.12
256.124	73.12
256.357	82.12
256.59	74.12
256.823	88.12
257.056	78.12
257.289	76.12
257.521	72.12
257.754	82.12
257.987	72.12
258.22	67.12
258.452	84.12
258.685	79.12
258.918	59.12
259.151	67.12
259.383	89.12
259.616	64.12
259.849	83.12
260.081	76.12
260.314	64.12
260.547	70.12
260.779	74.12
261.012	75.12
261.244	71.12
261.477	86.12
261.71	77.12
261.942	79.12
262.175	82.12
262.407	70.12
262.64	81.12
262.872	77.12
263.105	78.12
263.337	83.12
263.57	64.12
263.802	67.12
264.035	81.12
264.267	81.12
264.499	68.12
264.732	84.12
264.964	83.12
265.197	73.12
265.429	76.12
265.661	67.12
265.894	67.12
266.126	70.12
266.358	77.12
266.591	83.12
266.823	79.12
267.055	74.12
267.287	65.12
267.52	74.12
267.752	71.12
267.984	85.12
268.216	83.12
268.448	73.12
268.681	90.12
268.913	87.12
269.145	71.12
269.377	72.12
269.609	83.12
269.841	80.12
270.073	79.12
270.306	78.12
270.538	74.12
270.77	82.12
271.002	86.12
271.234	78.12
271.466	86.12
271.698	69.12
271.93	67.12
272.162	73.12
272.394	79.12
272.626	77.12
272.858	70.12
273.09	77.12
273.322	79.12
273.553	89.12
273.785	84.12
274.017	71.12
274.249	78.12
274.481	80.12
274.713	81.12
274.945	89.12
275.176	87.12
275.408	85.12
275.64	79.12
275.872	80.12
276.104	81.12
276.335	90.12
276.567	68.12
276.799	74.12
277.031	81.12
277.262	70.12
277.494	76.12
277.726	73.12
277.957	79.12
278.189	70.12
278.421	79.12
278.652	80.12
278.884	77.12
279.115	66.12
279.347	82.12
279.579	72.12
279.81	67.12
280.042	95.12
280.273	77.12
280.505	71.12
280.736	90.12
280.968	76.12
281.199	85.12
281.431	77.12
281.662	73.12
281.894	79.12
282.125	86.12
282.356	87.12
282.588	81.12
282.819	94.12
283.051	82.12
283.282	67.12
283.513	77.12
283.745	73.12
283.976	98.12
284.207	90.12
284.439	84.12
284.67	80.12
284.901	78.12
285.132	77.12
285.364	87.12
285.595	77.12
285.826	82.12
286.057	82.12
286.288	97.12
286.52	87.12
286.751	73.12
286.982	87.12
287.213	77.12
287.444	68.12
287.675	77.12
287.906	77.12
288.138	73.12
288.369	81.12
288.6	82.12
288.831	80.12
289.062	89.12
289.293	80.12
289.524	79.12
289.755	80.12
289.986	76.12
290.217	91.12
290.448	88.12
290.679	65.12
290.91	88.12
291.141	77.12
291.371	75.12
291.602	67.12
291.833	77.12
292.064	92.12
292.295	73.12
292.526	69.12
292.757	76.12
292.987	73.12
293.218	60.12
293.449	75.12
293.68	79.12
293.91	78.12
294.141	79.12
294.372	85.12
294.603	82.12
294.833	67.12
295.064	91.12
295.295	79.12
295.525	69.12
295.756	81.12
295.987	75.12
296.217	93.12
296.448	89.12
296.679	76.12
296.909	69.12
297.14	74.12
297.37	68.12
297.601	72.12
297.831	84.12
298.062	90.12
298.292	84.12
298.523	87.12
298.753	81.12
298.984	82.12
299.214	71.12
299.445	92.12
299.675	69.12
299.905	66.12
300.136	81.12
300.366	79.12
300.597	92.12
300.827	89.12
301.057	77.12
301.288	94.12
301.518	86.12
301.748	77.12
301.979	94.12
302.209	96.12
302.439	88.12
302.669	92.12
302.9	81.12
303.13	87.12
303.36	75.12
303.59	90.12
303.82	101.12
304.051	81.12
304.281	71.12
304.511	80.12
304.741	81.12
304.971	73.12
305.201	87.12
305.431	89.12
305.661	89.12
305.891	82.12
306.121	79.12
306.352	82.12
306.582	73.12
306.812	92.12
307.042	85.12
307.272	87.12
307.502	80.12
307.731	86.12
307.961	77.12
308.191	82.12
308.421	79.12
308.651	71.12
308.881	88.12
309.111	71.12
309.341	71.12
309.571	77.12
309.8	83.12
310.03	90.12
310.26	73.12
310.49	96.12
310.72	72.12
310.949	90.12
311.179	74.12
311.409	89.12
311.639	82.12
311.868	87.12
312.098	68.12
312.328	73.12
312.557	87.12
312.787	98.12
313.017	83.12
313.246	73.12
313.476	75.12
313.706	89.12
313.935	82.12
314.165	82.12
314.394	81.12
314.624	90.12
314.853	80.12
315.083	76.12
315.312	85.12
315.542	90.12
315.771	75.12
316.001	74.12
316.23	81.12
316.46	83.12
316.689	75.12
316.919	88.12
317.148	67.12
317.377	88.12
317.607	80.12
317.836	89.12
318.065	69.12
318.295	84.12
318.524	84.12
318.753	79.12
318.983	83.12
319.212	73.12
319.441	77.12
319.67	71.12
319.9	69.12
320.129	85.12
320.358	78.12
320.587	84.12
320.816	90.12
321.046	84.12
321.275	90.12
321.504	85.12
321.733	89.12
321.962	89.12
322.191	76.12
322.42	75.12
322.649	85.12
322.878	77.12
323.108	75.12
323.337	90.12
323.566	90.12
323.795	72.12
324.024	63.12
324.253	73.12
324.482	67.12
324.71	79.12
324.939	81.12
325.168	80.12
325.397	71.12
325.626	64.12
325.855	75.12
326.084	82.12
326.313	79.12
326.542	79.12
326.77	76.12
326.999	81.12
327.228	60.12
327.457	73.12
327.686	81.12
327.914	88.12
328.143	87.12
328.372	79.12
328.6	67.12
328.829	90.12
329.058	82.12
329.287	86.12
329.515	68.12
329.744	85.12
329.972	85.12
330.201	82.12
330.43	78.12
330.658	89.12
330.887	89.12
331.115	86.12
331.344	81.12
331.572	77.12
331.801	74.12
332.03	80.12
332.258	82.12
332.486	72.12
332.715	81.12
332.943	81.12
333.172	65.12
333.4	72.12
333.629	96.12
333.857	88.12
334.085	88.12
334.314	79.12
334.542	76.12
334.771	78.12
334.999	71.12
335.227	77.12
335.455	73.12
335.684	101.12
335.912	80.12
336.14	73.12
336.369	86.12
336.597	73.12
336.825	83.12
337.053	77.12
337.281	88.12
337.51	66.12
337.738	65.12
337.966	69.12
338.194	82.12
338.422	101.12
338.65	91.12
338.878	77.12
339.106	83.12
339.334	73.12
339.562	78.12
339.79	67.12
340.018	84.12
340.246	92.12
340.474	68.12
340.702	82.12
340.93	79.12
341.158	90.12
341.386	82.12
341.614	74.12
341.842	77.12
342.07	68.12
342.298	82.12
342.526	74.12
342.754	65.12
342.981	77.12
343.209	71.12
343.437	77.12
343.665	64.12
343.893	83.12
344.12	75.12
344.348	71.12
344.576	101.12
344.804	76.12
345.031	86.12
345.259	77.12
345.487	78.12
345.714	81.12
345.942	76.12
346.17	70.12
346.397	73.12
346.625	82.12
346.853	75.12
347.08	72.12
347.308	83.12
347.535	81.12
347.763	74.12
347.99	77.12
348.218	86.12
348.445	82.12
348.673	86.12
348.9	70.12
349.128	88.12
349.355	87.12
349.583	84.12
349.81	67.12
350.037	71.12
350.265	79.12
350.492	86.12
350.72	86.12
350.947	84.12
351.174	82.12
351.402	74.12
351.629	70.12
351.856	80.12
352.083	79.12
352.311	77.12
352.538	74.12
352.765	74.12
352.992	90.12
353.22	93.12
353.447	79.12
353.674	73.12
353.901	85.12
354.128	81.12
354.355	80.12
354.583	65.12
354.81	81.12
355.037	73.12
355.264	76.12
355.491	86.12
355.718	84.12
355.945	80.12
356.172	81.12
356.399	60.12
356.626	82.12
356.853	70.12
357.08	69.12
357.307	75.12
357.534	80.12
357.761	85.12
357.988	80.12
358.215	83.12
358.441	80.12
358.668	74.12
358.895	75.12
359.122	64.12
359.349	70.12
359.576	77.12
359.802	69.12
360.029	77.12
360.256	78.12
360.483	91.12
360.709	81.12
360.936	80.12
361.163	74.12
361.39	77.12
361.616	69.12
361.843	78.12
362.07	75.12
362.296	80.12
362.523	87.12
362.749	89.12
362.976	86.12
363.203	86.12
363.429	83.12
363.656	74.12
363.882	77.12
364.109	85.12
364.335	74.12
364.562	73.12
364.788	82.12
365.015	81.12
365.241	70.12
365.468	79.12
365.694	86.12
365.92	69.12
366.147	74.12
366.373	82.12
366.599	91.12
366.826	89.12
367.052	76.12
367.278	93.12
367.505	70.12
367.731	109.12
367.957	66.12
368.184	96.12
368.41	78.12
368.636	76.12
368.862	75.12
369.089	78.12
369.315	79.12
369.541	75.12
369.767	71.12
369.993	79.12
370.219	77.12
370.445	61.12
370.672	75.12
370.898	66.12
371.124	73.12
371.35	76.12
371.576	78.12
371.802	87.12
372.028	73.12
372.254	83.12
372.48	79.12
372.706	73.12
372.932	63.12
373.158	93.12
373.384	69.12
373.61	80.12
373.835	79.12
374.061	87.12
374.287	82.12
374.513	71.12
374.739	81.12
374.965	77.12
375.191	80.12
375.416	73.12
375.642	67.12
375.868	87.12
376.094	77.12
376.319	88.12
376.545	85.12
376.771	82.12
376.997	76.12
377.222	64.12
377.448	78.12
377.674	77.12
377.899	86.12
378.125	74.12
378.35	72.12
378.576	53.12
378.802	75.12
379.027	85.12
379.253	89.12
379.478	82.12
379.704	82.12
379.929	82.12
380.155	67.12
380.38	79.12
380.606	89.12
380.831	94.12
381.057	73.12
381.282	77.12
381.507	78.12
381.733	58.12
381.958	77.12
382.184	70.12
382.409	71.12
382.634	70.12
382.86	77.12
383.085	82.12
383.31	78.12
383.535	71.12
383.761	78.12
383.986	67.12
384.211	83.12
384.436	95.12
384.662	86.12
384.887	80.12
385.112	65.12
385.337	74.12
385.562	81.12
385.787	89.12
386.013	83.12
386.238	67.12
386.463	62.12
386.688	89.12
386.913	73.12
387.138	85.12
387.363	87.12
387.588	77.12
387.813	74.12
388.038	77.12
388.263	71.12
388.488	81.12
388.713	81.12
388.938	80.12
389.163	80.12
389.387	67.12
389.612	65.12
389.837	72.12
390.062	77.12
390.287	83.12
390.512	86.12
390.736	82.12
390.961	87.12
391.186	89.12
391.411	85.12
391.636	73.12
391.86	90.12
392.085	75.12
392.31	70.12
392.534	73.12
392.759	89.12
392.984	73.12
393.208	81.12
393.433	90.12
393.658	71.12
393.882	77.12
394.107	86.12
394.331	79.12
394.556	74.12
394.78	67.12
395.005	73.12
395.229	87.12
395.454	80.12
395.678	79.12
395.903	80.12
396.127	80.12
396.352	66.12
396.576	85.12
396.801	80.12
397.025	82.12
397.249	81.12
397.474	62.12
397.698	76.12
397.922	75.12
398.147	84.12
398.371	88.12
398.595	79.12
398.82	89.12
399.044	82.12
399.268	81.12
399.492	65.12
399.717	90.12
399.941	69.12
400.165	78.12
400.389	79.12
400.613	78.12
400.837	70.12
401.062	81.12
401.286	59.12
401.51	77.12
401.734	64.12
401.958	84.12
402.182	80.12
402.406	86.12
402.63	87.12
402.854	81.12
403.078	79.12
403.302	91.12
403.526	72.12
403.75	81.12
403.974	65.12
404.198	79.12
404.422	71.12
404.645	85.12
404.869	86.12
405.093	72.12
405.317	71.12
405.541	81.12
405.765	68.12
405.988	72.12
406.212	85.12
406.436	87.12
406.66	75.12
406.883	79.12
407.107	77.12
407.331	73.12
407.555	76.12
407.778	63.12
408.002	81.12
408.226	82.12
408.449	85.12
408.673	77.12
408.896	81.12
409.12	79.12
409.344	91.12
409.567	81.12
409.791	85.12
410.014	70.12
410.238	69.12
410.461	77.12
410.685	76.12
410.908	60.12
411.132	81.12
411.355	67.12
411.578	77.12
411.802	75.12
412.025	79.12
412.249	81.12
412.472	75.12
412.695	85.12
412.919	84.12
413.142	88.12
413.365	75.12
413.589	90.12
413.812	75.12
414.035	87.12
414.258	67.12
414.482	82.12
414.705	67.12
414.928	83.12
415.151	84.12
415.374	85.12
415.597	64.12
415.821	88.12
416.044	73.12
416.267	71.12
416.49	77.12
416.713	73.12
416.936	85.12
417.159	77.12
417.382	77.12
417.605	73.12
417.828	82.12
418.051	80.12
418.274	75.12
418.497	81.12
418.72	72.12
418.943	75.12
419.166	70.12
419.389	74.12
419.611	75.12
419.834	75.12
420.057	81.12
420.28	89.12
420.503	83.12
420.726	76.12
420.948	81.12
421.171	91.12
421.394	71.12
421.617	75.12
421.839	74.12
422.062	74.12
422.285	90.12
422.507	93.12
422.73	83.12
422.953	70.12
423.175	74.12
423.398	81.12
423.621	69.12
423.843	78.12
424.066	77.12
424.288	67.12
424.511	88.12
424.733	74.12
424.956	69.12
425.178	86.12
425.401	64.12
425.623	70.12
425.846	80.12
426.068	70.12
426.291	81.12
426.513	66.12
426.735	84.12
426.958	68.12
427.18	90.12
427.402	72.12
427.625	75.12
427.847	65.12
428.069	77.12
428.292	78.12
428.514	71.12
428.736	78.12
428.958	70.12
429.181	87.12
429.403	74.12
429.625	85.12
429.847	78.12
430.069	92.12
430.292	76.12
430.514	59.12
430.736	69.12
430.958	85.12
431.18	69.12
431.402	96.12
431.624	75.12
431.846	82.12
432.068	66.12
432.29	68.12
432.512	87.12
432.734	70.12
432.956	96.12
433.178	68.12
433.4	72.12
433.622	72.12
433.844	73.12
434.066	62.12
434.287	71.12
434.509	70.12
434.731	76.12
434.953	80.12
435.175	89.12
435.397	88.12
435.618	81.12
435.84	81.12
436.062	64.12
436.284	81.12
436.505	66.12
436.727	71.12
436.949	74.12
437.17	79.12
437.392	66.12
437.614	77.12
437.835	79.12
438.057	66.12
438.278	77.12
438.5	71.12
438.721	62.12
438.943	72.12
439.165	75.12
439.386	91.12
439.608	76.12
439.829	84.12
440.05	86.12
440.272	71.12
440.493	86.12
440.715	77.12
440.936	75.12
441.158	92.12
441.379	79.12
441.6	76.12
441.822	74.12
442.043	59.12
442.264	71.12
442.486	80.12
442.707	82.12
442.928	66.12
443.149	83.12
443.371	68.12
443.592	67.12
443.813	68.12
444.034	85.12
444.255	68.12
444.476	73.12
444.698	78.12
444.919	68.12
445.14	130.12
445.361	98.12
445.582	73.12
445.803	83.12
446.024	78.12
446.245	74.12
446.466	78.12
446.687	81.12
446.908	89.12
447.129	71.12
447.35	93.12
447.571	82.12
447.792	81.12
448.013	81.12
448.234	68.12
448.455	85.12
448.675	78.12
448.896	77.12
449.117	79.12
449.338	67.12
449.559	60.12
449.779	77.12
450	81.12
450.221	75.12
450.442	60.12
450.662	94.12
450.883	74.12
451.104	68.12
451.324	75.12
451.545	71.12
451.766	86.12
451.986	74.12
452.207	71.12
452.428	64.12
452.648	73.12
452.869	74.12
453.089	75.12
453.31	83.12
453.53	76.12
453.751	87.12
453.971	79.12
454.192	98.12
454.412	79.12
454.633	72.12
454.853	81.12
455.073	58.12
455.294	77.12
455.514	89.12
455.734	83.12
455.955	89.12
456.175	76.12
456.395	73.12
456.616	89.12
456.836	81.12
457.056	79.12
457.276	83.12
457.497	65.12
457.717	81.12
457.937	73.12
458.157	81.12
458.377	83.12
458.598	71.12
458.818	73.12
459.038	99.12
459.258	80.12
459.478	73.12
459.698	79.12
459.918	73.12
460.138	80.12
460.358	73.12
460.578	73.12
460.798	80.12
461.018	74.12
461.238	75.12
461.458	74.12
461.678	75.12
461.898	67.12
462.118	70.12
462.338	69.12
462.558	81.12
462.777	75.12
462.997	76.12
463.217	75.12
463.437	74.12
463.657	73.12
463.876	65.12
464.096	87.12
464.316	73.12
464.536	85.12
464.755	77.12
464.975	74.12
465.195	85.12
465.414	72.12
465.634	87.12
465.854	74.12
466.073	71.12
466.293	89.12
466.512	82.12
466.732	73.12
466.951	73.12
467.171	85.12
467.391	67.12
467.61	86.12
467.829	94.12
468.049	87.12
468.268	67.12
468.488	74.12
468.707	78.12
468.927	87.12
469.146	83.12
469.365	76.12
469.585	77.12
469.804	67.12
470.023	72.12
470.243	73.12
470.462	54.12
470.681	71.12
470.901	81.12
471.12	79.12
471.339	67.12
471.558	82.12
471.777	71.12
471.997	75.12
472.216	82.12
472.435	85.12
472.654	81.12
472.873	84.12
473.092	77.12
473.311	79.12
473.53	66.12
473.749	86.12
473.968	86.12
474.187	75.12
474.406	88.12
474.625	84.12
474.844	81.12
475.063	72.12
475.282	71.12
475.501	87.12
475.72	97.12
475.939	79.12
476.158	83.12
476.377	93.12
476.596	66.12
476.814	59.12
477.033	66.12
477.252	84.12
477.471	74.12
477.69	74.12
477.908	78.12
478.127	81.12
478.346	84.12
478.564	70.12
478.783	94.12
479.002	88.12
479.22	97.12
479.439	86.12
479.658	69.12
479.876	66.12
480.095	66.12
480.313	92.12
480.532	82.12
480.751	76.12
480.969	65.12
481.188	77.12
481.406	89.12
481.624	69.12
481.843	81.12
482.061	72.12
482.28	68.12
482.498	74.12
482.717	74.12
482.935	73.12
483.153	79.12
483.372	79.12
483.59	72.12
483.808	84.12
484.027	75.12
484.245	71.12
484.463	67.12
484.681	75.12
484.9	85.12
485.118	80.12
485.336	79.12
485.554	67.12
485.772	97.12
485.99	76.12
486.209	81.12
486.427	73.12
486.645	80.12
486.863	82.12
487.081	75.12
487.299	73.12
487.517	87.12
487.735	73.12
487.953	68.12
488.171	93.12
488.389	73.12
488.607	64.12
488.825	73.12
489.043	65.12
489.261	76.12
489.479	82.12
489.696	87.12
489.914	81.12
490.132	79.12
490.35	76.12
490.568	77.12
490.786	68.12
491.003	67.12
491.221	91.12
491.439	75.12
491.657	73.12
491.874	74.12
492.092	80.12
492.31	94.12
492.527	97.12
492.745	70.12
492.963	77.12
493.18	73.12
493.398	87.12
493.615	63.12
493.833	63.12
494.05	74.12
494.268	80.12
494.485	78.12
494.703	79.12
494.92	80.12
495.138	68.12
495.355	72.12
495.573	77.12
495.79	72.12
496.008	81.12
496.225	79.12
496.442	72.12
496.66	93.12
496.877	81.12
497.094	85.12
497.312	72.12
497.529	74.12
497.746	80.12
497.963	81.12
498.181	81.12
498.398	70.12
498.615	93.12
498.832	73.12
499.049	82.12
499.267	80.12
499.484	78.12
499.701	84.12
499.918	83.12
500.135	83.12
500.352	77.12
500.569	68.12
500.786	83.12
501.003	63.12
501.22	62.12
501.437	75.12
501.654	77.12
501.871	79.12
502.088	73.12
502.305	90.12
502.522	80.12
502.739	77.12
502.956	75.12
503.172	88.12
503.389	63.12
503.606	93.12
503.823	90.12
504.04	89.12
504.256	90.12
504.473	82.12
504.69	61.12
504.907	75.12
505.123	68.12
505.34	77.12
505.557	79.12
505.773	91.12
505.99	87.12
506.207	78.12
506.423	78.12
506.64	71.12
506.856	73.12
507.073	68.12
507.289	93.12
507.506	65.12
507.722	82.12
507.939	72.12
508.155	88.12
508.372	71.12
508.588	70.12
508.805	94.12
509.021	85.12
509.238	83.12
509.454	82.12
509.67	96.12
509.887	74.12
510.103	85.12
510.319	77.12
510.536	82.12
510.752	77.12
510.968	97.12
511.184	78.12
511.401	92.12
511.617	86.12
511.833	67.12
512.049	80.12
512.265	68.12
512.481	96.12
512.698	86.12
512.914	95.12
513.13	91.12
513.346	71.12
513.562	82.12
513.778	81.12
513.994	63.12
514.21	83.12
514.426	83.12
514.642	71.12
514.858	83.12
515.074	87.12
515.29	90.12
515.506	89.12
515.721	69.12
515.937	89.12
516.153	81.12
516.369	80.12
516.585	83.12
516.801	85.12
517.016	72.12
517.232	78.12
517.448	80.12
517.664	81.12
517.879	73.12
518.095	67.12
518.311	79.12
518.527	75.12
518.742	70.12
518.958	78.12
519.173	73.12
519.389	79.12
519.605	81.12
519.82	86.12
520.036	82.12
520.251	77.12
