Data from Background_3_HRD10591_00012.txt Node
Date: Wed Nov 05 14:49:25 EST 2025
User: Yrep
Spectrometer: HR+D1059
Trigger mode: 1
Integration Time (sec): 1.000000E-1
Scans to average: 1
Electric dark correction enabled: true
Nonlinearity correction enabled: false
Boxcar width: 0
XAxis mode: Wavelengths
Number of Pixels in Spectrum: 2048
>>>>>Begin Spectral Data<<<<<
223.165	-16.38
223.4	-16.38
223.635	-16.38
223.869	-18.38
224.104	-19.38
224.338	-20.38
224.573	-20.38
224.808	-13.38
225.042	2.62
225.277	-21.38
225.511	10.62
225.746	5.62
225.98	-2.38
226.215	15.62
226.449	20.62
226.683	22.62
226.918	15.62
227.152	38.62
227.387	32.62
227.621	39.62
227.856	49.62
228.09	53.62
228.324	48.62
228.559	50.62
228.793	53.62
229.027	65.62
229.262	71.62
229.496	73.62
229.73	82.62
229.964	62.62
230.199	70.62
230.433	72.62
230.667	80.62
230.901	79.62
231.136	82.62
231.37	71.62
231.604	83.62
231.838	96.62
232.072	78.62
232.306	88.62
232.541	77.62
232.775	84.62
233.009	77.62
233.243	74.62
233.477	85.62
233.711	81.62
233.945	79.62
234.179	86.62
234.413	85.62
234.647	71.62
234.881	72.62
235.115	82.62
235.349	103.62
235.583	83.62
235.817	69.62
236.051	80.62
236.285	70.62
236.519	83.62
236.753	83.62
236.987	77.62
237.221	75.62
237.455	67.62
237.689	75.62
237.922	90.62
238.156	63.62
238.39	83.62
238.624	53.62
238.858	61.62
239.091	59.62
239.325	73.62
239.559	75.62
239.793	77.62
240.027	70.62
240.26	66.62
240.494	77.62
240.728	60.62
240.961	60.62
241.195	72.62
241.429	89.62
241.662	87.62
241.896	72.62
242.13	73.62
242.363	60.62
242.597	81.62
242.83	79.62
243.064	76.62
243.298	71.62
243.531	68.62
243.765	84.62
243.998	85.62
244.232	101.62
244.465	60.62
244.699	88.62
244.932	77.62
245.166	84.62
245.399	91.62
245.633	67.62
245.866	61.62
246.099	66.62
246.333	77.62
246.566	76.62
246.8	78.62
247.033	77.62
247.266	83.62
247.5	81.62
247.733	77.62
247.966	76.62
248.2	84.62
248.433	72.62
248.666	87.62
248.899	68.62
249.133	72.62
249.366	87.62
249.599	73.62
249.832	77.62
250.066	78.62
250.299	76.62
250.532	93.62
250.765	79.62
250.998	76.62
251.231	75.62
251.465	60.62
251.698	77.62
251.931	85.62
252.164	81.62
252.397	77.62
252.63	77.62
252.863	88.62
253.096	79.62
253.329	87.62
253.562	80.62
253.795	72.62
254.028	72.62
254.261	68.62
254.494	70.62
254.727	79.62
254.96	81.62
255.193	74.62
255.426	80.62
255.659	84.62
255.892	82.62
256.124	78.62
256.357	79.62
256.59	85.62
256.823	83.62
257.056	75.62
257.289	91.62
257.521	64.62
257.754	106.62
257.987	93.62
258.22	77.62
258.452	90.62
258.685	81.62
258.918	68.62
259.151	81.62
259.383	83.62
259.616	73.62
259.849	78.62
260.081	74.62
260.314	75.62
260.547	67.62
260.779	81.62
261.012	75.62
261.244	71.62
261.477	72.62
261.71	82.62
261.942	76.62
262.175	78.62
262.407	62.62
262.64	92.62
262.872	82.62
263.105	69.62
263.337	84.62
263.57	78.62
263.802	76.62
264.035	81.62
264.267	61.62
264.499	75.62
264.732	88.62
264.964	83.62
265.197	81.62
265.429	77.62
265.661	81.62
265.894	68.62
266.126	90.62
266.358	83.62
266.591	81.62
266.823	82.62
267.055	72.62
267.287	83.62
267.52	83.62
267.752	75.62
267.984	64.62
268.216	89.62
268.448	77.62
268.681	65.62
268.913	88.62
269.145	89.62
269.377	83.62
269.609	81.62
269.841	75.62
270.073	81.62
270.306	90.62
270.538	89.62
270.77	80.62
271.002	71.62
271.234	84.62
271.466	67.62
271.698	81.62
271.93	83.62
272.162	85.62
272.394	78.62
272.626	87.62
272.858	83.62
273.09	72.62
273.322	91.62
273.553	77.62
273.785	97.62
274.017	87.62
274.249	91.62
274.481	90.62
274.713	72.62
274.945	79.62
275.176	83.62
275.408	85.62
275.64	99.62
275.872	94.62
276.104	80.62
276.335	79.62
276.567	66.62
276.799	70.62
277.031	89.62
277.262	79.62
277.494	77.62
277.726	67.62
277.957	90.62
278.189	79.62
278.421	79.62
278.652	83.62
278.884	83.62
279.115	75.62
279.347	87.62
279.579	85.62
279.81	79.62
280.042	81.62
280.273	85.62
280.505	72.62
280.736	67.62
280.968	83.62
281.199	73.62
281.431	76.62
281.662	91.62
281.894	75.62
282.125	75.62
282.356	85.62
282.588	81.62
282.819	84.62
283.051	91.62
283.282	74.62
283.513	68.62
283.745	95.62
283.976	74.62
284.207	77.62
284.439	75.62
284.67	80.62
284.901	92.62
285.132	80.62
285.364	81.62
285.595	77.62
285.826	69.62
286.057	87.62
286.288	81.62
286.52	79.62
286.751	81.62
286.982	90.62
287.213	66.62
287.444	71.62
287.675	87.62
287.906	90.62
288.138	83.62
288.369	87.62
288.6	83.62
288.831	79.62
289.062	87.62
289.293	86.62
289.524	77.62
289.755	89.62
289.986	90.62
290.217	81.62
290.448	85.62
290.679	76.62
290.91	98.62
291.141	80.62
291.371	84.62
291.602	73.62
291.833	73.62
292.064	82.62
292.295	90.62
292.526	81.62
292.757	85.62
292.987	75.62
293.218	97.62
293.449	91.62
293.68	87.62
293.91	84.62
294.141	87.62
294.372	72.62
294.603	89.62
294.833	84.62
295.064	95.62
295.295	90.62
295.525	65.62
295.756	85.62
295.987	86.62
296.217	91.62
296.448	91.62
296.679	86.62
296.909	81.62
297.14	93.62
297.37	81.62
297.601	70.62
297.831	71.62
298.062	71.62
298.292	78.62
298.523	69.62
298.753	82.62
298.984	82.62
299.214	88.62
299.445	90.62
299.675	85.62
299.905	75.62
300.136	74.62
300.366	81.62
300.597	75.62
300.827	82.62
301.057	79.62
301.288	86.62
301.518	84.62
301.748	82.62
301.979	89.62
302.209	87.62
302.439	80.62
302.669	74.62
302.9	79.62
303.13	83.62
303.36	81.62
303.59	75.62
303.82	84.62
304.051	74.62
304.281	81.62
304.511	79.62
304.741	88.62
304.971	83.62
305.201	75.62
305.431	77.62
305.661	67.62
305.891	95.62
306.121	70.62
306.352	76.62
306.582	95.62
306.812	90.62
307.042	82.62
307.272	85.62
307.502	75.62
307.731	89.62
307.961	71.62
308.191	98.62
308.421	77.62
308.651	88.62
308.881	81.62
309.111	98.62
309.341	91.62
309.571	76.62
309.8	84.62
310.03	75.62
310.26	85.62
310.49	88.62
310.72	80.62
310.949	93.62
311.179	77.62
311.409	88.62
311.639	82.62
311.868	80.62
312.098	88.62
312.328	102.62
312.557	73.62
312.787	78.62
313.017	88.62
313.246	88.62
313.476	81.62
313.706	73.62
313.935	83.62
314.165	77.62
314.394	92.62
314.624	85.62
314.853	75.62
315.083	77.62
315.312	76.62
315.542	74.62
315.771	87.62
316.001	88.62
316.23	76.62
316.46	83.62
316.689	85.62
316.919	85.62
317.148	91.62
317.377	89.62
317.607	75.62
317.836	75.62
318.065	75.62
318.295	79.62
318.524	98.62
318.753	87.62
318.983	94.62
319.212	81.62
319.441	85.62
319.67	94.62
319.9	91.62
320.129	83.62
320.358	77.62
320.587	87.62
320.816	92.62
321.046	85.62
321.275	87.62
321.504	80.62
321.733	67.62
321.962	77.62
322.191	71.62
322.42	83.62
322.649	65.62
322.878	90.62
323.108	83.62
323.337	75.62
323.566	79.62
323.795	93.62
324.024	81.62
324.253	70.62
324.482	97.62
324.71	61.62
324.939	81.62
325.168	96.62
325.397	93.62
325.626	93.62
325.855	96.62
326.084	80.62
326.313	70.62
326.542	83.62
326.77	100.62
326.999	92.62
327.228	88.62
327.457	80.62
327.686	84.62
327.914	82.62
328.143	75.62
328.372	84.62
328.6	73.62
328.829	87.62
329.058	92.62
329.287	89.62
329.515	83.62
329.744	83.62
329.972	61.62
330.201	84.62
330.43	80.62
330.658	87.62
330.887	84.62
331.115	75.62
331.344	97.62
331.572	85.62
331.801	79.62
332.03	72.62
332.258	95.62
332.486	84.62
332.715	83.62
332.943	87.62
333.172	74.62
333.4	90.62
333.629	75.62
333.857	105.62
334.085	90.62
334.314	79.62
334.542	78.62
334.771	73.62
334.999	97.62
335.227	84.62
335.455	93.62
335.684	83.62
335.912	76.62
336.14	80.62
336.369	76.62
336.597	85.62
336.825	98.62
337.053	79.62
337.281	83.62
337.51	75.62
337.738	72.62
337.966	79.62
338.194	66.62
338.422	75.62
338.65	83.62
338.878	81.62
339.106	75.62
339.334	80.62
339.562	80.62
339.79	95.62
340.018	81.62
340.246	97.62
340.474	87.62
340.702	87.62
340.93	78.62
341.158	93.62
341.386	79.62
341.614	77.62
341.842	95.62
342.07	83.62
342.298	88.62
342.526	80.62
342.754	80.62
342.981	85.62
343.209	81.62
343.437	83.62
343.665	79.62
343.893	82.62
344.12	90.62
344.348	71.62
344.576	90.62
344.804	81.62
345.031	75.62
345.259	67.62
345.487	86.62
345.714	81.62
345.942	90.62
346.17	90.62
346.397	77.62
346.625	77.62
346.853	79.62
347.08	80.62
347.308	94.62
347.535	84.62
347.763	83.62
347.99	80.62
348.218	69.62
348.445	85.62
348.673	84.62
348.9	92.62
349.128	88.62
349.355	88.62
349.583	83.62
349.81	87.62
350.037	84.62
350.265	89.62
350.492	88.62
350.72	82.62
350.947	83.62
351.174	91.62
351.402	77.62
351.629	75.62
351.856	83.62
352.083	75.62
352.311	76.62
352.538	88.62
352.765	69.62
352.992	82.62
353.22	73.62
353.447	83.62
353.674	82.62
353.901	78.62
354.128	84.62
354.355	78.62
354.583	80.62
354.81	70.62
355.037	82.62
355.264	86.62
355.491	89.62
355.718	84.62
355.945	89.62
356.172	91.62
356.399	88.62
356.626	79.62
356.853	80.62
357.08	73.62
357.307	76.62
357.534	73.62
357.761	74.62
357.988	83.62
358.215	82.62
358.441	94.62
358.668	77.62
358.895	87.62
359.122	88.62
359.349	89.62
359.576	89.62
359.802	82.62
360.029	92.62
360.256	77.62
360.483	86.62
360.709	85.62
360.936	80.62
361.163	75.62
361.39	72.62
361.616	92.62
361.843	86.62
362.07	76.62
362.296	83.62
362.523	83.62
362.749	75.62
362.976	81.62
363.203	90.62
363.429	94.62
363.656	91.62
363.882	87.62
364.109	100.62
364.335	91.62
364.562	73.62
364.788	89.62
365.015	83.62
365.241	82.62
365.468	80.62
365.694	68.62
365.92	82.62
366.147	73.62
366.373	75.62
366.599	89.62
366.826	83.62
367.052	83.62
367.278	84.62
367.505	79.62
367.731	87.62
367.957	77.62
368.184	90.62
368.41	85.62
368.636	75.62
368.862	74.62
369.089	71.62
369.315	79.62
369.541	88.62
369.767	92.62
369.993	79.62
370.219	82.62
370.445	73.62
370.672	68.62
370.898	91.62
371.124	79.62
371.35	70.62
371.576	91.62
371.802	71.62
372.028	79.62
372.254	85.62
372.48	83.62
372.706	78.62
372.932	83.62
373.158	81.62
373.384	92.62
373.61	85.62
373.835	79.62
374.061	69.62
374.287	82.62
374.513	77.62
374.739	81.62
374.965	84.62
375.191	77.62
375.416	83.62
375.642	75.62
375.868	83.62
376.094	70.62
376.319	71.62
376.545	67.62
376.771	77.62
376.997	94.62
377.222	70.62
377.448	86.62
377.674	83.62
377.899	77.62
378.125	79.62
378.35	79.62
378.576	78.62
378.802	85.62
379.027	92.62
379.253	73.62
379.478	78.62
379.704	94.62
379.929	92.62
380.155	78.62
380.38	90.62
380.606	76.62
380.831	99.62
381.057	70.62
381.282	73.62
381.507	77.62
381.733	76.62
381.958	93.62
382.184	79.62
382.409	82.62
382.634	90.62
382.86	81.62
383.085	78.62
383.31	75.62
383.535	79.62
383.761	85.62
383.986	96.62
384.211	79.62
384.436	91.62
384.662	78.62
384.887	84.62
385.112	77.62
385.337	77.62
385.562	63.62
385.787	82.62
386.013	82.62
386.238	80.62
386.463	65.62
386.688	92.62
386.913	73.62
387.138	83.62
387.363	79.62
387.588	94.62
387.813	75.62
388.038	65.62
388.263	86.62
388.488	74.62
388.713	72.62
388.938	75.62
389.163	81.62
389.387	87.62
389.612	79.62
389.837	74.62
390.062	85.62
390.287	94.62
390.512	75.62
390.736	81.62
390.961	84.62
391.186	95.62
391.411	73.62
391.636	66.62
391.86	84.62
392.085	81.62
392.31	89.62
392.534	83.62
392.759	78.62
392.984	90.62
393.208	75.62
393.433	73.62
393.658	68.62
393.882	85.62
394.107	80.62
394.331	84.62
394.556	76.62
394.78	88.62
395.005	71.62
395.229	81.62
395.454	75.62
395.678	89.62
395.903	77.62
396.127	84.62
396.352	87.62
396.576	73.62
396.801	87.62
397.025	94.62
397.249	76.62
397.474	88.62
397.698	82.62
397.922	70.62
398.147	83.62
398.371	89.62
398.595	80.62
398.82	81.62
399.044	75.62
399.268	78.62
399.492	69.62
399.717	75.62
399.941	75.62
400.165	92.62
400.389	82.62
400.613	99.62
400.837	82.62
401.062	79.62
401.286	70.62
401.51	77.62
401.734	87.62
401.958	95.62
402.182	82.62
402.406	87.62
402.63	88.62
402.854	72.62
403.078	78.62
403.302	79.62
403.526	77.62
403.75	78.62
403.974	84.62
404.198	75.62
404.422	70.62
404.645	71.62
404.869	83.62
405.093	87.62
405.317	70.62
405.541	80.62
405.765	86.62
405.988	91.62
406.212	75.62
406.436	73.62
406.66	80.62
406.883	76.62
407.107	73.62
407.331	71.62
407.555	77.62
407.778	70.62
408.002	76.62
408.226	77.62
408.449	77.62
408.673	59.62
408.896	73.62
409.12	92.62
409.344	76.62
409.567	69.62
409.791	81.62
410.014	77.62
410.238	78.62
410.461	69.62
410.685	73.62
410.908	87.62
411.132	75.62
411.355	75.62
411.578	75.62
411.802	87.62
412.025	72.62
412.249	75.62
412.472	81.62
412.695	100.62
412.919	92.62
413.142	76.62
413.365	76.62
413.589	82.62
413.812	76.62
414.035	75.62
414.258	75.62
414.482	79.62
414.705	72.62
414.928	77.62
415.151	68.62
415.374	78.62
415.597	82.62
415.821	74.62
416.044	80.62
416.267	86.62
416.49	83.62
416.713	83.62
416.936	79.62
417.159	97.62
417.382	84.62
417.605	75.62
417.828	88.62
418.051	82.62
418.274	81.62
418.497	80.62
418.72	92.62
418.943	76.62
419.166	85.62
419.389	85.62
419.611	68.62
419.834	78.62
420.057	75.62
420.28	68.62
420.503	73.62
420.726	77.62
420.948	75.62
421.171	76.62
421.394	84.62
421.617	67.62
421.839	87.62
422.062	78.62
422.285	73.62
422.507	82.62
422.73	82.62
422.953	76.62
423.175	74.62
423.398	87.62
423.621	67.62
423.843	58.62
424.066	96.62
424.288	93.62
424.511	89.62
424.733	90.62
424.956	77.62
425.178	85.62
425.401	77.62
425.623	73.62
425.846	79.62
426.068	75.62
426.291	87.62
426.513	85.62
426.735	85.62
426.958	76.62
427.18	91.62
427.402	85.62
427.625	66.62
427.847	90.62
428.069	96.62
428.292	84.62
428.514	92.62
428.736	74.62
428.958	78.62
429.181	77.62
429.403	88.62
429.625	73.62
429.847	78.62
430.069	86.62
430.292	66.62
430.514	68.62
430.736	84.62
430.958	75.62
431.18	81.62
431.402	72.62
431.624	54.62
431.846	65.62
432.068	90.62
432.29	75.62
432.512	92.62
432.734	75.62
432.956	91.62
433.178	84.62
433.4	89.62
433.622	87.62
433.844	74.62
434.066	89.62
434.287	83.62
434.509	85.62
434.731	81.62
434.953	91.62
435.175	68.62
435.397	81.62
435.618	66.62
435.84	75.62
436.062	90.62
436.284	73.62
436.505	88.62
436.727	70.62
436.949	84.62
437.17	75.62
437.392	78.62
437.614	74.62
437.835	90.62
438.057	67.62
438.278	77.62
438.5	81.62
438.721	80.62
438.943	86.62
439.165	68.62
439.386	77.62
439.608	69.62
439.829	67.62
440.05	79.62
440.272	77.62
440.493	82.62
440.715	91.62
440.936	77.62
441.158	71.62
441.379	81.62
441.6	80.62
441.822	76.62
442.043	70.62
442.264	66.62
442.486	78.62
442.707	79.62
442.928	74.62
443.149	82.62
443.371	80.62
443.592	87.62
443.813	80.62
444.034	77.62
444.255	86.62
444.476	92.62
444.698	81.62
444.919	79.62
445.14	158.62
445.361	111.62
445.582	90.62
445.803	81.62
446.024	80.62
446.245	79.62
446.466	67.62
446.687	73.62
446.908	75.62
447.129	81.62
447.35	84.62
447.571	63.62
447.792	71.62
448.013	68.62
448.234	78.62
448.455	87.62
448.675	77.62
448.896	92.62
449.117	81.62
449.338	75.62
449.559	64.62
449.779	79.62
450	91.62
450.221	79.62
450.442	80.62
450.662	93.62
450.883	69.62
451.104	81.62
451.324	97.62
451.545	56.62
451.766	83.62
451.986	83.62
452.207	75.62
452.428	84.62
452.648	89.62
452.869	81.62
453.089	79.62
453.31	85.62
453.53	67.62
453.751	77.62
453.971	69.62
454.192	69.62
454.412	84.62
454.633	76.62
454.853	79.62
455.073	67.62
455.294	68.62
455.514	83.62
455.734	80.62
455.955	67.62
456.175	85.62
456.395	75.62
456.616	82.62
456.836	73.62
457.056	71.62
457.276	89.62
457.497	74.62
457.717	80.62
457.937	81.62
458.157	75.62
458.377	88.62
458.598	87.62
458.818	84.62
459.038	81.62
459.258	73.62
459.478	74.62
459.698	90.62
459.918	77.62
460.138	79.62
460.358	90.62
460.578	71.62
460.798	75.62
461.018	86.62
461.238	95.62
461.458	84.62
461.678	79.62
461.898	85.62
462.118	75.62
462.338	87.62
462.558	91.62
462.777	81.62
462.997	73.62
463.217	80.62
463.437	76.62
463.657	88.62
463.876	94.62
464.096	96.62
464.316	83.62
464.536	66.62
464.755	92.62
464.975	90.62
465.195	80.62
465.414	68.62
465.634	81.62
465.854	77.62
466.073	83.62
466.293	97.62
466.512	76.62
466.732	81.62
466.951	82.62
467.171	75.62
467.391	80.62
467.61	81.62
467.829	80.62
468.049	79.62
468.268	77.62
468.488	95.62
468.707	82.62
468.927	88.62
469.146	66.62
469.365	81.62
469.585	81.62
469.804	85.62
470.023	81.62
470.243	81.62
470.462	75.62
470.681	80.62
470.901	89.62
471.12	89.62
471.339	68.62
471.558	87.62
471.777	86.62
471.997	82.62
472.216	84.62
472.435	76.62
472.654	92.62
472.873	83.62
473.092	83.62
473.311	81.62
473.53	71.62
473.749	75.62
473.968	87.62
474.187	87.62
474.406	78.62
474.625	85.62
474.844	90.62
475.063	67.62
475.282	64.62
475.501	89.62
475.72	75.62
475.939	78.62
476.158	78.62
476.377	80.62
476.596	79.62
476.814	76.62
477.033	76.62
477.252	95.62
477.471	76.62
477.69	78.62
477.908	72.62
478.127	89.62
478.346	83.62
478.564	89.62
478.783	82.62
479.002	76.62
479.22	58.62
479.439	69.62
479.658	73.62
479.876	68.62
480.095	77.62
480.313	82.62
480.532	75.62
480.751	95.62
480.969	88.62
481.188	70.62
481.406	76.62
481.624	95.62
481.843	83.62
482.061	73.62
482.28	84.62
482.498	75.62
482.717	89.62
482.935	79.62
483.153	85.62
483.372	83.62
483.59	95.62
483.808	79.62
484.027	77.62
484.245	96.62
484.463	81.62
484.681	89.62
484.9	90.62
485.118	79.62
485.336	77.62
485.554	76.62
485.772	82.62
485.99	72.62
486.209	80.62
486.427	85.62
486.645	87.62
486.863	73.62
487.081	89.62
487.299	82.62
487.517	71.62
487.735	68.62
487.953	80.62
488.171	82.62
488.389	84.62
488.607	83.62
488.825	86.62
489.043	76.62
489.261	69.62
489.479	93.62
489.696	77.62
489.914	82.62
490.132	70.62
490.35	77.62
490.568	80.62
490.786	74.62
491.003	79.62
491.221	75.62
491.439	80.62
491.657	68.62
491.874	95.62
492.092	76.62
492.31	95.62
492.527	71.62
492.745	89.62
492.963	69.62
493.18	80.62
493.398	89.62
493.615	76.62
493.833	79.62
494.05	75.62
494.268	79.62
494.485	77.62
494.703	80.62
494.92	88.62
495.138	83.62
495.355	86.62
495.573	86.62
495.79	85.62
496.008	81.62
496.225	79.62
496.442	83.62
496.66	67.62
496.877	81.62
497.094	74.62
497.312	72.62
497.529	83.62
497.746	90.62
497.963	81.62
498.181	84.62
498.398	82.62
498.615	93.62
498.832	88.62
499.049	80.62
499.267	80.62
499.484	88.62
499.701	84.62
499.918	78.62
500.135	83.62
500.352	71.62
500.569	86.62
500.786	83.62
501.003	81.62
501.22	89.62
501.437	77.62
501.654	83.62
501.871	70.62
502.088	83.62
502.305	85.62
502.522	88.62
502.739	89.62
502.956	90.62
503.172	74.62
503.389	94.62
503.606	88.62
503.823	93.62
504.04	89.62
504.256	80.62
504.473	70.62
504.69	70.62
504.907	95.62
505.123	84.62
505.34	85.62
505.557	88.62
505.773	71.62
505.99	95.62
506.207	96.62
506.423	76.62
506.64	59.62
506.856	78.62
507.073	77.62
507.289	99.62
507.506	94.62
507.722	103.62
507.939	88.62
508.155	79.62
508.372	91.62
508.588	95.62
508.805	87.62
509.021	84.62
509.238	83.62
509.454	90.62
509.67	70.62
509.887	75.62
510.103	83.62
510.319	73.62
510.536	79.62
510.752	77.62
510.968	80.62
511.184	83.62
511.401	76.62
511.617	84.62
511.833	75.62
512.049	92.62
512.265	86.62
512.481	83.62
512.698	82.62
512.914	79.62
513.13	81.62
513.346	89.62
513.562	86.62
513.778	89.62
513.994	96.62
514.21	81.62
514.426	85.62
514.642	74.62
514.858	76.62
515.074	73.62
515.29	97.62
515.506	88.62
515.721	64.62
515.937	85.62
516.153	92.62
516.369	83.62
516.585	88.62
516.801	88.62
517.016	81.62
517.232	87.62
517.448	93.62
517.664	83.62
517.879	84.62
518.095	77.62
518.311	67.62
518.527	75.62
518.742	95.62
518.958	73.62
519.173	87.62
519.389	77.62
519.605	94.62
519.82	79.62
520.036	89.62
