Data from Background_3_HRD10591_00011.txt Node
Date: Wed Nov 05 14:49:25 EST 2025
User: Yrep
Spectrometer: HR+D1059
Trigger mode: 1
Integration Time (sec): 1.000000E-1
Scans to average: 1
Electric dark correction enabled: true
Nonlinearity correction enabled: false
Boxcar width: 0
XAxis mode: Wavelengths
Number of Pixels in Spectrum: 2048
>>>>>Begin Spectral Data<<<<<
223.165	-14.44
223.4	-14.44
223.635	-14.44
223.869	-6.44
224.104	-25.44
224.338	-9.44
224.573	-22.44
224.808	-15.44
225.042	-23.44
225.277	3.56
225.511	-12.44
225.746	10.56
225.98	5.56
226.215	12.56
226.449	14.56
226.683	13.56
226.918	27.56
227.152	41.56
227.387	40.56
227.621	47.56
227.856	45.56
228.09	51.56
228.324	57.56
228.559	78.56
228.793	71.56
229.027	62.56
229.262	72.56
229.496	52.56
229.73	72.56
229.964	67.56
230.199	64.56
230.433	92.56
230.667	81.56
230.901	84.56
231.136	92.56
231.37	70.56
231.604	72.56
231.838	85.56
232.072	99.56
232.306	80.56
232.541	74.56
232.775	82.56
233.009	82.56
233.243	76.56
233.477	82.56
233.711	91.56
233.945	72.56
234.179	79.56
234.413	89.56
234.647	82.56
234.881	80.56
235.115	83.56
235.349	78.56
235.583	92.56
235.817	92.56
236.051	70.56
236.285	92.56
236.519	73.56
236.753	65.56
236.987	85.56
237.221	95.56
237.455	89.56
237.689	93.56
237.922	83.56
238.156	75.56
238.39	93.56
238.624	88.56
238.858	79.56
239.091	81.56
239.325	91.56
239.559	89.56
239.793	84.56
240.027	84.56
240.26	93.56
240.494	79.56
240.728	85.56
240.961	76.56
241.195	73.56
241.429	76.56
241.662	78.56
241.896	82.56
242.13	71.56
242.363	86.56
242.597	69.56
242.83	70.56
243.064	67.56
243.298	83.56
243.531	86.56
243.765	76.56
243.998	87.56
244.232	81.56
244.465	95.56
244.699	86.56
244.932	92.56
245.166	86.56
245.399	79.56
245.633	71.56
245.866	75.56
246.099	84.56
246.333	82.56
246.566	71.56
246.8	87.56
247.033	71.56
247.266	66.56
247.5	85.56
247.733	83.56
247.966	87.56
248.2	92.56
248.433	76.56
248.666	93.56
248.899	83.56
249.133	84.56
249.366	84.56
249.599	81.56
249.832	66.56
250.066	90.56
250.299	94.56
250.532	98.56
250.765	83.56
250.998	84.56
251.231	92.56
251.465	90.56
251.698	93.56
251.931	87.56
252.164	90.56
252.397	88.56
252.63	82.56
252.863	82.56
253.096	86.56
253.329	66.56
253.562	75.56
253.795	88.56
254.028	79.56
254.261	95.56
254.494	94.56
254.727	86.56
254.96	89.56
255.193	90.56
255.426	79.56
255.659	70.56
255.892	83.56
256.124	86.56
256.357	80.56
256.59	67.56
256.823	82.56
257.056	92.56
257.289	82.56
257.521	86.56
257.754	72.56
257.987	74.56
258.22	94.56
258.452	95.56
258.685	60.56
258.918	88.56
259.151	76.56
259.383	85.56
259.616	82.56
259.849	76.56
260.081	87.56
260.314	77.56
260.547	83.56
260.779	83.56
261.012	98.56
261.244	80.56
261.477	85.56
261.71	91.56
261.942	80.56
262.175	86.56
262.407	93.56
262.64	80.56
262.872	76.56
263.105	76.56
263.337	81.56
263.57	83.56
263.802	96.56
264.035	81.56
264.267	82.56
264.499	82.56
264.732	75.56
264.964	84.56
265.197	85.56
265.429	82.56
265.661	80.56
265.894	90.56
266.126	66.56
266.358	82.56
266.591	83.56
266.823	96.56
267.055	80.56
267.287	90.56
267.52	90.56
267.752	87.56
267.984	80.56
268.216	93.56
268.448	90.56
268.681	92.56
268.913	88.56
269.145	97.56
269.377	97.56
269.609	97.56
269.841	92.56
270.073	86.56
270.306	62.56
270.538	82.56
270.77	80.56
271.002	86.56
271.234	95.56
271.466	92.56
271.698	95.56
271.93	86.56
272.162	94.56
272.394	96.56
272.626	86.56
272.858	98.56
273.09	90.56
273.322	93.56
273.553	97.56
273.785	97.56
274.017	87.56
274.249	86.56
274.481	78.56
274.713	86.56
274.945	75.56
275.176	96.56
275.408	83.56
275.64	82.56
275.872	82.56
276.104	86.56
276.335	85.56
276.567	83.56
276.799	90.56
277.031	82.56
277.262	83.56
277.494	105.56
277.726	81.56
277.957	102.56
278.189	82.56
278.421	91.56
278.652	90.56
278.884	79.56
279.115	96.56
279.347	86.56
279.579	72.56
279.81	91.56
280.042	86.56
280.273	87.56
280.505	91.56
280.736	77.56
280.968	82.56
281.199	84.56
281.431	92.56
281.662	96.56
281.894	91.56
282.125	90.56
282.356	86.56
282.588	89.56
282.819	89.56
283.051	85.56
283.282	98.56
283.513	88.56
283.745	92.56
283.976	92.56
284.207	92.56
284.439	92.56
284.67	94.56
284.901	73.56
285.132	93.56
285.364	89.56
285.595	101.56
285.826	88.56
286.057	95.56
286.288	90.56
286.52	83.56
286.751	81.56
286.982	83.56
287.213	94.56
287.444	102.56
287.675	90.56
287.906	86.56
288.138	81.56
288.369	87.56
288.6	89.56
288.831	78.56
289.062	89.56
289.293	94.56
289.524	98.56
289.755	89.56
289.986	103.56
290.217	109.56
290.448	100.56
290.679	80.56
290.91	93.56
291.141	82.56
291.371	97.56
291.602	99.56
291.833	92.56
292.064	101.56
292.295	90.56
292.526	86.56
292.757	85.56
292.987	90.56
293.218	94.56
293.449	88.56
293.68	84.56
293.91	88.56
294.141	97.56
294.372	96.56
294.603	88.56
294.833	83.56
295.064	95.56
295.295	77.56
295.525	101.56
295.756	84.56
295.987	86.56
296.217	93.56
296.448	98.56
296.679	88.56
296.909	94.56
297.14	94.56
297.37	103.56
297.601	81.56
297.831	98.56
298.062	90.56
298.292	96.56
298.523	86.56
298.753	82.56
298.984	87.56
299.214	91.56
299.445	82.56
299.675	98.56
299.905	71.56
300.136	90.56
300.366	83.56
300.597	87.56
300.827	94.56
301.057	95.56
301.288	88.56
301.518	82.56
301.748	97.56
301.979	93.56
302.209	86.56
302.439	102.56
302.669	84.56
302.9	87.56
303.13	89.56
303.36	94.56
303.59	80.56
303.82	89.56
304.051	98.56
304.281	90.56
304.511	99.56
304.741	88.56
304.971	102.56
305.201	80.56
305.431	89.56
305.661	86.56
305.891	89.56
306.121	85.56
306.352	106.56
306.582	102.56
306.812	96.56
307.042	96.56
307.272	87.56
307.502	97.56
307.731	85.56
307.961	91.56
308.191	99.56
308.421	92.56
308.651	103.56
308.881	97.56
309.111	98.56
309.341	89.56
309.571	108.56
309.8	92.56
310.03	82.56
310.26	88.56
310.49	98.56
310.72	105.56
310.949	88.56
311.179	92.56
311.409	85.56
311.639	94.56
311.868	74.56
312.098	93.56
312.328	88.56
312.557	98.56
312.787	92.56
313.017	84.56
313.246	87.56
313.476	96.56
313.706	92.56
313.935	89.56
314.165	80.56
314.394	80.56
314.624	96.56
314.853	95.56
315.083	104.56
315.312	88.56
315.542	79.56
315.771	87.56
316.001	108.56
316.23	97.56
316.46	82.56
316.689	90.56
316.919	77.56
317.148	74.56
317.377	90.56
317.607	96.56
317.836	78.56
318.065	86.56
318.295	82.56
318.524	99.56
318.753	87.56
318.983	101.56
319.212	91.56
319.441	89.56
319.67	103.56
319.9	86.56
320.129	77.56
320.358	87.56
320.587	75.56
320.816	88.56
321.046	96.56
321.275	90.56
321.504	89.56
321.733	95.56
321.962	90.56
322.191	95.56
322.42	93.56
322.649	96.56
322.878	89.56
323.108	83.56
323.337	85.56
323.566	103.56
323.795	106.56
324.024	93.56
324.253	88.56
324.482	86.56
324.71	89.56
324.939	84.56
325.168	78.56
325.397	93.56
325.626	82.56
325.855	89.56
326.084	98.56
326.313	98.56
326.542	87.56
326.77	72.56
326.999	77.56
327.228	89.56
327.457	85.56
327.686	85.56
327.914	94.56
328.143	96.56
328.372	79.56
328.6	89.56
328.829	83.56
329.058	94.56
329.287	96.56
329.515	78.56
329.744	97.56
329.972	84.56
330.201	108.56
330.43	97.56
330.658	98.56
330.887	98.56
331.115	84.56
331.344	95.56
331.572	98.56
331.801	84.56
332.03	88.56
332.258	100.56
332.486	87.56
332.715	84.56
332.943	88.56
333.172	98.56
333.4	92.56
333.629	92.56
333.857	91.56
334.085	109.56
334.314	93.56
334.542	82.56
334.771	88.56
334.999	75.56
335.227	88.56
335.455	87.56
335.684	84.56
335.912	90.56
336.14	96.56
336.369	92.56
336.597	81.56
336.825	87.56
337.053	85.56
337.281	83.56
337.51	110.56
337.738	105.56
337.966	82.56
338.194	91.56
338.422	89.56
338.65	81.56
338.878	96.56
339.106	78.56
339.334	96.56
339.562	88.56
339.79	94.56
340.018	89.56
340.246	85.56
340.474	104.56
340.702	86.56
340.93	83.56
341.158	85.56
341.386	87.56
341.614	90.56
341.842	73.56
342.07	82.56
342.298	92.56
342.526	94.56
342.754	90.56
342.981	89.56
343.209	65.56
343.437	86.56
343.665	83.56
343.893	74.56
344.12	88.56
344.348	89.56
344.576	86.56
344.804	94.56
345.031	89.56
345.259	83.56
345.487	92.56
345.714	96.56
345.942	86.56
346.17	75.56
346.397	93.56
346.625	83.56
346.853	79.56
347.08	91.56
347.308	77.56
347.535	83.56
347.763	91.56
347.99	83.56
348.218	87.56
348.445	80.56
348.673	79.56
348.9	87.56
349.128	93.56
349.355	92.56
349.583	85.56
349.81	77.56
350.037	92.56
350.265	96.56
350.492	88.56
350.72	92.56
350.947	93.56
351.174	85.56
351.402	100.56
351.629	93.56
351.856	110.56
352.083	89.56
352.311	103.56
352.538	103.56
352.765	93.56
352.992	82.56
353.22	69.56
353.447	87.56
353.674	75.56
353.901	96.56
354.128	105.56
354.355	90.56
354.583	79.56
354.81	83.56
355.037	96.56
355.264	96.56
355.491	75.56
355.718	89.56
355.945	97.56
356.172	85.56
356.399	91.56
356.626	71.56
356.853	87.56
357.08	98.56
357.307	73.56
357.534	87.56
357.761	77.56
357.988	92.56
358.215	89.56
358.441	85.56
358.668	84.56
358.895	93.56
359.122	88.56
359.349	81.56
359.576	91.56
359.802	94.56
360.029	88.56
360.256	89.56
360.483	103.56
360.709	79.56
360.936	92.56
361.163	86.56
361.39	102.56
361.616	97.56
361.843	87.56
362.07	82.56
362.296	82.56
362.523	83.56
362.749	80.56
362.976	86.56
363.203	89.56
363.429	82.56
363.656	96.56
363.882	98.56
364.109	95.56
364.335	93.56
364.562	85.56
364.788	87.56
365.015	94.56
365.241	85.56
365.468	98.56
365.694	91.56
365.92	97.56
366.147	83.56
366.373	74.56
366.599	80.56
366.826	98.56
367.052	91.56
367.278	87.56
367.505	90.56
367.731	97.56
367.957	88.56
368.184	81.56
368.41	95.56
368.636	77.56
368.862	87.56
369.089	97.56
369.315	74.56
369.541	90.56
369.767	85.56
369.993	81.56
370.219	99.56
370.445	72.56
370.672	72.56
370.898	84.56
371.124	90.56
371.35	88.56
371.576	83.56
371.802	85.56
372.028	90.56
372.254	103.56
372.48	82.56
372.706	96.56
372.932	103.56
373.158	83.56
373.384	90.56
373.61	83.56
373.835	98.56
374.061	73.56
374.287	83.56
374.513	81.56
374.739	92.56
374.965	82.56
375.191	101.56
375.416	95.56
375.642	101.56
375.868	87.56
376.094	80.56
376.319	85.56
376.545	78.56
376.771	87.56
376.997	91.56
377.222	81.56
377.448	89.56
377.674	83.56
377.899	83.56
378.125	88.56
378.35	93.56
378.576	91.56
378.802	82.56
379.027	78.56
379.253	89.56
379.478	79.56
379.704	86.56
379.929	81.56
380.155	85.56
380.38	95.56
380.606	94.56
380.831	96.56
381.057	92.56
381.282	88.56
381.507	72.56
381.733	87.56
381.958	100.56
382.184	86.56
382.409	96.56
382.634	94.56
382.86	79.56
383.085	97.56
383.31	88.56
383.535	98.56
383.761	86.56
383.986	88.56
384.211	79.56
384.436	91.56
384.662	102.56
384.887	96.56
385.112	95.56
385.337	81.56
385.562	83.56
385.787	88.56
386.013	72.56
386.238	92.56
386.463	89.56
386.688	96.56
386.913	81.56
387.138	88.56
387.363	76.56
387.588	74.56
387.813	90.56
388.038	97.56
388.263	95.56
388.488	90.56
388.713	87.56
388.938	82.56
389.163	77.56
389.387	80.56
389.612	74.56
389.837	69.56
390.062	84.56
390.287	82.56
390.512	71.56
390.736	100.56
390.961	98.56
391.186	92.56
391.411	77.56
391.636	75.56
391.86	78.56
392.085	88.56
392.31	84.56
392.534	72.56
392.759	88.56
392.984	93.56
393.208	90.56
393.433	84.56
393.658	73.56
393.882	74.56
394.107	82.56
394.331	86.56
394.556	92.56
394.78	81.56
395.005	97.56
395.229	105.56
395.454	87.56
395.678	90.56
395.903	90.56
396.127	95.56
396.352	91.56
396.576	78.56
396.801	88.56
397.025	85.56
397.249	97.56
397.474	81.56
397.698	84.56
397.922	73.56
398.147	72.56
398.371	98.56
398.595	88.56
398.82	73.56
399.044	79.56
399.268	88.56
399.492	87.56
399.717	82.56
399.941	97.56
400.165	90.56
400.389	84.56
400.613	90.56
400.837	88.56
401.062	84.56
401.286	82.56
401.51	79.56
401.734	68.56
401.958	92.56
402.182	76.56
402.406	89.56
402.63	98.56
402.854	90.56
403.078	87.56
403.302	75.56
403.526	82.56
403.75	82.56
403.974	83.56
404.198	71.56
404.422	92.56
404.645	86.56
404.869	83.56
405.093	92.56
405.317	92.56
405.541	77.56
405.765	74.56
405.988	82.56
406.212	82.56
406.436	92.56
406.66	89.56
406.883	82.56
407.107	96.56
407.331	83.56
407.555	84.56
407.778	91.56
408.002	90.56
408.226	83.56
408.449	90.56
408.673	84.56
408.896	87.56
409.12	80.56
409.344	94.56
409.567	83.56
409.791	88.56
410.014	82.56
410.238	89.56
410.461	82.56
410.685	64.56
410.908	68.56
411.132	73.56
411.355	95.56
411.578	96.56
411.802	77.56
412.025	84.56
412.249	79.56
412.472	83.56
412.695	90.56
412.919	94.56
413.142	94.56
413.365	65.56
413.589	82.56
413.812	81.56
414.035	78.56
414.258	96.56
414.482	88.56
414.705	89.56
414.928	80.56
415.151	73.56
415.374	80.56
415.597	90.56
415.821	84.56
416.044	84.56
416.267	85.56
416.49	81.56
416.713	95.56
416.936	92.56
417.159	90.56
417.382	72.56
417.605	76.56
417.828	80.56
418.051	80.56
418.274	74.56
418.497	85.56
418.72	81.56
418.943	89.56
419.166	86.56
419.389	84.56
419.611	85.56
419.834	87.56
420.057	101.56
420.28	89.56
420.503	78.56
420.726	79.56
420.948	82.56
421.171	82.56
421.394	90.56
421.617	68.56
421.839	81.56
422.062	93.56
422.285	78.56
422.507	82.56
422.73	88.56
422.953	80.56
423.175	86.56
423.398	83.56
423.621	85.56
423.843	76.56
424.066	83.56
424.288	81.56
424.511	82.56
424.733	79.56
424.956	69.56
425.178	92.56
425.401	78.56
425.623	88.56
425.846	73.56
426.068	99.56
426.291	88.56
426.513	88.56
426.735	77.56
426.958	87.56
427.18	84.56
427.402	86.56
427.625	67.56
427.847	76.56
428.069	90.56
428.292	87.56
428.514	96.56
428.736	94.56
428.958	80.56
429.181	101.56
429.403	88.56
429.625	90.56
429.847	78.56
430.069	81.56
430.292	91.56
430.514	84.56
430.736	69.56
430.958	90.56
431.18	77.56
431.402	100.56
431.624	82.56
431.846	80.56
432.068	84.56
432.29	86.56
432.512	78.56
432.734	89.56
432.956	88.56
433.178	94.56
433.4	89.56
433.622	81.56
433.844	85.56
434.066	82.56
434.287	95.56
434.509	94.56
434.731	87.56
434.953	78.56
435.175	82.56
435.397	82.56
435.618	78.56
435.84	85.56
436.062	84.56
436.284	78.56
436.505	87.56
436.727	97.56
436.949	90.56
437.17	85.56
437.392	68.56
437.614	94.56
437.835	95.56
438.057	84.56
438.278	88.56
438.5	73.56
438.721	76.56
438.943	95.56
439.165	75.56
439.386	84.56
439.608	89.56
439.829	87.56
440.05	85.56
440.272	81.56
440.493	85.56
440.715	91.56
440.936	84.56
441.158	88.56
441.379	71.56
441.6	82.56
441.822	97.56
442.043	85.56
442.264	74.56
442.486	84.56
442.707	79.56
442.928	86.56
443.149	71.56
443.371	76.56
443.592	72.56
443.813	85.56
444.034	80.56
444.255	79.56
444.476	90.56
444.698	82.56
444.919	74.56
445.14	165.56
445.361	128.56
445.582	82.56
445.803	73.56
446.024	90.56
446.245	76.56
446.466	82.56
446.687	78.56
446.908	79.56
447.129	79.56
447.35	81.56
447.571	88.56
447.792	78.56
448.013	78.56
448.234	67.56
448.455	81.56
448.675	73.56
448.896	74.56
449.117	94.56
449.338	96.56
449.559	78.56
449.779	80.56
450	85.56
450.221	93.56
450.442	94.56
450.662	85.56
450.883	70.56
451.104	68.56
451.324	77.56
451.545	75.56
451.766	88.56
451.986	87.56
452.207	94.56
452.428	86.56
452.648	90.56
452.869	88.56
453.089	87.56
453.31	79.56
453.53	85.56
453.751	72.56
453.971	97.56
454.192	80.56
454.412	94.56
454.633	74.56
454.853	65.56
455.073	82.56
455.294	99.56
455.514	80.56
455.734	76.56
455.955	96.56
456.175	85.56
456.395	76.56
456.616	86.56
456.836	95.56
457.056	79.56
457.276	80.56
457.497	77.56
457.717	97.56
457.937	84.56
458.157	81.56
458.377	85.56
458.598	89.56
458.818	73.56
459.038	93.56
459.258	97.56
459.478	83.56
459.698	84.56
459.918	80.56
460.138	88.56
460.358	67.56
460.578	80.56
460.798	86.56
461.018	85.56
461.238	78.56
461.458	83.56
461.678	85.56
461.898	84.56
462.118	71.56
462.338	95.56
462.558	83.56
462.777	76.56
462.997	112.56
463.217	101.56
463.437	67.56
463.657	66.56
463.876	74.56
464.096	82.56
464.316	86.56
464.536	79.56
464.755	81.56
464.975	89.56
465.195	81.56
465.414	85.56
465.634	82.56
465.854	91.56
466.073	84.56
466.293	84.56
466.512	88.56
466.732	84.56
466.951	88.56
467.171	77.56
467.391	88.56
467.61	81.56
467.829	77.56
468.049	89.56
468.268	73.56
468.488	82.56
468.707	94.56
468.927	70.56
469.146	78.56
469.365	94.56
469.585	88.56
469.804	93.56
470.023	72.56
470.243	90.56
470.462	79.56
470.681	92.56
470.901	89.56
471.12	80.56
471.339	87.56
471.558	80.56
471.777	93.56
471.997	74.56
472.216	88.56
472.435	80.56
472.654	84.56
472.873	87.56
473.092	100.56
473.311	86.56
473.53	85.56
473.749	93.56
473.968	90.56
474.187	80.56
474.406	92.56
474.625	101.56
474.844	78.56
475.063	87.56
475.282	78.56
475.501	84.56
475.72	86.56
475.939	79.56
476.158	72.56
476.377	87.56
476.596	74.56
476.814	92.56
477.033	91.56
477.252	102.56
477.471	70.56
477.69	85.56
477.908	100.56
478.127	95.56
478.346	80.56
478.564	95.56
478.783	88.56
479.002	87.56
479.22	90.56
479.439	94.56
479.658	85.56
479.876	92.56
480.095	84.56
480.313	105.56
480.532	81.56
480.751	98.56
480.969	86.56
481.188	89.56
481.406	83.56
481.624	88.56
481.843	84.56
482.061	85.56
482.28	96.56
482.498	84.56
482.717	80.56
482.935	80.56
483.153	95.56
483.372	89.56
483.59	72.56
483.808	86.56
484.027	84.56
484.245	77.56
484.463	90.56
484.681	89.56
484.9	82.56
485.118	89.56
485.336	91.56
485.554	101.56
485.772	80.56
485.99	88.56
486.209	82.56
486.427	77.56
486.645	87.56
486.863	91.56
487.081	80.56
487.299	81.56
487.517	78.56
487.735	84.56
487.953	92.56
488.171	84.56
488.389	74.56
488.607	89.56
488.825	84.56
489.043	94.56
489.261	83.56
489.479	93.56
489.696	85.56
489.914	84.56
490.132	88.56
490.35	77.56
490.568	76.56
490.786	96.56
491.003	96.56
491.221	75.56
491.439	92.56
491.657	86.56
491.874	78.56
492.092	78.56
492.31	98.56
492.527	90.56
492.745	100.56
492.963	82.56
493.18	84.56
493.398	72.56
493.615	70.56
493.833	84.56
494.05	93.56
494.268	92.56
494.485	88.56
494.703	84.56
494.92	90.56
495.138	94.56
495.355	80.56
495.573	85.56
495.79	78.56
496.008	88.56
496.225	87.56
496.442	84.56
496.66	92.56
496.877	94.56
497.094	85.56
497.312	97.56
497.529	68.56
497.746	80.56
497.963	81.56
498.181	74.56
498.398	78.56
498.615	96.56
498.832	97.56
499.049	81.56
499.267	90.56
499.484	84.56
499.701	74.56
499.918	88.56
500.135	85.56
500.352	88.56
500.569	97.56
500.786	74.56
501.003	88.56
501.22	84.56
501.437	90.56
501.654	80.56
501.871	86.56
502.088	97.56
502.305	61.56
502.522	82.56
502.739	97.56
502.956	86.56
503.172	89.56
503.389	74.56
503.606	82.56
503.823	89.56
504.04	88.56
504.256	81.56
504.473	89.56
504.69	75.56
504.907	87.56
505.123	81.56
505.34	83.56
505.557	80.56
505.773	75.56
505.99	68.56
506.207	64.56
506.423	84.56
506.64	99.56
506.856	88.56
507.073	89.56
507.289	80.56
507.506	85.56
507.722	84.56
507.939	90.56
508.155	87.56
508.372	93.56
508.588	71.56
508.805	91.56
509.021	78.56
509.238	97.56
509.454	71.56
509.67	84.56
509.887	80.56
510.103	74.56
510.319	84.56
510.536	110.56
510.752	84.56
510.968	79.56
511.184	93.56
511.401	86.56
511.617	84.56
511.833	89.56
512.049	92.56
512.265	91.56
512.481	89.56
512.698	87.56
512.914	90.56
513.13	100.56
513.346	90.56
513.562	89.56
513.778	95.56
513.994	69.56
514.21	78.56
514.426	76.56
514.642	81.56
514.858	73.56
515.074	75.56
515.29	94.56
515.506	88.56
515.721	97.56
515.937	82.56
516.153	88.56
516.369	87.56
516.585	77.56
516.801	88.56
517.016	101.56
517.232	91.56
517.448	100.56
517.664	81.56
517.879	94.56
518.095	78.56
518.311	82.56
518.527	94.56
518.742	96.56
518.958	82.56
519.173	93.56
519.389	84.56
