Data from Background_3_HRD10591_00095.txt Node
Date: Wed Nov 05 14:50:07 EST 2025
User: Yrep
Spectrometer: HR+D1059
Trigger mode: 1
Integration Time (sec): 1.000000E-1
Scans to average: 1
Electric dark correction enabled: true
Nonlinearity correction enabled: false
Boxcar width: 0
XAxis mode: Wavelengths
Number of Pixels in Spectrum: 2048
>>>>>Begin Spectral Data<<<<<
223.165	-12.06
223.4	-12.06
223.635	-12.06
223.869	-14.06
224.104	-26.06
224.338	-21.06
224.573	-14.06
224.808	-16.06
225.042	-4.06
225.277	6.94
225.511	-1.06
225.746	11.94
225.98	20.94
226.215	1.94
226.449	6.94
226.683	9.94
226.918	19.94
227.152	29.94
227.387	28.94
227.621	49.94
227.856	43.94
228.09	47.94
228.324	55.94
228.559	64.94
228.793	60.94
229.027	67.94
229.262	61.94
229.496	68.94
229.73	69.94
229.964	69.94
230.199	76.94
230.433	88.94
230.667	62.94
230.901	79.94
231.136	82.94
231.37	80.94
231.604	80.94
231.838	85.94
232.072	88.94
232.306	79.94
232.541	73.94
232.775	74.94
233.009	69.94
233.243	83.94
233.477	58.94
233.711	75.94
233.945	69.94
234.179	81.94
234.413	84.94
234.647	83.94
234.881	87.94
235.115	66.94
235.349	83.94
235.583	90.94
235.817	75.94
236.051	68.94
236.285	71.94
236.519	65.94
236.753	77.94
236.987	77.94
237.221	74.94
237.455	72.94
237.689	83.94
237.922	63.94
238.156	73.94
238.39	83.94
238.624	72.94
238.858	84.94
239.091	75.94
239.325	68.94
239.559	75.94
239.793	71.94
240.027	69.94
240.26	73.94
240.494	70.94
240.728	54.94
240.961	60.94
241.195	76.94
241.429	83.94
241.662	65.94
241.896	87.94
242.13	64.94
242.363	67.94
242.597	80.94
242.83	69.94
243.064	73.94
243.298	69.94
243.531	55.94
243.765	68.94
243.998	67.94
244.232	82.94
244.465	85.94
244.699	81.94
244.932	82.94
245.166	89.94
245.399	74.94
245.633	76.94
245.866	75.94
246.099	80.94
246.333	71.94
246.566	86.94
246.8	59.94
247.033	80.94
247.266	62.94
247.5	76.94
247.733	75.94
247.966	90.94
248.2	70.94
248.433	77.94
248.666	84.94
248.899	85.94
249.133	82.94
249.366	87.94
249.599	82.94
249.832	77.94
250.066	88.94
250.299	89.94
250.532	88.94
250.765	83.94
250.998	68.94
251.231	79.94
251.465	85.94
251.698	75.94
251.931	60.94
252.164	89.94
252.397	66.94
252.63	77.94
252.863	72.94
253.096	68.94
253.329	86.94
253.562	78.94
253.795	70.94
254.028	77.94
254.261	87.94
254.494	92.94
254.727	82.94
254.96	86.94
255.193	80.94
255.426	82.94
255.659	86.94
255.892	100.94
256.124	68.94
256.357	89.94
256.59	78.94
256.823	74.94
257.056	72.94
257.289	77.94
257.521	73.94
257.754	79.94
257.987	68.94
258.22	75.94
258.452	77.94
258.685	76.94
258.918	89.94
259.151	77.94
259.383	80.94
259.616	74.94
259.849	67.94
260.081	73.94
260.314	62.94
260.547	75.94
260.779	74.94
261.012	74.94
261.244	70.94
261.477	92.94
261.71	85.94
261.942	91.94
262.175	76.94
262.407	75.94
262.64	77.94
262.872	91.94
263.105	76.94
263.337	80.94
263.57	88.94
263.802	82.94
264.035	96.94
264.267	83.94
264.499	71.94
264.732	91.94
264.964	82.94
265.197	95.94
265.429	90.94
265.661	92.94
265.894	86.94
266.126	105.94
266.358	89.94
266.591	78.94
266.823	68.94
267.055	92.94
267.287	71.94
267.52	79.94
267.752	101.94
267.984	101.94
268.216	91.94
268.448	84.94
268.681	72.94
268.913	83.94
269.145	66.94
269.377	84.94
269.609	75.94
269.841	92.94
270.073	88.94
270.306	75.94
270.538	73.94
270.77	73.94
271.002	76.94
271.234	81.94
271.466	89.94
271.698	84.94
271.93	84.94
272.162	82.94
272.394	70.94
272.626	60.94
272.858	73.94
273.09	80.94
273.322	76.94
273.553	84.94
273.785	75.94
274.017	75.94
274.249	84.94
274.481	86.94
274.713	71.94
274.945	69.94
275.176	74.94
275.408	84.94
275.64	77.94
275.872	83.94
276.104	77.94
276.335	91.94
276.567	92.94
276.799	85.94
277.031	81.94
277.262	86.94
277.494	84.94
277.726	84.94
277.957	77.94
278.189	79.94
278.421	80.94
278.652	81.94
278.884	85.94
279.115	79.94
279.347	85.94
279.579	76.94
279.81	67.94
280.042	79.94
280.273	83.94
280.505	74.94
280.736	89.94
280.968	96.94
281.199	79.94
281.431	83.94
281.662	80.94
281.894	97.94
282.125	95.94
282.356	82.94
282.588	75.94
282.819	91.94
283.051	69.94
283.282	64.94
283.513	82.94
283.745	79.94
283.976	75.94
284.207	72.94
284.439	93.94
284.67	91.94
284.901	94.94
285.132	67.94
285.364	70.94
285.595	82.94
285.826	70.94
286.057	79.94
286.288	72.94
286.52	75.94
286.751	72.94
286.982	88.94
287.213	87.94
287.444	90.94
287.675	77.94
287.906	103.94
288.138	89.94
288.369	90.94
288.6	79.94
288.831	83.94
289.062	92.94
289.293	74.94
289.524	75.94
289.755	90.94
289.986	74.94
290.217	90.94
290.448	95.94
290.679	84.94
290.91	75.94
291.141	74.94
291.371	81.94
291.602	93.94
291.833	82.94
292.064	86.94
292.295	88.94
292.526	88.94
292.757	79.94
292.987	88.94
293.218	79.94
293.449	77.94
293.68	77.94
293.91	97.94
294.141	78.94
294.372	96.94
294.603	101.94
294.833	96.94
295.064	77.94
295.295	73.94
295.525	79.94
295.756	72.94
295.987	68.94
296.217	74.94
296.448	67.94
296.679	90.94
296.909	90.94
297.14	78.94
297.37	91.94
297.601	75.94
297.831	63.94
298.062	80.94
298.292	70.94
298.523	89.94
298.753	82.94
298.984	79.94
299.214	82.94
299.445	88.94
299.675	84.94
299.905	81.94
300.136	82.94
300.366	90.94
300.597	85.94
300.827	87.94
301.057	74.94
301.288	67.94
301.518	75.94
301.748	81.94
301.979	83.94
302.209	96.94
302.439	69.94
302.669	90.94
302.9	87.94
303.13	82.94
303.36	88.94
303.59	83.94
303.82	84.94
304.051	74.94
304.281	80.94
304.511	84.94
304.741	84.94
304.971	87.94
305.201	89.94
305.431	80.94
305.661	77.94
305.891	74.94
306.121	82.94
306.352	90.94
306.582	77.94
306.812	87.94
307.042	77.94
307.272	72.94
307.502	87.94
307.731	83.94
307.961	83.94
308.191	81.94
308.421	70.94
308.651	85.94
308.881	83.94
309.111	89.94
309.341	87.94
309.571	94.94
309.8	81.94
310.03	65.94
310.26	76.94
310.49	87.94
310.72	83.94
310.949	81.94
311.179	80.94
311.409	89.94
311.639	75.94
311.868	84.94
312.098	84.94
312.328	97.94
312.557	83.94
312.787	80.94
313.017	83.94
313.246	81.94
313.476	80.94
313.706	74.94
313.935	83.94
314.165	68.94
314.394	80.94
314.624	80.94
314.853	91.94
315.083	90.94
315.312	79.94
315.542	84.94
315.771	87.94
316.001	76.94
316.23	93.94
316.46	68.94
316.689	73.94
316.919	73.94
317.148	95.94
317.377	89.94
317.607	82.94
317.836	69.94
318.065	72.94
318.295	81.94
318.524	76.94
318.753	74.94
318.983	83.94
319.212	83.94
319.441	81.94
319.67	83.94
319.9	78.94
320.129	83.94
320.358	70.94
320.587	89.94
320.816	79.94
321.046	81.94
321.275	76.94
321.504	79.94
321.733	91.94
321.962	98.94
322.191	89.94
322.42	85.94
322.649	71.94
322.878	71.94
323.108	77.94
323.337	88.94
323.566	90.94
323.795	80.94
324.024	77.94
324.253	90.94
324.482	73.94
324.71	81.94
324.939	88.94
325.168	83.94
325.397	82.94
325.626	85.94
325.855	89.94
326.084	87.94
326.313	98.94
326.542	88.94
326.77	96.94
326.999	82.94
327.228	86.94
327.457	83.94
327.686	89.94
327.914	71.94
328.143	76.94
328.372	72.94
328.6	88.94
328.829	75.94
329.058	77.94
329.287	72.94
329.515	88.94
329.744	86.94
329.972	86.94
330.201	84.94
330.43	83.94
330.658	69.94
330.887	76.94
331.115	83.94
331.344	82.94
331.572	83.94
331.801	87.94
332.03	82.94
332.258	90.94
332.486	84.94
332.715	79.94
332.943	87.94
333.172	87.94
333.4	88.94
333.629	97.94
333.857	85.94
334.085	79.94
334.314	87.94
334.542	82.94
334.771	68.94
334.999	84.94
335.227	74.94
335.455	88.94
335.684	83.94
335.912	83.94
336.14	87.94
336.369	77.94
336.597	81.94
336.825	88.94
337.053	81.94
337.281	96.94
337.51	85.94
337.738	79.94
337.966	84.94
338.194	77.94
338.422	83.94
338.65	65.94
338.878	83.94
339.106	81.94
339.334	86.94
339.562	81.94
339.79	95.94
340.018	91.94
340.246	77.94
340.474	75.94
340.702	71.94
340.93	73.94
341.158	69.94
341.386	83.94
341.614	82.94
341.842	65.94
342.07	75.94
342.298	82.94
342.526	72.94
342.754	75.94
342.981	73.94
343.209	77.94
343.437	80.94
343.665	92.94
343.893	72.94
344.12	74.94
344.348	65.94
344.576	80.94
344.804	67.94
345.031	72.94
345.259	71.94
345.487	75.94
345.714	74.94
345.942	71.94
346.17	98.94
346.397	70.94
346.625	76.94
346.853	80.94
347.08	80.94
347.308	69.94
347.535	78.94
347.763	77.94
347.99	82.94
348.218	84.94
348.445	85.94
348.673	64.94
348.9	80.94
349.128	71.94
349.355	76.94
349.583	91.94
349.81	88.94
350.037	81.94
350.265	90.94
350.492	81.94
350.72	67.94
350.947	91.94
351.174	74.94
351.402	81.94
351.629	69.94
351.856	77.94
352.083	79.94
352.311	61.94
352.538	73.94
352.765	75.94
352.992	98.94
353.22	93.94
353.447	82.94
353.674	79.94
353.901	63.94
354.128	78.94
354.355	82.94
354.583	82.94
354.81	93.94
355.037	89.94
355.264	87.94
355.491	88.94
355.718	70.94
355.945	76.94
356.172	88.94
356.399	66.94
356.626	84.94
356.853	96.94
357.08	96.94
357.307	89.94
357.534	73.94
357.761	87.94
357.988	73.94
358.215	76.94
358.441	80.94
358.668	81.94
358.895	97.94
359.122	75.94
359.349	68.94
359.576	79.94
359.802	87.94
360.029	80.94
360.256	80.94
360.483	77.94
360.709	76.94
360.936	71.94
361.163	77.94
361.39	89.94
361.616	74.94
361.843	91.94
362.07	79.94
362.296	74.94
362.523	69.94
362.749	92.94
362.976	71.94
363.203	88.94
363.429	86.94
363.656	80.94
363.882	79.94
364.109	74.94
364.335	67.94
364.562	78.94
364.788	83.94
365.015	91.94
365.241	95.94
365.468	99.94
365.694	89.94
365.92	69.94
366.147	71.94
366.373	76.94
366.599	92.94
366.826	76.94
367.052	59.94
367.278	78.94
367.505	89.94
367.731	82.94
367.957	79.94
368.184	83.94
368.41	79.94
368.636	92.94
368.862	76.94
369.089	74.94
369.315	81.94
369.541	91.94
369.767	73.94
369.993	70.94
370.219	77.94
370.445	77.94
370.672	80.94
370.898	81.94
371.124	88.94
371.35	73.94
371.576	79.94
371.802	71.94
372.028	76.94
372.254	77.94
372.48	79.94
372.706	81.94
372.932	80.94
373.158	80.94
373.384	70.94
373.61	81.94
373.835	80.94
374.061	66.94
374.287	84.94
374.513	83.94
374.739	72.94
374.965	81.94
375.191	80.94
375.416	71.94
375.642	83.94
375.868	84.94
376.094	83.94
376.319	79.94
376.545	64.94
376.771	83.94
376.997	81.94
377.222	85.94
377.448	81.94
377.674	86.94
377.899	77.94
378.125	70.94
378.35	82.94
378.576	84.94
378.802	79.94
379.027	72.94
379.253	75.94
379.478	79.94
379.704	81.94
379.929	84.94
380.155	101.94
380.38	75.94
380.606	84.94
380.831	74.94
381.057	89.94
381.282	70.94
381.507	81.94
381.733	86.94
381.958	89.94
382.184	68.94
382.409	79.94
382.634	70.94
382.86	75.94
383.085	72.94
383.31	78.94
383.535	88.94
383.761	63.94
383.986	63.94
384.211	72.94
384.436	82.94
384.662	70.94
384.887	81.94
385.112	65.94
385.337	89.94
385.562	74.94
385.787	85.94
386.013	93.94
386.238	87.94
386.463	63.94
386.688	88.94
386.913	91.94
387.138	74.94
387.363	82.94
387.588	83.94
387.813	78.94
388.038	81.94
388.263	86.94
388.488	83.94
388.713	63.94
388.938	68.94
389.163	72.94
389.387	75.94
389.612	82.94
389.837	79.94
390.062	73.94
390.287	76.94
390.512	69.94
390.736	68.94
390.961	73.94
391.186	82.94
391.411	63.94
391.636	79.94
391.86	78.94
392.085	80.94
392.31	86.94
392.534	86.94
392.759	86.94
392.984	84.94
393.208	75.94
393.433	74.94
393.658	82.94
393.882	84.94
394.107	79.94
394.331	78.94
394.556	74.94
394.78	82.94
395.005	74.94
395.229	81.94
395.454	80.94
395.678	94.94
395.903	87.94
396.127	67.94
396.352	73.94
396.576	70.94
396.801	76.94
397.025	87.94
397.249	76.94
397.474	77.94
397.698	79.94
397.922	81.94
398.147	78.94
398.371	76.94
398.595	90.94
398.82	80.94
399.044	68.94
399.268	76.94
399.492	75.94
399.717	87.94
399.941	77.94
400.165	68.94
400.389	59.94
400.613	77.94
400.837	79.94
401.062	79.94
401.286	81.94
401.51	84.94
401.734	69.94
401.958	76.94
402.182	75.94
402.406	84.94
402.63	81.94
402.854	84.94
403.078	76.94
403.302	72.94
403.526	92.94
403.75	86.94
403.974	72.94
404.198	59.94
404.422	79.94
404.645	67.94
404.869	88.94
405.093	76.94
405.317	82.94
405.541	89.94
405.765	83.94
405.988	75.94
406.212	81.94
406.436	79.94
406.66	72.94
406.883	71.94
407.107	75.94
407.331	68.94
407.555	70.94
407.778	79.94
408.002	76.94
408.226	63.94
408.449	84.94
408.673	75.94
408.896	81.94
409.12	78.94
409.344	83.94
409.567	69.94
409.791	87.94
410.014	76.94
410.238	82.94
410.461	74.94
410.685	82.94
410.908	80.94
411.132	87.94
411.355	79.94
411.578	80.94
411.802	83.94
412.025	57.94
412.249	79.94
412.472	70.94
412.695	78.94
412.919	76.94
413.142	84.94
413.365	83.94
413.589	67.94
413.812	80.94
414.035	85.94
414.258	75.94
414.482	81.94
414.705	63.94
414.928	76.94
415.151	67.94
415.374	75.94
415.597	88.94
415.821	68.94
416.044	93.94
416.267	71.94
416.49	77.94
416.713	63.94
416.936	85.94
417.159	82.94
417.382	86.94
417.605	64.94
417.828	83.94
418.051	61.94
418.274	75.94
418.497	88.94
418.72	66.94
418.943	71.94
419.166	84.94
419.389	80.94
419.611	96.94
419.834	76.94
420.057	76.94
420.28	85.94
420.503	83.94
420.726	74.94
420.948	69.94
421.171	83.94
421.394	77.94
421.617	76.94
421.839	93.94
422.062	71.94
422.285	65.94
422.507	59.94
422.73	74.94
422.953	74.94
423.175	83.94
423.398	68.94
423.621	84.94
423.843	80.94
424.066	83.94
424.288	72.94
424.511	85.94
424.733	74.94
424.956	80.94
425.178	77.94
425.401	79.94
425.623	72.94
425.846	75.94
426.068	64.94
426.291	91.94
426.513	79.94
426.735	78.94
426.958	85.94
427.18	84.94
427.402	79.94
427.625	78.94
427.847	89.94
428.069	79.94
428.292	96.94
428.514	80.94
428.736	77.94
428.958	73.94
429.181	69.94
429.403	72.94
429.625	69.94
429.847	89.94
430.069	88.94
430.292	80.94
430.514	81.94
430.736	77.94
430.958	73.94
431.18	78.94
431.402	71.94
431.624	71.94
431.846	80.94
432.068	74.94
432.29	73.94
432.512	82.94
432.734	80.94
432.956	72.94
433.178	84.94
433.4	69.94
433.622	91.94
433.844	73.94
434.066	77.94
434.287	82.94
434.509	71.94
434.731	83.94
434.953	78.94
435.175	79.94
435.397	74.94
435.618	75.94
435.84	80.94
436.062	79.94
436.284	83.94
436.505	82.94
436.727	77.94
436.949	63.94
437.17	71.94
437.392	84.94
437.614	76.94
437.835	87.94
438.057	71.94
438.278	75.94
438.5	79.94
438.721	77.94
438.943	75.94
439.165	77.94
439.386	89.94
439.608	81.94
439.829	84.94
440.05	76.94
440.272	85.94
440.493	85.94
440.715	77.94
440.936	84.94
441.158	88.94
441.379	76.94
441.6	71.94
441.822	94.94
442.043	77.94
442.264	76.94
442.486	76.94
442.707	83.94
442.928	57.94
443.149	90.94
443.371	79.94
443.592	77.94
443.813	82.94
444.034	82.94
444.255	64.94
444.476	88.94
444.698	72.94
444.919	72.94
445.14	142.94
445.361	108.94
445.582	65.94
445.803	78.94
446.024	80.94
446.245	88.94
446.466	77.94
446.687	85.94
446.908	83.94
447.129	72.94
447.35	94.94
447.571	83.94
447.792	65.94
448.013	80.94
448.234	56.94
448.455	76.94
448.675	60.94
448.896	64.94
449.117	74.94
449.338	72.94
449.559	84.94
449.779	84.94
450	78.94
450.221	97.94
450.442	80.94
450.662	80.94
450.883	91.94
451.104	89.94
451.324	76.94
451.545	72.94
451.766	79.94
451.986	72.94
452.207	76.94
452.428	68.94
452.648	68.94
452.869	87.94
453.089	95.94
453.31	78.94
453.53	85.94
453.751	91.94
453.971	74.94
454.192	83.94
454.412	92.94
454.633	84.94
454.853	76.94
455.073	88.94
455.294	80.94
455.514	86.94
455.734	80.94
455.955	69.94
456.175	72.94
456.395	83.94
456.616	81.94
456.836	67.94
457.056	73.94
457.276	86.94
457.497	65.94
457.717	75.94
457.937	72.94
458.157	79.94
458.377	84.94
458.598	84.94
458.818	88.94
459.038	77.94
459.258	82.94
459.478	80.94
459.698	82.94
459.918	75.94
460.138	75.94
460.358	62.94
460.578	80.94
460.798	73.94
461.018	88.94
461.238	77.94
461.458	75.94
461.678	77.94
461.898	96.94
462.118	83.94
462.338	92.94
462.558	79.94
462.777	75.94
462.997	73.94
463.217	75.94
463.437	86.94
463.657	77.94
463.876	80.94
464.096	79.94
464.316	83.94
464.536	77.94
464.755	83.94
464.975	81.94
465.195	79.94
465.414	79.94
465.634	85.94
465.854	74.94
466.073	89.94
466.293	81.94
466.512	64.94
466.732	77.94
466.951	85.94
467.171	79.94
467.391	81.94
467.61	68.94
467.829	74.94
468.049	74.94
468.268	76.94
468.488	82.94
468.707	86.94
468.927	93.94
469.146	80.94
469.365	71.94
469.585	81.94
469.804	68.94
470.023	66.94
470.243	75.94
470.462	69.94
470.681	78.94
470.901	93.94
471.12	72.94
471.339	76.94
471.558	77.94
471.777	77.94
471.997	88.94
472.216	68.94
472.435	79.94
472.654	73.94
472.873	72.94
473.092	65.94
473.311	98.94
473.53	77.94
473.749	68.94
473.968	92.94
474.187	81.94
474.406	83.94
474.625	75.94
474.844	75.94
475.063	100.94
475.282	84.94
475.501	75.94
475.72	85.94
475.939	75.94
476.158	72.94
476.377	77.94
476.596	65.94
476.814	75.94
477.033	78.94
477.252	68.94
477.471	84.94
477.69	86.94
477.908	78.94
478.127	75.94
478.346	90.94
478.564	79.94
478.783	79.94
479.002	80.94
479.22	85.94
479.439	87.94
479.658	73.94
479.876	79.94
480.095	84.94
480.313	95.94
480.532	81.94
480.751	78.94
480.969	84.94
481.188	81.94
481.406	92.94
481.624	79.94
481.843	83.94
482.061	81.94
482.28	70.94
482.498	91.94
482.717	90.94
482.935	81.94
483.153	74.94
483.372	61.94
483.59	64.94
483.808	76.94
484.027	81.94
484.245	72.94
484.463	64.94
484.681	84.94
484.9	69.94
485.118	75.94
485.336	88.94
485.554	76.94
485.772	82.94
485.99	88.94
486.209	90.94
486.427	70.94
486.645	85.94
486.863	95.94
487.081	86.94
487.299	73.94
487.517	77.94
487.735	85.94
487.953	71.94
488.171	93.94
488.389	95.94
488.607	75.94
488.825	80.94
489.043	93.94
489.261	84.94
489.479	81.94
489.696	83.94
489.914	87.94
490.132	81.94
490.35	80.94
490.568	76.94
490.786	84.94
491.003	92.94
491.221	72.94
491.439	87.94
491.657	91.94
491.874	67.94
492.092	85.94
492.31	85.94
492.527	72.94
492.745	76.94
492.963	75.94
493.18	88.94
493.398	77.94
493.615	80.94
493.833	78.94
494.05	69.94
494.268	82.94
494.485	84.94
494.703	79.94
494.92	85.94
495.138	93.94
495.355	84.94
495.573	83.94
495.79	83.94
496.008	74.94
496.225	76.94
496.442	82.94
496.66	81.94
496.877	82.94
497.094	87.94
497.312	85.94
497.529	87.94
497.746	89.94
497.963	63.94
498.181	72.94
498.398	86.94
498.615	79.94
498.832	85.94
499.049	85.94
499.267	77.94
499.484	82.94
499.701	93.94
499.918	75.94
500.135	97.94
500.352	84.94
500.569	79.94
500.786	83.94
501.003	90.94
501.22	86.94
501.437	81.94
501.654	80.94
501.871	85.94
502.088	78.94
502.305	72.94
502.522	84.94
502.739	84.94
502.956	75.94
503.172	80.94
503.389	89.94
503.606	79.94
503.823	83.94
504.04	90.94
504.256	73.94
504.473	85.94
504.69	73.94
504.907	92.94
505.123	97.94
505.34	83.94
505.557	62.94
505.773	90.94
505.99	75.94
506.207	68.94
506.423	81.94
506.64	75.94
506.856	76.94
507.073	91.94
507.289	75.94
507.506	70.94
507.722	77.94
507.939	88.94
508.155	67.94
508.372	69.94
508.588	70.94
508.805	73.94
509.021	72.94
509.238	79.94
509.454	76.94
509.67	82.94
509.887	91.94
510.103	72.94
510.319	74.94
510.536	80.94
510.752	76.94
510.968	74.94
511.184	76.94
511.401	77.94
511.617	81.94
511.833	72.94
512.049	79.94
512.265	80.94
512.481	82.94
512.698	81.94
512.914	88.94
513.13	70.94
513.346	81.94
513.562	69.94
513.778	83.94
513.994	85.94
514.21	80.94
514.426	90.94
514.642	87.94
514.858	89.94
515.074	77.94
515.29	85.94
515.506	77.94
515.721	69.94
515.937	83.94
516.153	92.94
516.369	85.94
516.585	90.94
516.801	92.94
517.016	83.94
517.232	95.94
517.448	81.94
517.664	84.94
517.879	89.94
518.095	82.94
518.311	83.94
518.527	74.94
518.742	81.94
518.958	74.94
519.173	64.94
519.389	80.94
519.605	95.94
519.82	99.94
520.036	83.94
