Data from Background_3_HRD10591_00100.txt Node
Date: Wed Nov 05 14:50:09 EST 2025
User: Yrep
Spectrometer: HR+D1059
Trigger mode: 1
Integration Time (sec): 1.000000E-1
Scans to average: 1
Electric dark correction enabled: true
Nonlinearity correction enabled: false
Boxcar width: 0
XAxis mode: Wavelengths
Number of Pixels in Spectrum: 2048
>>>>>Begin Spectral Data<<<<<
223.165	-17.19
223.4	-17.19
223.635	-17.19
223.869	-30.19
224.104	-21.19
224.338	-23.19
224.573	-21.19
224.808	-6.19
225.042	1.81
225.277	-8.19
225.511	-1.19
225.746	-4.19
225.98	12.81
226.215	25.81
226.449	12.81
226.683	24.81
226.918	33.81
227.152	20.81
227.387	32.81
227.621	56.81
227.856	40.81
228.09	65.81
228.324	38.81
228.559	49.81
228.793	50.81
229.027	70.81
229.262	61.81
229.496	67.81
229.73	64.81
229.964	62.81
230.199	70.81
230.433	73.81
230.667	85.81
230.901	74.81
231.136	72.81
231.37	93.81
231.604	82.81
231.838	66.81
232.072	77.81
232.306	68.81
232.541	62.81
232.775	71.81
233.009	61.81
233.243	88.81
233.477	81.81
233.711	77.81
233.945	91.81
234.179	84.81
234.413	88.81
234.647	85.81
234.881	72.81
235.115	72.81
235.349	77.81
235.583	73.81
235.817	81.81
236.051	81.81
236.285	83.81
236.519	77.81
236.753	90.81
236.987	81.81
237.221	92.81
237.455	83.81
237.689	87.81
237.922	78.81
238.156	82.81
238.39	80.81
238.624	78.81
238.858	68.81
239.091	76.81
239.325	61.81
239.559	74.81
239.793	72.81
240.027	84.81
240.26	80.81
240.494	88.81
240.728	74.81
240.961	71.81
241.195	93.81
241.429	71.81
241.662	89.81
241.896	90.81
242.13	79.81
242.363	70.81
242.597	60.81
242.83	69.81
243.064	77.81
243.298	91.81
243.531	88.81
243.765	71.81
243.998	68.81
244.232	78.81
244.465	84.81
244.699	74.81
244.932	76.81
245.166	79.81
245.399	70.81
245.633	87.81
245.866	73.81
246.099	82.81
246.333	77.81
246.566	78.81
246.8	85.81
247.033	68.81
247.266	66.81
247.5	69.81
247.733	82.81
247.966	74.81
248.2	74.81
248.433	88.81
248.666	66.81
248.899	79.81
249.133	75.81
249.366	69.81
249.599	74.81
249.832	75.81
250.066	84.81
250.299	84.81
250.532	91.81
250.765	66.81
250.998	72.81
251.231	70.81
251.465	80.81
251.698	60.81
251.931	81.81
252.164	74.81
252.397	77.81
252.63	76.81
252.863	84.81
253.096	83.81
253.329	78.81
253.562	84.81
253.795	82.81
254.028	69.81
254.261	80.81
254.494	80.81
254.727	71.81
254.96	83.81
255.193	78.81
255.426	86.81
255.659	76.81
255.892	70.81
256.124	85.81
256.357	78.81
256.59	77.81
256.823	81.81
257.056	80.81
257.289	94.81
257.521	66.81
257.754	86.81
257.987	95.81
258.22	77.81
258.452	81.81
258.685	74.81
258.918	83.81
259.151	88.81
259.383	66.81
259.616	82.81
259.849	86.81
260.081	77.81
260.314	67.81
260.547	85.81
260.779	79.81
261.012	82.81
261.244	85.81
261.477	79.81
261.71	78.81
261.942	65.81
262.175	78.81
262.407	85.81
262.64	81.81
262.872	80.81
263.105	68.81
263.337	75.81
263.57	83.81
263.802	78.81
264.035	78.81
264.267	77.81
264.499	107.81
264.732	95.81
264.964	74.81
265.197	88.81
265.429	89.81
265.661	85.81
265.894	88.81
266.126	75.81
266.358	72.81
266.591	72.81
266.823	76.81
267.055	83.81
267.287	89.81
267.52	75.81
267.752	80.81
267.984	76.81
268.216	60.81
268.448	94.81
268.681	71.81
268.913	86.81
269.145	70.81
269.377	75.81
269.609	86.81
269.841	93.81
270.073	80.81
270.306	82.81
270.538	73.81
270.77	62.81
271.002	88.81
271.234	75.81
271.466	83.81
271.698	70.81
271.93	81.81
272.162	80.81
272.394	82.81
272.626	83.81
272.858	71.81
273.09	88.81
273.322	77.81
273.553	80.81
273.785	85.81
274.017	75.81
274.249	75.81
274.481	69.81
274.713	84.81
274.945	83.81
275.176	70.81
275.408	74.81
275.64	70.81
275.872	78.81
276.104	73.81
276.335	82.81
276.567	76.81
276.799	70.81
277.031	67.81
277.262	84.81
277.494	70.81
277.726	84.81
277.957	82.81
278.189	83.81
278.421	75.81
278.652	94.81
278.884	79.81
279.115	74.81
279.347	80.81
279.579	72.81
279.81	94.81
280.042	78.81
280.273	83.81
280.505	91.81
280.736	76.81
280.968	79.81
281.199	91.81
281.431	72.81
281.662	78.81
281.894	94.81
282.125	90.81
282.356	84.81
282.588	82.81
282.819	89.81
283.051	74.81
283.282	80.81
283.513	81.81
283.745	76.81
283.976	60.81
284.207	89.81
284.439	76.81
284.67	89.81
284.901	82.81
285.132	71.81
285.364	82.81
285.595	85.81
285.826	80.81
286.057	88.81
286.288	97.81
286.52	83.81
286.751	76.81
286.982	81.81
287.213	64.81
287.444	85.81
287.675	80.81
287.906	77.81
288.138	88.81
288.369	86.81
288.6	95.81
288.831	85.81
289.062	81.81
289.293	83.81
289.524	84.81
289.755	97.81
289.986	77.81
290.217	92.81
290.448	81.81
290.679	79.81
290.91	90.81
291.141	101.81
291.371	76.81
291.602	81.81
291.833	83.81
292.064	91.81
292.295	73.81
292.526	91.81
292.757	91.81
292.987	86.81
293.218	80.81
293.449	77.81
293.68	85.81
293.91	90.81
294.141	94.81
294.372	89.81
294.603	83.81
294.833	74.81
295.064	78.81
295.295	98.81
295.525	79.81
295.756	90.81
295.987	74.81
296.217	70.81
296.448	84.81
296.679	86.81
296.909	93.81
297.14	97.81
297.37	86.81
297.601	90.81
297.831	90.81
298.062	89.81
298.292	76.81
298.523	100.81
298.753	79.81
298.984	86.81
299.214	89.81
299.445	76.81
299.675	88.81
299.905	86.81
300.136	84.81
300.366	91.81
300.597	88.81
300.827	76.81
301.057	83.81
301.288	90.81
301.518	88.81
301.748	94.81
301.979	98.81
302.209	90.81
302.439	86.81
302.669	84.81
302.9	88.81
303.13	90.81
303.36	85.81
303.59	80.81
303.82	96.81
304.051	84.81
304.281	71.81
304.511	88.81
304.741	89.81
304.971	93.81
305.201	103.81
305.431	96.81
305.661	77.81
305.891	77.81
306.121	89.81
306.352	76.81
306.582	99.81
306.812	91.81
307.042	100.81
307.272	82.81
307.502	82.81
307.731	77.81
307.961	81.81
308.191	85.81
308.421	76.81
308.651	92.81
308.881	99.81
309.111	82.81
309.341	95.81
309.571	81.81
309.8	88.81
310.03	73.81
310.26	80.81
310.49	96.81
310.72	85.81
310.949	87.81
311.179	78.81
311.409	76.81
311.639	77.81
311.868	79.81
312.098	78.81
312.328	88.81
312.557	88.81
312.787	75.81
313.017	83.81
313.246	91.81
313.476	88.81
313.706	93.81
313.935	93.81
314.165	75.81
314.394	81.81
314.624	84.81
314.853	82.81
315.083	88.81
315.312	86.81
315.542	74.81
315.771	81.81
316.001	92.81
316.23	91.81
316.46	88.81
316.689	79.81
316.919	64.81
317.148	80.81
317.377	83.81
317.607	76.81
317.836	75.81
318.065	95.81
318.295	82.81
318.524	75.81
318.753	76.81
318.983	80.81
319.212	77.81
319.441	82.81
319.67	93.81
319.9	76.81
320.129	89.81
320.358	81.81
320.587	87.81
320.816	96.81
321.046	81.81
321.275	83.81
321.504	94.81
321.733	84.81
321.962	94.81
322.191	90.81
322.42	86.81
322.649	93.81
322.878	93.81
323.108	79.81
323.337	87.81
323.566	79.81
323.795	89.81
324.024	86.81
324.253	81.81
324.482	78.81
324.71	86.81
324.939	101.81
325.168	82.81
325.397	92.81
325.626	86.81
325.855	75.81
326.084	94.81
326.313	89.81
326.542	93.81
326.77	86.81
326.999	82.81
327.228	83.81
327.457	94.81
327.686	91.81
327.914	98.81
328.143	100.81
328.372	75.81
328.6	75.81
328.829	91.81
329.058	93.81
329.287	88.81
329.515	76.81
329.744	89.81
329.972	100.81
330.201	95.81
330.43	79.81
330.658	81.81
330.887	88.81
331.115	82.81
331.344	91.81
331.572	78.81
331.801	94.81
332.03	103.81
332.258	80.81
332.486	73.81
332.715	84.81
332.943	78.81
333.172	79.81
333.4	85.81
333.629	89.81
333.857	90.81
334.085	99.81
334.314	96.81
334.542	84.81
334.771	90.81
334.999	79.81
335.227	84.81
335.455	93.81
335.684	84.81
335.912	87.81
336.14	79.81
336.369	76.81
336.597	85.81
336.825	82.81
337.053	88.81
337.281	87.81
337.51	93.81
337.738	87.81
337.966	85.81
338.194	90.81
338.422	70.81
338.65	103.81
338.878	93.81
339.106	96.81
339.334	78.81
339.562	79.81
339.79	67.81
340.018	93.81
340.246	97.81
340.474	81.81
340.702	89.81
340.93	98.81
341.158	82.81
341.386	75.81
341.614	82.81
341.842	79.81
342.07	78.81
342.298	90.81
342.526	93.81
342.754	79.81
342.981	89.81
343.209	92.81
343.437	88.81
343.665	78.81
343.893	89.81
344.12	90.81
344.348	89.81
344.576	72.81
344.804	81.81
345.031	89.81
345.259	79.81
345.487	82.81
345.714	81.81
345.942	78.81
346.17	101.81
346.397	86.81
346.625	90.81
346.853	93.81
347.08	83.81
347.308	86.81
347.535	70.81
347.763	78.81
347.99	76.81
348.218	85.81
348.445	68.81
348.673	76.81
348.9	98.81
349.128	93.81
349.355	89.81
349.583	80.81
349.81	80.81
350.037	83.81
350.265	72.81
350.492	81.81
350.72	90.81
350.947	91.81
351.174	93.81
351.402	73.81
351.629	85.81
351.856	85.81
352.083	78.81
352.311	95.81
352.538	108.81
352.765	90.81
352.992	68.81
353.22	84.81
353.447	86.81
353.674	88.81
353.901	84.81
354.128	81.81
354.355	89.81
354.583	85.81
354.81	76.81
355.037	79.81
355.264	88.81
355.491	87.81
355.718	81.81
355.945	70.81
356.172	91.81
356.399	85.81
356.626	79.81
356.853	76.81
357.08	71.81
357.307	84.81
357.534	93.81
357.761	72.81
357.988	80.81
358.215	91.81
358.441	107.81
358.668	77.81
358.895	90.81
359.122	86.81
359.349	87.81
359.576	93.81
359.802	82.81
360.029	88.81
360.256	94.81
360.483	84.81
360.709	81.81
360.936	79.81
361.163	76.81
361.39	86.81
361.616	75.81
361.843	79.81
362.07	78.81
362.296	85.81
362.523	66.81
362.749	72.81
362.976	83.81
363.203	78.81
363.429	86.81
363.656	76.81
363.882	77.81
364.109	91.81
364.335	96.81
364.562	80.81
364.788	92.81
365.015	78.81
365.241	88.81
365.468	92.81
365.694	83.81
365.92	80.81
366.147	79.81
366.373	84.81
366.599	80.81
366.826	90.81
367.052	90.81
367.278	96.81
367.505	78.81
367.731	84.81
367.957	83.81
368.184	91.81
368.41	82.81
368.636	84.81
368.862	81.81
369.089	75.81
369.315	68.81
369.541	84.81
369.767	81.81
369.993	79.81
370.219	76.81
370.445	86.81
370.672	79.81
370.898	86.81
371.124	90.81
371.35	78.81
371.576	82.81
371.802	70.81
372.028	78.81
372.254	89.81
372.48	90.81
372.706	84.81
372.932	79.81
373.158	76.81
373.384	94.81
373.61	93.81
373.835	73.81
374.061	65.81
374.287	91.81
374.513	93.81
374.739	78.81
374.965	86.81
375.191	90.81
375.416	89.81
375.642	90.81
375.868	80.81
376.094	95.81
376.319	89.81
376.545	79.81
376.771	85.81
376.997	89.81
377.222	91.81
377.448	86.81
377.674	92.81
377.899	75.81
378.125	80.81
378.35	79.81
378.576	91.81
378.802	69.81
379.027	82.81
379.253	88.81
379.478	77.81
379.704	94.81
379.929	89.81
380.155	86.81
380.38	80.81
380.606	77.81
380.831	92.81
381.057	87.81
381.282	85.81
381.507	86.81
381.733	89.81
381.958	84.81
382.184	80.81
382.409	74.81
382.634	79.81
382.86	82.81
383.085	84.81
383.31	90.81
383.535	75.81
383.761	78.81
383.986	75.81
384.211	95.81
384.436	87.81
384.662	85.81
384.887	69.81
385.112	92.81
385.337	84.81
385.562	89.81
385.787	91.81
386.013	92.81
386.238	86.81
386.463	92.81
386.688	77.81
386.913	65.81
387.138	88.81
387.363	86.81
387.588	92.81
387.813	80.81
388.038	68.81
388.263	87.81
388.488	82.81
388.713	78.81
388.938	80.81
389.163	78.81
389.387	88.81
389.612	84.81
389.837	83.81
390.062	77.81
390.287	77.81
390.512	92.81
390.736	76.81
390.961	79.81
391.186	82.81
391.411	66.81
391.636	69.81
391.86	74.81
392.085	81.81
392.31	84.81
392.534	79.81
392.759	83.81
392.984	86.81
393.208	78.81
393.433	62.81
393.658	86.81
393.882	90.81
394.107	81.81
394.331	76.81
394.556	80.81
394.78	85.81
395.005	72.81
395.229	67.81
395.454	83.81
395.678	83.81
395.903	66.81
396.127	76.81
396.352	80.81
396.576	73.81
396.801	75.81
397.025	100.81
397.249	81.81
397.474	96.81
397.698	77.81
397.922	82.81
398.147	80.81
398.371	69.81
398.595	97.81
398.82	75.81
399.044	82.81
399.268	80.81
399.492	70.81
399.717	67.81
399.941	86.81
400.165	84.81
400.389	82.81
400.613	79.81
400.837	79.81
401.062	70.81
401.286	76.81
401.51	83.81
401.734	86.81
401.958	84.81
402.182	89.81
402.406	93.81
402.63	73.81
402.854	81.81
403.078	75.81
403.302	86.81
403.526	80.81
403.75	86.81
403.974	75.81
404.198	84.81
404.422	71.81
404.645	81.81
404.869	78.81
405.093	62.81
405.317	89.81
405.541	72.81
405.765	86.81
405.988	82.81
406.212	82.81
406.436	70.81
406.66	68.81
406.883	92.81
407.107	73.81
407.331	76.81
407.555	82.81
407.778	81.81
408.002	88.81
408.226	73.81
408.449	70.81
408.673	82.81
408.896	87.81
409.12	82.81
409.344	91.81
409.567	88.81
409.791	77.81
410.014	86.81
410.238	80.81
410.461	95.81
410.685	70.81
410.908	77.81
411.132	83.81
411.355	84.81
411.578	84.81
411.802	91.81
412.025	81.81
412.249	67.81
412.472	83.81
412.695	86.81
412.919	69.81
413.142	78.81
413.365	89.81
413.589	80.81
413.812	73.81
414.035	91.81
414.258	80.81
414.482	76.81
414.705	73.81
414.928	87.81
415.151	85.81
415.374	96.81
415.597	80.81
415.821	74.81
416.044	78.81
416.267	68.81
416.49	88.81
416.713	96.81
416.936	78.81
417.159	80.81
417.382	75.81
417.605	73.81
417.828	78.81
418.051	78.81
418.274	72.81
418.497	74.81
418.72	84.81
418.943	92.81
419.166	76.81
419.389	89.81
419.611	91.81
419.834	77.81
420.057	98.81
420.28	83.81
420.503	82.81
420.726	76.81
420.948	80.81
421.171	81.81
421.394	80.81
421.617	61.81
421.839	94.81
422.062	86.81
422.285	76.81
422.507	79.81
422.73	85.81
422.953	85.81
423.175	77.81
423.398	88.81
423.621	86.81
423.843	76.81
424.066	80.81
424.288	69.81
424.511	91.81
424.733	78.81
424.956	84.81
425.178	76.81
425.401	75.81
425.623	80.81
425.846	79.81
426.068	85.81
426.291	84.81
426.513	88.81
426.735	72.81
426.958	91.81
427.18	90.81
427.402	84.81
427.625	83.81
427.847	92.81
428.069	74.81
428.292	72.81
428.514	78.81
428.736	73.81
428.958	84.81
429.181	78.81
429.403	85.81
429.625	72.81
429.847	60.81
430.069	77.81
430.292	90.81
430.514	78.81
430.736	81.81
430.958	76.81
431.18	76.81
431.402	82.81
431.624	83.81
431.846	79.81
432.068	93.81
432.29	88.81
432.512	85.81
432.734	61.81
432.956	72.81
433.178	84.81
433.4	84.81
433.622	82.81
433.844	93.81
434.066	87.81
434.287	56.81
434.509	76.81
434.731	83.81
434.953	86.81
435.175	81.81
435.397	70.81
435.618	76.81
435.84	86.81
436.062	71.81
436.284	58.81
436.505	81.81
436.727	71.81
436.949	80.81
437.17	80.81
437.392	86.81
437.614	78.81
437.835	76.81
438.057	81.81
438.278	78.81
438.5	82.81
438.721	77.81
438.943	75.81
439.165	84.81
439.386	84.81
439.608	69.81
439.829	82.81
440.05	74.81
440.272	77.81
440.493	82.81
440.715	76.81
440.936	78.81
441.158	90.81
441.379	91.81
441.6	78.81
441.822	84.81
442.043	83.81
442.264	73.81
442.486	82.81
442.707	74.81
442.928	75.81
443.149	81.81
443.371	76.81
443.592	68.81
443.813	64.81
444.034	67.81
444.255	64.81
444.476	76.81
444.698	86.81
444.919	84.81
445.14	146.81
445.361	112.81
445.582	80.81
445.803	81.81
446.024	73.81
446.245	86.81
446.466	80.81
446.687	75.81
446.908	83.81
447.129	78.81
447.35	91.81
447.571	82.81
447.792	87.81
448.013	82.81
448.234	78.81
448.455	74.81
448.675	83.81
448.896	76.81
449.117	90.81
449.338	87.81
449.559	76.81
449.779	83.81
450	88.81
450.221	71.81
450.442	88.81
450.662	83.81
450.883	70.81
451.104	72.81
451.324	84.81
451.545	80.81
451.766	78.81
451.986	88.81
452.207	72.81
452.428	82.81
452.648	86.81
452.869	94.81
453.089	81.81
453.31	90.81
453.53	82.81
453.751	80.81
453.971	80.81
454.192	73.81
454.412	90.81
454.633	79.81
454.853	99.81
455.073	74.81
455.294	85.81
455.514	80.81
455.734	71.81
455.955	77.81
456.175	66.81
456.395	74.81
456.616	73.81
456.836	84.81
457.056	68.81
457.276	83.81
457.497	70.81
457.717	86.81
457.937	82.81
458.157	77.81
458.377	80.81
458.598	78.81
458.818	84.81
459.038	76.81
459.258	85.81
459.478	86.81
459.698	96.81
459.918	84.81
460.138	68.81
460.358	79.81
460.578	73.81
460.798	78.81
461.018	73.81
461.238	88.81
461.458	73.81
461.678	87.81
461.898	98.81
462.118	89.81
462.338	87.81
462.558	92.81
462.777	76.81
462.997	82.81
463.217	86.81
463.437	65.81
463.657	73.81
463.876	76.81
464.096	88.81
464.316	89.81
464.536	73.81
464.755	74.81
464.975	79.81
465.195	80.81
465.414	82.81
465.634	92.81
465.854	76.81
466.073	83.81
466.293	104.81
466.512	91.81
466.732	66.81
466.951	80.81
467.171	68.81
467.391	79.81
467.61	83.81
467.829	86.81
468.049	79.81
468.268	69.81
468.488	82.81
468.707	93.81
468.927	84.81
469.146	85.81
469.365	83.81
469.585	64.81
469.804	81.81
470.023	76.81
470.243	80.81
470.462	83.81
470.681	81.81
470.901	70.81
471.12	89.81
471.339	82.81
471.558	66.81
471.777	84.81
471.997	86.81
472.216	86.81
472.435	82.81
472.654	85.81
472.873	82.81
473.092	81.81
473.311	81.81
473.53	72.81
473.749	71.81
473.968	87.81
474.187	85.81
474.406	89.81
474.625	91.81
474.844	59.81
475.063	75.81
475.282	76.81
475.501	70.81
475.72	73.81
475.939	75.81
476.158	74.81
476.377	74.81
476.596	73.81
476.814	72.81
477.033	74.81
477.252	90.81
477.471	88.81
477.69	79.81
477.908	76.81
478.127	87.81
478.346	81.81
478.564	75.81
478.783	74.81
479.002	82.81
479.22	94.81
479.439	86.81
479.658	84.81
479.876	67.81
480.095	91.81
480.313	83.81
480.532	97.81
480.751	96.81
480.969	87.81
481.188	77.81
481.406	94.81
481.624	72.81
481.843	66.81
482.061	90.81
482.28	85.81
482.498	84.81
482.717	81.81
482.935	94.81
483.153	89.81
483.372	74.81
483.59	81.81
483.808	80.81
484.027	81.81
484.245	95.81
484.463	90.81
484.681	97.81
484.9	80.81
485.118	83.81
485.336	80.81
485.554	86.81
485.772	81.81
485.99	69.81
486.209	74.81
486.427	89.81
486.645	83.81
486.863	77.81
487.081	78.81
487.299	76.81
487.517	82.81
487.735	72.81
487.953	73.81
488.171	92.81
488.389	82.81
488.607	84.81
488.825	84.81
489.043	64.81
489.261	74.81
489.479	62.81
489.696	99.81
489.914	87.81
490.132	85.81
490.35	88.81
490.568	68.81
490.786	80.81
491.003	81.81
491.221	96.81
491.439	82.81
491.657	60.81
491.874	89.81
492.092	70.81
492.31	70.81
492.527	73.81
492.745	73.81
492.963	86.81
493.18	85.81
493.398	89.81
493.615	84.81
493.833	92.81
494.05	82.81
494.268	74.81
494.485	84.81
494.703	80.81
494.92	84.81
495.138	71.81
495.355	69.81
495.573	60.81
495.79	93.81
496.008	84.81
496.225	79.81
496.442	82.81
496.66	79.81
496.877	83.81
497.094	89.81
497.312	85.81
497.529	89.81
497.746	83.81
497.963	86.81
498.181	95.81
498.398	86.81
498.615	96.81
498.832	76.81
499.049	82.81
499.267	75.81
499.484	74.81
499.701	88.81
499.918	80.81
500.135	66.81
500.352	89.81
500.569	86.81
500.786	80.81
501.003	80.81
501.22	81.81
501.437	70.81
501.654	88.81
501.871	76.81
502.088	89.81
502.305	87.81
502.522	73.81
502.739	83.81
502.956	93.81
503.172	94.81
503.389	87.81
503.606	85.81
503.823	86.81
504.04	85.81
504.256	90.81
504.473	76.81
504.69	76.81
504.907	81.81
505.123	74.81
505.34	73.81
505.557	80.81
505.773	86.81
505.99	89.81
506.207	78.81
506.423	90.81
506.64	81.81
506.856	84.81
507.073	78.81
507.289	79.81
507.506	77.81
507.722	66.81
507.939	88.81
508.155	85.81
508.372	76.81
508.588	84.81
508.805	77.81
509.021	82.81
509.238	91.81
509.454	85.81
509.67	86.81
509.887	75.81
510.103	85.81
510.319	90.81
510.536	78.81
510.752	69.81
510.968	76.81
511.184	60.81
511.401	83.81
511.617	78.81
511.833	92.81
512.049	81.81
512.265	76.81
512.481	76.81
512.698	98.81
512.914	83.81
513.13	87.81
513.346	78.81
513.562	82.81
513.778	85.81
513.994	97.81
514.21	83.81
514.426	83.81
514.642	85.81
514.858	73.81
515.074	76.81
515.29	90.81
515.506	92.81
515.721	63.81
515.937	86.81
516.153	85.81
516.369	72.81
516.585	84.81
516.801	82.81
517.016	74.81
517.232	87.81
517.448	82.81
517.664	76.81
517.879	89.81
518.095	91.81
518.311	89.81
518.527	94.81
518.742	85.81
518.958	80.81
519.173	74.81
519.389	94.81
519.605	80.81
519.82	90.81
520.036	72.81
