Data from Background_3_HRD10591_00099.txt Node
Date: Wed Nov 05 14:50:09 EST 2025
User: Yrep
Spectrometer: HR+D1059
Trigger mode: 1
Integration Time (sec): 1.000000E-1
Scans to average: 1
Electric dark correction enabled: true
Nonlinearity correction enabled: false
Boxcar width: 0
XAxis mode: Wavelengths
Number of Pixels in Spectrum: 2048
>>>>>Begin Spectral Data<<<<<
223.165	-14.88
223.4	-14.88
223.635	-14.88
223.869	-20.88
224.104	-18.88
224.338	-6.88
224.573	-14.88
224.808	-16.88
225.042	-11.88
225.277	-1.88
225.511	-10.88
225.746	12.12
225.98	12.12
226.215	5.12
226.449	20.12
226.683	17.12
226.918	20.12
227.152	31.12
227.387	48.12
227.621	32.12
227.856	47.12
228.09	55.12
228.324	47.12
228.559	60.12
228.793	65.12
229.027	65.12
229.262	69.12
229.496	70.12
229.73	79.12
229.964	75.12
230.199	65.12
230.433	70.12
230.667	88.12
230.901	83.12
231.136	79.12
231.37	91.12
231.604	79.12
231.838	91.12
232.072	86.12
232.306	85.12
232.541	81.12
232.775	72.12
233.009	70.12
233.243	69.12
233.477	100.12
233.711	90.12
233.945	78.12
234.179	75.12
234.413	73.12
234.647	75.12
234.881	77.12
235.115	70.12
235.349	51.12
235.583	80.12
235.817	88.12
236.051	85.12
236.285	78.12
236.519	69.12
236.753	93.12
236.987	85.12
237.221	73.12
237.455	70.12
237.689	77.12
237.922	76.12
238.156	68.12
238.39	68.12
238.624	83.12
238.858	76.12
239.091	73.12
239.325	79.12
239.559	69.12
239.793	65.12
240.027	82.12
240.26	95.12
240.494	71.12
240.728	70.12
240.961	79.12
241.195	72.12
241.429	68.12
241.662	65.12
241.896	67.12
242.13	65.12
242.363	61.12
242.597	75.12
242.83	75.12
243.064	75.12
243.298	66.12
243.531	89.12
243.765	73.12
243.998	69.12
244.232	90.12
244.465	77.12
244.699	77.12
244.932	68.12
245.166	71.12
245.399	73.12
245.633	68.12
245.866	71.12
246.099	76.12
246.333	63.12
246.566	73.12
246.8	82.12
247.033	91.12
247.266	77.12
247.5	65.12
247.733	90.12
247.966	68.12
248.2	79.12
248.433	69.12
248.666	87.12
248.899	75.12
249.133	67.12
249.366	82.12
249.599	69.12
249.832	92.12
250.066	88.12
250.299	75.12
250.532	69.12
250.765	74.12
250.998	77.12
251.231	79.12
251.465	84.12
251.698	77.12
251.931	68.12
252.164	75.12
252.397	79.12
252.63	88.12
252.863	91.12
253.096	81.12
253.329	78.12
253.562	89.12
253.795	80.12
254.028	74.12
254.261	84.12
254.494	91.12
254.727	87.12
254.96	81.12
255.193	82.12
255.426	75.12
255.659	84.12
255.892	74.12
256.124	83.12
256.357	79.12
256.59	84.12
256.823	79.12
257.056	78.12
257.289	80.12
257.521	81.12
257.754	89.12
257.987	71.12
258.22	76.12
258.452	77.12
258.685	85.12
258.918	92.12
259.151	87.12
259.383	79.12
259.616	75.12
259.849	87.12
260.081	82.12
260.314	68.12
260.547	91.12
260.779	80.12
261.012	89.12
261.244	76.12
261.477	99.12
261.71	67.12
261.942	81.12
262.175	92.12
262.407	68.12
262.64	85.12
262.872	84.12
263.105	83.12
263.337	84.12
263.57	81.12
263.802	75.12
264.035	77.12
264.267	74.12
264.499	97.12
264.732	73.12
264.964	74.12
265.197	85.12
265.429	82.12
265.661	90.12
265.894	91.12
266.126	80.12
266.358	91.12
266.591	78.12
266.823	87.12
267.055	81.12
267.287	80.12
267.52	74.12
267.752	97.12
267.984	93.12
268.216	75.12
268.448	94.12
268.681	83.12
268.913	84.12
269.145	91.12
269.377	84.12
269.609	89.12
269.841	82.12
270.073	75.12
270.306	72.12
270.538	66.12
270.77	79.12
271.002	78.12
271.234	79.12
271.466	77.12
271.698	75.12
271.93	75.12
272.162	68.12
272.394	92.12
272.626	80.12
272.858	67.12
273.09	88.12
273.322	78.12
273.553	78.12
273.785	101.12
274.017	92.12
274.249	86.12
274.481	91.12
274.713	75.12
274.945	86.12
275.176	83.12
275.408	77.12
275.64	83.12
275.872	88.12
276.104	77.12
276.335	81.12
276.567	84.12
276.799	79.12
277.031	81.12
277.262	78.12
277.494	96.12
277.726	86.12
277.957	87.12
278.189	84.12
278.421	70.12
278.652	79.12
278.884	80.12
279.115	71.12
279.347	86.12
279.579	80.12
279.81	74.12
280.042	75.12
280.273	67.12
280.505	80.12
280.736	91.12
280.968	81.12
281.199	96.12
281.431	76.12
281.662	89.12
281.894	95.12
282.125	82.12
282.356	79.12
282.588	85.12
282.819	76.12
283.051	82.12
283.282	78.12
283.513	86.12
283.745	83.12
283.976	90.12
284.207	88.12
284.439	77.12
284.67	89.12
284.901	81.12
285.132	82.12
285.364	76.12
285.595	84.12
285.826	88.12
286.057	90.12
286.288	71.12
286.52	100.12
286.751	95.12
286.982	79.12
287.213	82.12
287.444	83.12
287.675	63.12
287.906	87.12
288.138	75.12
288.369	75.12
288.6	91.12
288.831	76.12
289.062	87.12
289.293	87.12
289.524	87.12
289.755	65.12
289.986	82.12
290.217	83.12
290.448	80.12
290.679	85.12
290.91	60.12
291.141	73.12
291.371	84.12
291.602	75.12
291.833	73.12
292.064	77.12
292.295	70.12
292.526	77.12
292.757	74.12
292.987	83.12
293.218	87.12
293.449	84.12
293.68	83.12
293.91	84.12
294.141	71.12
294.372	89.12
294.603	83.12
294.833	82.12
295.064	73.12
295.295	81.12
295.525	74.12
295.756	77.12
295.987	98.12
296.217	97.12
296.448	87.12
296.679	89.12
296.909	99.12
297.14	66.12
297.37	83.12
297.601	70.12
297.831	76.12
298.062	89.12
298.292	80.12
298.523	79.12
298.753	84.12
298.984	86.12
299.214	95.12
299.445	80.12
299.675	85.12
299.905	83.12
300.136	77.12
300.366	90.12
300.597	97.12
300.827	68.12
301.057	84.12
301.288	95.12
301.518	75.12
301.748	80.12
301.979	98.12
302.209	83.12
302.439	80.12
302.669	84.12
302.9	84.12
303.13	83.12
303.36	77.12
303.59	72.12
303.82	95.12
304.051	75.12
304.281	79.12
304.511	87.12
304.741	92.12
304.971	81.12
305.201	87.12
305.431	75.12
305.661	79.12
305.891	80.12
306.121	69.12
306.352	77.12
306.582	79.12
306.812	98.12
307.042	88.12
307.272	83.12
307.502	87.12
307.731	82.12
307.961	91.12
308.191	72.12
308.421	73.12
308.651	88.12
308.881	94.12
309.111	73.12
309.341	79.12
309.571	80.12
309.8	86.12
310.03	96.12
310.26	82.12
310.49	93.12
310.72	90.12
310.949	85.12
311.179	94.12
311.409	72.12
311.639	84.12
311.868	92.12
312.098	83.12
312.328	93.12
312.557	88.12
312.787	90.12
313.017	91.12
313.246	79.12
313.476	86.12
313.706	77.12
313.935	78.12
314.165	73.12
314.394	65.12
314.624	85.12
314.853	81.12
315.083	74.12
315.312	91.12
315.542	89.12
315.771	91.12
316.001	72.12
316.23	91.12
316.46	91.12
316.689	84.12
316.919	83.12
317.148	88.12
317.377	79.12
317.607	106.12
317.836	92.12
318.065	85.12
318.295	94.12
318.524	87.12
318.753	87.12
318.983	77.12
319.212	87.12
319.441	77.12
319.67	100.12
319.9	82.12
320.129	90.12
320.358	94.12
320.587	82.12
320.816	82.12
321.046	91.12
321.275	64.12
321.504	62.12
321.733	92.12
321.962	81.12
322.191	79.12
322.42	85.12
322.649	89.12
322.878	80.12
323.108	80.12
323.337	84.12
323.566	87.12
323.795	94.12
324.024	78.12
324.253	79.12
324.482	77.12
324.71	86.12
324.939	91.12
325.168	79.12
325.397	83.12
325.626	81.12
325.855	71.12
326.084	90.12
326.313	93.12
326.542	72.12
326.77	82.12
326.999	88.12
327.228	88.12
327.457	79.12
327.686	77.12
327.914	91.12
328.143	74.12
328.372	87.12
328.6	77.12
328.829	76.12
329.058	87.12
329.287	93.12
329.515	89.12
329.744	87.12
329.972	82.12
330.201	79.12
330.43	89.12
330.658	83.12
330.887	76.12
331.115	82.12
331.344	79.12
331.572	94.12
331.801	87.12
332.03	92.12
332.258	71.12
332.486	75.12
332.715	76.12
332.943	68.12
333.172	107.12
333.4	76.12
333.629	87.12
333.857	92.12
334.085	77.12
334.314	91.12
334.542	91.12
334.771	72.12
334.999	91.12
335.227	76.12
335.455	72.12
335.684	90.12
335.912	86.12
336.14	80.12
336.369	97.12
336.597	84.12
336.825	79.12
337.053	83.12
337.281	90.12
337.51	94.12
337.738	91.12
337.966	73.12
338.194	71.12
338.422	84.12
338.65	78.12
338.878	87.12
339.106	88.12
339.334	80.12
339.562	85.12
339.79	87.12
340.018	80.12
340.246	89.12
340.474	78.12
340.702	69.12
340.93	80.12
341.158	73.12
341.386	74.12
341.614	76.12
341.842	82.12
342.07	84.12
342.298	90.12
342.526	84.12
342.754	84.12
342.981	91.12
343.209	80.12
343.437	90.12
343.665	91.12
343.893	87.12
344.12	85.12
344.348	91.12
344.576	85.12
344.804	76.12
345.031	81.12
345.259	79.12
345.487	85.12
345.714	81.12
345.942	92.12
346.17	90.12
346.397	75.12
346.625	74.12
346.853	73.12
347.08	78.12
347.308	82.12
347.535	70.12
347.763	79.12
347.99	86.12
348.218	85.12
348.445	88.12
348.673	80.12
348.9	76.12
349.128	78.12
349.355	83.12
349.583	63.12
349.81	85.12
350.037	81.12
350.265	76.12
350.492	79.12
350.72	95.12
350.947	85.12
351.174	91.12
351.402	72.12
351.629	76.12
351.856	74.12
352.083	82.12
352.311	93.12
352.538	81.12
352.765	79.12
352.992	88.12
353.22	77.12
353.447	75.12
353.674	83.12
353.901	87.12
354.128	97.12
354.355	75.12
354.583	80.12
354.81	73.12
355.037	68.12
355.264	79.12
355.491	70.12
355.718	82.12
355.945	83.12
356.172	91.12
356.399	81.12
356.626	79.12
356.853	87.12
357.08	96.12
357.307	86.12
357.534	84.12
357.761	70.12
357.988	66.12
358.215	81.12
358.441	87.12
358.668	92.12
358.895	83.12
359.122	84.12
359.349	86.12
359.576	89.12
359.802	70.12
360.029	85.12
360.256	79.12
360.483	81.12
360.709	88.12
360.936	87.12
361.163	78.12
361.39	84.12
361.616	83.12
361.843	79.12
362.07	88.12
362.296	85.12
362.523	75.12
362.749	81.12
362.976	72.12
363.203	85.12
363.429	86.12
363.656	84.12
363.882	85.12
364.109	87.12
364.335	80.12
364.562	79.12
364.788	83.12
365.015	96.12
365.241	80.12
365.468	79.12
365.694	95.12
365.92	82.12
366.147	78.12
366.373	72.12
366.599	82.12
366.826	93.12
367.052	92.12
367.278	94.12
367.505	92.12
367.731	83.12
367.957	92.12
368.184	92.12
368.41	68.12
368.636	89.12
368.862	85.12
369.089	80.12
369.315	89.12
369.541	75.12
369.767	88.12
369.993	82.12
370.219	85.12
370.445	109.12
370.672	82.12
370.898	83.12
371.124	80.12
371.35	89.12
371.576	92.12
371.802	83.12
372.028	96.12
372.254	82.12
372.48	84.12
372.706	81.12
372.932	81.12
373.158	67.12
373.384	89.12
373.61	84.12
373.835	74.12
374.061	71.12
374.287	83.12
374.513	85.12
374.739	77.12
374.965	83.12
375.191	85.12
375.416	88.12
375.642	75.12
375.868	87.12
376.094	70.12
376.319	73.12
376.545	89.12
376.771	80.12
376.997	95.12
377.222	83.12
377.448	93.12
377.674	84.12
377.899	93.12
378.125	70.12
378.35	80.12
378.576	68.12
378.802	81.12
379.027	91.12
379.253	83.12
379.478	89.12
379.704	79.12
379.929	83.12
380.155	72.12
380.38	77.12
380.606	68.12
380.831	75.12
381.057	89.12
381.282	82.12
381.507	87.12
381.733	76.12
381.958	73.12
382.184	87.12
382.409	77.12
382.634	79.12
382.86	85.12
383.085	74.12
383.31	84.12
383.535	87.12
383.761	84.12
383.986	89.12
384.211	82.12
384.436	75.12
384.662	91.12
384.887	89.12
385.112	81.12
385.337	74.12
385.562	79.12
385.787	75.12
386.013	88.12
386.238	82.12
386.463	82.12
386.688	85.12
386.913	83.12
387.138	82.12
387.363	72.12
387.588	87.12
387.813	85.12
388.038	83.12
388.263	81.12
388.488	95.12
388.713	88.12
388.938	85.12
389.163	75.12
389.387	90.12
389.612	75.12
389.837	76.12
390.062	76.12
390.287	84.12
390.512	83.12
390.736	83.12
390.961	78.12
391.186	84.12
391.411	83.12
391.636	81.12
391.86	91.12
392.085	71.12
392.31	85.12
392.534	91.12
392.759	84.12
392.984	79.12
393.208	81.12
393.433	80.12
393.658	79.12
393.882	77.12
394.107	71.12
394.331	84.12
394.556	83.12
394.78	75.12
395.005	81.12
395.229	70.12
395.454	78.12
395.678	74.12
395.903	76.12
396.127	63.12
396.352	83.12
396.576	81.12
396.801	81.12
397.025	74.12
397.249	81.12
397.474	105.12
397.698	80.12
397.922	69.12
398.147	90.12
398.371	83.12
398.595	85.12
398.82	74.12
399.044	86.12
399.268	84.12
399.492	85.12
399.717	80.12
399.941	81.12
400.165	92.12
400.389	71.12
400.613	79.12
400.837	94.12
401.062	78.12
401.286	78.12
401.51	83.12
401.734	83.12
401.958	87.12
402.182	91.12
402.406	96.12
402.63	94.12
402.854	78.12
403.078	94.12
403.302	82.12
403.526	89.12
403.75	84.12
403.974	79.12
404.198	71.12
404.422	78.12
404.645	94.12
404.869	87.12
405.093	79.12
405.317	79.12
405.541	81.12
405.765	80.12
405.988	77.12
406.212	91.12
406.436	80.12
406.66	85.12
406.883	78.12
407.107	76.12
407.331	58.12
407.555	71.12
407.778	67.12
408.002	72.12
408.226	74.12
408.449	73.12
408.673	75.12
408.896	84.12
409.12	71.12
409.344	81.12
409.567	75.12
409.791	88.12
410.014	79.12
410.238	74.12
410.461	94.12
410.685	82.12
410.908	81.12
411.132	84.12
411.355	81.12
411.578	65.12
411.802	77.12
412.025	87.12
412.249	72.12
412.472	79.12
412.695	87.12
412.919	70.12
413.142	75.12
413.365	75.12
413.589	69.12
413.812	78.12
414.035	85.12
414.258	78.12
414.482	81.12
414.705	77.12
414.928	76.12
415.151	83.12
415.374	78.12
415.597	80.12
415.821	89.12
416.044	74.12
416.267	63.12
416.49	73.12
416.713	77.12
416.936	88.12
417.159	82.12
417.382	83.12
417.605	67.12
417.828	83.12
418.051	79.12
418.274	74.12
418.497	77.12
418.72	67.12
418.943	75.12
419.166	79.12
419.389	87.12
419.611	80.12
419.834	79.12
420.057	92.12
420.28	75.12
420.503	91.12
420.726	88.12
420.948	77.12
421.171	82.12
421.394	81.12
421.617	76.12
421.839	91.12
422.062	79.12
422.285	80.12
422.507	73.12
422.73	91.12
422.953	76.12
423.175	85.12
423.398	78.12
423.621	71.12
423.843	78.12
424.066	90.12
424.288	73.12
424.511	83.12
424.733	84.12
424.956	83.12
425.178	74.12
425.401	77.12
425.623	84.12
425.846	77.12
426.068	86.12
426.291	65.12
426.513	74.12
426.735	96.12
426.958	75.12
427.18	69.12
427.402	85.12
427.625	91.12
427.847	65.12
428.069	80.12
428.292	85.12
428.514	93.12
428.736	65.12
428.958	66.12
429.181	67.12
429.403	73.12
429.625	84.12
429.847	89.12
430.069	86.12
430.292	74.12
430.514	85.12
430.736	90.12
430.958	76.12
431.18	74.12
431.402	83.12
431.624	75.12
431.846	70.12
432.068	93.12
432.29	79.12
432.512	79.12
432.734	82.12
432.956	70.12
433.178	83.12
433.4	70.12
433.622	81.12
433.844	90.12
434.066	78.12
434.287	75.12
434.509	68.12
434.731	84.12
434.953	73.12
435.175	70.12
435.397	91.12
435.618	79.12
435.84	80.12
436.062	89.12
436.284	74.12
436.505	78.12
436.727	68.12
436.949	87.12
437.17	80.12
437.392	83.12
437.614	76.12
437.835	83.12
438.057	81.12
438.278	75.12
438.5	77.12
438.721	82.12
438.943	79.12
439.165	69.12
439.386	76.12
439.608	96.12
439.829	79.12
440.05	88.12
440.272	68.12
440.493	74.12
440.715	79.12
440.936	71.12
441.158	70.12
441.379	84.12
441.6	70.12
441.822	78.12
442.043	80.12
442.264	90.12
442.486	92.12
442.707	84.12
442.928	70.12
443.149	78.12
443.371	73.12
443.592	81.12
443.813	79.12
444.034	81.12
444.255	70.12
444.476	79.12
444.698	74.12
444.919	80.12
445.14	157.12
445.361	104.12
445.582	84.12
445.803	81.12
446.024	75.12
446.245	75.12
446.466	80.12
446.687	72.12
446.908	73.12
447.129	98.12
447.35	80.12
447.571	85.12
447.792	66.12
448.013	79.12
448.234	75.12
448.455	90.12
448.675	68.12
448.896	83.12
449.117	83.12
449.338	79.12
449.559	87.12
449.779	79.12
450	68.12
450.221	71.12
450.442	83.12
450.662	76.12
450.883	79.12
451.104	87.12
451.324	95.12
451.545	91.12
451.766	92.12
451.986	85.12
452.207	75.12
452.428	90.12
452.648	76.12
452.869	69.12
453.089	77.12
453.31	79.12
453.53	71.12
453.751	64.12
453.971	81.12
454.192	71.12
454.412	93.12
454.633	81.12
454.853	92.12
455.073	81.12
455.294	81.12
455.514	75.12
455.734	77.12
455.955	82.12
456.175	77.12
456.395	87.12
456.616	68.12
456.836	80.12
457.056	75.12
457.276	81.12
457.497	79.12
457.717	82.12
457.937	70.12
458.157	69.12
458.377	65.12
458.598	70.12
458.818	74.12
459.038	69.12
459.258	87.12
459.478	85.12
459.698	82.12
459.918	73.12
460.138	62.12
460.358	85.12
460.578	75.12
460.798	87.12
461.018	78.12
461.238	87.12
461.458	77.12
461.678	82.12
461.898	92.12
462.118	79.12
462.338	77.12
462.558	77.12
462.777	86.12
462.997	88.12
463.217	76.12
463.437	88.12
463.657	69.12
463.876	86.12
464.096	85.12
464.316	75.12
464.536	71.12
464.755	89.12
464.975	84.12
465.195	75.12
465.414	81.12
465.634	79.12
465.854	75.12
466.073	63.12
466.293	83.12
466.512	79.12
466.732	77.12
466.951	76.12
467.171	85.12
467.391	83.12
467.61	72.12
467.829	70.12
468.049	78.12
468.268	93.12
468.488	81.12
468.707	84.12
468.927	81.12
469.146	73.12
469.365	82.12
469.585	83.12
469.804	75.12
470.023	83.12
470.243	77.12
470.462	71.12
470.681	84.12
470.901	81.12
471.12	68.12
471.339	83.12
471.558	79.12
471.777	73.12
471.997	80.12
472.216	77.12
472.435	85.12
472.654	74.12
472.873	90.12
473.092	90.12
473.311	68.12
473.53	59.12
473.749	73.12
473.968	77.12
474.187	74.12
474.406	89.12
474.625	83.12
474.844	88.12
475.063	83.12
475.282	75.12
475.501	83.12
475.72	75.12
475.939	91.12
476.158	73.12
476.377	76.12
476.596	68.12
476.814	81.12
477.033	77.12
477.252	84.12
477.471	92.12
477.69	78.12
477.908	83.12
478.127	79.12
478.346	72.12
478.564	87.12
478.783	76.12
479.002	82.12
479.22	82.12
479.439	80.12
479.658	80.12
479.876	54.12
480.095	75.12
480.313	89.12
480.532	85.12
480.751	68.12
480.969	66.12
481.188	82.12
481.406	83.12
481.624	72.12
481.843	63.12
482.061	84.12
482.28	69.12
482.498	88.12
482.717	80.12
482.935	89.12
483.153	78.12
483.372	77.12
483.59	71.12
483.808	83.12
484.027	75.12
484.245	81.12
484.463	77.12
484.681	85.12
484.9	65.12
485.118	86.12
485.336	77.12
485.554	66.12
485.772	87.12
485.99	71.12
486.209	76.12
486.427	75.12
486.645	74.12
486.863	81.12
487.081	71.12
487.299	84.12
487.517	93.12
487.735	71.12
487.953	79.12
488.171	79.12
488.389	83.12
488.607	91.12
488.825	78.12
489.043	87.12
489.261	77.12
489.479	87.12
489.696	77.12
489.914	72.12
490.132	83.12
490.35	85.12
490.568	72.12
490.786	75.12
491.003	77.12
491.221	73.12
491.439	76.12
491.657	62.12
491.874	77.12
492.092	91.12
492.31	77.12
492.527	92.12
492.745	81.12
492.963	75.12
493.18	75.12
493.398	78.12
493.615	79.12
493.833	68.12
494.05	90.12
494.268	79.12
494.485	83.12
494.703	79.12
494.92	85.12
495.138	82.12
495.355	77.12
495.573	57.12
495.79	83.12
496.008	72.12
496.225	92.12
496.442	85.12
496.66	97.12
496.877	100.12
497.094	68.12
497.312	70.12
497.529	75.12
497.746	87.12
497.963	85.12
498.181	84.12
498.398	77.12
498.615	89.12
498.832	83.12
499.049	79.12
499.267	81.12
499.484	69.12
499.701	75.12
499.918	77.12
500.135	78.12
500.352	83.12
500.569	85.12
500.786	87.12
501.003	75.12
501.22	83.12
501.437	80.12
501.654	82.12
501.871	85.12
502.088	89.12
502.305	90.12
502.522	73.12
502.739	80.12
502.956	78.12
503.172	78.12
503.389	68.12
503.606	78.12
503.823	88.12
504.04	77.12
504.256	80.12
504.473	89.12
504.69	73.12
504.907	89.12
505.123	77.12
505.34	78.12
505.557	87.12
505.773	91.12
505.99	78.12
506.207	87.12
506.423	71.12
506.64	78.12
506.856	71.12
507.073	84.12
507.289	84.12
507.506	76.12
507.722	76.12
507.939	83.12
508.155	80.12
508.372	81.12
508.588	91.12
508.805	73.12
509.021	87.12
509.238	69.12
509.454	88.12
509.67	72.12
509.887	82.12
510.103	90.12
510.319	79.12
510.536	81.12
510.752	89.12
510.968	81.12
511.184	77.12
511.401	69.12
511.617	75.12
511.833	85.12
512.049	83.12
512.265	84.12
512.481	84.12
512.698	86.12
512.914	92.12
513.13	88.12
513.346	80.12
513.562	71.12
513.778	76.12
513.994	86.12
514.21	74.12
514.426	82.12
514.642	76.12
514.858	83.12
515.074	85.12
515.29	95.12
515.506	91.12
515.721	81.12
515.937	94.12
516.153	85.12
516.369	91.12
516.585	66.12
516.801	63.12
517.016	75.12
517.232	80.12
517.448	81.12
517.664	84.12
517.879	87.12
518.095	73.12
518.311	85.12
518.527	75.12
518.742	76.12
518.958	73.12
519.173	84.12
519.389	92.12
519.605	82.12
519.82	67.12
520.036	81.12
