Data from Background_3_HRD10591_00039.txt Node
Date: Wed Nov 05 14:49:39 EST 2025
User: Yrep
Spectrometer: HR+D1059
Trigger mode: 1
Integration Time (sec): 1.000000E-1
Scans to average: 1
Electric dark correction enabled: true
Nonlinearity correction enabled: false
Boxcar width: 0
XAxis mode: Wavelengths
Number of Pixels in Spectrum: 2048
>>>>>Begin Spectral Data<<<<<
223.165	-22.62
223.4	-22.62
223.635	-22.62
223.869	-14.62
224.104	-27.62
224.338	-19.62
224.573	-23.62
224.808	7.38
225.042	-12.62
225.277	-2.62
225.511	-5.62
225.746	-8.62
225.98	20.38
226.215	15.38
226.449	19.38
226.683	20.38
226.918	26.38
227.152	28.38
227.387	33.38
227.621	35.38
227.856	39.38
228.09	43.38
228.324	40.38
228.559	70.38
228.793	55.38
229.027	63.38
229.262	54.38
229.496	70.38
229.73	65.38
229.964	66.38
230.199	68.38
230.433	75.38
230.667	77.38
230.901	82.38
231.136	74.38
231.37	81.38
231.604	76.38
231.838	65.38
232.072	76.38
232.306	88.38
232.541	77.38
232.775	71.38
233.009	77.38
233.243	90.38
233.477	87.38
233.711	80.38
233.945	74.38
234.179	85.38
234.413	77.38
234.647	87.38
234.881	84.38
235.115	59.38
235.349	79.38
235.583	67.38
235.817	69.38
236.051	84.38
236.285	72.38
236.519	63.38
236.753	57.38
236.987	59.38
237.221	62.38
237.455	83.38
237.689	71.38
237.922	68.38
238.156	71.38
238.39	77.38
238.624	69.38
238.858	79.38
239.091	75.38
239.325	65.38
239.559	70.38
239.793	89.38
240.027	81.38
240.26	70.38
240.494	74.38
240.728	70.38
240.961	69.38
241.195	64.38
241.429	88.38
241.662	73.38
241.896	78.38
242.13	94.38
242.363	63.38
242.597	89.38
242.83	83.38
243.064	67.38
243.298	81.38
243.531	75.38
243.765	66.38
243.998	65.38
244.232	81.38
244.465	67.38
244.699	77.38
244.932	63.38
245.166	97.38
245.399	77.38
245.633	64.38
245.866	76.38
246.099	74.38
246.333	84.38
246.566	71.38
246.8	71.38
247.033	68.38
247.266	63.38
247.5	62.38
247.733	76.38
247.966	74.38
248.2	79.38
248.433	83.38
248.666	89.38
248.899	60.38
249.133	82.38
249.366	67.38
249.599	84.38
249.832	59.38
250.066	69.38
250.299	80.38
250.532	82.38
250.765	76.38
250.998	87.38
251.231	94.38
251.465	88.38
251.698	67.38
251.931	75.38
252.164	67.38
252.397	75.38
252.63	82.38
252.863	84.38
253.096	75.38
253.329	87.38
253.562	76.38
253.795	80.38
254.028	92.38
254.261	88.38
254.494	91.38
254.727	81.38
254.96	75.38
255.193	90.38
255.426	72.38
255.659	89.38
255.892	85.38
256.124	74.38
256.357	74.38
256.59	78.38
256.823	84.38
257.056	77.38
257.289	66.38
257.521	65.38
257.754	46.38
257.987	64.38
258.22	76.38
258.452	76.38
258.685	72.38
258.918	81.38
259.151	66.38
259.383	81.38
259.616	69.38
259.849	67.38
260.081	72.38
260.314	67.38
260.547	79.38
260.779	80.38
261.012	74.38
261.244	85.38
261.477	85.38
261.71	69.38
261.942	74.38
262.175	83.38
262.407	81.38
262.64	85.38
262.872	83.38
263.105	79.38
263.337	74.38
263.57	74.38
263.802	82.38
264.035	74.38
264.267	77.38
264.499	79.38
264.732	69.38
264.964	67.38
265.197	87.38
265.429	82.38
265.661	91.38
265.894	75.38
266.126	77.38
266.358	84.38
266.591	70.38
266.823	68.38
267.055	85.38
267.287	93.38
267.52	92.38
267.752	85.38
267.984	79.38
268.216	83.38
268.448	77.38
268.681	79.38
268.913	76.38
269.145	80.38
269.377	77.38
269.609	85.38
269.841	67.38
270.073	83.38
270.306	63.38
270.538	65.38
270.77	83.38
271.002	83.38
271.234	83.38
271.466	88.38
271.698	66.38
271.93	62.38
272.162	80.38
272.394	83.38
272.626	82.38
272.858	81.38
273.09	87.38
273.322	88.38
273.553	89.38
273.785	66.38
274.017	76.38
274.249	99.38
274.481	70.38
274.713	77.38
274.945	71.38
275.176	68.38
275.408	82.38
275.64	89.38
275.872	83.38
276.104	82.38
276.335	88.38
276.567	83.38
276.799	68.38
277.031	81.38
277.262	81.38
277.494	65.38
277.726	72.38
277.957	79.38
278.189	76.38
278.421	80.38
278.652	72.38
278.884	80.38
279.115	81.38
279.347	77.38
279.579	79.38
279.81	99.38
280.042	85.38
280.273	74.38
280.505	75.38
280.736	72.38
280.968	71.38
281.199	73.38
281.431	82.38
281.662	68.38
281.894	81.38
282.125	87.38
282.356	73.38
282.588	69.38
282.819	61.38
283.051	87.38
283.282	71.38
283.513	87.38
283.745	88.38
283.976	75.38
284.207	66.38
284.439	84.38
284.67	78.38
284.901	92.38
285.132	88.38
285.364	91.38
285.595	83.38
285.826	74.38
286.057	92.38
286.288	84.38
286.52	79.38
286.751	78.38
286.982	73.38
287.213	95.38
287.444	73.38
287.675	75.38
287.906	83.38
288.138	81.38
288.369	88.38
288.6	83.38
288.831	81.38
289.062	77.38
289.293	59.38
289.524	77.38
289.755	72.38
289.986	80.38
290.217	80.38
290.448	88.38
290.679	93.38
290.91	83.38
291.141	63.38
291.371	90.38
291.602	82.38
291.833	88.38
292.064	93.38
292.295	85.38
292.526	84.38
292.757	78.38
292.987	84.38
293.218	75.38
293.449	80.38
293.68	73.38
293.91	75.38
294.141	88.38
294.372	83.38
294.603	60.38
294.833	77.38
295.064	73.38
295.295	62.38
295.525	70.38
295.756	81.38
295.987	84.38
296.217	90.38
296.448	75.38
296.679	76.38
296.909	79.38
297.14	69.38
297.37	68.38
297.601	78.38
297.831	78.38
298.062	83.38
298.292	68.38
298.523	82.38
298.753	92.38
298.984	94.38
299.214	88.38
299.445	75.38
299.675	93.38
299.905	72.38
300.136	83.38
300.366	81.38
300.597	85.38
300.827	79.38
301.057	90.38
301.288	103.38
301.518	72.38
301.748	81.38
301.979	83.38
302.209	96.38
302.439	80.38
302.669	87.38
302.9	80.38
303.13	84.38
303.36	85.38
303.59	58.38
303.82	83.38
304.051	75.38
304.281	92.38
304.511	70.38
304.741	80.38
304.971	88.38
305.201	88.38
305.431	74.38
305.661	77.38
305.891	88.38
306.121	98.38
306.352	82.38
306.582	75.38
306.812	89.38
307.042	85.38
307.272	84.38
307.502	75.38
307.731	55.38
307.961	72.38
308.191	76.38
308.421	85.38
308.651	87.38
308.881	67.38
309.111	83.38
309.341	79.38
309.571	79.38
309.8	89.38
310.03	80.38
310.26	79.38
310.49	89.38
310.72	84.38
310.949	76.38
311.179	79.38
311.409	79.38
311.639	70.38
311.868	64.38
312.098	82.38
312.328	83.38
312.557	78.38
312.787	82.38
313.017	93.38
313.246	92.38
313.476	80.38
313.706	89.38
313.935	75.38
314.165	84.38
314.394	74.38
314.624	89.38
314.853	75.38
315.083	77.38
315.312	76.38
315.542	81.38
315.771	78.38
316.001	63.38
316.23	75.38
316.46	91.38
316.689	81.38
316.919	84.38
317.148	90.38
317.377	94.38
317.607	85.38
317.836	92.38
318.065	82.38
318.295	84.38
318.524	91.38
318.753	85.38
318.983	69.38
319.212	81.38
319.441	76.38
319.67	84.38
319.9	78.38
320.129	80.38
320.358	76.38
320.587	81.38
320.816	80.38
321.046	74.38
321.275	91.38
321.504	80.38
321.733	78.38
321.962	86.38
322.191	91.38
322.42	89.38
322.649	91.38
322.878	86.38
323.108	89.38
323.337	79.38
323.566	83.38
323.795	89.38
324.024	74.38
324.253	68.38
324.482	82.38
324.71	87.38
324.939	98.38
325.168	92.38
325.397	83.38
325.626	89.38
325.855	79.38
326.084	87.38
326.313	85.38
326.542	78.38
326.77	89.38
326.999	77.38
327.228	91.38
327.457	93.38
327.686	85.38
327.914	84.38
328.143	95.38
328.372	77.38
328.6	78.38
328.829	71.38
329.058	75.38
329.287	72.38
329.515	92.38
329.744	81.38
329.972	93.38
330.201	73.38
330.43	72.38
330.658	82.38
330.887	88.38
331.115	76.38
331.344	81.38
331.572	83.38
331.801	69.38
332.03	75.38
332.258	70.38
332.486	69.38
332.715	71.38
332.943	74.38
333.172	103.38
333.4	87.38
333.629	81.38
333.857	91.38
334.085	78.38
334.314	85.38
334.542	88.38
334.771	79.38
334.999	83.38
335.227	67.38
335.455	79.38
335.684	75.38
335.912	76.38
336.14	77.38
336.369	72.38
336.597	64.38
336.825	75.38
337.053	72.38
337.281	74.38
337.51	79.38
337.738	100.38
337.966	79.38
338.194	75.38
338.422	72.38
338.65	83.38
338.878	78.38
339.106	74.38
339.334	80.38
339.562	82.38
339.79	93.38
340.018	86.38
340.246	77.38
340.474	91.38
340.702	84.38
340.93	85.38
341.158	82.38
341.386	79.38
341.614	79.38
341.842	77.38
342.07	87.38
342.298	70.38
342.526	76.38
342.754	77.38
342.981	79.38
343.209	73.38
343.437	88.38
343.665	84.38
343.893	83.38
344.12	79.38
344.348	97.38
344.576	70.38
344.804	85.38
345.031	80.38
345.259	76.38
345.487	88.38
345.714	83.38
345.942	65.38
346.17	83.38
346.397	94.38
346.625	86.38
346.853	87.38
347.08	78.38
347.308	73.38
347.535	84.38
347.763	77.38
347.99	78.38
348.218	85.38
348.445	86.38
348.673	74.38
348.9	66.38
349.128	79.38
349.355	72.38
349.583	84.38
349.81	84.38
350.037	84.38
350.265	75.38
350.492	80.38
350.72	81.38
350.947	70.38
351.174	89.38
351.402	82.38
351.629	84.38
351.856	76.38
352.083	77.38
352.311	106.38
352.538	89.38
352.765	73.38
352.992	81.38
353.22	80.38
353.447	83.38
353.674	68.38
353.901	91.38
354.128	86.38
354.355	70.38
354.583	85.38
354.81	97.38
355.037	86.38
355.264	67.38
355.491	68.38
355.718	87.38
355.945	82.38
356.172	74.38
356.399	84.38
356.626	67.38
356.853	80.38
357.08	80.38
357.307	87.38
357.534	67.38
357.761	79.38
357.988	84.38
358.215	89.38
358.441	89.38
358.668	68.38
358.895	63.38
359.122	71.38
359.349	91.38
359.576	77.38
359.802	77.38
360.029	78.38
360.256	84.38
360.483	82.38
360.709	96.38
360.936	81.38
361.163	84.38
361.39	71.38
361.616	83.38
361.843	81.38
362.07	69.38
362.296	73.38
362.523	83.38
362.749	80.38
362.976	82.38
363.203	84.38
363.429	77.38
363.656	77.38
363.882	84.38
364.109	90.38
364.335	82.38
364.562	97.38
364.788	73.38
365.015	71.38
365.241	69.38
365.468	82.38
365.694	85.38
365.92	94.38
366.147	71.38
366.373	80.38
366.599	87.38
366.826	68.38
367.052	88.38
367.278	76.38
367.505	82.38
367.731	87.38
367.957	80.38
368.184	80.38
368.41	93.38
368.636	87.38
368.862	85.38
369.089	93.38
369.315	81.38
369.541	79.38
369.767	77.38
369.993	98.38
370.219	84.38
370.445	88.38
370.672	83.38
370.898	70.38
371.124	69.38
371.35	77.38
371.576	76.38
371.802	79.38
372.028	74.38
372.254	75.38
372.48	82.38
372.706	78.38
372.932	74.38
373.158	84.38
373.384	93.38
373.61	97.38
373.835	79.38
374.061	82.38
374.287	84.38
374.513	87.38
374.739	83.38
374.965	62.38
375.191	81.38
375.416	75.38
375.642	90.38
375.868	95.38
376.094	84.38
376.319	80.38
376.545	87.38
376.771	81.38
376.997	86.38
377.222	74.38
377.448	81.38
377.674	75.38
377.899	83.38
378.125	72.38
378.35	72.38
378.576	79.38
378.802	75.38
379.027	100.38
379.253	80.38
379.478	69.38
379.704	75.38
379.929	88.38
380.155	83.38
380.38	95.38
380.606	87.38
380.831	94.38
381.057	87.38
381.282	84.38
381.507	65.38
381.733	78.38
381.958	78.38
382.184	66.38
382.409	77.38
382.634	80.38
382.86	85.38
383.085	74.38
383.31	75.38
383.535	65.38
383.761	68.38
383.986	75.38
384.211	87.38
384.436	80.38
384.662	77.38
384.887	75.38
385.112	76.38
385.337	101.38
385.562	79.38
385.787	73.38
386.013	58.38
386.238	83.38
386.463	85.38
386.688	97.38
386.913	80.38
387.138	64.38
387.363	83.38
387.588	85.38
387.813	87.38
388.038	67.38
388.263	79.38
388.488	67.38
388.713	71.38
388.938	77.38
389.163	81.38
389.387	77.38
389.612	73.38
389.837	75.38
390.062	92.38
390.287	89.38
390.512	79.38
390.736	71.38
390.961	83.38
391.186	80.38
391.411	80.38
391.636	84.38
391.86	80.38
392.085	83.38
392.31	86.38
392.534	94.38
392.759	99.38
392.984	74.38
393.208	65.38
393.433	68.38
393.658	65.38
393.882	66.38
394.107	83.38
394.331	80.38
394.556	95.38
394.78	90.38
395.005	78.38
395.229	74.38
395.454	82.38
395.678	75.38
395.903	89.38
396.127	89.38
396.352	75.38
396.576	79.38
396.801	83.38
397.025	83.38
397.249	75.38
397.474	77.38
397.698	84.38
397.922	81.38
398.147	97.38
398.371	75.38
398.595	84.38
398.82	75.38
399.044	83.38
399.268	100.38
399.492	88.38
399.717	93.38
399.941	73.38
400.165	97.38
400.389	81.38
400.613	76.38
400.837	88.38
401.062	83.38
401.286	81.38
401.51	69.38
401.734	66.38
401.958	82.38
402.182	73.38
402.406	74.38
402.63	76.38
402.854	73.38
403.078	87.38
403.302	76.38
403.526	90.38
403.75	80.38
403.974	74.38
404.198	95.38
404.422	79.38
404.645	81.38
404.869	75.38
405.093	84.38
405.317	78.38
405.541	80.38
405.765	76.38
405.988	73.38
406.212	85.38
406.436	79.38
406.66	87.38
406.883	82.38
407.107	81.38
407.331	80.38
407.555	104.38
407.778	64.38
408.002	73.38
408.226	71.38
408.449	80.38
408.673	84.38
408.896	77.38
409.12	79.38
409.344	89.38
409.567	77.38
409.791	72.38
410.014	86.38
410.238	80.38
410.461	70.38
410.685	79.38
410.908	80.38
411.132	79.38
411.355	89.38
411.578	75.38
411.802	61.38
412.025	65.38
412.249	87.38
412.472	80.38
412.695	70.38
412.919	78.38
413.142	86.38
413.365	84.38
413.589	81.38
413.812	73.38
414.035	85.38
414.258	84.38
414.482	86.38
414.705	92.38
414.928	90.38
415.151	69.38
415.374	85.38
415.597	89.38
415.821	78.38
416.044	74.38
416.267	78.38
416.49	79.38
416.713	68.38
416.936	85.38
417.159	76.38
417.382	69.38
417.605	72.38
417.828	73.38
418.051	84.38
418.274	81.38
418.497	80.38
418.72	59.38
418.943	74.38
419.166	70.38
419.389	74.38
419.611	83.38
419.834	75.38
420.057	88.38
420.28	73.38
420.503	60.38
420.726	91.38
420.948	76.38
421.171	68.38
421.394	82.38
421.617	75.38
421.839	63.38
422.062	70.38
422.285	77.38
422.507	77.38
422.73	85.38
422.953	73.38
423.175	85.38
423.398	82.38
423.621	90.38
423.843	88.38
424.066	79.38
424.288	84.38
424.511	76.38
424.733	78.38
424.956	73.38
425.178	83.38
425.401	76.38
425.623	63.38
425.846	76.38
426.068	83.38
426.291	85.38
426.513	89.38
426.735	89.38
426.958	82.38
427.18	78.38
427.402	85.38
427.625	70.38
427.847	76.38
428.069	84.38
428.292	91.38
428.514	77.38
428.736	75.38
428.958	70.38
429.181	88.38
429.403	69.38
429.625	60.38
429.847	79.38
430.069	89.38
430.292	75.38
430.514	74.38
430.736	79.38
430.958	74.38
431.18	81.38
431.402	79.38
431.624	71.38
431.846	68.38
432.068	77.38
432.29	67.38
432.512	87.38
432.734	78.38
432.956	88.38
433.178	69.38
433.4	79.38
433.622	72.38
433.844	76.38
434.066	71.38
434.287	68.38
434.509	69.38
434.731	84.38
434.953	79.38
435.175	84.38
435.397	86.38
435.618	70.38
435.84	87.38
436.062	82.38
436.284	74.38
436.505	81.38
436.727	78.38
436.949	84.38
437.17	76.38
437.392	83.38
437.614	78.38
437.835	80.38
438.057	64.38
438.278	81.38
438.5	77.38
438.721	79.38
438.943	72.38
439.165	93.38
439.386	85.38
439.608	90.38
439.829	84.38
440.05	73.38
440.272	73.38
440.493	76.38
440.715	69.38
440.936	89.38
441.158	90.38
441.379	70.38
441.6	73.38
441.822	92.38
442.043	89.38
442.264	89.38
442.486	72.38
442.707	80.38
442.928	83.38
443.149	85.38
443.371	79.38
443.592	77.38
443.813	73.38
444.034	74.38
444.255	62.38
444.476	74.38
444.698	83.38
444.919	82.38
445.14	133.38
445.361	101.38
445.582	77.38
445.803	74.38
446.024	77.38
446.245	84.38
446.466	82.38
446.687	73.38
446.908	68.38
447.129	70.38
447.35	83.38
447.571	78.38
447.792	78.38
448.013	62.38
448.234	77.38
448.455	61.38
448.675	75.38
448.896	78.38
449.117	84.38
449.338	76.38
449.559	64.38
449.779	82.38
450	83.38
450.221	70.38
450.442	89.38
450.662	93.38
450.883	70.38
451.104	84.38
451.324	82.38
451.545	76.38
451.766	80.38
451.986	94.38
452.207	83.38
452.428	79.38
452.648	93.38
452.869	80.38
453.089	83.38
453.31	79.38
453.53	79.38
453.751	69.38
453.971	66.38
454.192	81.38
454.412	83.38
454.633	75.38
454.853	79.38
455.073	104.38
455.294	83.38
455.514	83.38
455.734	75.38
455.955	80.38
456.175	80.38
456.395	79.38
456.616	73.38
456.836	89.38
457.056	79.38
457.276	92.38
457.497	74.38
457.717	73.38
457.937	65.38
458.157	70.38
458.377	83.38
458.598	87.38
458.818	76.38
459.038	68.38
459.258	84.38
459.478	76.38
459.698	86.38
459.918	73.38
460.138	73.38
460.358	92.38
460.578	88.38
460.798	77.38
461.018	71.38
461.238	82.38
461.458	87.38
461.678	70.38
461.898	75.38
462.118	91.38
462.338	80.38
462.558	93.38
462.777	74.38
462.997	81.38
463.217	85.38
463.437	84.38
463.657	87.38
463.876	84.38
464.096	81.38
464.316	76.38
464.536	85.38
464.755	86.38
464.975	86.38
465.195	86.38
465.414	75.38
465.634	72.38
465.854	65.38
466.073	79.38
466.293	67.38
466.512	83.38
466.732	80.38
466.951	69.38
467.171	91.38
467.391	87.38
467.61	74.38
467.829	60.38
468.049	87.38
468.268	81.38
468.488	78.38
468.707	79.38
468.927	72.38
469.146	75.38
469.365	69.38
469.585	67.38
469.804	82.38
470.023	72.38
470.243	88.38
470.462	89.38
470.681	74.38
470.901	73.38
471.12	87.38
471.339	70.38
471.558	87.38
471.777	77.38
471.997	78.38
472.216	68.38
472.435	77.38
472.654	79.38
472.873	94.38
473.092	78.38
473.311	78.38
473.53	76.38
473.749	83.38
473.968	76.38
474.187	69.38
474.406	63.38
474.625	87.38
474.844	92.38
475.063	81.38
475.282	74.38
475.501	78.38
475.72	103.38
475.939	70.38
476.158	83.38
476.377	80.38
476.596	88.38
476.814	95.38
477.033	77.38
477.252	89.38
477.471	76.38
477.69	80.38
477.908	87.38
478.127	79.38
478.346	78.38
478.564	79.38
478.783	69.38
479.002	74.38
479.22	75.38
479.439	77.38
479.658	98.38
479.876	85.38
480.095	72.38
480.313	89.38
480.532	88.38
480.751	74.38
480.969	82.38
481.188	87.38
481.406	75.38
481.624	79.38
481.843	78.38
482.061	72.38
482.28	80.38
482.498	74.38
482.717	89.38
482.935	79.38
483.153	85.38
483.372	70.38
483.59	87.38
483.808	83.38
484.027	75.38
484.245	84.38
484.463	62.38
484.681	76.38
484.9	80.38
485.118	84.38
485.336	89.38
485.554	92.38
485.772	78.38
485.99	78.38
486.209	75.38
486.427	82.38
486.645	79.38
486.863	92.38
487.081	73.38
487.299	85.38
487.517	91.38
487.735	75.38
487.953	80.38
488.171	81.38
488.389	87.38
488.607	89.38
488.825	81.38
489.043	72.38
489.261	72.38
489.479	84.38
489.696	84.38
489.914	85.38
490.132	88.38
490.35	78.38
490.568	86.38
490.786	82.38
491.003	67.38
491.221	70.38
491.439	71.38
491.657	70.38
491.874	78.38
492.092	85.38
492.31	76.38
492.527	59.38
492.745	75.38
492.963	75.38
493.18	93.38
493.398	72.38
493.615	77.38
493.833	74.38
494.05	75.38
494.268	76.38
494.485	87.38
494.703	73.38
494.92	70.38
495.138	70.38
495.355	73.38
495.573	76.38
495.79	72.38
496.008	72.38
496.225	82.38
496.442	74.38
496.66	79.38
496.877	69.38
497.094	81.38
497.312	70.38
497.529	69.38
497.746	77.38
497.963	89.38
498.181	73.38
498.398	68.38
498.615	85.38
498.832	93.38
499.049	88.38
499.267	80.38
499.484	70.38
499.701	93.38
499.918	90.38
500.135	85.38
500.352	80.38
500.569	90.38
500.786	88.38
501.003	63.38
501.22	71.38
501.437	80.38
501.654	95.38
501.871	70.38
502.088	75.38
502.305	82.38
502.522	87.38
502.739	85.38
502.956	84.38
503.172	86.38
503.389	83.38
503.606	78.38
503.823	76.38
504.04	80.38
504.256	90.38
504.473	83.38
504.69	76.38
504.907	83.38
505.123	86.38
505.34	83.38
505.557	80.38
505.773	83.38
505.99	67.38
506.207	77.38
506.423	80.38
506.64	95.38
506.856	77.38
507.073	81.38
507.289	75.38
507.506	89.38
507.722	67.38
507.939	84.38
508.155	75.38
508.372	84.38
508.588	83.38
508.805	83.38
509.021	83.38
509.238	82.38
509.454	77.38
509.67	87.38
509.887	80.38
510.103	86.38
510.319	75.38
510.536	78.38
510.752	77.38
510.968	78.38
511.184	76.38
511.401	87.38
511.617	76.38
511.833	83.38
512.049	94.38
512.265	85.38
512.481	74.38
512.698	80.38
512.914	83.38
513.13	96.38
513.346	79.38
513.562	75.38
513.778	85.38
513.994	86.38
514.21	89.38
514.426	82.38
514.642	87.38
514.858	83.38
515.074	75.38
515.29	82.38
515.506	85.38
515.721	97.38
515.937	77.38
516.153	71.38
516.369	78.38
516.585	83.38
516.801	81.38
517.016	77.38
517.232	84.38
517.448	80.38
517.664	87.38
517.879	92.38
518.095	96.38
518.311	89.38
518.527	72.38
518.742	69.38
518.958	69.38
519.173	69.38
519.389	75.38
519.605	90.38
519.82	77.38
520.036	67.38
