Data from Background_3_HRD10591_00016.txt Node
Date: Wed Nov 05 14:49:27 EST 2025
User: Yrep
Spectrometer: HR+D1059
Trigger mode: 1
Integration Time (sec): 1.000000E-1
Scans to average: 1
Electric dark correction enabled: true
Nonlinearity correction enabled: false
Boxcar width: 0
XAxis mode: Wavelengths
Number of Pixels in Spectrum: 2048
>>>>>Begin Spectral Data<<<<<
223.165	-2.44
223.4	-2.44
223.635	-2.44
223.869	-13.44
224.104	-28.44
224.338	-22.44
224.573	-4.44
224.808	2.56
225.042	4.56
225.277	-16.44
225.511	-10.44
225.746	-15.44
225.98	14.56
226.215	7.56
226.449	1.56
226.683	17.56
226.918	23.56
227.152	41.56
227.387	37.56
227.621	31.56
227.856	36.56
228.09	38.56
228.324	51.56
228.559	52.56
228.793	47.56
229.027	60.56
229.262	55.56
229.496	55.56
229.73	57.56
229.964	88.56
230.199	75.56
230.433	73.56
230.667	70.56
230.901	59.56
231.136	69.56
231.37	79.56
231.604	84.56
231.838	71.56
232.072	75.56
232.306	81.56
232.541	81.56
232.775	70.56
233.009	85.56
233.243	74.56
233.477	67.56
233.711	76.56
233.945	89.56
234.179	88.56
234.413	80.56
234.647	76.56
234.881	85.56
235.115	73.56
235.349	82.56
235.583	78.56
235.817	75.56
236.051	65.56
236.285	79.56
236.519	73.56
236.753	78.56
236.987	77.56
237.221	80.56
237.455	64.56
237.689	67.56
237.922	87.56
238.156	83.56
238.39	61.56
238.624	73.56
238.858	81.56
239.091	85.56
239.325	75.56
239.559	69.56
239.793	69.56
240.027	76.56
240.26	80.56
240.494	89.56
240.728	75.56
240.961	73.56
241.195	69.56
241.429	83.56
241.662	68.56
241.896	74.56
242.13	65.56
242.363	75.56
242.597	63.56
242.83	78.56
243.064	80.56
243.298	59.56
243.531	60.56
243.765	79.56
243.998	57.56
244.232	70.56
244.465	68.56
244.699	69.56
244.932	71.56
245.166	72.56
245.399	80.56
245.633	70.56
245.866	62.56
246.099	69.56
246.333	65.56
246.566	82.56
246.8	79.56
247.033	61.56
247.266	76.56
247.5	81.56
247.733	69.56
247.966	64.56
248.2	81.56
248.433	85.56
248.666	75.56
248.899	73.56
249.133	83.56
249.366	75.56
249.599	79.56
249.832	73.56
250.066	73.56
250.299	75.56
250.532	80.56
250.765	69.56
250.998	79.56
251.231	75.56
251.465	78.56
251.698	70.56
251.931	68.56
252.164	81.56
252.397	92.56
252.63	71.56
252.863	70.56
253.096	69.56
253.329	92.56
253.562	67.56
253.795	85.56
254.028	84.56
254.261	91.56
254.494	77.56
254.727	80.56
254.96	86.56
255.193	82.56
255.426	69.56
255.659	76.56
255.892	86.56
256.124	83.56
256.357	76.56
256.59	66.56
256.823	82.56
257.056	71.56
257.289	66.56
257.521	75.56
257.754	82.56
257.987	66.56
258.22	77.56
258.452	73.56
258.685	81.56
258.918	77.56
259.151	87.56
259.383	68.56
259.616	70.56
259.849	82.56
260.081	88.56
260.314	73.56
260.547	72.56
260.779	72.56
261.012	68.56
261.244	81.56
261.477	87.56
261.71	75.56
261.942	77.56
262.175	83.56
262.407	74.56
262.64	82.56
262.872	77.56
263.105	83.56
263.337	76.56
263.57	68.56
263.802	74.56
264.035	72.56
264.267	74.56
264.499	80.56
264.732	72.56
264.964	75.56
265.197	84.56
265.429	68.56
265.661	89.56
265.894	83.56
266.126	77.56
266.358	77.56
266.591	92.56
266.823	77.56
267.055	75.56
267.287	70.56
267.52	81.56
267.752	78.56
267.984	88.56
268.216	73.56
268.448	80.56
268.681	88.56
268.913	87.56
269.145	73.56
269.377	72.56
269.609	76.56
269.841	87.56
270.073	73.56
270.306	89.56
270.538	69.56
270.77	80.56
271.002	80.56
271.234	90.56
271.466	82.56
271.698	92.56
271.93	85.56
272.162	76.56
272.394	83.56
272.626	80.56
272.858	88.56
273.09	76.56
273.322	80.56
273.553	72.56
273.785	90.56
274.017	92.56
274.249	74.56
274.481	70.56
274.713	88.56
274.945	76.56
275.176	87.56
275.408	87.56
275.64	75.56
275.872	75.56
276.104	77.56
276.335	73.56
276.567	80.56
276.799	84.56
277.031	83.56
277.262	79.56
277.494	83.56
277.726	96.56
277.957	81.56
278.189	78.56
278.421	78.56
278.652	77.56
278.884	70.56
279.115	63.56
279.347	73.56
279.579	77.56
279.81	68.56
280.042	83.56
280.273	84.56
280.505	77.56
280.736	85.56
280.968	75.56
281.199	82.56
281.431	91.56
281.662	92.56
281.894	81.56
282.125	87.56
282.356	83.56
282.588	87.56
282.819	94.56
283.051	91.56
283.282	88.56
283.513	87.56
283.745	97.56
283.976	82.56
284.207	83.56
284.439	87.56
284.67	68.56
284.901	89.56
285.132	74.56
285.364	83.56
285.595	86.56
285.826	79.56
286.057	78.56
286.288	77.56
286.52	73.56
286.751	69.56
286.982	73.56
287.213	82.56
287.444	79.56
287.675	84.56
287.906	83.56
288.138	86.56
288.369	79.56
288.6	86.56
288.831	64.56
289.062	87.56
289.293	73.56
289.524	69.56
289.755	83.56
289.986	82.56
290.217	88.56
290.448	85.56
290.679	79.56
290.91	100.56
291.141	91.56
291.371	81.56
291.602	67.56
291.833	83.56
292.064	81.56
292.295	77.56
292.526	74.56
292.757	79.56
292.987	82.56
293.218	90.56
293.449	83.56
293.68	84.56
293.91	92.56
294.141	100.56
294.372	94.56
294.603	76.56
294.833	75.56
295.064	82.56
295.295	98.56
295.525	76.56
295.756	83.56
295.987	72.56
296.217	91.56
296.448	87.56
296.679	84.56
296.909	80.56
297.14	76.56
297.37	87.56
297.601	95.56
297.831	85.56
298.062	84.56
298.292	91.56
298.523	82.56
298.753	76.56
298.984	85.56
299.214	91.56
299.445	83.56
299.675	79.56
299.905	69.56
300.136	79.56
300.366	89.56
300.597	91.56
300.827	74.56
301.057	66.56
301.288	92.56
301.518	83.56
301.748	63.56
301.979	93.56
302.209	81.56
302.439	75.56
302.669	87.56
302.9	92.56
303.13	87.56
303.36	95.56
303.59	78.56
303.82	92.56
304.051	80.56
304.281	75.56
304.511	90.56
304.741	79.56
304.971	72.56
305.201	84.56
305.431	84.56
305.661	87.56
305.891	84.56
306.121	78.56
306.352	69.56
306.582	71.56
306.812	72.56
307.042	91.56
307.272	85.56
307.502	93.56
307.731	78.56
307.961	75.56
308.191	81.56
308.421	95.56
308.651	82.56
308.881	75.56
309.111	91.56
309.341	78.56
309.571	79.56
309.8	67.56
310.03	75.56
310.26	73.56
310.49	81.56
310.72	75.56
310.949	75.56
311.179	75.56
311.409	80.56
311.639	78.56
311.868	89.56
312.098	72.56
312.328	84.56
312.557	75.56
312.787	79.56
313.017	81.56
313.246	97.56
313.476	77.56
313.706	83.56
313.935	90.56
314.165	74.56
314.394	81.56
314.624	67.56
314.853	75.56
315.083	80.56
315.312	88.56
315.542	88.56
315.771	85.56
316.001	97.56
316.23	78.56
316.46	75.56
316.689	74.56
316.919	92.56
317.148	83.56
317.377	79.56
317.607	77.56
317.836	83.56
318.065	95.56
318.295	81.56
318.524	83.56
318.753	87.56
318.983	83.56
319.212	92.56
319.441	81.56
319.67	80.56
319.9	93.56
320.129	84.56
320.358	80.56
320.587	84.56
320.816	68.56
321.046	77.56
321.275	71.56
321.504	66.56
321.733	77.56
321.962	91.56
322.191	78.56
322.42	76.56
322.649	90.56
322.878	103.56
323.108	83.56
323.337	74.56
323.566	90.56
323.795	70.56
324.024	73.56
324.253	83.56
324.482	70.56
324.71	76.56
324.939	79.56
325.168	85.56
325.397	87.56
325.626	81.56
325.855	91.56
326.084	83.56
326.313	84.56
326.542	88.56
326.77	75.56
326.999	73.56
327.228	72.56
327.457	82.56
327.686	81.56
327.914	73.56
328.143	88.56
328.372	73.56
328.6	92.56
328.829	75.56
329.058	73.56
329.287	72.56
329.515	77.56
329.744	71.56
329.972	74.56
330.201	92.56
330.43	88.56
330.658	89.56
330.887	80.56
331.115	68.56
331.344	83.56
331.572	94.56
331.801	79.56
332.03	75.56
332.258	71.56
332.486	78.56
332.715	97.56
332.943	77.56
333.172	88.56
333.4	81.56
333.629	93.56
333.857	83.56
334.085	64.56
334.314	84.56
334.542	83.56
334.771	84.56
334.999	78.56
335.227	79.56
335.455	73.56
335.684	75.56
335.912	81.56
336.14	83.56
336.369	79.56
336.597	86.56
336.825	82.56
337.053	74.56
337.281	75.56
337.51	68.56
337.738	76.56
337.966	79.56
338.194	79.56
338.422	68.56
338.65	88.56
338.878	77.56
339.106	74.56
339.334	85.56
339.562	91.56
339.79	74.56
340.018	88.56
340.246	76.56
340.474	84.56
340.702	80.56
340.93	77.56
341.158	73.56
341.386	84.56
341.614	79.56
341.842	81.56
342.07	73.56
342.298	88.56
342.526	85.56
342.754	83.56
342.981	77.56
343.209	73.56
343.437	83.56
343.665	88.56
343.893	93.56
344.12	63.56
344.348	88.56
344.576	89.56
344.804	87.56
345.031	82.56
345.259	77.56
345.487	78.56
345.714	85.56
345.942	73.56
346.17	99.56
346.397	81.56
346.625	87.56
346.853	80.56
347.08	79.56
347.308	87.56
347.535	65.56
347.763	74.56
347.99	83.56
348.218	90.56
348.445	86.56
348.673	76.56
348.9	76.56
349.128	92.56
349.355	91.56
349.583	74.56
349.81	76.56
350.037	85.56
350.265	83.56
350.492	59.56
350.72	81.56
350.947	69.56
351.174	60.56
351.402	77.56
351.629	92.56
351.856	74.56
352.083	78.56
352.311	73.56
352.538	93.56
352.765	71.56
352.992	86.56
353.22	85.56
353.447	80.56
353.674	83.56
353.901	89.56
354.128	92.56
354.355	80.56
354.583	78.56
354.81	87.56
355.037	85.56
355.264	75.56
355.491	73.56
355.718	78.56
355.945	56.56
356.172	68.56
356.399	80.56
356.626	78.56
356.853	59.56
357.08	67.56
357.307	84.56
357.534	67.56
357.761	92.56
357.988	76.56
358.215	81.56
358.441	80.56
358.668	81.56
358.895	78.56
359.122	95.56
359.349	86.56
359.576	61.56
359.802	79.56
360.029	73.56
360.256	89.56
360.483	80.56
360.709	68.56
360.936	82.56
361.163	84.56
361.39	91.56
361.616	81.56
361.843	74.56
362.07	83.56
362.296	87.56
362.523	87.56
362.749	75.56
362.976	79.56
363.203	92.56
363.429	88.56
363.656	83.56
363.882	75.56
364.109	77.56
364.335	78.56
364.562	93.56
364.788	75.56
365.015	91.56
365.241	75.56
365.468	84.56
365.694	80.56
365.92	84.56
366.147	83.56
366.373	80.56
366.599	75.56
366.826	75.56
367.052	76.56
367.278	80.56
367.505	77.56
367.731	80.56
367.957	70.56
368.184	73.56
368.41	72.56
368.636	59.56
368.862	77.56
369.089	75.56
369.315	78.56
369.541	69.56
369.767	81.56
369.993	75.56
370.219	69.56
370.445	75.56
370.672	62.56
370.898	77.56
371.124	87.56
371.35	95.56
371.576	68.56
371.802	62.56
372.028	79.56
372.254	80.56
372.48	77.56
372.706	68.56
372.932	88.56
373.158	84.56
373.384	70.56
373.61	91.56
373.835	78.56
374.061	82.56
374.287	83.56
374.513	78.56
374.739	73.56
374.965	75.56
375.191	79.56
375.416	76.56
375.642	77.56
375.868	89.56
376.094	92.56
376.319	80.56
376.545	76.56
376.771	81.56
376.997	69.56
377.222	83.56
377.448	64.56
377.674	81.56
377.899	75.56
378.125	67.56
378.35	86.56
378.576	83.56
378.802	75.56
379.027	91.56
379.253	81.56
379.478	73.56
379.704	88.56
379.929	81.56
380.155	80.56
380.38	69.56
380.606	79.56
380.831	84.56
381.057	80.56
381.282	68.56
381.507	88.56
381.733	80.56
381.958	85.56
382.184	95.56
382.409	72.56
382.634	81.56
382.86	76.56
383.085	71.56
383.31	81.56
383.535	80.56
383.761	84.56
383.986	63.56
384.211	80.56
384.436	74.56
384.662	90.56
384.887	82.56
385.112	74.56
385.337	77.56
385.562	89.56
385.787	77.56
386.013	76.56
386.238	79.56
386.463	73.56
386.688	91.56
386.913	87.56
387.138	76.56
387.363	82.56
387.588	76.56
387.813	74.56
388.038	87.56
388.263	76.56
388.488	63.56
388.713	76.56
388.938	72.56
389.163	81.56
389.387	77.56
389.612	86.56
389.837	69.56
390.062	80.56
390.287	69.56
390.512	67.56
390.736	79.56
390.961	79.56
391.186	84.56
391.411	76.56
391.636	77.56
391.86	79.56
392.085	74.56
392.31	80.56
392.534	82.56
392.759	84.56
392.984	69.56
393.208	94.56
393.433	76.56
393.658	88.56
393.882	74.56
394.107	80.56
394.331	71.56
394.556	68.56
394.78	76.56
395.005	80.56
395.229	81.56
395.454	80.56
395.678	70.56
395.903	64.56
396.127	81.56
396.352	89.56
396.576	88.56
396.801	90.56
397.025	76.56
397.249	80.56
397.474	82.56
397.698	66.56
397.922	78.56
398.147	89.56
398.371	97.56
398.595	80.56
398.82	79.56
399.044	61.56
399.268	73.56
399.492	86.56
399.717	97.56
399.941	69.56
400.165	67.56
400.389	78.56
400.613	78.56
400.837	84.56
401.062	83.56
401.286	79.56
401.51	78.56
401.734	79.56
401.958	81.56
402.182	73.56
402.406	88.56
402.63	77.56
402.854	90.56
403.078	79.56
403.302	83.56
403.526	90.56
403.75	91.56
403.974	80.56
404.198	67.56
404.422	64.56
404.645	72.56
404.869	83.56
405.093	75.56
405.317	74.56
405.541	82.56
405.765	71.56
405.988	84.56
406.212	74.56
406.436	71.56
406.66	84.56
406.883	70.56
407.107	74.56
407.331	66.56
407.555	76.56
407.778	84.56
408.002	82.56
408.226	85.56
408.449	83.56
408.673	79.56
408.896	64.56
409.12	85.56
409.344	84.56
409.567	73.56
409.791	98.56
410.014	84.56
410.238	79.56
410.461	78.56
410.685	84.56
410.908	66.56
411.132	65.56
411.355	83.56
411.578	74.56
411.802	78.56
412.025	71.56
412.249	61.56
412.472	77.56
412.695	74.56
412.919	61.56
413.142	77.56
413.365	85.56
413.589	70.56
413.812	69.56
414.035	93.56
414.258	87.56
414.482	84.56
414.705	62.56
414.928	91.56
415.151	78.56
415.374	79.56
415.597	81.56
415.821	69.56
416.044	76.56
416.267	74.56
416.49	85.56
416.713	85.56
416.936	60.56
417.159	67.56
417.382	59.56
417.605	83.56
417.828	83.56
418.051	80.56
418.274	79.56
418.497	89.56
418.72	92.56
418.943	82.56
419.166	71.56
419.389	77.56
419.611	79.56
419.834	67.56
420.057	92.56
420.28	83.56
420.503	70.56
420.726	70.56
420.948	68.56
421.171	73.56
421.394	89.56
421.617	74.56
421.839	95.56
422.062	79.56
422.285	78.56
422.507	75.56
422.73	69.56
422.953	84.56
423.175	85.56
423.398	78.56
423.621	90.56
423.843	87.56
424.066	76.56
424.288	76.56
424.511	75.56
424.733	80.56
424.956	89.56
425.178	87.56
425.401	69.56
425.623	84.56
425.846	72.56
426.068	78.56
426.291	80.56
426.513	79.56
426.735	79.56
426.958	79.56
427.18	76.56
427.402	69.56
427.625	84.56
427.847	79.56
428.069	89.56
428.292	84.56
428.514	80.56
428.736	68.56
428.958	77.56
429.181	75.56
429.403	75.56
429.625	80.56
429.847	68.56
430.069	92.56
430.292	84.56
430.514	69.56
430.736	77.56
430.958	70.56
431.18	70.56
431.402	83.56
431.624	83.56
431.846	90.56
432.068	67.56
432.29	71.56
432.512	73.56
432.734	67.56
432.956	79.56
433.178	83.56
433.4	73.56
433.622	70.56
433.844	81.56
434.066	88.56
434.287	82.56
434.509	80.56
434.731	73.56
434.953	69.56
435.175	79.56
435.397	80.56
435.618	83.56
435.84	69.56
436.062	69.56
436.284	87.56
436.505	75.56
436.727	76.56
436.949	72.56
437.17	73.56
437.392	83.56
437.614	65.56
437.835	85.56
438.057	70.56
438.278	83.56
438.5	74.56
438.721	84.56
438.943	78.56
439.165	76.56
439.386	82.56
439.608	83.56
439.829	83.56
440.05	79.56
440.272	72.56
440.493	85.56
440.715	95.56
440.936	83.56
441.158	83.56
441.379	88.56
441.6	74.56
441.822	72.56
442.043	73.56
442.264	74.56
442.486	65.56
442.707	61.56
442.928	80.56
443.149	79.56
443.371	82.56
443.592	84.56
443.813	95.56
444.034	78.56
444.255	87.56
444.476	75.56
444.698	67.56
444.919	73.56
445.14	158.56
445.361	96.56
445.582	72.56
445.803	73.56
446.024	77.56
446.245	84.56
446.466	85.56
446.687	72.56
446.908	84.56
447.129	87.56
447.35	74.56
447.571	77.56
447.792	84.56
448.013	84.56
448.234	73.56
448.455	69.56
448.675	81.56
448.896	75.56
449.117	74.56
449.338	75.56
449.559	82.56
449.779	78.56
450	75.56
450.221	75.56
450.442	79.56
450.662	53.56
450.883	77.56
451.104	71.56
451.324	91.56
451.545	77.56
451.766	81.56
451.986	64.56
452.207	83.56
452.428	77.56
452.648	81.56
452.869	77.56
453.089	88.56
453.31	81.56
453.53	73.56
453.751	75.56
453.971	97.56
454.192	84.56
454.412	81.56
454.633	76.56
454.853	74.56
455.073	79.56
455.294	74.56
455.514	78.56
455.734	84.56
455.955	82.56
456.175	67.56
456.395	63.56
456.616	83.56
456.836	81.56
457.056	82.56
457.276	85.56
457.497	84.56
457.717	69.56
457.937	71.56
458.157	84.56
458.377	89.56
458.598	71.56
458.818	78.56
459.038	76.56
459.258	64.56
459.478	78.56
459.698	86.56
459.918	80.56
460.138	72.56
460.358	83.56
460.578	77.56
460.798	73.56
461.018	84.56
461.238	76.56
461.458	76.56
461.678	75.56
461.898	87.56
462.118	83.56
462.338	76.56
462.558	73.56
462.777	78.56
462.997	81.56
463.217	86.56
463.437	82.56
463.657	71.56
463.876	77.56
464.096	80.56
464.316	78.56
464.536	92.56
464.755	94.56
464.975	80.56
465.195	90.56
465.414	77.56
465.634	84.56
465.854	60.56
466.073	81.56
466.293	71.56
466.512	85.56
466.732	93.56
466.951	79.56
467.171	69.56
467.391	84.56
467.61	92.56
467.829	76.56
468.049	81.56
468.268	81.56
468.488	83.56
468.707	83.56
468.927	72.56
469.146	81.56
469.365	68.56
469.585	79.56
469.804	80.56
470.023	84.56
470.243	71.56
470.462	77.56
470.681	76.56
470.901	86.56
471.12	89.56
471.339	70.56
471.558	70.56
471.777	64.56
471.997	55.56
472.216	69.56
472.435	84.56
472.654	75.56
472.873	72.56
473.092	66.56
473.311	79.56
473.53	84.56
473.749	83.56
473.968	88.56
474.187	77.56
474.406	93.56
474.625	73.56
474.844	75.56
475.063	85.56
475.282	88.56
475.501	84.56
475.72	79.56
475.939	65.56
476.158	76.56
476.377	80.56
476.596	82.56
476.814	84.56
477.033	56.56
477.252	84.56
477.471	85.56
477.69	75.56
477.908	70.56
478.127	86.56
478.346	66.56
478.564	89.56
478.783	82.56
479.002	75.56
479.22	82.56
479.439	81.56
479.658	77.56
479.876	69.56
480.095	73.56
480.313	84.56
480.532	83.56
480.751	80.56
480.969	84.56
481.188	75.56
481.406	87.56
481.624	80.56
481.843	87.56
482.061	79.56
482.28	73.56
482.498	68.56
482.717	82.56
482.935	89.56
483.153	85.56
483.372	72.56
483.59	77.56
483.808	78.56
484.027	72.56
484.245	90.56
484.463	84.56
484.681	81.56
484.9	80.56
485.118	78.56
485.336	73.56
485.554	74.56
485.772	77.56
485.99	77.56
486.209	83.56
486.427	82.56
486.645	64.56
486.863	76.56
487.081	88.56
487.299	79.56
487.517	85.56
487.735	87.56
487.953	90.56
488.171	81.56
488.389	71.56
488.607	68.56
488.825	80.56
489.043	92.56
489.261	87.56
489.479	78.56
489.696	91.56
489.914	87.56
490.132	65.56
490.35	88.56
490.568	80.56
490.786	89.56
491.003	73.56
491.221	85.56
491.439	85.56
491.657	88.56
491.874	85.56
492.092	84.56
492.31	82.56
492.527	89.56
492.745	84.56
492.963	79.56
493.18	75.56
493.398	89.56
493.615	85.56
493.833	91.56
494.05	75.56
494.268	66.56
494.485	88.56
494.703	86.56
494.92	82.56
495.138	93.56
495.355	75.56
495.573	75.56
495.79	80.56
496.008	100.56
496.225	73.56
496.442	81.56
496.66	86.56
496.877	83.56
497.094	96.56
497.312	69.56
497.529	77.56
497.746	84.56
497.963	92.56
498.181	66.56
498.398	68.56
498.615	81.56
498.832	92.56
499.049	78.56
499.267	92.56
499.484	85.56
499.701	73.56
499.918	76.56
500.135	73.56
500.352	82.56
500.569	78.56
500.786	98.56
501.003	83.56
501.22	85.56
501.437	81.56
501.654	74.56
501.871	67.56
502.088	91.56
502.305	83.56
502.522	91.56
502.739	72.56
502.956	74.56
503.172	84.56
503.389	82.56
503.606	82.56
503.823	77.56
504.04	79.56
504.256	73.56
504.473	87.56
504.69	85.56
504.907	87.56
505.123	95.56
505.34	87.56
505.557	90.56
505.773	93.56
505.99	86.56
506.207	72.56
506.423	80.56
506.64	81.56
506.856	77.56
507.073	79.56
507.289	78.56
507.506	75.56
507.722	63.56
507.939	72.56
508.155	76.56
508.372	71.56
508.588	92.56
508.805	73.56
509.021	81.56
509.238	83.56
509.454	90.56
509.67	93.56
509.887	76.56
510.103	65.56
510.319	79.56
510.536	73.56
510.752	78.56
510.968	63.56
511.184	67.56
511.401	77.56
511.617	78.56
511.833	81.56
512.049	79.56
512.265	66.56
512.481	78.56
512.698	81.56
512.914	83.56
513.13	88.56
513.346	89.56
513.562	83.56
513.778	89.56
513.994	75.56
514.21	78.56
514.426	84.56
514.642	77.56
514.858	76.56
515.074	75.56
515.29	79.56
515.506	83.56
515.721	83.56
515.937	88.56
516.153	85.56
516.369	92.56
516.585	80.56
516.801	75.56
517.016	83.56
517.232	74.56
517.448	84.56
517.664	88.56
517.879	73.56
518.095	87.56
518.311	79.56
518.527	73.56
518.742	82.56
518.958	83.56
519.173	91.56
519.389	78.56
519.605	79.56
519.82	93.56
520.036	68.56
520.251	82.56
