Data from Background_3_HRD10591_00059.txt Node
Date: Wed Nov 05 14:49:49 EST 2025
User: Yrep
Spectrometer: HR+D1059
Trigger mode: 1
Integration Time (sec): 1.000000E-1
Scans to average: 1
Electric dark correction enabled: true
Nonlinearity correction enabled: false
Boxcar width: 0
XAxis mode: Wavelengths
Number of Pixels in Spectrum: 2048
>>>>>Begin Spectral Data<<<<<
223.165	-26.06
223.4	-26.06
223.635	-26.06
223.869	-24.06
224.104	-16.06
224.338	-16.06
224.573	-8.06
224.808	-26.06
225.042	-7.06
225.277	3.94
225.511	0.94
225.746	-3.06
225.98	11.94
226.215	18.94
226.449	20.94
226.683	21.94
226.918	12.94
227.152	34.94
227.387	41.94
227.621	40.94
227.856	40.94
228.09	47.94
228.324	68.94
228.559	62.94
228.793	69.94
229.027	69.94
229.262	48.94
229.496	74.94
229.73	62.94
229.964	73.94
230.199	74.94
230.433	74.94
230.667	68.94
230.901	86.94
231.136	76.94
231.37	92.94
231.604	80.94
231.838	94.94
232.072	76.94
232.306	80.94
232.541	72.94
232.775	62.94
233.009	88.94
233.243	72.94
233.477	86.94
233.711	91.94
233.945	82.94
234.179	74.94
234.413	89.94
234.647	91.94
234.881	92.94
235.115	87.94
235.349	82.94
235.583	90.94
235.817	90.94
236.051	80.94
236.285	75.94
236.519	82.94
236.753	87.94
236.987	82.94
237.221	77.94
237.455	76.94
237.689	70.94
237.922	78.94
238.156	73.94
238.39	72.94
238.624	69.94
238.858	83.94
239.091	74.94
239.325	75.94
239.559	88.94
239.793	75.94
240.027	88.94
240.26	90.94
240.494	74.94
240.728	87.94
240.961	80.94
241.195	87.94
241.429	74.94
241.662	67.94
241.896	76.94
242.13	90.94
242.363	86.94
242.597	76.94
242.83	75.94
243.064	90.94
243.298	96.94
243.531	81.94
243.765	82.94
243.998	84.94
244.232	73.94
244.465	82.94
244.699	74.94
244.932	76.94
245.166	79.94
245.399	82.94
245.633	85.94
245.866	71.94
246.099	84.94
246.333	90.94
246.566	76.94
246.8	91.94
247.033	79.94
247.266	83.94
247.5	83.94
247.733	84.94
247.966	70.94
248.2	87.94
248.433	84.94
248.666	94.94
248.899	75.94
249.133	84.94
249.366	85.94
249.599	94.94
249.832	94.94
250.066	81.94
250.299	81.94
250.532	71.94
250.765	79.94
250.998	80.94
251.231	73.94
251.465	94.94
251.698	84.94
251.931	80.94
252.164	86.94
252.397	88.94
252.63	86.94
252.863	81.94
253.096	76.94
253.329	65.94
253.562	84.94
253.795	80.94
254.028	99.94
254.261	70.94
254.494	70.94
254.727	89.94
254.96	78.94
255.193	95.94
255.426	78.94
255.659	90.94
255.892	90.94
256.124	86.94
256.357	96.94
256.59	79.94
256.823	89.94
257.056	83.94
257.289	75.94
257.521	73.94
257.754	59.94
257.987	81.94
258.22	78.94
258.452	90.94
258.685	81.94
258.918	89.94
259.151	95.94
259.383	84.94
259.616	81.94
259.849	84.94
260.081	74.94
260.314	91.94
260.547	79.94
260.779	83.94
261.012	77.94
261.244	81.94
261.477	84.94
261.71	79.94
261.942	89.94
262.175	91.94
262.407	76.94
262.64	84.94
262.872	95.94
263.105	90.94
263.337	82.94
263.57	86.94
263.802	87.94
264.035	81.94
264.267	82.94
264.499	90.94
264.732	88.94
264.964	93.94
265.197	95.94
265.429	77.94
265.661	74.94
265.894	75.94
266.126	90.94
266.358	80.94
266.591	90.94
266.823	67.94
267.055	80.94
267.287	76.94
267.52	79.94
267.752	86.94
267.984	90.94
268.216	81.94
268.448	82.94
268.681	89.94
268.913	87.94
269.145	77.94
269.377	79.94
269.609	91.94
269.841	70.94
270.073	88.94
270.306	94.94
270.538	89.94
270.77	77.94
271.002	85.94
271.234	81.94
271.466	88.94
271.698	80.94
271.93	80.94
272.162	95.94
272.394	95.94
272.626	84.94
272.858	89.94
273.09	96.94
273.322	81.94
273.553	91.94
273.785	91.94
274.017	71.94
274.249	92.94
274.481	90.94
274.713	96.94
274.945	89.94
275.176	93.94
275.408	85.94
275.64	87.94
275.872	75.94
276.104	87.94
276.335	105.94
276.567	83.94
276.799	86.94
277.031	91.94
277.262	78.94
277.494	85.94
277.726	99.94
277.957	92.94
278.189	101.94
278.421	86.94
278.652	87.94
278.884	79.94
279.115	88.94
279.347	88.94
279.579	89.94
279.81	85.94
280.042	76.94
280.273	79.94
280.505	82.94
280.736	92.94
280.968	90.94
281.199	90.94
281.431	75.94
281.662	94.94
281.894	101.94
282.125	83.94
282.356	99.94
282.588	91.94
282.819	96.94
283.051	77.94
283.282	100.94
283.513	92.94
283.745	101.94
283.976	80.94
284.207	90.94
284.439	76.94
284.67	87.94
284.901	93.94
285.132	82.94
285.364	95.94
285.595	111.94
285.826	93.94
286.057	94.94
286.288	81.94
286.52	82.94
286.751	91.94
286.982	85.94
287.213	90.94
287.444	86.94
287.675	80.94
287.906	80.94
288.138	86.94
288.369	91.94
288.6	90.94
288.831	77.94
289.062	86.94
289.293	74.94
289.524	89.94
289.755	91.94
289.986	90.94
290.217	98.94
290.448	91.94
290.679	102.94
290.91	74.94
291.141	89.94
291.371	97.94
291.602	78.94
291.833	86.94
292.064	82.94
292.295	83.94
292.526	86.94
292.757	78.94
292.987	91.94
293.218	97.94
293.449	91.94
293.68	96.94
293.91	84.94
294.141	96.94
294.372	97.94
294.603	75.94
294.833	80.94
295.064	79.94
295.295	79.94
295.525	81.94
295.756	91.94
295.987	81.94
296.217	88.94
296.448	98.94
296.679	86.94
296.909	85.94
297.14	80.94
297.37	83.94
297.601	96.94
297.831	100.94
298.062	102.94
298.292	88.94
298.523	88.94
298.753	92.94
298.984	88.94
299.214	93.94
299.445	82.94
299.675	92.94
299.905	92.94
300.136	95.94
300.366	80.94
300.597	90.94
300.827	88.94
301.057	92.94
301.288	96.94
301.518	94.94
301.748	95.94
301.979	112.94
302.209	90.94
302.439	89.94
302.669	87.94
302.9	76.94
303.13	74.94
303.36	87.94
303.59	99.94
303.82	77.94
304.051	95.94
304.281	87.94
304.511	83.94
304.741	102.94
304.971	91.94
305.201	98.94
305.431	82.94
305.661	83.94
305.891	96.94
306.121	97.94
306.352	95.94
306.582	82.94
306.812	100.94
307.042	97.94
307.272	87.94
307.502	89.94
307.731	75.94
307.961	88.94
308.191	77.94
308.421	95.94
308.651	102.94
308.881	80.94
309.111	85.94
309.341	92.94
309.571	84.94
309.8	94.94
310.03	92.94
310.26	95.94
310.49	83.94
310.72	100.94
310.949	102.94
311.179	86.94
311.409	91.94
311.639	102.94
311.868	98.94
312.098	95.94
312.328	91.94
312.557	103.94
312.787	96.94
313.017	92.94
313.246	100.94
313.476	98.94
313.706	100.94
313.935	79.94
314.165	102.94
314.394	87.94
314.624	84.94
314.853	99.94
315.083	96.94
315.312	92.94
315.542	96.94
315.771	80.94
316.001	82.94
316.23	89.94
316.46	92.94
316.689	98.94
316.919	90.94
317.148	93.94
317.377	94.94
317.607	84.94
317.836	88.94
318.065	76.94
318.295	98.94
318.524	102.94
318.753	86.94
318.983	81.94
319.212	76.94
319.441	79.94
319.67	92.94
319.9	89.94
320.129	100.94
320.358	86.94
320.587	86.94
320.816	90.94
321.046	96.94
321.275	87.94
321.504	86.94
321.733	94.94
321.962	84.94
322.191	90.94
322.42	92.94
322.649	95.94
322.878	88.94
323.108	92.94
323.337	92.94
323.566	99.94
323.795	79.94
324.024	82.94
324.253	100.94
324.482	79.94
324.71	98.94
324.939	86.94
325.168	93.94
325.397	96.94
325.626	91.94
325.855	75.94
326.084	96.94
326.313	88.94
326.542	87.94
326.77	83.94
326.999	76.94
327.228	76.94
327.457	88.94
327.686	86.94
327.914	85.94
328.143	88.94
328.372	105.94
328.6	93.94
328.829	91.94
329.058	76.94
329.287	90.94
329.515	91.94
329.744	103.94
329.972	97.94
330.201	82.94
330.43	86.94
330.658	96.94
330.887	96.94
331.115	89.94
331.344	80.94
331.572	101.94
331.801	94.94
332.03	86.94
332.258	83.94
332.486	84.94
332.715	108.94
332.943	85.94
333.172	81.94
333.4	87.94
333.629	93.94
333.857	84.94
334.085	100.94
334.314	90.94
334.542	82.94
334.771	84.94
334.999	96.94
335.227	95.94
335.455	79.94
335.684	73.94
335.912	83.94
336.14	94.94
336.369	88.94
336.597	76.94
336.825	89.94
337.053	97.94
337.281	87.94
337.51	87.94
337.738	88.94
337.966	81.94
338.194	84.94
338.422	90.94
338.65	101.94
338.878	87.94
339.106	89.94
339.334	83.94
339.562	93.94
339.79	96.94
340.018	85.94
340.246	90.94
340.474	86.94
340.702	111.94
340.93	94.94
341.158	88.94
341.386	95.94
341.614	90.94
341.842	87.94
342.07	97.94
342.298	85.94
342.526	89.94
342.754	91.94
342.981	97.94
343.209	84.94
343.437	91.94
343.665	72.94
343.893	91.94
344.12	108.94
344.348	74.94
344.576	87.94
344.804	83.94
345.031	79.94
345.259	93.94
345.487	77.94
345.714	73.94
345.942	84.94
346.17	84.94
346.397	90.94
346.625	88.94
346.853	100.94
347.08	82.94
347.308	100.94
347.535	94.94
347.763	86.94
347.99	94.94
348.218	91.94
348.445	91.94
348.673	84.94
348.9	81.94
349.128	92.94
349.355	86.94
349.583	88.94
349.81	95.94
350.037	101.94
350.265	90.94
350.492	92.94
350.72	78.94
350.947	72.94
351.174	89.94
351.402	94.94
351.629	98.94
351.856	79.94
352.083	76.94
352.311	78.94
352.538	68.94
352.765	74.94
352.992	98.94
353.22	98.94
353.447	96.94
353.674	82.94
353.901	84.94
354.128	81.94
354.355	86.94
354.583	78.94
354.81	81.94
355.037	80.94
355.264	88.94
355.491	95.94
355.718	94.94
355.945	100.94
356.172	90.94
356.399	81.94
356.626	78.94
356.853	88.94
357.08	84.94
357.307	89.94
357.534	98.94
357.761	88.94
357.988	95.94
358.215	104.94
358.441	80.94
358.668	85.94
358.895	98.94
359.122	92.94
359.349	94.94
359.576	89.94
359.802	94.94
360.029	97.94
360.256	77.94
360.483	83.94
360.709	64.94
360.936	83.94
361.163	83.94
361.39	96.94
361.616	84.94
361.843	96.94
362.07	94.94
362.296	98.94
362.523	76.94
362.749	96.94
362.976	90.94
363.203	91.94
363.429	90.94
363.656	98.94
363.882	83.94
364.109	96.94
364.335	95.94
364.562	80.94
364.788	84.94
365.015	96.94
365.241	87.94
365.468	78.94
365.694	74.94
365.92	87.94
366.147	88.94
366.373	90.94
366.599	89.94
366.826	92.94
367.052	96.94
367.278	84.94
367.505	84.94
367.731	102.94
367.957	90.94
368.184	87.94
368.41	95.94
368.636	82.94
368.862	95.94
369.089	88.94
369.315	82.94
369.541	90.94
369.767	85.94
369.993	98.94
370.219	91.94
370.445	79.94
370.672	85.94
370.898	101.94
371.124	100.94
371.35	85.94
371.576	89.94
371.802	99.94
372.028	77.94
372.254	84.94
372.48	91.94
372.706	76.94
372.932	85.94
373.158	78.94
373.384	76.94
373.61	78.94
373.835	78.94
374.061	100.94
374.287	82.94
374.513	90.94
374.739	95.94
374.965	84.94
375.191	84.94
375.416	87.94
375.642	84.94
375.868	79.94
376.094	88.94
376.319	94.94
376.545	89.94
376.771	82.94
376.997	92.94
377.222	86.94
377.448	88.94
377.674	91.94
377.899	85.94
378.125	85.94
378.35	84.94
378.576	80.94
378.802	94.94
379.027	89.94
379.253	84.94
379.478	76.94
379.704	76.94
379.929	101.94
380.155	80.94
380.38	79.94
380.606	105.94
380.831	89.94
381.057	86.94
381.282	74.94
381.507	95.94
381.733	69.94
381.958	91.94
382.184	93.94
382.409	83.94
382.634	91.94
382.86	81.94
383.085	91.94
383.31	91.94
383.535	83.94
383.761	89.94
383.986	94.94
384.211	84.94
384.436	92.94
384.662	85.94
384.887	88.94
385.112	78.94
385.337	76.94
385.562	80.94
385.787	92.94
386.013	90.94
386.238	93.94
386.463	100.94
386.688	94.94
386.913	96.94
387.138	89.94
387.363	88.94
387.588	90.94
387.813	96.94
388.038	90.94
388.263	91.94
388.488	87.94
388.713	91.94
388.938	84.94
389.163	74.94
389.387	86.94
389.612	88.94
389.837	100.94
390.062	93.94
390.287	82.94
390.512	94.94
390.736	87.94
390.961	80.94
391.186	84.94
391.411	88.94
391.636	88.94
391.86	84.94
392.085	102.94
392.31	76.94
392.534	96.94
392.759	95.94
392.984	81.94
393.208	98.94
393.433	90.94
393.658	83.94
393.882	110.94
394.107	89.94
394.331	89.94
394.556	103.94
394.78	76.94
395.005	88.94
395.229	87.94
395.454	76.94
395.678	89.94
395.903	95.94
396.127	106.94
396.352	94.94
396.576	71.94
396.801	86.94
397.025	83.94
397.249	88.94
397.474	76.94
397.698	93.94
397.922	112.94
398.147	85.94
398.371	96.94
398.595	78.94
398.82	90.94
399.044	86.94
399.268	90.94
399.492	83.94
399.717	90.94
399.941	78.94
400.165	101.94
400.389	89.94
400.613	87.94
400.837	83.94
401.062	81.94
401.286	86.94
401.51	87.94
401.734	83.94
401.958	82.94
402.182	89.94
402.406	101.94
402.63	77.94
402.854	86.94
403.078	73.94
403.302	82.94
403.526	92.94
403.75	79.94
403.974	90.94
404.198	88.94
404.422	82.94
404.645	80.94
404.869	88.94
405.093	90.94
405.317	83.94
405.541	87.94
405.765	84.94
405.988	75.94
406.212	90.94
406.436	86.94
406.66	89.94
406.883	89.94
407.107	91.94
407.331	90.94
407.555	86.94
407.778	83.94
408.002	83.94
408.226	97.94
408.449	86.94
408.673	80.94
408.896	102.94
409.12	94.94
409.344	91.94
409.567	92.94
409.791	82.94
410.014	86.94
410.238	87.94
410.461	91.94
410.685	83.94
410.908	92.94
411.132	81.94
411.355	71.94
411.578	94.94
411.802	93.94
412.025	88.94
412.249	83.94
412.472	74.94
412.695	86.94
412.919	94.94
413.142	80.94
413.365	80.94
413.589	79.94
413.812	81.94
414.035	89.94
414.258	91.94
414.482	96.94
414.705	75.94
414.928	86.94
415.151	66.94
415.374	81.94
415.597	86.94
415.821	91.94
416.044	82.94
416.267	90.94
416.49	74.94
416.713	82.94
416.936	87.94
417.159	81.94
417.382	85.94
417.605	81.94
417.828	74.94
418.051	97.94
418.274	82.94
418.497	87.94
418.72	92.94
418.943	80.94
419.166	91.94
419.389	77.94
419.611	84.94
419.834	90.94
420.057	92.94
420.28	96.94
420.503	86.94
420.726	82.94
420.948	90.94
421.171	81.94
421.394	84.94
421.617	93.94
421.839	84.94
422.062	81.94
422.285	77.94
422.507	84.94
422.73	82.94
422.953	99.94
423.175	81.94
423.398	95.94
423.621	107.94
423.843	79.94
424.066	83.94
424.288	88.94
424.511	88.94
424.733	88.94
424.956	93.94
425.178	75.94
425.401	99.94
425.623	91.94
425.846	84.94
426.068	94.94
426.291	101.94
426.513	71.94
426.735	84.94
426.958	94.94
427.18	80.94
427.402	88.94
427.625	82.94
427.847	83.94
428.069	75.94
428.292	83.94
428.514	81.94
428.736	84.94
428.958	88.94
429.181	79.94
429.403	74.94
429.625	91.94
429.847	80.94
430.069	86.94
430.292	89.94
430.514	85.94
430.736	71.94
430.958	85.94
431.18	72.94
431.402	87.94
431.624	86.94
431.846	78.94
432.068	88.94
432.29	88.94
432.512	95.94
432.734	87.94
432.956	94.94
433.178	97.94
433.4	93.94
433.622	87.94
433.844	85.94
434.066	87.94
434.287	70.94
434.509	75.94
434.731	84.94
434.953	82.94
435.175	85.94
435.397	89.94
435.618	84.94
435.84	83.94
436.062	90.94
436.284	82.94
436.505	84.94
436.727	87.94
436.949	95.94
437.17	87.94
437.392	70.94
437.614	76.94
437.835	78.94
438.057	82.94
438.278	84.94
438.5	90.94
438.721	91.94
438.943	98.94
439.165	96.94
439.386	92.94
439.608	77.94
439.829	88.94
440.05	72.94
440.272	86.94
440.493	83.94
440.715	82.94
440.936	88.94
441.158	88.94
441.379	92.94
441.6	91.94
441.822	88.94
442.043	82.94
442.264	98.94
442.486	93.94
442.707	82.94
442.928	87.94
443.149	85.94
443.371	97.94
443.592	102.94
443.813	84.94
444.034	81.94
444.255	89.94
444.476	98.94
444.698	82.94
444.919	82.94
445.14	167.94
445.361	126.94
445.582	84.94
445.803	88.94
446.024	72.94
446.245	79.94
446.466	95.94
446.687	90.94
446.908	89.94
447.129	95.94
447.35	84.94
447.571	93.94
447.792	94.94
448.013	84.94
448.234	85.94
448.455	77.94
448.675	71.94
448.896	88.94
449.117	69.94
449.338	89.94
449.559	81.94
449.779	80.94
450	84.94
450.221	75.94
450.442	94.94
450.662	78.94
450.883	89.94
451.104	86.94
451.324	79.94
451.545	86.94
451.766	74.94
451.986	83.94
452.207	80.94
452.428	87.94
452.648	89.94
452.869	82.94
453.089	77.94
453.31	89.94
453.53	90.94
453.751	88.94
453.971	90.94
454.192	92.94
454.412	84.94
454.633	84.94
454.853	84.94
455.073	98.94
455.294	72.94
455.514	89.94
455.734	82.94
455.955	92.94
456.175	95.94
456.395	94.94
456.616	82.94
456.836	92.94
457.056	90.94
457.276	83.94
457.497	88.94
457.717	89.94
457.937	80.94
458.157	81.94
458.377	75.94
458.598	91.94
458.818	101.94
459.038	85.94
459.258	89.94
459.478	84.94
459.698	84.94
459.918	79.94
460.138	88.94
460.358	85.94
460.578	89.94
460.798	90.94
461.018	80.94
461.238	82.94
461.458	95.94
461.678	90.94
461.898	80.94
462.118	94.94
462.338	81.94
462.558	90.94
462.777	80.94
462.997	79.94
463.217	85.94
463.437	86.94
463.657	95.94
463.876	84.94
464.096	82.94
464.316	83.94
464.536	94.94
464.755	83.94
464.975	80.94
465.195	82.94
465.414	90.94
465.634	86.94
465.854	89.94
466.073	86.94
466.293	86.94
466.512	82.94
466.732	86.94
466.951	89.94
467.171	92.94
467.391	88.94
467.61	90.94
467.829	83.94
468.049	89.94
468.268	70.94
468.488	90.94
468.707	98.94
468.927	78.94
469.146	85.94
469.365	90.94
469.585	74.94
469.804	88.94
470.023	85.94
470.243	90.94
470.462	87.94
470.681	80.94
470.901	86.94
471.12	83.94
471.339	86.94
471.558	78.94
471.777	95.94
471.997	70.94
472.216	76.94
472.435	89.94
472.654	98.94
472.873	83.94
473.092	88.94
473.311	88.94
473.53	87.94
473.749	85.94
473.968	97.94
474.187	84.94
474.406	77.94
474.625	94.94
474.844	79.94
475.063	73.94
475.282	90.94
475.501	82.94
475.72	90.94
475.939	80.94
476.158	81.94
476.377	96.94
476.596	90.94
476.814	75.94
477.033	68.94
477.252	81.94
477.471	101.94
477.69	88.94
477.908	97.94
478.127	84.94
478.346	86.94
478.564	91.94
478.783	85.94
479.002	88.94
479.22	75.94
479.439	92.94
479.658	77.94
479.876	79.94
480.095	96.94
480.313	88.94
480.532	94.94
480.751	83.94
480.969	88.94
481.188	86.94
481.406	89.94
481.624	91.94
481.843	77.94
482.061	77.94
482.28	89.94
482.498	94.94
482.717	85.94
482.935	88.94
483.153	89.94
483.372	94.94
483.59	80.94
483.808	85.94
484.027	94.94
484.245	79.94
484.463	84.94
484.681	84.94
484.9	89.94
485.118	90.94
485.336	77.94
485.554	81.94
485.772	91.94
485.99	102.94
486.209	74.94
486.427	67.94
486.645	84.94
486.863	86.94
487.081	90.94
487.299	82.94
487.517	82.94
487.735	84.94
487.953	82.94
488.171	103.94
488.389	86.94
488.607	81.94
488.825	90.94
489.043	92.94
489.261	78.94
489.479	82.94
489.696	89.94
489.914	80.94
490.132	74.94
490.35	96.94
490.568	84.94
490.786	84.94
491.003	89.94
491.221	79.94
491.439	82.94
491.657	65.94
491.874	83.94
492.092	94.94
492.31	76.94
492.527	90.94
492.745	80.94
492.963	83.94
493.18	76.94
493.398	88.94
493.615	72.94
493.833	87.94
494.05	73.94
494.268	105.94
494.485	94.94
494.703	92.94
494.92	76.94
495.138	88.94
495.355	90.94
495.573	81.94
495.79	92.94
496.008	88.94
496.225	93.94
496.442	98.94
496.66	79.94
496.877	82.94
497.094	102.94
497.312	89.94
497.529	90.94
497.746	92.94
497.963	82.94
498.181	81.94
498.398	96.94
498.615	84.94
498.832	94.94
499.049	83.94
499.267	86.94
499.484	73.94
499.701	97.94
499.918	96.94
500.135	94.94
500.352	86.94
500.569	90.94
500.786	74.94
501.003	84.94
501.22	86.94
501.437	87.94
501.654	80.94
501.871	88.94
502.088	86.94
502.305	98.94
502.522	99.94
502.739	81.94
502.956	87.94
503.172	89.94
503.389	80.94
503.606	75.94
503.823	98.94
504.04	82.94
504.256	101.94
504.473	96.94
504.69	89.94
504.907	75.94
505.123	100.94
505.34	79.94
505.557	90.94
505.773	80.94
505.99	94.94
506.207	96.94
506.423	81.94
506.64	81.94
506.856	75.94
507.073	81.94
507.289	92.94
507.506	91.94
507.722	92.94
507.939	74.94
508.155	88.94
508.372	75.94
508.588	90.94
508.805	86.94
509.021	89.94
509.238	91.94
509.454	95.94
509.67	105.94
509.887	87.94
510.103	75.94
510.319	65.94
510.536	93.94
510.752	77.94
510.968	89.94
511.184	84.94
511.401	95.94
511.617	99.94
511.833	102.94
512.049	86.94
512.265	87.94
512.481	98.94
512.698	88.94
512.914	81.94
513.13	76.94
513.346	90.94
513.562	94.94
513.778	87.94
513.994	95.94
514.21	85.94
514.426	83.94
514.642	83.94
514.858	87.94
515.074	79.94
515.29	82.94
515.506	78.94
515.721	81.94
515.937	86.94
516.153	80.94
516.369	82.94
516.585	76.94
516.801	86.94
517.016	90.94
517.232	94.94
517.448	83.94
517.664	93.94
517.879	85.94
518.095	82.94
518.311	82.94
518.527	80.94
518.742	80.94
518.958	89.94
519.173	99.94
