Data from Background_3_HRD10591_00084.txt Node
Date: Wed Nov 05 14:50:01 EST 2025
User: Yrep
Spectrometer: HR+D1059
Trigger mode: 1
Integration Time (sec): 1.000000E-1
Scans to average: 1
Electric dark correction enabled: true
Nonlinearity correction enabled: false
Boxcar width: 0
XAxis mode: Wavelengths
Number of Pixels in Spectrum: 2048
>>>>>Begin Spectral Data<<<<<
223.165	-24.25
223.4	-24.25
223.635	-24.25
223.869	-24.25
224.104	-18.25
224.338	-9.25
224.573	-6.25
224.808	-20.25
225.042	2.75
225.277	-12.25
225.511	-2.25
225.746	2.75
225.98	7.75
226.215	12.75
226.449	13.75
226.683	19.75
226.918	27.75
227.152	29.75
227.387	48.75
227.621	51.75
227.856	36.75
228.09	51.75
228.324	58.75
228.559	53.75
228.793	67.75
229.027	65.75
229.262	58.75
229.496	65.75
229.73	62.75
229.964	70.75
230.199	76.75
230.433	70.75
230.667	96.75
230.901	67.75
231.136	80.75
231.37	87.75
231.604	79.75
231.838	79.75
232.072	59.75
232.306	86.75
232.541	76.75
232.775	75.75
233.009	80.75
233.243	79.75
233.477	77.75
233.711	69.75
233.945	73.75
234.179	93.75
234.413	81.75
234.647	90.75
234.881	83.75
235.115	66.75
235.349	90.75
235.583	89.75
235.817	93.75
236.051	81.75
236.285	80.75
236.519	82.75
236.753	79.75
236.987	84.75
237.221	78.75
237.455	64.75
237.689	56.75
237.922	91.75
238.156	66.75
238.39	61.75
238.624	79.75
238.858	81.75
239.091	73.75
239.325	75.75
239.559	58.75
239.793	85.75
240.027	74.75
240.26	71.75
240.494	72.75
240.728	68.75
240.961	65.75
241.195	77.75
241.429	78.75
241.662	81.75
241.896	75.75
242.13	74.75
242.363	85.75
242.597	85.75
242.83	71.75
243.064	76.75
243.298	79.75
243.531	80.75
243.765	78.75
243.998	61.75
244.232	70.75
244.465	79.75
244.699	91.75
244.932	78.75
245.166	76.75
245.399	84.75
245.633	89.75
245.866	91.75
246.099	86.75
246.333	69.75
246.566	75.75
246.8	83.75
247.033	80.75
247.266	86.75
247.5	73.75
247.733	79.75
247.966	77.75
248.2	77.75
248.433	87.75
248.666	76.75
248.899	91.75
249.133	88.75
249.366	69.75
249.599	68.75
249.832	73.75
250.066	91.75
250.299	86.75
250.532	74.75
250.765	75.75
250.998	82.75
251.231	75.75
251.465	87.75
251.698	82.75
251.931	86.75
252.164	91.75
252.397	84.75
252.63	79.75
252.863	95.75
253.096	65.75
253.329	79.75
253.562	83.75
253.795	74.75
254.028	81.75
254.261	71.75
254.494	69.75
254.727	77.75
254.96	76.75
255.193	81.75
255.426	83.75
255.659	74.75
255.892	80.75
256.124	75.75
256.357	81.75
256.59	95.75
256.823	71.75
257.056	81.75
257.289	81.75
257.521	65.75
257.754	81.75
257.987	87.75
258.22	73.75
258.452	82.75
258.685	81.75
258.918	67.75
259.151	84.75
259.383	85.75
259.616	76.75
259.849	77.75
260.081	79.75
260.314	71.75
260.547	78.75
260.779	80.75
261.012	79.75
261.244	88.75
261.477	81.75
261.71	78.75
261.942	81.75
262.175	78.75
262.407	88.75
262.64	78.75
262.872	67.75
263.105	79.75
263.337	77.75
263.57	84.75
263.802	81.75
264.035	82.75
264.267	67.75
264.499	70.75
264.732	59.75
264.964	83.75
265.197	69.75
265.429	81.75
265.661	83.75
265.894	74.75
266.126	94.75
266.358	90.75
266.591	79.75
266.823	73.75
267.055	77.75
267.287	66.75
267.52	81.75
267.752	89.75
267.984	79.75
268.216	82.75
268.448	74.75
268.681	90.75
268.913	77.75
269.145	81.75
269.377	87.75
269.609	77.75
269.841	75.75
270.073	86.75
270.306	78.75
270.538	80.75
270.77	76.75
271.002	82.75
271.234	66.75
271.466	78.75
271.698	101.75
271.93	91.75
272.162	77.75
272.394	86.75
272.626	83.75
272.858	80.75
273.09	82.75
273.322	80.75
273.553	82.75
273.785	85.75
274.017	81.75
274.249	92.75
274.481	76.75
274.713	97.75
274.945	91.75
275.176	83.75
275.408	81.75
275.64	91.75
275.872	87.75
276.104	80.75
276.335	63.75
276.567	60.75
276.799	90.75
277.031	87.75
277.262	74.75
277.494	90.75
277.726	89.75
277.957	74.75
278.189	75.75
278.421	94.75
278.652	83.75
278.884	79.75
279.115	88.75
279.347	89.75
279.579	87.75
279.81	67.75
280.042	75.75
280.273	78.75
280.505	73.75
280.736	86.75
280.968	87.75
281.199	91.75
281.431	86.75
281.662	82.75
281.894	81.75
282.125	88.75
282.356	78.75
282.588	77.75
282.819	83.75
283.051	83.75
283.282	71.75
283.513	63.75
283.745	82.75
283.976	79.75
284.207	70.75
284.439	72.75
284.67	80.75
284.901	83.75
285.132	89.75
285.364	77.75
285.595	84.75
285.826	81.75
286.057	74.75
286.288	80.75
286.52	88.75
286.751	106.75
286.982	77.75
287.213	81.75
287.444	74.75
287.675	77.75
287.906	80.75
288.138	75.75
288.369	72.75
288.6	88.75
288.831	81.75
289.062	81.75
289.293	76.75
289.524	71.75
289.755	87.75
289.986	78.75
290.217	95.75
290.448	94.75
290.679	76.75
290.91	92.75
291.141	87.75
291.371	79.75
291.602	85.75
291.833	97.75
292.064	90.75
292.295	75.75
292.526	83.75
292.757	75.75
292.987	77.75
293.218	90.75
293.449	88.75
293.68	86.75
293.91	69.75
294.141	88.75
294.372	85.75
294.603	83.75
294.833	73.75
295.064	85.75
295.295	77.75
295.525	83.75
295.756	83.75
295.987	103.75
296.217	87.75
296.448	89.75
296.679	86.75
296.909	75.75
297.14	76.75
297.37	94.75
297.601	91.75
297.831	83.75
298.062	78.75
298.292	79.75
298.523	84.75
298.753	86.75
298.984	80.75
299.214	87.75
299.445	81.75
299.675	77.75
299.905	74.75
300.136	89.75
300.366	75.75
300.597	80.75
300.827	83.75
301.057	86.75
301.288	74.75
301.518	84.75
301.748	89.75
301.979	93.75
302.209	80.75
302.439	81.75
302.669	78.75
302.9	93.75
303.13	92.75
303.36	77.75
303.59	73.75
303.82	82.75
304.051	78.75
304.281	90.75
304.511	102.75
304.741	71.75
304.971	67.75
305.201	80.75
305.431	91.75
305.661	83.75
305.891	79.75
306.121	76.75
306.352	85.75
306.582	82.75
306.812	83.75
307.042	76.75
307.272	76.75
307.502	99.75
307.731	77.75
307.961	89.75
308.191	78.75
308.421	80.75
308.651	92.75
308.881	82.75
309.111	85.75
309.341	75.75
309.571	67.75
309.8	80.75
310.03	86.75
310.26	87.75
310.49	94.75
310.72	97.75
310.949	79.75
311.179	69.75
311.409	68.75
311.639	77.75
311.868	94.75
312.098	79.75
312.328	85.75
312.557	95.75
312.787	91.75
313.017	95.75
313.246	76.75
313.476	99.75
313.706	66.75
313.935	76.75
314.165	76.75
314.394	78.75
314.624	84.75
314.853	87.75
315.083	99.75
315.312	83.75
315.542	88.75
315.771	93.75
316.001	89.75
316.23	79.75
316.46	90.75
316.689	92.75
316.919	74.75
317.148	96.75
317.377	94.75
317.607	65.75
317.836	90.75
318.065	76.75
318.295	90.75
318.524	90.75
318.753	95.75
318.983	90.75
319.212	95.75
319.441	83.75
319.67	71.75
319.9	83.75
320.129	78.75
320.358	79.75
320.587	86.75
320.816	83.75
321.046	98.75
321.275	86.75
321.504	81.75
321.733	83.75
321.962	93.75
322.191	91.75
322.42	86.75
322.649	87.75
322.878	77.75
323.108	79.75
323.337	91.75
323.566	79.75
323.795	92.75
324.024	84.75
324.253	82.75
324.482	67.75
324.71	80.75
324.939	85.75
325.168	95.75
325.397	79.75
325.626	77.75
325.855	72.75
326.084	82.75
326.313	100.75
326.542	83.75
326.77	89.75
326.999	80.75
327.228	91.75
327.457	70.75
327.686	80.75
327.914	90.75
328.143	84.75
328.372	68.75
328.6	56.75
328.829	79.75
329.058	86.75
329.287	88.75
329.515	81.75
329.744	81.75
329.972	81.75
330.201	83.75
330.43	99.75
330.658	82.75
330.887	75.75
331.115	69.75
331.344	75.75
331.572	90.75
331.801	74.75
332.03	72.75
332.258	98.75
332.486	82.75
332.715	95.75
332.943	78.75
333.172	94.75
333.4	76.75
333.629	71.75
333.857	85.75
334.085	91.75
334.314	86.75
334.542	82.75
334.771	71.75
334.999	77.75
335.227	81.75
335.455	74.75
335.684	80.75
335.912	92.75
336.14	73.75
336.369	78.75
336.597	89.75
336.825	88.75
337.053	87.75
337.281	88.75
337.51	65.75
337.738	89.75
337.966	85.75
338.194	89.75
338.422	76.75
338.65	81.75
338.878	90.75
339.106	83.75
339.334	82.75
339.562	94.75
339.79	79.75
340.018	82.75
340.246	79.75
340.474	90.75
340.702	82.75
340.93	78.75
341.158	84.75
341.386	82.75
341.614	70.75
341.842	86.75
342.07	96.75
342.298	77.75
342.526	86.75
342.754	81.75
342.981	99.75
343.209	93.75
343.437	97.75
343.665	68.75
343.893	87.75
344.12	77.75
344.348	91.75
344.576	81.75
344.804	88.75
345.031	80.75
345.259	81.75
345.487	88.75
345.714	86.75
345.942	76.75
346.17	77.75
346.397	77.75
346.625	75.75
346.853	85.75
347.08	75.75
347.308	86.75
347.535	77.75
347.763	72.75
347.99	92.75
348.218	96.75
348.445	85.75
348.673	90.75
348.9	78.75
349.128	65.75
349.355	84.75
349.583	73.75
349.81	89.75
350.037	95.75
350.265	79.75
350.492	75.75
350.72	82.75
350.947	85.75
351.174	94.75
351.402	89.75
351.629	82.75
351.856	99.75
352.083	79.75
352.311	85.75
352.538	94.75
352.765	80.75
352.992	88.75
353.22	90.75
353.447	96.75
353.674	85.75
353.901	77.75
354.128	90.75
354.355	92.75
354.583	99.75
354.81	78.75
355.037	83.75
355.264	70.75
355.491	96.75
355.718	78.75
355.945	82.75
356.172	93.75
356.399	71.75
356.626	74.75
356.853	68.75
357.08	93.75
357.307	84.75
357.534	85.75
357.761	82.75
357.988	81.75
358.215	75.75
358.441	89.75
358.668	84.75
358.895	88.75
359.122	88.75
359.349	86.75
359.576	97.75
359.802	83.75
360.029	77.75
360.256	79.75
360.483	74.75
360.709	82.75
360.936	93.75
361.163	83.75
361.39	89.75
361.616	78.75
361.843	81.75
362.07	81.75
362.296	82.75
362.523	90.75
362.749	87.75
362.976	79.75
363.203	93.75
363.429	80.75
363.656	82.75
363.882	74.75
364.109	76.75
364.335	89.75
364.562	86.75
364.788	84.75
365.015	89.75
365.241	86.75
365.468	82.75
365.694	83.75
365.92	98.75
366.147	79.75
366.373	95.75
366.599	87.75
366.826	84.75
367.052	82.75
367.278	86.75
367.505	87.75
367.731	77.75
367.957	102.75
368.184	78.75
368.41	83.75
368.636	94.75
368.862	83.75
369.089	100.75
369.315	71.75
369.541	82.75
369.767	70.75
369.993	91.75
370.219	82.75
370.445	84.75
370.672	94.75
370.898	69.75
371.124	89.75
371.35	80.75
371.576	92.75
371.802	77.75
372.028	62.75
372.254	82.75
372.48	82.75
372.706	79.75
372.932	78.75
373.158	83.75
373.384	82.75
373.61	84.75
373.835	88.75
374.061	71.75
374.287	72.75
374.513	89.75
374.739	75.75
374.965	102.75
375.191	85.75
375.416	66.75
375.642	83.75
375.868	87.75
376.094	66.75
376.319	66.75
376.545	71.75
376.771	83.75
376.997	82.75
377.222	85.75
377.448	71.75
377.674	89.75
377.899	87.75
378.125	78.75
378.35	74.75
378.576	76.75
378.802	80.75
379.027	92.75
379.253	81.75
379.478	65.75
379.704	69.75
379.929	91.75
380.155	84.75
380.38	98.75
380.606	93.75
380.831	85.75
381.057	83.75
381.282	86.75
381.507	67.75
381.733	78.75
381.958	91.75
382.184	96.75
382.409	89.75
382.634	86.75
382.86	82.75
383.085	79.75
383.31	77.75
383.535	75.75
383.761	82.75
383.986	75.75
384.211	80.75
384.436	75.75
384.662	82.75
384.887	85.75
385.112	81.75
385.337	89.75
385.562	78.75
385.787	87.75
386.013	94.75
386.238	73.75
386.463	98.75
386.688	105.75
386.913	79.75
387.138	77.75
387.363	78.75
387.588	88.75
387.813	83.75
388.038	86.75
388.263	68.75
388.488	71.75
388.713	93.75
388.938	88.75
389.163	82.75
389.387	80.75
389.612	77.75
389.837	83.75
390.062	78.75
390.287	85.75
390.512	84.75
390.736	83.75
390.961	81.75
391.186	91.75
391.411	103.75
391.636	74.75
391.86	85.75
392.085	78.75
392.31	81.75
392.534	78.75
392.759	86.75
392.984	84.75
393.208	67.75
393.433	72.75
393.658	79.75
393.882	86.75
394.107	76.75
394.331	91.75
394.556	79.75
394.78	91.75
395.005	65.75
395.229	67.75
395.454	79.75
395.678	68.75
395.903	84.75
396.127	77.75
396.352	71.75
396.576	79.75
396.801	93.75
397.025	77.75
397.249	77.75
397.474	78.75
397.698	81.75
397.922	86.75
398.147	74.75
398.371	63.75
398.595	82.75
398.82	85.75
399.044	66.75
399.268	68.75
399.492	81.75
399.717	81.75
399.941	87.75
400.165	88.75
400.389	83.75
400.613	75.75
400.837	84.75
401.062	89.75
401.286	67.75
401.51	81.75
401.734	82.75
401.958	84.75
402.182	100.75
402.406	94.75
402.63	83.75
402.854	89.75
403.078	85.75
403.302	85.75
403.526	68.75
403.75	79.75
403.974	69.75
404.198	77.75
404.422	70.75
404.645	88.75
404.869	73.75
405.093	68.75
405.317	83.75
405.541	75.75
405.765	91.75
405.988	74.75
406.212	74.75
406.436	85.75
406.66	89.75
406.883	68.75
407.107	75.75
407.331	75.75
407.555	83.75
407.778	79.75
408.002	80.75
408.226	81.75
408.449	78.75
408.673	90.75
408.896	83.75
409.12	71.75
409.344	75.75
409.567	71.75
409.791	75.75
410.014	87.75
410.238	79.75
410.461	85.75
410.685	81.75
410.908	89.75
411.132	60.75
411.355	83.75
411.578	75.75
411.802	90.75
412.025	81.75
412.249	85.75
412.472	72.75
412.695	82.75
412.919	77.75
413.142	87.75
413.365	79.75
413.589	91.75
413.812	78.75
414.035	83.75
414.258	84.75
414.482	81.75
414.705	88.75
414.928	81.75
415.151	69.75
415.374	84.75
415.597	85.75
415.821	88.75
416.044	94.75
416.267	75.75
416.49	75.75
416.713	87.75
416.936	79.75
417.159	80.75
417.382	89.75
417.605	90.75
417.828	80.75
418.051	71.75
418.274	86.75
418.497	79.75
418.72	86.75
418.943	83.75
419.166	85.75
419.389	97.75
419.611	77.75
419.834	90.75
420.057	81.75
420.28	73.75
420.503	84.75
420.726	78.75
420.948	77.75
421.171	93.75
421.394	76.75
421.617	78.75
421.839	86.75
422.062	76.75
422.285	77.75
422.507	74.75
422.73	72.75
422.953	67.75
423.175	80.75
423.398	85.75
423.621	94.75
423.843	71.75
424.066	75.75
424.288	86.75
424.511	75.75
424.733	84.75
424.956	89.75
425.178	76.75
425.401	80.75
425.623	76.75
425.846	76.75
426.068	71.75
426.291	79.75
426.513	77.75
426.735	80.75
426.958	70.75
427.18	67.75
427.402	85.75
427.625	80.75
427.847	71.75
428.069	83.75
428.292	71.75
428.514	64.75
428.736	71.75
428.958	77.75
429.181	81.75
429.403	70.75
429.625	66.75
429.847	80.75
430.069	89.75
430.292	80.75
430.514	87.75
430.736	77.75
430.958	87.75
431.18	69.75
431.402	68.75
431.624	84.75
431.846	71.75
432.068	72.75
432.29	86.75
432.512	91.75
432.734	91.75
432.956	78.75
433.178	78.75
433.4	79.75
433.622	92.75
433.844	85.75
434.066	94.75
434.287	83.75
434.509	91.75
434.731	74.75
434.953	82.75
435.175	53.75
435.397	75.75
435.618	76.75
435.84	83.75
436.062	82.75
436.284	78.75
436.505	75.75
436.727	66.75
436.949	77.75
437.17	84.75
437.392	69.75
437.614	64.75
437.835	75.75
438.057	75.75
438.278	93.75
438.5	96.75
438.721	80.75
438.943	70.75
439.165	65.75
439.386	79.75
439.608	88.75
439.829	74.75
440.05	76.75
440.272	77.75
440.493	65.75
440.715	65.75
440.936	91.75
441.158	78.75
441.379	77.75
441.6	74.75
441.822	77.75
442.043	80.75
442.264	73.75
442.486	94.75
442.707	84.75
442.928	85.75
443.149	63.75
443.371	61.75
443.592	77.75
443.813	87.75
444.034	90.75
444.255	87.75
444.476	86.75
444.698	82.75
444.919	77.75
445.14	160.75
445.361	120.75
445.582	79.75
445.803	77.75
446.024	78.75
446.245	103.75
446.466	82.75
446.687	75.75
446.908	90.75
447.129	80.75
447.35	86.75
447.571	78.75
447.792	77.75
448.013	80.75
448.234	78.75
448.455	79.75
448.675	85.75
448.896	79.75
449.117	72.75
449.338	89.75
449.559	77.75
449.779	86.75
450	85.75
450.221	79.75
450.442	82.75
450.662	84.75
450.883	85.75
451.104	82.75
451.324	85.75
451.545	67.75
451.766	79.75
451.986	85.75
452.207	78.75
452.428	82.75
452.648	73.75
452.869	70.75
453.089	71.75
453.31	76.75
453.53	73.75
453.751	92.75
453.971	77.75
454.192	82.75
454.412	71.75
454.633	96.75
454.853	85.75
455.073	78.75
455.294	87.75
455.514	79.75
455.734	79.75
455.955	95.75
456.175	79.75
456.395	83.75
456.616	91.75
456.836	75.75
457.056	76.75
457.276	82.75
457.497	68.75
457.717	91.75
457.937	77.75
458.157	74.75
458.377	73.75
458.598	83.75
458.818	71.75
459.038	79.75
459.258	76.75
459.478	78.75
459.698	86.75
459.918	82.75
460.138	68.75
460.358	79.75
460.578	95.75
460.798	76.75
461.018	84.75
461.238	89.75
461.458	81.75
461.678	75.75
461.898	90.75
462.118	69.75
462.338	75.75
462.558	82.75
462.777	80.75
462.997	79.75
463.217	89.75
463.437	82.75
463.657	73.75
463.876	81.75
464.096	90.75
464.316	69.75
464.536	87.75
464.755	88.75
464.975	73.75
465.195	82.75
465.414	75.75
465.634	72.75
465.854	82.75
466.073	85.75
466.293	77.75
466.512	75.75
466.732	75.75
466.951	85.75
467.171	82.75
467.391	93.75
467.61	75.75
467.829	82.75
468.049	88.75
468.268	78.75
468.488	75.75
468.707	77.75
468.927	87.75
469.146	77.75
469.365	82.75
469.585	60.75
469.804	76.75
470.023	96.75
470.243	87.75
470.462	81.75
470.681	79.75
470.901	75.75
471.12	59.75
471.339	72.75
471.558	74.75
471.777	96.75
471.997	75.75
472.216	67.75
472.435	76.75
472.654	93.75
472.873	80.75
473.092	92.75
473.311	88.75
473.53	78.75
473.749	81.75
473.968	78.75
474.187	73.75
474.406	74.75
474.625	80.75
474.844	55.75
475.063	77.75
475.282	83.75
475.501	77.75
475.72	85.75
475.939	97.75
476.158	82.75
476.377	84.75
476.596	81.75
476.814	93.75
477.033	96.75
477.252	79.75
477.471	81.75
477.69	83.75
477.908	91.75
478.127	81.75
478.346	79.75
478.564	83.75
478.783	74.75
479.002	85.75
479.22	81.75
479.439	76.75
479.658	80.75
479.876	86.75
480.095	77.75
480.313	84.75
480.532	83.75
480.751	75.75
480.969	83.75
481.188	107.75
481.406	89.75
481.624	99.75
481.843	77.75
482.061	73.75
482.28	67.75
482.498	77.75
482.717	74.75
482.935	93.75
483.153	82.75
483.372	93.75
483.59	74.75
483.808	84.75
484.027	80.75
484.245	87.75
484.463	80.75
484.681	83.75
484.9	70.75
485.118	74.75
485.336	87.75
485.554	79.75
485.772	84.75
485.99	91.75
486.209	95.75
486.427	70.75
486.645	75.75
486.863	75.75
487.081	86.75
487.299	81.75
487.517	83.75
487.735	83.75
487.953	82.75
488.171	91.75
488.389	78.75
488.607	82.75
488.825	72.75
489.043	74.75
489.261	91.75
489.479	93.75
489.696	85.75
489.914	75.75
490.132	81.75
490.35	74.75
490.568	86.75
490.786	86.75
491.003	79.75
491.221	84.75
491.439	90.75
491.657	71.75
491.874	74.75
492.092	81.75
492.31	86.75
492.527	76.75
492.745	90.75
492.963	83.75
493.18	82.75
493.398	95.75
493.615	86.75
493.833	75.75
494.05	92.75
494.268	77.75
494.485	72.75
494.703	73.75
494.92	78.75
495.138	68.75
495.355	89.75
495.573	76.75
495.79	75.75
496.008	78.75
496.225	78.75
496.442	85.75
496.66	99.75
496.877	98.75
497.094	61.75
497.312	79.75
497.529	87.75
497.746	71.75
497.963	81.75
498.181	84.75
498.398	90.75
498.615	83.75
498.832	72.75
499.049	83.75
499.267	94.75
499.484	91.75
499.701	81.75
499.918	81.75
500.135	88.75
500.352	85.75
500.569	92.75
500.786	96.75
501.003	73.75
501.22	79.75
501.437	85.75
501.654	77.75
501.871	92.75
502.088	105.75
502.305	85.75
502.522	75.75
502.739	90.75
502.956	71.75
503.172	95.75
503.389	78.75
503.606	79.75
503.823	78.75
504.04	96.75
504.256	69.75
504.473	83.75
504.69	72.75
504.907	97.75
505.123	74.75
505.34	84.75
505.557	85.75
505.773	75.75
505.99	83.75
506.207	76.75
506.423	85.75
506.64	92.75
506.856	93.75
507.073	86.75
507.289	84.75
507.506	84.75
507.722	83.75
507.939	87.75
508.155	77.75
508.372	91.75
508.588	83.75
508.805	87.75
509.021	92.75
509.238	85.75
509.454	91.75
509.67	78.75
509.887	87.75
510.103	89.75
510.319	79.75
510.536	78.75
510.752	91.75
510.968	82.75
511.184	81.75
511.401	75.75
511.617	94.75
511.833	68.75
512.049	66.75
512.265	87.75
512.481	73.75
512.698	67.75
512.914	84.75
513.13	95.75
513.346	84.75
513.562	94.75
513.778	69.75
513.994	82.75
514.21	90.75
514.426	82.75
514.642	82.75
514.858	83.75
515.074	78.75
515.29	89.75
515.506	71.75
515.721	86.75
515.937	81.75
516.153	89.75
516.369	81.75
516.585	97.75
516.801	97.75
517.016	89.75
517.232	76.75
517.448	79.75
517.664	78.75
517.879	82.75
518.095	78.75
518.311	77.75
518.527	86.75
518.742	93.75
518.958	94.75
519.173	79.75
519.389	82.75
519.605	75.75
519.82	81.75
520.036	78.75
