Data from Background_3_HRD10591_00081.txt Node
Date: Wed Nov 05 14:50:00 EST 2025
User: Yrep
Spectrometer: HR+D1059
Trigger mode: 1
Integration Time (sec): 1.000000E-1
Scans to average: 1
Electric dark correction enabled: true
Nonlinearity correction enabled: false
Boxcar width: 0
XAxis mode: Wavelengths
Number of Pixels in Spectrum: 2048
>>>>>Begin Spectral Data<<<<<
223.165	-18.81
223.4	-18.81
223.635	-18.81
223.869	-16.81
224.104	-17.81
224.338	-11.81
224.573	-8.81
224.808	-16.81
225.042	-12.81
225.277	-9.81
225.511	-5.81
225.746	3.19
225.98	1.19
226.215	3.19
226.449	24.19
226.683	30.19
226.918	29.19
227.152	28.19
227.387	21.19
227.621	31.19
227.856	30.19
228.09	53.19
228.324	45.19
228.559	51.19
228.793	58.19
229.027	69.19
229.262	74.19
229.496	65.19
229.73	76.19
229.964	66.19
230.199	67.19
230.433	68.19
230.667	64.19
230.901	78.19
231.136	81.19
231.37	93.19
231.604	78.19
231.838	62.19
232.072	85.19
232.306	86.19
232.541	84.19
232.775	99.19
233.009	69.19
233.243	88.19
233.477	84.19
233.711	85.19
233.945	77.19
234.179	75.19
234.413	73.19
234.647	77.19
234.881	86.19
235.115	91.19
235.349	80.19
235.583	83.19
235.817	73.19
236.051	87.19
236.285	73.19
236.519	79.19
236.753	93.19
236.987	107.19
237.221	87.19
237.455	63.19
237.689	79.19
237.922	84.19
238.156	68.19
238.39	70.19
238.624	99.19
238.858	81.19
239.091	73.19
239.325	78.19
239.559	77.19
239.793	78.19
240.027	61.19
240.26	87.19
240.494	76.19
240.728	72.19
240.961	67.19
241.195	86.19
241.429	66.19
241.662	79.19
241.896	85.19
242.13	72.19
242.363	88.19
242.597	72.19
242.83	67.19
243.064	69.19
243.298	79.19
243.531	90.19
243.765	76.19
243.998	86.19
244.232	73.19
244.465	72.19
244.699	81.19
244.932	82.19
245.166	82.19
245.399	70.19
245.633	72.19
245.866	79.19
246.099	84.19
246.333	80.19
246.566	80.19
246.8	79.19
247.033	69.19
247.266	62.19
247.5	82.19
247.733	72.19
247.966	71.19
248.2	73.19
248.433	81.19
248.666	70.19
248.899	84.19
249.133	78.19
249.366	90.19
249.599	83.19
249.832	76.19
250.066	86.19
250.299	82.19
250.532	80.19
250.765	72.19
250.998	72.19
251.231	80.19
251.465	76.19
251.698	72.19
251.931	73.19
252.164	92.19
252.397	84.19
252.63	71.19
252.863	92.19
253.096	78.19
253.329	71.19
253.562	70.19
253.795	91.19
254.028	78.19
254.261	85.19
254.494	86.19
254.727	79.19
254.96	72.19
255.193	80.19
255.426	85.19
255.659	88.19
255.892	80.19
256.124	84.19
256.357	95.19
256.59	86.19
256.823	68.19
257.056	79.19
257.289	80.19
257.521	91.19
257.754	78.19
257.987	87.19
258.22	69.19
258.452	74.19
258.685	75.19
258.918	74.19
259.151	71.19
259.383	95.19
259.616	72.19
259.849	92.19
260.081	74.19
260.314	85.19
260.547	82.19
260.779	75.19
261.012	60.19
261.244	81.19
261.477	78.19
261.71	82.19
261.942	85.19
262.175	78.19
262.407	85.19
262.64	75.19
262.872	77.19
263.105	83.19
263.337	80.19
263.57	78.19
263.802	70.19
264.035	83.19
264.267	77.19
264.499	88.19
264.732	101.19
264.964	75.19
265.197	76.19
265.429	87.19
265.661	78.19
265.894	94.19
266.126	82.19
266.358	70.19
266.591	84.19
266.823	90.19
267.055	82.19
267.287	89.19
267.52	68.19
267.752	85.19
267.984	79.19
268.216	86.19
268.448	89.19
268.681	81.19
268.913	94.19
269.145	89.19
269.377	80.19
269.609	82.19
269.841	80.19
270.073	79.19
270.306	85.19
270.538	89.19
270.77	74.19
271.002	85.19
271.234	90.19
271.466	76.19
271.698	71.19
271.93	94.19
272.162	88.19
272.394	94.19
272.626	66.19
272.858	80.19
273.09	80.19
273.322	92.19
273.553	72.19
273.785	83.19
274.017	92.19
274.249	93.19
274.481	76.19
274.713	74.19
274.945	77.19
275.176	75.19
275.408	92.19
275.64	89.19
275.872	102.19
276.104	85.19
276.335	80.19
276.567	81.19
276.799	82.19
277.031	78.19
277.262	85.19
277.494	71.19
277.726	90.19
277.957	88.19
278.189	92.19
278.421	83.19
278.652	83.19
278.884	80.19
279.115	88.19
279.347	88.19
279.579	69.19
279.81	88.19
280.042	102.19
280.273	80.19
280.505	83.19
280.736	82.19
280.968	84.19
281.199	90.19
281.431	73.19
281.662	82.19
281.894	81.19
282.125	72.19
282.356	79.19
282.588	84.19
282.819	90.19
283.051	86.19
283.282	86.19
283.513	81.19
283.745	94.19
283.976	83.19
284.207	88.19
284.439	101.19
284.67	92.19
284.901	76.19
285.132	80.19
285.364	75.19
285.595	75.19
285.826	86.19
286.057	74.19
286.288	82.19
286.52	90.19
286.751	86.19
286.982	76.19
287.213	81.19
287.444	99.19
287.675	92.19
287.906	74.19
288.138	85.19
288.369	73.19
288.6	78.19
288.831	78.19
289.062	92.19
289.293	95.19
289.524	88.19
289.755	81.19
289.986	93.19
290.217	74.19
290.448	98.19
290.679	96.19
290.91	96.19
291.141	72.19
291.371	73.19
291.602	86.19
291.833	75.19
292.064	76.19
292.295	83.19
292.526	66.19
292.757	83.19
292.987	96.19
293.218	83.19
293.449	81.19
293.68	80.19
293.91	76.19
294.141	85.19
294.372	82.19
294.603	90.19
294.833	92.19
295.064	85.19
295.295	80.19
295.525	86.19
295.756	88.19
295.987	86.19
296.217	93.19
296.448	80.19
296.679	75.19
296.909	98.19
297.14	73.19
297.37	92.19
297.601	92.19
297.831	82.19
298.062	79.19
298.292	89.19
298.523	72.19
298.753	97.19
298.984	92.19
299.214	86.19
299.445	71.19
299.675	86.19
299.905	84.19
300.136	72.19
300.366	87.19
300.597	91.19
300.827	86.19
301.057	71.19
301.288	82.19
301.518	78.19
301.748	86.19
301.979	94.19
302.209	83.19
302.439	85.19
302.669	74.19
302.9	90.19
303.13	92.19
303.36	83.19
303.59	77.19
303.82	97.19
304.051	88.19
304.281	99.19
304.511	102.19
304.741	82.19
304.971	83.19
305.201	88.19
305.431	86.19
305.661	88.19
305.891	88.19
306.121	93.19
306.352	89.19
306.582	83.19
306.812	84.19
307.042	84.19
307.272	75.19
307.502	79.19
307.731	91.19
307.961	93.19
308.191	92.19
308.421	95.19
308.651	84.19
308.881	82.19
309.111	77.19
309.341	99.19
309.571	82.19
309.8	91.19
310.03	79.19
310.26	92.19
310.49	99.19
310.72	90.19
310.949	79.19
311.179	87.19
311.409	82.19
311.639	77.19
311.868	99.19
312.098	92.19
312.328	83.19
312.557	80.19
312.787	91.19
313.017	77.19
313.246	95.19
313.476	94.19
313.706	80.19
313.935	87.19
314.165	73.19
314.394	86.19
314.624	85.19
314.853	87.19
315.083	72.19
315.312	71.19
315.542	88.19
315.771	80.19
316.001	91.19
316.23	107.19
316.46	85.19
316.689	87.19
316.919	94.19
317.148	91.19
317.377	83.19
317.607	82.19
317.836	81.19
318.065	82.19
318.295	83.19
318.524	95.19
318.753	85.19
318.983	86.19
319.212	90.19
319.441	76.19
319.67	75.19
319.9	87.19
320.129	92.19
320.358	74.19
320.587	88.19
320.816	92.19
321.046	89.19
321.275	85.19
321.504	80.19
321.733	83.19
321.962	88.19
322.191	83.19
322.42	99.19
322.649	85.19
322.878	89.19
323.108	83.19
323.337	70.19
323.566	79.19
323.795	99.19
324.024	83.19
324.253	98.19
324.482	79.19
324.71	82.19
324.939	82.19
325.168	66.19
325.397	68.19
325.626	92.19
325.855	79.19
326.084	95.19
326.313	75.19
326.542	84.19
326.77	79.19
326.999	83.19
327.228	74.19
327.457	69.19
327.686	86.19
327.914	90.19
328.143	82.19
328.372	80.19
328.6	79.19
328.829	88.19
329.058	86.19
329.287	87.19
329.515	90.19
329.744	83.19
329.972	93.19
330.201	90.19
330.43	100.19
330.658	86.19
330.887	91.19
331.115	86.19
331.344	75.19
331.572	89.19
331.801	82.19
332.03	52.19
332.258	87.19
332.486	87.19
332.715	87.19
332.943	75.19
333.172	94.19
333.4	87.19
333.629	86.19
333.857	82.19
334.085	78.19
334.314	94.19
334.542	100.19
334.771	90.19
334.999	91.19
335.227	91.19
335.455	77.19
335.684	92.19
335.912	88.19
336.14	85.19
336.369	78.19
336.597	79.19
336.825	86.19
337.053	85.19
337.281	85.19
337.51	92.19
337.738	81.19
337.966	82.19
338.194	83.19
338.422	68.19
338.65	78.19
338.878	94.19
339.106	89.19
339.334	95.19
339.562	82.19
339.79	93.19
340.018	84.19
340.246	87.19
340.474	88.19
340.702	94.19
340.93	64.19
341.158	91.19
341.386	85.19
341.614	78.19
341.842	95.19
342.07	85.19
342.298	94.19
342.526	84.19
342.754	86.19
342.981	94.19
343.209	96.19
343.437	93.19
343.665	87.19
343.893	96.19
344.12	85.19
344.348	78.19
344.576	95.19
344.804	87.19
345.031	85.19
345.259	87.19
345.487	82.19
345.714	87.19
345.942	87.19
346.17	89.19
346.397	98.19
346.625	80.19
346.853	102.19
347.08	96.19
347.308	83.19
347.535	90.19
347.763	82.19
347.99	92.19
348.218	86.19
348.445	85.19
348.673	92.19
348.9	83.19
349.128	75.19
349.355	75.19
349.583	87.19
349.81	86.19
350.037	96.19
350.265	71.19
350.492	76.19
350.72	82.19
350.947	71.19
351.174	85.19
351.402	83.19
351.629	67.19
351.856	86.19
352.083	88.19
352.311	91.19
352.538	75.19
352.765	78.19
352.992	82.19
353.22	81.19
353.447	78.19
353.674	83.19
353.901	89.19
354.128	80.19
354.355	96.19
354.583	75.19
354.81	90.19
355.037	92.19
355.264	91.19
355.491	88.19
355.718	94.19
355.945	76.19
356.172	83.19
356.399	86.19
356.626	83.19
356.853	79.19
357.08	92.19
357.307	100.19
357.534	80.19
357.761	92.19
357.988	88.19
358.215	88.19
358.441	89.19
358.668	86.19
358.895	77.19
359.122	67.19
359.349	86.19
359.576	78.19
359.802	88.19
360.029	86.19
360.256	95.19
360.483	80.19
360.709	78.19
360.936	84.19
361.163	99.19
361.39	77.19
361.616	92.19
361.843	98.19
362.07	86.19
362.296	87.19
362.523	78.19
362.749	89.19
362.976	81.19
363.203	85.19
363.429	82.19
363.656	94.19
363.882	90.19
364.109	79.19
364.335	87.19
364.562	76.19
364.788	95.19
365.015	95.19
365.241	83.19
365.468	84.19
365.694	82.19
365.92	83.19
366.147	73.19
366.373	71.19
366.599	86.19
366.826	78.19
367.052	85.19
367.278	95.19
367.505	80.19
367.731	94.19
367.957	90.19
368.184	77.19
368.41	71.19
368.636	78.19
368.862	90.19
369.089	78.19
369.315	82.19
369.541	86.19
369.767	71.19
369.993	79.19
370.219	92.19
370.445	81.19
370.672	92.19
370.898	99.19
371.124	89.19
371.35	82.19
371.576	76.19
371.802	83.19
372.028	110.19
372.254	84.19
372.48	76.19
372.706	76.19
372.932	79.19
373.158	74.19
373.384	94.19
373.61	102.19
373.835	74.19
374.061	93.19
374.287	90.19
374.513	71.19
374.739	66.19
374.965	74.19
375.191	92.19
375.416	81.19
375.642	91.19
375.868	86.19
376.094	92.19
376.319	92.19
376.545	83.19
376.771	53.19
376.997	81.19
377.222	80.19
377.448	85.19
377.674	87.19
377.899	78.19
378.125	88.19
378.35	76.19
378.576	84.19
378.802	102.19
379.027	77.19
379.253	88.19
379.478	88.19
379.704	79.19
379.929	83.19
380.155	74.19
380.38	87.19
380.606	96.19
380.831	87.19
381.057	90.19
381.282	88.19
381.507	81.19
381.733	87.19
381.958	97.19
382.184	82.19
382.409	83.19
382.634	81.19
382.86	85.19
383.085	87.19
383.31	77.19
383.535	98.19
383.761	76.19
383.986	93.19
384.211	94.19
384.436	93.19
384.662	95.19
384.887	83.19
385.112	79.19
385.337	92.19
385.562	98.19
385.787	90.19
386.013	99.19
386.238	84.19
386.463	86.19
386.688	98.19
386.913	95.19
387.138	99.19
387.363	68.19
387.588	85.19
387.813	91.19
388.038	101.19
388.263	97.19
388.488	82.19
388.713	69.19
388.938	88.19
389.163	77.19
389.387	84.19
389.612	92.19
389.837	79.19
390.062	73.19
390.287	79.19
390.512	93.19
390.736	77.19
390.961	82.19
391.186	77.19
391.411	84.19
391.636	82.19
391.86	94.19
392.085	86.19
392.31	89.19
392.534	100.19
392.759	67.19
392.984	85.19
393.208	91.19
393.433	76.19
393.658	75.19
393.882	94.19
394.107	79.19
394.331	87.19
394.556	84.19
394.78	78.19
395.005	82.19
395.229	76.19
395.454	85.19
395.678	90.19
395.903	92.19
396.127	85.19
396.352	85.19
396.576	79.19
396.801	67.19
397.025	83.19
397.249	76.19
397.474	82.19
397.698	93.19
397.922	82.19
398.147	62.19
398.371	82.19
398.595	90.19
398.82	78.19
399.044	78.19
399.268	77.19
399.492	93.19
399.717	93.19
399.941	86.19
400.165	87.19
400.389	85.19
400.613	77.19
400.837	75.19
401.062	98.19
401.286	77.19
401.51	98.19
401.734	90.19
401.958	86.19
402.182	90.19
402.406	82.19
402.63	83.19
402.854	76.19
403.078	87.19
403.302	90.19
403.526	78.19
403.75	92.19
403.974	85.19
404.198	79.19
404.422	77.19
404.645	87.19
404.869	74.19
405.093	90.19
405.317	90.19
405.541	83.19
405.765	84.19
405.988	98.19
406.212	90.19
406.436	93.19
406.66	95.19
406.883	84.19
407.107	80.19
407.331	86.19
407.555	80.19
407.778	98.19
408.002	82.19
408.226	76.19
408.449	88.19
408.673	78.19
408.896	71.19
409.12	78.19
409.344	77.19
409.567	81.19
409.791	78.19
410.014	86.19
410.238	92.19
410.461	88.19
410.685	87.19
410.908	82.19
411.132	96.19
411.355	82.19
411.578	82.19
411.802	86.19
412.025	81.19
412.249	90.19
412.472	80.19
412.695	75.19
412.919	77.19
413.142	85.19
413.365	92.19
413.589	92.19
413.812	95.19
414.035	80.19
414.258	89.19
414.482	84.19
414.705	80.19
414.928	84.19
415.151	85.19
415.374	76.19
415.597	78.19
415.821	90.19
416.044	82.19
416.267	78.19
416.49	86.19
416.713	87.19
416.936	75.19
417.159	81.19
417.382	86.19
417.605	78.19
417.828	88.19
418.051	77.19
418.274	73.19
418.497	88.19
418.72	82.19
418.943	66.19
419.166	69.19
419.389	71.19
419.611	87.19
419.834	78.19
420.057	84.19
420.28	84.19
420.503	93.19
420.726	89.19
420.948	94.19
421.171	92.19
421.394	86.19
421.617	82.19
421.839	74.19
422.062	89.19
422.285	97.19
422.507	77.19
422.73	84.19
422.953	78.19
423.175	80.19
423.398	87.19
423.621	82.19
423.843	103.19
424.066	81.19
424.288	100.19
424.511	85.19
424.733	79.19
424.956	81.19
425.178	72.19
425.401	82.19
425.623	83.19
425.846	85.19
426.068	77.19
426.291	87.19
426.513	80.19
426.735	70.19
426.958	78.19
427.18	86.19
427.402	84.19
427.625	80.19
427.847	81.19
428.069	90.19
428.292	71.19
428.514	86.19
428.736	78.19
428.958	75.19
429.181	87.19
429.403	83.19
429.625	87.19
429.847	86.19
430.069	82.19
430.292	87.19
430.514	78.19
430.736	84.19
430.958	87.19
431.18	82.19
431.402	74.19
431.624	79.19
431.846	89.19
432.068	87.19
432.29	94.19
432.512	81.19
432.734	77.19
432.956	90.19
433.178	89.19
433.4	83.19
433.622	82.19
433.844	90.19
434.066	101.19
434.287	85.19
434.509	66.19
434.731	71.19
434.953	72.19
435.175	95.19
435.397	93.19
435.618	92.19
435.84	90.19
436.062	97.19
436.284	84.19
436.505	66.19
436.727	69.19
436.949	86.19
437.17	79.19
437.392	77.19
437.614	77.19
437.835	69.19
438.057	106.19
438.278	82.19
438.5	90.19
438.721	96.19
438.943	96.19
439.165	83.19
439.386	82.19
439.608	91.19
439.829	92.19
440.05	77.19
440.272	80.19
440.493	84.19
440.715	80.19
440.936	92.19
441.158	96.19
441.379	78.19
441.6	78.19
441.822	80.19
442.043	86.19
442.264	94.19
442.486	95.19
442.707	83.19
442.928	84.19
443.149	78.19
443.371	94.19
443.592	75.19
443.813	82.19
444.034	83.19
444.255	82.19
444.476	78.19
444.698	82.19
444.919	71.19
445.14	162.19
445.361	111.19
445.582	76.19
445.803	90.19
446.024	98.19
446.245	83.19
446.466	79.19
446.687	80.19
446.908	92.19
447.129	78.19
447.35	88.19
447.571	89.19
447.792	89.19
448.013	91.19
448.234	78.19
448.455	76.19
448.675	86.19
448.896	95.19
449.117	76.19
449.338	83.19
449.559	74.19
449.779	93.19
450	77.19
450.221	83.19
450.442	82.19
450.662	79.19
450.883	79.19
451.104	79.19
451.324	82.19
451.545	80.19
451.766	85.19
451.986	86.19
452.207	75.19
452.428	78.19
452.648	80.19
452.869	92.19
453.089	84.19
453.31	76.19
453.53	73.19
453.751	82.19
453.971	78.19
454.192	69.19
454.412	84.19
454.633	63.19
454.853	88.19
455.073	71.19
455.294	89.19
455.514	78.19
455.734	82.19
455.955	72.19
456.175	83.19
456.395	82.19
456.616	74.19
456.836	86.19
457.056	73.19
457.276	93.19
457.497	90.19
457.717	82.19
457.937	83.19
458.157	93.19
458.377	81.19
458.598	73.19
458.818	93.19
459.038	93.19
459.258	83.19
459.478	82.19
459.698	83.19
459.918	82.19
460.138	91.19
460.358	82.19
460.578	99.19
460.798	87.19
461.018	83.19
461.238	76.19
461.458	85.19
461.678	78.19
461.898	78.19
462.118	86.19
462.338	83.19
462.558	73.19
462.777	86.19
462.997	85.19
463.217	89.19
463.437	83.19
463.657	70.19
463.876	89.19
464.096	80.19
464.316	97.19
464.536	72.19
464.755	87.19
464.975	91.19
465.195	80.19
465.414	94.19
465.634	87.19
465.854	89.19
466.073	73.19
466.293	87.19
466.512	86.19
466.732	78.19
466.951	76.19
467.171	74.19
467.391	76.19
467.61	72.19
467.829	82.19
468.049	77.19
468.268	69.19
468.488	77.19
468.707	86.19
468.927	85.19
469.146	83.19
469.365	79.19
469.585	82.19
469.804	78.19
470.023	75.19
470.243	96.19
470.462	98.19
470.681	83.19
470.901	83.19
471.12	86.19
471.339	94.19
471.558	88.19
471.777	84.19
471.997	93.19
472.216	103.19
472.435	82.19
472.654	66.19
472.873	90.19
473.092	80.19
473.311	78.19
473.53	95.19
473.749	102.19
473.968	83.19
474.187	79.19
474.406	88.19
474.625	91.19
474.844	100.19
475.063	80.19
475.282	78.19
475.501	85.19
475.72	82.19
475.939	89.19
476.158	86.19
476.377	87.19
476.596	86.19
476.814	81.19
477.033	90.19
477.252	77.19
477.471	85.19
477.69	89.19
477.908	92.19
478.127	92.19
478.346	75.19
478.564	86.19
478.783	78.19
479.002	75.19
479.22	79.19
479.439	88.19
479.658	88.19
479.876	88.19
480.095	86.19
480.313	93.19
480.532	88.19
480.751	90.19
480.969	87.19
481.188	86.19
481.406	85.19
481.624	77.19
481.843	84.19
482.061	73.19
482.28	78.19
482.498	86.19
482.717	91.19
482.935	77.19
483.153	79.19
483.372	87.19
483.59	85.19
483.808	98.19
484.027	87.19
484.245	89.19
484.463	108.19
484.681	101.19
484.9	89.19
485.118	84.19
485.336	90.19
485.554	75.19
485.772	76.19
485.99	79.19
486.209	95.19
486.427	72.19
486.645	76.19
486.863	87.19
487.081	85.19
487.299	93.19
487.517	80.19
487.735	78.19
487.953	85.19
488.171	86.19
488.389	91.19
488.607	70.19
488.825	78.19
489.043	89.19
489.261	90.19
489.479	82.19
489.696	68.19
489.914	94.19
490.132	77.19
490.35	86.19
490.568	90.19
490.786	88.19
491.003	90.19
491.221	78.19
491.439	91.19
491.657	71.19
491.874	80.19
492.092	76.19
492.31	75.19
492.527	80.19
492.745	86.19
492.963	88.19
493.18	81.19
493.398	84.19
493.615	74.19
493.833	89.19
494.05	77.19
494.268	85.19
494.485	84.19
494.703	88.19
494.92	80.19
495.138	83.19
495.355	79.19
495.573	85.19
495.79	94.19
496.008	58.19
496.225	77.19
496.442	83.19
496.66	84.19
496.877	84.19
497.094	93.19
497.312	95.19
497.529	85.19
497.746	97.19
497.963	69.19
498.181	71.19
498.398	87.19
498.615	100.19
498.832	86.19
499.049	87.19
499.267	72.19
499.484	90.19
499.701	83.19
499.918	92.19
500.135	93.19
500.352	76.19
500.569	71.19
500.786	85.19
501.003	83.19
501.22	90.19
501.437	78.19
501.654	77.19
501.871	90.19
502.088	90.19
502.305	94.19
502.522	84.19
502.739	78.19
502.956	70.19
503.172	88.19
503.389	90.19
503.606	80.19
503.823	72.19
504.04	82.19
504.256	86.19
504.473	75.19
504.69	87.19
504.907	90.19
505.123	84.19
505.34	70.19
505.557	81.19
505.773	108.19
505.99	77.19
506.207	86.19
506.423	90.19
506.64	81.19
506.856	84.19
507.073	78.19
507.289	94.19
507.506	94.19
507.722	77.19
507.939	83.19
508.155	98.19
508.372	77.19
508.588	86.19
508.805	95.19
509.021	81.19
509.238	89.19
509.454	78.19
509.67	87.19
509.887	92.19
510.103	86.19
510.319	90.19
510.536	82.19
510.752	74.19
510.968	78.19
511.184	86.19
511.401	100.19
511.617	85.19
511.833	85.19
512.049	90.19
512.265	90.19
512.481	81.19
512.698	82.19
512.914	72.19
513.13	95.19
513.346	81.19
513.562	92.19
513.778	71.19
513.994	96.19
514.21	79.19
514.426	72.19
514.642	94.19
514.858	84.19
515.074	73.19
515.29	102.19
515.506	82.19
515.721	82.19
515.937	88.19
516.153	79.19
516.369	74.19
516.585	80.19
516.801	78.19
517.016	78.19
517.232	87.19
517.448	84.19
517.664	65.19
517.879	88.19
518.095	91.19
518.311	99.19
518.527	84.19
518.742	83.19
518.958	75.19
519.173	80.19
519.389	88.19
519.605	85.19
519.82	83.19
