Data from Background_3_HRD10591_00061.txt Node
Date: Wed Nov 05 14:49:50 EST 2025
User: Yrep
Spectrometer: HR+D1059
Trigger mode: 1
Integration Time (sec): 1.000000E-1
Scans to average: 1
Electric dark correction enabled: true
Nonlinearity correction enabled: false
Boxcar width: 0
XAxis mode: Wavelengths
Number of Pixels in Spectrum: 2048
>>>>>Begin Spectral Data<<<<<
223.165	-23.19
223.4	-23.19
223.635	-23.19
223.869	-14.19
224.104	-25.19
224.338	-14.19
224.573	-15.19
224.808	-4.19
225.042	-12.19
225.277	-3.19
225.511	8.81
225.746	1.81
225.98	-2.19
226.215	14.81
226.449	15.81
226.683	23.81
226.918	20.81
227.152	27.81
227.387	27.81
227.621	44.81
227.856	52.81
228.09	46.81
228.324	53.81
228.559	50.81
228.793	56.81
229.027	62.81
229.262	62.81
229.496	56.81
229.73	64.81
229.964	76.81
230.199	72.81
230.433	72.81
230.667	73.81
230.901	77.81
231.136	75.81
231.37	76.81
231.604	88.81
231.838	80.81
232.072	70.81
232.306	80.81
232.541	84.81
232.775	75.81
233.009	71.81
233.243	86.81
233.477	76.81
233.711	71.81
233.945	72.81
234.179	60.81
234.413	81.81
234.647	86.81
234.881	78.81
235.115	72.81
235.349	86.81
235.583	74.81
235.817	71.81
236.051	71.81
236.285	87.81
236.519	61.81
236.753	78.81
236.987	70.81
237.221	66.81
237.455	66.81
237.689	70.81
237.922	81.81
238.156	60.81
238.39	83.81
238.624	68.81
238.858	72.81
239.091	65.81
239.325	52.81
239.559	58.81
239.793	57.81
240.027	73.81
240.26	63.81
240.494	66.81
240.728	67.81
240.961	84.81
241.195	58.81
241.429	73.81
241.662	70.81
241.896	57.81
242.13	76.81
242.363	68.81
242.597	70.81
242.83	57.81
243.064	82.81
243.298	71.81
243.531	64.81
243.765	77.81
243.998	67.81
244.232	68.81
244.465	80.81
244.699	72.81
244.932	72.81
245.166	66.81
245.399	74.81
245.633	82.81
245.866	63.81
246.099	80.81
246.333	66.81
246.566	84.81
246.8	73.81
247.033	77.81
247.266	70.81
247.5	80.81
247.733	71.81
247.966	72.81
248.2	61.81
248.433	70.81
248.666	74.81
248.899	74.81
249.133	71.81
249.366	76.81
249.599	74.81
249.832	80.81
250.066	79.81
250.299	70.81
250.532	82.81
250.765	74.81
250.998	78.81
251.231	77.81
251.465	72.81
251.698	74.81
251.931	80.81
252.164	67.81
252.397	62.81
252.63	85.81
252.863	89.81
253.096	74.81
253.329	58.81
253.562	72.81
253.795	78.81
254.028	82.81
254.261	75.81
254.494	66.81
254.727	80.81
254.96	69.81
255.193	85.81
255.426	74.81
255.659	74.81
255.892	72.81
256.124	80.81
256.357	73.81
256.59	66.81
256.823	76.81
257.056	95.81
257.289	76.81
257.521	71.81
257.754	68.81
257.987	59.81
258.22	78.81
258.452	63.81
258.685	78.81
258.918	57.81
259.151	82.81
259.383	76.81
259.616	88.81
259.849	80.81
260.081	74.81
260.314	84.81
260.547	72.81
260.779	72.81
261.012	68.81
261.244	75.81
261.477	72.81
261.71	65.81
261.942	68.81
262.175	72.81
262.407	70.81
262.64	86.81
262.872	68.81
263.105	74.81
263.337	91.81
263.57	68.81
263.802	79.81
264.035	80.81
264.267	62.81
264.499	67.81
264.732	87.81
264.964	76.81
265.197	76.81
265.429	79.81
265.661	89.81
265.894	82.81
266.126	80.81
266.358	85.81
266.591	85.81
266.823	80.81
267.055	67.81
267.287	81.81
267.52	77.81
267.752	84.81
267.984	77.81
268.216	70.81
268.448	87.81
268.681	88.81
268.913	83.81
269.145	74.81
269.377	81.81
269.609	62.81
269.841	62.81
270.073	73.81
270.306	72.81
270.538	81.81
270.77	88.81
271.002	85.81
271.234	85.81
271.466	80.81
271.698	66.81
271.93	71.81
272.162	78.81
272.394	87.81
272.626	73.81
272.858	91.81
273.09	76.81
273.322	79.81
273.553	65.81
273.785	83.81
274.017	77.81
274.249	72.81
274.481	75.81
274.713	80.81
274.945	74.81
275.176	68.81
275.408	70.81
275.64	84.81
275.872	86.81
276.104	80.81
276.335	81.81
276.567	72.81
276.799	70.81
277.031	81.81
277.262	86.81
277.494	83.81
277.726	84.81
277.957	87.81
278.189	88.81
278.421	77.81
278.652	86.81
278.884	69.81
279.115	81.81
279.347	72.81
279.579	67.81
279.81	86.81
280.042	82.81
280.273	77.81
280.505	89.81
280.736	74.81
280.968	87.81
281.199	80.81
281.431	82.81
281.662	83.81
281.894	90.81
282.125	87.81
282.356	78.81
282.588	81.81
282.819	74.81
283.051	84.81
283.282	91.81
283.513	99.81
283.745	85.81
283.976	76.81
284.207	74.81
284.439	79.81
284.67	82.81
284.901	72.81
285.132	80.81
285.364	69.81
285.595	72.81
285.826	80.81
286.057	81.81
286.288	86.81
286.52	76.81
286.751	66.81
286.982	82.81
287.213	70.81
287.444	84.81
287.675	82.81
287.906	78.81
288.138	92.81
288.369	87.81
288.6	97.81
288.831	83.81
289.062	82.81
289.293	76.81
289.524	80.81
289.755	83.81
289.986	84.81
290.217	83.81
290.448	79.81
290.679	66.81
290.91	81.81
291.141	93.81
291.371	93.81
291.602	73.81
291.833	77.81
292.064	71.81
292.295	78.81
292.526	80.81
292.757	74.81
292.987	77.81
293.218	79.81
293.449	78.81
293.68	89.81
293.91	76.81
294.141	78.81
294.372	80.81
294.603	74.81
294.833	81.81
295.064	79.81
295.295	75.81
295.525	89.81
295.756	78.81
295.987	68.81
296.217	80.81
296.448	77.81
296.679	72.81
296.909	84.81
297.14	84.81
297.37	84.81
297.601	76.81
297.831	64.81
298.062	70.81
298.292	79.81
298.523	81.81
298.753	66.81
298.984	71.81
299.214	66.81
299.445	76.81
299.675	72.81
299.905	65.81
300.136	65.81
300.366	81.81
300.597	87.81
300.827	72.81
301.057	76.81
301.288	86.81
301.518	75.81
301.748	68.81
301.979	97.81
302.209	78.81
302.439	65.81
302.669	84.81
302.9	85.81
303.13	78.81
303.36	83.81
303.59	85.81
303.82	93.81
304.051	82.81
304.281	86.81
304.511	85.81
304.741	69.81
304.971	79.81
305.201	79.81
305.431	77.81
305.661	77.81
305.891	84.81
306.121	92.81
306.352	92.81
306.582	64.81
306.812	77.81
307.042	82.81
307.272	78.81
307.502	75.81
307.731	90.81
307.961	73.81
308.191	77.81
308.421	77.81
308.651	78.81
308.881	85.81
309.111	82.81
309.341	88.81
309.571	79.81
309.8	89.81
310.03	74.81
310.26	77.81
310.49	73.81
310.72	64.81
310.949	73.81
311.179	86.81
311.409	79.81
311.639	80.81
311.868	83.81
312.098	73.81
312.328	81.81
312.557	76.81
312.787	58.81
313.017	81.81
313.246	65.81
313.476	77.81
313.706	88.81
313.935	77.81
314.165	68.81
314.394	80.81
314.624	76.81
314.853	90.81
315.083	82.81
315.312	96.81
315.542	84.81
315.771	76.81
316.001	78.81
316.23	79.81
316.46	85.81
316.689	65.81
316.919	87.81
317.148	92.81
317.377	74.81
317.607	90.81
317.836	88.81
318.065	101.81
318.295	80.81
318.524	72.81
318.753	78.81
318.983	77.81
319.212	96.81
319.441	77.81
319.67	74.81
319.9	80.81
320.129	88.81
320.358	80.81
320.587	79.81
320.816	75.81
321.046	81.81
321.275	77.81
321.504	73.81
321.733	67.81
321.962	84.81
322.191	73.81
322.42	91.81
322.649	80.81
322.878	65.81
323.108	83.81
323.337	92.81
323.566	101.81
323.795	88.81
324.024	74.81
324.253	74.81
324.482	80.81
324.71	90.81
324.939	82.81
325.168	78.81
325.397	76.81
325.626	80.81
325.855	79.81
326.084	77.81
326.313	89.81
326.542	76.81
326.77	82.81
326.999	80.81
327.228	80.81
327.457	97.81
327.686	77.81
327.914	73.81
328.143	78.81
328.372	81.81
328.6	81.81
328.829	73.81
329.058	85.81
329.287	62.81
329.515	95.81
329.744	81.81
329.972	71.81
330.201	92.81
330.43	83.81
330.658	80.81
330.887	89.81
331.115	94.81
331.344	86.81
331.572	83.81
331.801	84.81
332.03	74.81
332.258	85.81
332.486	79.81
332.715	67.81
332.943	72.81
333.172	84.81
333.4	69.81
333.629	86.81
333.857	73.81
334.085	64.81
334.314	74.81
334.542	89.81
334.771	80.81
334.999	88.81
335.227	70.81
335.455	72.81
335.684	83.81
335.912	87.81
336.14	86.81
336.369	83.81
336.597	88.81
336.825	78.81
337.053	92.81
337.281	79.81
337.51	69.81
337.738	83.81
337.966	69.81
338.194	77.81
338.422	75.81
338.65	74.81
338.878	76.81
339.106	93.81
339.334	86.81
339.562	81.81
339.79	84.81
340.018	81.81
340.246	69.81
340.474	79.81
340.702	84.81
340.93	74.81
341.158	79.81
341.386	81.81
341.614	68.81
341.842	69.81
342.07	73.81
342.298	71.81
342.526	83.81
342.754	85.81
342.981	77.81
343.209	75.81
343.437	104.81
343.665	82.81
343.893	75.81
344.12	84.81
344.348	68.81
344.576	79.81
344.804	84.81
345.031	82.81
345.259	86.81
345.487	70.81
345.714	71.81
345.942	90.81
346.17	70.81
346.397	76.81
346.625	88.81
346.853	92.81
347.08	88.81
347.308	81.81
347.535	88.81
347.763	79.81
347.99	74.81
348.218	78.81
348.445	84.81
348.673	82.81
348.9	75.81
349.128	88.81
349.355	80.81
349.583	81.81
349.81	71.81
350.037	87.81
350.265	76.81
350.492	76.81
350.72	72.81
350.947	71.81
351.174	69.81
351.402	94.81
351.629	86.81
351.856	72.81
352.083	73.81
352.311	86.81
352.538	80.81
352.765	66.81
352.992	84.81
353.22	92.81
353.447	87.81
353.674	70.81
353.901	81.81
354.128	78.81
354.355	73.81
354.583	73.81
354.81	74.81
355.037	73.81
355.264	85.81
355.491	82.81
355.718	81.81
355.945	65.81
356.172	86.81
356.399	84.81
356.626	81.81
356.853	72.81
357.08	70.81
357.307	88.81
357.534	78.81
357.761	76.81
357.988	85.81
358.215	77.81
358.441	83.81
358.668	88.81
358.895	78.81
359.122	72.81
359.349	72.81
359.576	85.81
359.802	78.81
360.029	72.81
360.256	71.81
360.483	76.81
360.709	73.81
360.936	86.81
361.163	87.81
361.39	84.81
361.616	75.81
361.843	77.81
362.07	62.81
362.296	80.81
362.523	68.81
362.749	74.81
362.976	84.81
363.203	72.81
363.429	69.81
363.656	76.81
363.882	74.81
364.109	85.81
364.335	79.81
364.562	80.81
364.788	77.81
365.015	89.81
365.241	72.81
365.468	88.81
365.694	91.81
365.92	77.81
366.147	85.81
366.373	82.81
366.599	76.81
366.826	75.81
367.052	84.81
367.278	66.81
367.505	57.81
367.731	86.81
367.957	75.81
368.184	74.81
368.41	82.81
368.636	66.81
368.862	69.81
369.089	88.81
369.315	80.81
369.541	78.81
369.767	79.81
369.993	88.81
370.219	72.81
370.445	63.81
370.672	74.81
370.898	62.81
371.124	86.81
371.35	64.81
371.576	65.81
371.802	64.81
372.028	86.81
372.254	73.81
372.48	72.81
372.706	93.81
372.932	83.81
373.158	80.81
373.384	101.81
373.61	84.81
373.835	73.81
374.061	68.81
374.287	70.81
374.513	73.81
374.739	86.81
374.965	71.81
375.191	77.81
375.416	65.81
375.642	86.81
375.868	89.81
376.094	78.81
376.319	84.81
376.545	73.81
376.771	80.81
376.997	93.81
377.222	85.81
377.448	77.81
377.674	90.81
377.899	90.81
378.125	73.81
378.35	69.81
378.576	74.81
378.802	78.81
379.027	77.81
379.253	75.81
379.478	91.81
379.704	72.81
379.929	80.81
380.155	74.81
380.38	77.81
380.606	76.81
380.831	70.81
381.057	84.81
381.282	69.81
381.507	68.81
381.733	81.81
381.958	80.81
382.184	77.81
382.409	70.81
382.634	77.81
382.86	72.81
383.085	76.81
383.31	74.81
383.535	81.81
383.761	77.81
383.986	78.81
384.211	74.81
384.436	82.81
384.662	70.81
384.887	74.81
385.112	67.81
385.337	70.81
385.562	80.81
385.787	79.81
386.013	80.81
386.238	80.81
386.463	79.81
386.688	86.81
386.913	79.81
387.138	85.81
387.363	74.81
387.588	80.81
387.813	86.81
388.038	88.81
388.263	80.81
388.488	77.81
388.713	71.81
388.938	81.81
389.163	80.81
389.387	70.81
389.612	77.81
389.837	88.81
390.062	74.81
390.287	83.81
390.512	71.81
390.736	66.81
390.961	75.81
391.186	83.81
391.411	82.81
391.636	72.81
391.86	85.81
392.085	74.81
392.31	58.81
392.534	83.81
392.759	90.81
392.984	79.81
393.208	84.81
393.433	81.81
393.658	74.81
393.882	79.81
394.107	84.81
394.331	84.81
394.556	66.81
394.78	87.81
395.005	63.81
395.229	69.81
395.454	78.81
395.678	65.81
395.903	77.81
396.127	82.81
396.352	77.81
396.576	78.81
396.801	87.81
397.025	92.81
397.249	79.81
397.474	87.81
397.698	71.81
397.922	85.81
398.147	83.81
398.371	77.81
398.595	62.81
398.82	78.81
399.044	75.81
399.268	84.81
399.492	88.81
399.717	76.81
399.941	70.81
400.165	76.81
400.389	84.81
400.613	79.81
400.837	70.81
401.062	76.81
401.286	65.81
401.51	87.81
401.734	90.81
401.958	79.81
402.182	72.81
402.406	82.81
402.63	81.81
402.854	84.81
403.078	68.81
403.302	78.81
403.526	79.81
403.75	77.81
403.974	72.81
404.198	78.81
404.422	72.81
404.645	66.81
404.869	67.81
405.093	88.81
405.317	81.81
405.541	64.81
405.765	80.81
405.988	83.81
406.212	81.81
406.436	85.81
406.66	61.81
406.883	71.81
407.107	91.81
407.331	71.81
407.555	82.81
407.778	70.81
408.002	61.81
408.226	74.81
408.449	75.81
408.673	76.81
408.896	73.81
409.12	85.81
409.344	66.81
409.567	77.81
409.791	67.81
410.014	75.81
410.238	81.81
410.461	74.81
410.685	68.81
410.908	76.81
411.132	65.81
411.355	70.81
411.578	73.81
411.802	81.81
412.025	76.81
412.249	68.81
412.472	74.81
412.695	66.81
412.919	72.81
413.142	60.81
413.365	82.81
413.589	99.81
413.812	73.81
414.035	88.81
414.258	68.81
414.482	94.81
414.705	71.81
414.928	78.81
415.151	70.81
415.374	89.81
415.597	80.81
415.821	71.81
416.044	66.81
416.267	74.81
416.49	86.81
416.713	73.81
416.936	89.81
417.159	81.81
417.382	81.81
417.605	78.81
417.828	70.81
418.051	69.81
418.274	81.81
418.497	77.81
418.72	71.81
418.943	73.81
419.166	76.81
419.389	77.81
419.611	84.81
419.834	74.81
420.057	59.81
420.28	82.81
420.503	77.81
420.726	77.81
420.948	79.81
421.171	76.81
421.394	72.81
421.617	85.81
421.839	84.81
422.062	73.81
422.285	90.81
422.507	70.81
422.73	73.81
422.953	83.81
423.175	71.81
423.398	76.81
423.621	67.81
423.843	66.81
424.066	68.81
424.288	68.81
424.511	87.81
424.733	75.81
424.956	78.81
425.178	70.81
425.401	75.81
425.623	76.81
425.846	90.81
426.068	85.81
426.291	79.81
426.513	73.81
426.735	73.81
426.958	78.81
427.18	84.81
427.402	76.81
427.625	75.81
427.847	69.81
428.069	74.81
428.292	79.81
428.514	81.81
428.736	74.81
428.958	84.81
429.181	73.81
429.403	67.81
429.625	86.81
429.847	90.81
430.069	78.81
430.292	64.81
430.514	72.81
430.736	67.81
430.958	74.81
431.18	75.81
431.402	72.81
431.624	91.81
431.846	85.81
432.068	85.81
432.29	67.81
432.512	72.81
432.734	78.81
432.956	92.81
433.178	77.81
433.4	77.81
433.622	93.81
433.844	86.81
434.066	79.81
434.287	86.81
434.509	64.81
434.731	72.81
434.953	71.81
435.175	84.81
435.397	76.81
435.618	71.81
435.84	81.81
436.062	72.81
436.284	69.81
436.505	72.81
436.727	86.81
436.949	70.81
437.17	82.81
437.392	67.81
437.614	84.81
437.835	89.81
438.057	68.81
438.278	78.81
438.5	76.81
438.721	84.81
438.943	53.81
439.165	67.81
439.386	66.81
439.608	75.81
439.829	82.81
440.05	68.81
440.272	82.81
440.493	78.81
440.715	77.81
440.936	80.81
441.158	81.81
441.379	72.81
441.6	80.81
441.822	96.81
442.043	92.81
442.264	84.81
442.486	83.81
442.707	75.81
442.928	67.81
443.149	85.81
443.371	63.81
443.592	80.81
443.813	84.81
444.034	74.81
444.255	72.81
444.476	80.81
444.698	77.81
444.919	76.81
445.14	162.81
445.361	116.81
445.582	60.81
445.803	75.81
446.024	75.81
446.245	75.81
446.466	75.81
446.687	82.81
446.908	83.81
447.129	72.81
447.35	78.81
447.571	72.81
447.792	77.81
448.013	70.81
448.234	85.81
448.455	72.81
448.675	73.81
448.896	59.81
449.117	86.81
449.338	84.81
449.559	79.81
449.779	66.81
450	73.81
450.221	68.81
450.442	66.81
450.662	78.81
450.883	80.81
451.104	90.81
451.324	81.81
451.545	77.81
451.766	66.81
451.986	74.81
452.207	71.81
452.428	69.81
452.648	66.81
452.869	78.81
453.089	79.81
453.31	60.81
453.53	72.81
453.751	82.81
453.971	88.81
454.192	82.81
454.412	68.81
454.633	69.81
454.853	80.81
455.073	84.81
455.294	73.81
455.514	82.81
455.734	81.81
455.955	89.81
456.175	79.81
456.395	64.81
456.616	83.81
456.836	76.81
457.056	92.81
457.276	62.81
457.497	86.81
457.717	70.81
457.937	65.81
458.157	82.81
458.377	91.81
458.598	69.81
458.818	79.81
459.038	77.81
459.258	79.81
459.478	69.81
459.698	74.81
459.918	84.81
460.138	77.81
460.358	82.81
460.578	85.81
460.798	78.81
461.018	86.81
461.238	77.81
461.458	73.81
461.678	76.81
461.898	73.81
462.118	81.81
462.338	81.81
462.558	84.81
462.777	76.81
462.997	69.81
463.217	66.81
463.437	81.81
463.657	84.81
463.876	66.81
464.096	79.81
464.316	80.81
464.536	71.81
464.755	84.81
464.975	72.81
465.195	81.81
465.414	72.81
465.634	71.81
465.854	77.81
466.073	74.81
466.293	77.81
466.512	77.81
466.732	72.81
466.951	76.81
467.171	60.81
467.391	72.81
467.61	76.81
467.829	72.81
468.049	81.81
468.268	79.81
468.488	77.81
468.707	64.81
468.927	76.81
469.146	84.81
469.365	100.81
469.585	87.81
469.804	82.81
470.023	80.81
470.243	78.81
470.462	72.81
470.681	61.81
470.901	66.81
471.12	67.81
471.339	66.81
471.558	80.81
471.777	67.81
471.997	68.81
472.216	77.81
472.435	62.81
472.654	65.81
472.873	87.81
473.092	75.81
473.311	62.81
473.53	76.81
473.749	86.81
473.968	86.81
474.187	82.81
474.406	68.81
474.625	76.81
474.844	66.81
475.063	69.81
475.282	72.81
475.501	75.81
475.72	88.81
475.939	84.81
476.158	72.81
476.377	74.81
476.596	77.81
476.814	79.81
477.033	78.81
477.252	72.81
477.471	80.81
477.69	90.81
477.908	76.81
478.127	93.81
478.346	65.81
478.564	90.81
478.783	70.81
479.002	80.81
479.22	74.81
479.439	80.81
479.658	79.81
479.876	74.81
480.095	94.81
480.313	72.81
480.532	67.81
480.751	94.81
480.969	72.81
481.188	72.81
481.406	85.81
481.624	67.81
481.843	83.81
482.061	70.81
482.28	79.81
482.498	80.81
482.717	72.81
482.935	77.81
483.153	74.81
483.372	80.81
483.59	77.81
483.808	74.81
484.027	80.81
484.245	68.81
484.463	67.81
484.681	70.81
484.9	69.81
485.118	91.81
485.336	82.81
485.554	84.81
485.772	81.81
485.99	71.81
486.209	64.81
486.427	85.81
486.645	76.81
486.863	81.81
487.081	71.81
487.299	67.81
487.517	64.81
487.735	87.81
487.953	92.81
488.171	79.81
488.389	89.81
488.607	77.81
488.825	73.81
489.043	77.81
489.261	64.81
489.479	74.81
489.696	87.81
489.914	83.81
490.132	80.81
490.35	84.81
490.568	66.81
490.786	88.81
491.003	76.81
491.221	86.81
491.439	73.81
491.657	91.81
491.874	74.81
492.092	78.81
492.31	77.81
492.527	92.81
492.745	76.81
492.963	79.81
493.18	78.81
493.398	77.81
493.615	87.81
493.833	60.81
494.05	76.81
494.268	88.81
494.485	73.81
494.703	88.81
494.92	87.81
495.138	70.81
495.355	78.81
495.573	92.81
495.79	72.81
496.008	81.81
496.225	80.81
496.442	90.81
496.66	82.81
496.877	69.81
497.094	76.81
497.312	84.81
497.529	65.81
497.746	82.81
497.963	78.81
498.181	73.81
498.398	70.81
498.615	80.81
498.832	61.81
499.049	72.81
499.267	86.81
499.484	88.81
499.701	74.81
499.918	81.81
500.135	78.81
500.352	84.81
500.569	70.81
500.786	92.81
501.003	78.81
501.22	89.81
501.437	93.81
501.654	74.81
501.871	56.81
502.088	78.81
502.305	91.81
502.522	81.81
502.739	81.81
502.956	89.81
503.172	79.81
503.389	80.81
503.606	68.81
503.823	64.81
504.04	92.81
504.256	74.81
504.473	74.81
504.69	83.81
504.907	93.81
505.123	80.81
505.34	84.81
505.557	90.81
505.773	72.81
505.99	63.81
506.207	72.81
506.423	80.81
506.64	81.81
506.856	58.81
507.073	71.81
507.289	72.81
507.506	76.81
507.722	80.81
507.939	73.81
508.155	82.81
508.372	74.81
508.588	74.81
508.805	70.81
509.021	73.81
509.238	79.81
509.454	66.81
509.67	96.81
509.887	82.81
510.103	72.81
510.319	86.81
510.536	66.81
510.752	92.81
510.968	86.81
511.184	77.81
511.401	79.81
511.617	66.81
511.833	77.81
512.049	67.81
512.265	74.81
512.481	75.81
512.698	78.81
512.914	84.81
513.13	88.81
513.346	70.81
513.562	90.81
513.778	82.81
513.994	74.81
514.21	79.81
514.426	79.81
514.642	70.81
514.858	68.81
515.074	81.81
515.29	89.81
515.506	79.81
515.721	77.81
515.937	89.81
516.153	79.81
516.369	76.81
516.585	84.81
516.801	70.81
517.016	97.81
517.232	72.81
517.448	83.81
517.664	80.81
517.879	77.81
518.095	86.81
518.311	82.81
518.527	75.81
518.742	81.81
518.958	79.81
519.173	82.81
519.389	79.81
519.605	85.81
519.82	65.81
520.036	81.81
