Data from Background_3_HRD10591_00060.txt Node
Date: Wed Nov 05 14:49:49 EST 2025
User: Yrep
Spectrometer: HR+D1059
Trigger mode: 1
Integration Time (sec): 1.000000E-1
Scans to average: 1
Electric dark correction enabled: true
Nonlinearity correction enabled: false
Boxcar width: 0
XAxis mode: Wavelengths
Number of Pixels in Spectrum: 2048
>>>>>Begin Spectral Data<<<<<
223.165	-22.81
223.4	-22.81
223.635	-22.81
223.869	-22.81
224.104	-16.81
224.338	-33.81
224.573	-19.81
224.808	-15.81
225.042	-1.81
225.277	2.19
225.511	3.19
225.746	7.19
225.98	3.19
226.215	10.19
226.449	13.19
226.683	17.19
226.918	46.19
227.152	31.19
227.387	34.19
227.621	46.19
227.856	44.19
228.09	37.19
228.324	39.19
228.559	65.19
228.793	65.19
229.027	66.19
229.262	67.19
229.496	55.19
229.73	68.19
229.964	70.19
230.199	85.19
230.433	74.19
230.667	82.19
230.901	89.19
231.136	63.19
231.37	78.19
231.604	83.19
231.838	73.19
232.072	77.19
232.306	79.19
232.541	73.19
232.775	75.19
233.009	79.19
233.243	80.19
233.477	94.19
233.711	82.19
233.945	82.19
234.179	85.19
234.413	65.19
234.647	76.19
234.881	77.19
235.115	74.19
235.349	67.19
235.583	73.19
235.817	78.19
236.051	73.19
236.285	76.19
236.519	77.19
236.753	81.19
236.987	89.19
237.221	82.19
237.455	75.19
237.689	74.19
237.922	75.19
238.156	63.19
238.39	62.19
238.624	64.19
238.858	70.19
239.091	72.19
239.325	76.19
239.559	78.19
239.793	89.19
240.027	77.19
240.26	70.19
240.494	78.19
240.728	75.19
240.961	74.19
241.195	89.19
241.429	71.19
241.662	82.19
241.896	79.19
242.13	86.19
242.363	62.19
242.597	70.19
242.83	77.19
243.064	73.19
243.298	68.19
243.531	77.19
243.765	68.19
243.998	79.19
244.232	81.19
244.465	77.19
244.699	77.19
244.932	66.19
245.166	71.19
245.399	82.19
245.633	67.19
245.866	88.19
246.099	75.19
246.333	76.19
246.566	78.19
246.8	94.19
247.033	70.19
247.266	79.19
247.5	86.19
247.733	74.19
247.966	90.19
248.2	80.19
248.433	90.19
248.666	79.19
248.899	83.19
249.133	74.19
249.366	83.19
249.599	81.19
249.832	78.19
250.066	85.19
250.299	73.19
250.532	81.19
250.765	85.19
250.998	68.19
251.231	69.19
251.465	75.19
251.698	76.19
251.931	79.19
252.164	84.19
252.397	100.19
252.63	78.19
252.863	96.19
253.096	83.19
253.329	72.19
253.562	72.19
253.795	81.19
254.028	79.19
254.261	81.19
254.494	87.19
254.727	80.19
254.96	86.19
255.193	82.19
255.426	87.19
255.659	80.19
255.892	75.19
256.124	85.19
256.357	73.19
256.59	95.19
256.823	86.19
257.056	73.19
257.289	93.19
257.521	77.19
257.754	69.19
257.987	84.19
258.22	91.19
258.452	69.19
258.685	76.19
258.918	82.19
259.151	78.19
259.383	73.19
259.616	90.19
259.849	92.19
260.081	83.19
260.314	85.19
260.547	83.19
260.779	88.19
261.012	81.19
261.244	84.19
261.477	68.19
261.71	87.19
261.942	72.19
262.175	78.19
262.407	87.19
262.64	81.19
262.872	75.19
263.105	76.19
263.337	81.19
263.57	96.19
263.802	69.19
264.035	81.19
264.267	70.19
264.499	71.19
264.732	81.19
264.964	86.19
265.197	93.19
265.429	89.19
265.661	91.19
265.894	89.19
266.126	78.19
266.358	75.19
266.591	95.19
266.823	89.19
267.055	83.19
267.287	77.19
267.52	75.19
267.752	79.19
267.984	78.19
268.216	79.19
268.448	79.19
268.681	74.19
268.913	91.19
269.145	69.19
269.377	94.19
269.609	85.19
269.841	80.19
270.073	71.19
270.306	79.19
270.538	72.19
270.77	77.19
271.002	81.19
271.234	64.19
271.466	78.19
271.698	71.19
271.93	82.19
272.162	79.19
272.394	71.19
272.626	83.19
272.858	93.19
273.09	87.19
273.322	79.19
273.553	76.19
273.785	90.19
274.017	82.19
274.249	85.19
274.481	84.19
274.713	86.19
274.945	85.19
275.176	89.19
275.408	89.19
275.64	83.19
275.872	82.19
276.104	85.19
276.335	93.19
276.567	82.19
276.799	65.19
277.031	75.19
277.262	68.19
277.494	101.19
277.726	85.19
277.957	88.19
278.189	79.19
278.421	82.19
278.652	76.19
278.884	82.19
279.115	71.19
279.347	86.19
279.579	91.19
279.81	89.19
280.042	79.19
280.273	76.19
280.505	74.19
280.736	85.19
280.968	74.19
281.199	79.19
281.431	84.19
281.662	79.19
281.894	68.19
282.125	93.19
282.356	85.19
282.588	83.19
282.819	78.19
283.051	68.19
283.282	81.19
283.513	84.19
283.745	80.19
283.976	76.19
284.207	74.19
284.439	59.19
284.67	79.19
284.901	76.19
285.132	87.19
285.364	70.19
285.595	77.19
285.826	92.19
286.057	84.19
286.288	86.19
286.52	85.19
286.751	88.19
286.982	81.19
287.213	87.19
287.444	65.19
287.675	84.19
287.906	90.19
288.138	89.19
288.369	59.19
288.6	83.19
288.831	80.19
289.062	86.19
289.293	85.19
289.524	69.19
289.755	67.19
289.986	63.19
290.217	82.19
290.448	79.19
290.679	82.19
290.91	90.19
291.141	83.19
291.371	69.19
291.602	87.19
291.833	80.19
292.064	82.19
292.295	80.19
292.526	85.19
292.757	90.19
292.987	89.19
293.218	77.19
293.449	81.19
293.68	83.19
293.91	83.19
294.141	97.19
294.372	71.19
294.603	93.19
294.833	85.19
295.064	95.19
295.295	85.19
295.525	89.19
295.756	87.19
295.987	85.19
296.217	77.19
296.448	84.19
296.679	82.19
296.909	89.19
297.14	78.19
297.37	85.19
297.601	71.19
297.831	87.19
298.062	100.19
298.292	80.19
298.523	89.19
298.753	79.19
298.984	87.19
299.214	82.19
299.445	81.19
299.675	95.19
299.905	83.19
300.136	78.19
300.366	94.19
300.597	84.19
300.827	88.19
301.057	105.19
301.288	87.19
301.518	81.19
301.748	76.19
301.979	101.19
302.209	79.19
302.439	92.19
302.669	101.19
302.9	67.19
303.13	77.19
303.36	80.19
303.59	70.19
303.82	84.19
304.051	82.19
304.281	70.19
304.511	89.19
304.741	93.19
304.971	71.19
305.201	84.19
305.431	85.19
305.661	100.19
305.891	93.19
306.121	75.19
306.352	95.19
306.582	89.19
306.812	91.19
307.042	94.19
307.272	93.19
307.502	82.19
307.731	85.19
307.961	86.19
308.191	80.19
308.421	80.19
308.651	77.19
308.881	77.19
309.111	90.19
309.341	76.19
309.571	78.19
309.8	98.19
310.03	76.19
310.26	95.19
310.49	94.19
310.72	87.19
310.949	81.19
311.179	92.19
311.409	78.19
311.639	77.19
311.868	90.19
312.098	94.19
312.328	89.19
312.557	93.19
312.787	96.19
313.017	78.19
313.246	79.19
313.476	92.19
313.706	79.19
313.935	69.19
314.165	89.19
314.394	76.19
314.624	79.19
314.853	89.19
315.083	101.19
315.312	89.19
315.542	77.19
315.771	79.19
316.001	77.19
316.23	74.19
316.46	94.19
316.689	92.19
316.919	74.19
317.148	87.19
317.377	86.19
317.607	82.19
317.836	79.19
318.065	85.19
318.295	76.19
318.524	92.19
318.753	80.19
318.983	92.19
319.212	107.19
319.441	101.19
319.67	91.19
319.9	73.19
320.129	87.19
320.358	72.19
320.587	63.19
320.816	89.19
321.046	83.19
321.275	76.19
321.504	82.19
321.733	84.19
321.962	79.19
322.191	87.19
322.42	79.19
322.649	77.19
322.878	75.19
323.108	84.19
323.337	87.19
323.566	83.19
323.795	86.19
324.024	83.19
324.253	88.19
324.482	85.19
324.71	77.19
324.939	93.19
325.168	81.19
325.397	86.19
325.626	93.19
325.855	83.19
326.084	85.19
326.313	80.19
326.542	91.19
326.77	85.19
326.999	86.19
327.228	82.19
327.457	82.19
327.686	83.19
327.914	72.19
328.143	87.19
328.372	85.19
328.6	84.19
328.829	81.19
329.058	77.19
329.287	89.19
329.515	92.19
329.744	86.19
329.972	90.19
330.201	97.19
330.43	81.19
330.658	78.19
330.887	71.19
331.115	94.19
331.344	86.19
331.572	97.19
331.801	85.19
332.03	90.19
332.258	85.19
332.486	73.19
332.715	87.19
332.943	81.19
333.172	88.19
333.4	78.19
333.629	71.19
333.857	79.19
334.085	88.19
334.314	82.19
334.542	90.19
334.771	84.19
334.999	82.19
335.227	74.19
335.455	85.19
335.684	74.19
335.912	79.19
336.14	84.19
336.369	80.19
336.597	84.19
336.825	84.19
337.053	83.19
337.281	86.19
337.51	83.19
337.738	83.19
337.966	79.19
338.194	86.19
338.422	82.19
338.65	69.19
338.878	77.19
339.106	76.19
339.334	66.19
339.562	83.19
339.79	76.19
340.018	90.19
340.246	86.19
340.474	88.19
340.702	90.19
340.93	72.19
341.158	71.19
341.386	84.19
341.614	83.19
341.842	67.19
342.07	84.19
342.298	86.19
342.526	69.19
342.754	83.19
342.981	87.19
343.209	92.19
343.437	102.19
343.665	80.19
343.893	92.19
344.12	78.19
344.348	78.19
344.576	83.19
344.804	75.19
345.031	85.19
345.259	76.19
345.487	89.19
345.714	89.19
345.942	67.19
346.17	91.19
346.397	86.19
346.625	79.19
346.853	85.19
347.08	72.19
347.308	77.19
347.535	71.19
347.763	82.19
347.99	81.19
348.218	94.19
348.445	71.19
348.673	78.19
348.9	91.19
349.128	90.19
349.355	77.19
349.583	85.19
349.81	75.19
350.037	81.19
350.265	83.19
350.492	80.19
350.72	102.19
350.947	81.19
351.174	77.19
351.402	89.19
351.629	92.19
351.856	84.19
352.083	73.19
352.311	82.19
352.538	96.19
352.765	86.19
352.992	84.19
353.22	79.19
353.447	77.19
353.674	89.19
353.901	87.19
354.128	85.19
354.355	73.19
354.583	92.19
354.81	79.19
355.037	87.19
355.264	80.19
355.491	93.19
355.718	75.19
355.945	81.19
356.172	91.19
356.399	93.19
356.626	91.19
356.853	74.19
357.08	72.19
357.307	83.19
357.534	70.19
357.761	85.19
357.988	82.19
358.215	86.19
358.441	87.19
358.668	80.19
358.895	74.19
359.122	59.19
359.349	86.19
359.576	86.19
359.802	72.19
360.029	99.19
360.256	72.19
360.483	88.19
360.709	83.19
360.936	79.19
361.163	87.19
361.39	92.19
361.616	89.19
361.843	75.19
362.07	81.19
362.296	88.19
362.523	86.19
362.749	92.19
362.976	81.19
363.203	92.19
363.429	84.19
363.656	90.19
363.882	89.19
364.109	93.19
364.335	84.19
364.562	85.19
364.788	82.19
365.015	82.19
365.241	78.19
365.468	92.19
365.694	78.19
365.92	87.19
366.147	100.19
366.373	88.19
366.599	85.19
366.826	86.19
367.052	87.19
367.278	82.19
367.505	93.19
367.731	97.19
367.957	91.19
368.184	83.19
368.41	86.19
368.636	88.19
368.862	95.19
369.089	79.19
369.315	63.19
369.541	83.19
369.767	89.19
369.993	90.19
370.219	74.19
370.445	82.19
370.672	83.19
370.898	83.19
371.124	86.19
371.35	85.19
371.576	65.19
371.802	78.19
372.028	72.19
372.254	76.19
372.48	92.19
372.706	91.19
372.932	97.19
373.158	78.19
373.384	87.19
373.61	77.19
373.835	77.19
374.061	98.19
374.287	86.19
374.513	71.19
374.739	90.19
374.965	67.19
375.191	93.19
375.416	85.19
375.642	89.19
375.868	94.19
376.094	71.19
376.319	80.19
376.545	69.19
376.771	83.19
376.997	93.19
377.222	78.19
377.448	86.19
377.674	85.19
377.899	68.19
378.125	78.19
378.35	90.19
378.576	75.19
378.802	62.19
379.027	76.19
379.253	96.19
379.478	86.19
379.704	91.19
379.929	89.19
380.155	89.19
380.38	93.19
380.606	89.19
380.831	76.19
381.057	83.19
381.282	79.19
381.507	83.19
381.733	93.19
381.958	68.19
382.184	86.19
382.409	86.19
382.634	81.19
382.86	86.19
383.085	89.19
383.31	93.19
383.535	82.19
383.761	92.19
383.986	79.19
384.211	71.19
384.436	81.19
384.662	83.19
384.887	91.19
385.112	84.19
385.337	94.19
385.562	91.19
385.787	80.19
386.013	77.19
386.238	79.19
386.463	90.19
386.688	92.19
386.913	86.19
387.138	79.19
387.363	63.19
387.588	85.19
387.813	83.19
388.038	70.19
388.263	71.19
388.488	87.19
388.713	93.19
388.938	71.19
389.163	89.19
389.387	79.19
389.612	85.19
389.837	75.19
390.062	81.19
390.287	91.19
390.512	76.19
390.736	89.19
390.961	79.19
391.186	88.19
391.411	83.19
391.636	92.19
391.86	76.19
392.085	86.19
392.31	84.19
392.534	83.19
392.759	93.19
392.984	95.19
393.208	82.19
393.433	82.19
393.658	69.19
393.882	90.19
394.107	79.19
394.331	87.19
394.556	83.19
394.78	85.19
395.005	82.19
395.229	82.19
395.454	88.19
395.678	93.19
395.903	82.19
396.127	88.19
396.352	85.19
396.576	92.19
396.801	77.19
397.025	85.19
397.249	85.19
397.474	77.19
397.698	79.19
397.922	88.19
398.147	90.19
398.371	90.19
398.595	84.19
398.82	69.19
399.044	71.19
399.268	80.19
399.492	90.19
399.717	83.19
399.941	81.19
400.165	76.19
400.389	74.19
400.613	80.19
400.837	77.19
401.062	89.19
401.286	89.19
401.51	67.19
401.734	81.19
401.958	76.19
402.182	82.19
402.406	75.19
402.63	72.19
402.854	68.19
403.078	71.19
403.302	92.19
403.526	79.19
403.75	82.19
403.974	83.19
404.198	75.19
404.422	75.19
404.645	83.19
404.869	91.19
405.093	89.19
405.317	86.19
405.541	84.19
405.765	85.19
405.988	88.19
406.212	80.19
406.436	79.19
406.66	86.19
406.883	81.19
407.107	77.19
407.331	72.19
407.555	80.19
407.778	91.19
408.002	84.19
408.226	85.19
408.449	81.19
408.673	75.19
408.896	92.19
409.12	91.19
409.344	84.19
409.567	78.19
409.791	90.19
410.014	99.19
410.238	106.19
410.461	95.19
410.685	69.19
410.908	85.19
411.132	85.19
411.355	82.19
411.578	83.19
411.802	85.19
412.025	78.19
412.249	80.19
412.472	94.19
412.695	76.19
412.919	75.19
413.142	96.19
413.365	79.19
413.589	84.19
413.812	84.19
414.035	94.19
414.258	88.19
414.482	85.19
414.705	71.19
414.928	92.19
415.151	83.19
415.374	77.19
415.597	65.19
415.821	68.19
416.044	75.19
416.267	79.19
416.49	62.19
416.713	83.19
416.936	79.19
417.159	81.19
417.382	94.19
417.605	84.19
417.828	80.19
418.051	85.19
418.274	75.19
418.497	74.19
418.72	79.19
418.943	78.19
419.166	75.19
419.389	74.19
419.611	77.19
419.834	71.19
420.057	77.19
420.28	71.19
420.503	90.19
420.726	89.19
420.948	80.19
421.171	89.19
421.394	73.19
421.617	82.19
421.839	83.19
422.062	75.19
422.285	74.19
422.507	79.19
422.73	91.19
422.953	85.19
423.175	75.19
423.398	77.19
423.621	79.19
423.843	76.19
424.066	86.19
424.288	72.19
424.511	75.19
424.733	77.19
424.956	77.19
425.178	85.19
425.401	79.19
425.623	69.19
425.846	77.19
426.068	77.19
426.291	72.19
426.513	77.19
426.735	85.19
426.958	73.19
427.18	79.19
427.402	79.19
427.625	72.19
427.847	71.19
428.069	77.19
428.292	75.19
428.514	80.19
428.736	67.19
428.958	73.19
429.181	88.19
429.403	81.19
429.625	75.19
429.847	82.19
430.069	88.19
430.292	83.19
430.514	89.19
430.736	78.19
430.958	71.19
431.18	72.19
431.402	83.19
431.624	79.19
431.846	83.19
432.068	76.19
432.29	78.19
432.512	79.19
432.734	83.19
432.956	76.19
433.178	87.19
433.4	81.19
433.622	79.19
433.844	85.19
434.066	84.19
434.287	83.19
434.509	75.19
434.731	72.19
434.953	71.19
435.175	71.19
435.397	84.19
435.618	66.19
435.84	66.19
436.062	84.19
436.284	73.19
436.505	76.19
436.727	69.19
436.949	68.19
437.17	78.19
437.392	85.19
437.614	78.19
437.835	77.19
438.057	54.19
438.278	81.19
438.5	83.19
438.721	75.19
438.943	67.19
439.165	88.19
439.386	86.19
439.608	89.19
439.829	83.19
440.05	75.19
440.272	83.19
440.493	82.19
440.715	69.19
440.936	73.19
441.158	84.19
441.379	80.19
441.6	85.19
441.822	77.19
442.043	79.19
442.264	84.19
442.486	81.19
442.707	85.19
442.928	70.19
443.149	80.19
443.371	68.19
443.592	70.19
443.813	79.19
444.034	72.19
444.255	80.19
444.476	74.19
444.698	89.19
444.919	81.19
445.14	160.19
445.361	122.19
445.582	102.19
445.803	91.19
446.024	75.19
446.245	90.19
446.466	77.19
446.687	85.19
446.908	79.19
447.129	79.19
447.35	82.19
447.571	88.19
447.792	90.19
448.013	78.19
448.234	72.19
448.455	71.19
448.675	79.19
448.896	74.19
449.117	90.19
449.338	65.19
449.559	85.19
449.779	90.19
450	86.19
450.221	74.19
450.442	95.19
450.662	73.19
450.883	85.19
451.104	68.19
451.324	83.19
451.545	76.19
451.766	70.19
451.986	90.19
452.207	69.19
452.428	73.19
452.648	79.19
452.869	70.19
453.089	82.19
453.31	90.19
453.53	80.19
453.751	92.19
453.971	85.19
454.192	92.19
454.412	79.19
454.633	70.19
454.853	80.19
455.073	78.19
455.294	75.19
455.514	79.19
455.734	66.19
455.955	84.19
456.175	85.19
456.395	74.19
456.616	61.19
456.836	73.19
457.056	77.19
457.276	74.19
457.497	69.19
457.717	81.19
457.937	82.19
458.157	91.19
458.377	76.19
458.598	95.19
458.818	76.19
459.038	84.19
459.258	76.19
459.478	88.19
459.698	84.19
459.918	72.19
460.138	74.19
460.358	67.19
460.578	77.19
460.798	92.19
461.018	80.19
461.238	88.19
461.458	64.19
461.678	81.19
461.898	75.19
462.118	87.19
462.338	95.19
462.558	75.19
462.777	70.19
462.997	87.19
463.217	85.19
463.437	90.19
463.657	75.19
463.876	63.19
464.096	72.19
464.316	70.19
464.536	85.19
464.755	86.19
464.975	81.19
465.195	81.19
465.414	84.19
465.634	80.19
465.854	82.19
466.073	81.19
466.293	71.19
466.512	70.19
466.732	85.19
466.951	87.19
467.171	89.19
467.391	90.19
467.61	70.19
467.829	71.19
468.049	62.19
468.268	67.19
468.488	86.19
468.707	79.19
468.927	87.19
469.146	76.19
469.365	83.19
469.585	87.19
469.804	90.19
470.023	77.19
470.243	76.19
470.462	77.19
470.681	82.19
470.901	70.19
471.12	88.19
471.339	88.19
471.558	86.19
471.777	84.19
471.997	69.19
472.216	77.19
472.435	83.19
472.654	77.19
472.873	88.19
473.092	100.19
473.311	63.19
473.53	89.19
473.749	80.19
473.968	93.19
474.187	79.19
474.406	84.19
474.625	87.19
474.844	80.19
475.063	91.19
475.282	92.19
475.501	87.19
475.72	82.19
475.939	62.19
476.158	79.19
476.377	69.19
476.596	79.19
476.814	82.19
477.033	80.19
477.252	94.19
477.471	85.19
477.69	73.19
477.908	79.19
478.127	84.19
478.346	78.19
478.564	81.19
478.783	75.19
479.002	82.19
479.22	89.19
479.439	82.19
479.658	88.19
479.876	64.19
480.095	80.19
480.313	85.19
480.532	83.19
480.751	75.19
480.969	78.19
481.188	83.19
481.406	80.19
481.624	81.19
481.843	84.19
482.061	78.19
482.28	77.19
482.498	89.19
482.717	78.19
482.935	87.19
483.153	95.19
483.372	79.19
483.59	88.19
483.808	57.19
484.027	87.19
484.245	87.19
484.463	85.19
484.681	84.19
484.9	82.19
485.118	97.19
485.336	70.19
485.554	77.19
485.772	81.19
485.99	89.19
486.209	70.19
486.427	81.19
486.645	73.19
486.863	89.19
487.081	77.19
487.299	78.19
487.517	87.19
487.735	74.19
487.953	98.19
488.171	72.19
488.389	97.19
488.607	86.19
488.825	81.19
489.043	71.19
489.261	85.19
489.479	90.19
489.696	86.19
489.914	91.19
490.132	85.19
490.35	87.19
490.568	84.19
490.786	91.19
491.003	80.19
491.221	81.19
491.439	81.19
491.657	52.19
491.874	97.19
492.092	85.19
492.31	90.19
492.527	78.19
492.745	79.19
492.963	81.19
493.18	81.19
493.398	83.19
493.615	81.19
493.833	79.19
494.05	93.19
494.268	86.19
494.485	98.19
494.703	81.19
494.92	85.19
495.138	65.19
495.355	78.19
495.573	78.19
495.79	84.19
496.008	88.19
496.225	81.19
496.442	83.19
496.66	90.19
496.877	90.19
497.094	78.19
497.312	89.19
497.529	77.19
497.746	86.19
497.963	79.19
498.181	77.19
498.398	93.19
498.615	76.19
498.832	80.19
499.049	80.19
499.267	72.19
499.484	86.19
499.701	76.19
499.918	82.19
500.135	85.19
500.352	66.19
500.569	72.19
500.786	83.19
501.003	91.19
501.22	75.19
501.437	72.19
501.654	84.19
501.871	86.19
502.088	91.19
502.305	83.19
502.522	67.19
502.739	89.19
502.956	73.19
503.172	82.19
503.389	65.19
503.606	95.19
503.823	88.19
504.04	96.19
504.256	81.19
504.473	69.19
504.69	83.19
504.907	91.19
505.123	69.19
505.34	94.19
505.557	86.19
505.773	75.19
505.99	79.19
506.207	82.19
506.423	86.19
506.64	85.19
506.856	83.19
507.073	72.19
507.289	69.19
507.506	76.19
507.722	63.19
507.939	68.19
508.155	85.19
508.372	91.19
508.588	76.19
508.805	89.19
509.021	77.19
509.238	78.19
509.454	81.19
509.67	77.19
509.887	87.19
510.103	87.19
510.319	76.19
510.536	76.19
510.752	77.19
510.968	74.19
511.184	68.19
511.401	81.19
511.617	91.19
511.833	83.19
512.049	77.19
512.265	97.19
512.481	81.19
512.698	85.19
512.914	72.19
513.13	86.19
513.346	82.19
513.562	96.19
513.778	77.19
513.994	83.19
514.21	85.19
514.426	78.19
514.642	88.19
514.858	82.19
515.074	77.19
515.29	75.19
515.506	82.19
515.721	90.19
515.937	74.19
516.153	82.19
516.369	76.19
516.585	85.19
516.801	77.19
517.016	80.19
517.232	81.19
517.448	76.19
517.664	82.19
517.879	80.19
518.095	74.19
518.311	90.19
518.527	86.19
518.742	83.19
518.958	81.19
519.173	82.19
519.389	77.19
519.605	83.19
519.82	71.19
520.036	53.19
