Data from Background_3_HRD10591_00093.txt Node
Date: Wed Nov 05 14:50:06 EST 2025
User: Yrep
Spectrometer: HR+D1059
Trigger mode: 1
Integration Time (sec): 1.000000E-1
Scans to average: 1
Electric dark correction enabled: true
Nonlinearity correction enabled: false
Boxcar width: 0
XAxis mode: Wavelengths
Number of Pixels in Spectrum: 2048
>>>>>Begin Spectral Data<<<<<
223.165	-2.12
223.4	-2.12
223.635	-2.12
223.869	-28.12
224.104	-26.12
224.338	-27.12
224.573	-15.12
224.808	-9.12
225.042	-0.12
225.277	3.88
225.511	-14.12
225.746	7.88
225.98	-0.12
226.215	15.88
226.449	14.88
226.683	13.88
226.918	28.88
227.152	36.88
227.387	36.88
227.621	44.88
227.856	48.88
228.09	47.88
228.324	46.88
228.559	42.88
228.793	61.88
229.027	68.88
229.262	66.88
229.496	72.88
229.73	75.88
229.964	83.88
230.199	78.88
230.433	66.88
230.667	75.88
230.901	81.88
231.136	70.88
231.37	73.88
231.604	71.88
231.838	86.88
232.072	80.88
232.306	86.88
232.541	85.88
232.775	92.88
233.009	82.88
233.243	86.88
233.477	83.88
233.711	73.88
233.945	84.88
234.179	81.88
234.413	79.88
234.647	86.88
234.881	77.88
235.115	91.88
235.349	73.88
235.583	79.88
235.817	75.88
236.051	72.88
236.285	62.88
236.519	65.88
236.753	76.88
236.987	83.88
237.221	85.88
237.455	89.88
237.689	67.88
237.922	86.88
238.156	60.88
238.39	63.88
238.624	78.88
238.858	79.88
239.091	70.88
239.325	68.88
239.559	75.88
239.793	78.88
240.027	74.88
240.26	93.88
240.494	75.88
240.728	72.88
240.961	74.88
241.195	74.88
241.429	88.88
241.662	81.88
241.896	79.88
242.13	79.88
242.363	78.88
242.597	70.88
242.83	73.88
243.064	75.88
243.298	83.88
243.531	65.88
243.765	70.88
243.998	81.88
244.232	82.88
244.465	90.88
244.699	77.88
244.932	77.88
245.166	67.88
245.399	83.88
245.633	81.88
245.866	74.88
246.099	77.88
246.333	84.88
246.566	68.88
246.8	65.88
247.033	94.88
247.266	74.88
247.5	64.88
247.733	81.88
247.966	59.88
248.2	65.88
248.433	73.88
248.666	72.88
248.899	85.88
249.133	77.88
249.366	81.88
249.599	68.88
249.832	75.88
250.066	84.88
250.299	82.88
250.532	77.88
250.765	81.88
250.998	83.88
251.231	85.88
251.465	91.88
251.698	89.88
251.931	74.88
252.164	76.88
252.397	82.88
252.63	79.88
252.863	85.88
253.096	89.88
253.329	85.88
253.562	75.88
253.795	83.88
254.028	82.88
254.261	81.88
254.494	74.88
254.727	65.88
254.96	75.88
255.193	81.88
255.426	82.88
255.659	71.88
255.892	83.88
256.124	73.88
256.357	87.88
256.59	77.88
256.823	65.88
257.056	63.88
257.289	78.88
257.521	78.88
257.754	83.88
257.987	67.88
258.22	82.88
258.452	71.88
258.685	89.88
258.918	87.88
259.151	73.88
259.383	91.88
259.616	91.88
259.849	87.88
260.081	76.88
260.314	91.88
260.547	57.88
260.779	71.88
261.012	85.88
261.244	78.88
261.477	79.88
261.71	78.88
261.942	74.88
262.175	79.88
262.407	89.88
262.64	90.88
262.872	80.88
263.105	81.88
263.337	74.88
263.57	102.88
263.802	81.88
264.035	86.88
264.267	87.88
264.499	89.88
264.732	63.88
264.964	86.88
265.197	82.88
265.429	83.88
265.661	69.88
265.894	99.88
266.126	98.88
266.358	86.88
266.591	95.88
266.823	84.88
267.055	73.88
267.287	76.88
267.52	70.88
267.752	84.88
267.984	88.88
268.216	81.88
268.448	83.88
268.681	82.88
268.913	93.88
269.145	80.88
269.377	88.88
269.609	77.88
269.841	85.88
270.073	77.88
270.306	69.88
270.538	83.88
270.77	73.88
271.002	83.88
271.234	80.88
271.466	79.88
271.698	83.88
271.93	85.88
272.162	94.88
272.394	85.88
272.626	75.88
272.858	84.88
273.09	74.88
273.322	81.88
273.553	70.88
273.785	71.88
274.017	74.88
274.249	81.88
274.481	85.88
274.713	82.88
274.945	80.88
275.176	83.88
275.408	86.88
275.64	83.88
275.872	75.88
276.104	85.88
276.335	84.88
276.567	81.88
276.799	86.88
277.031	77.88
277.262	76.88
277.494	85.88
277.726	72.88
277.957	79.88
278.189	74.88
278.421	98.88
278.652	73.88
278.884	83.88
279.115	82.88
279.347	72.88
279.579	82.88
279.81	88.88
280.042	94.88
280.273	73.88
280.505	78.88
280.736	88.88
280.968	84.88
281.199	79.88
281.431	86.88
281.662	91.88
281.894	81.88
282.125	89.88
282.356	86.88
282.588	89.88
282.819	83.88
283.051	76.88
283.282	81.88
283.513	88.88
283.745	89.88
283.976	77.88
284.207	85.88
284.439	82.88
284.67	86.88
284.901	78.88
285.132	86.88
285.364	77.88
285.595	87.88
285.826	93.88
286.057	89.88
286.288	66.88
286.52	84.88
286.751	81.88
286.982	81.88
287.213	93.88
287.444	73.88
287.675	76.88
287.906	85.88
288.138	89.88
288.369	80.88
288.6	90.88
288.831	62.88
289.062	75.88
289.293	84.88
289.524	89.88
289.755	71.88
289.986	83.88
290.217	74.88
290.448	75.88
290.679	94.88
290.91	91.88
291.141	83.88
291.371	83.88
291.602	90.88
291.833	89.88
292.064	81.88
292.295	80.88
292.526	88.88
292.757	82.88
292.987	82.88
293.218	80.88
293.449	76.88
293.68	86.88
293.91	84.88
294.141	94.88
294.372	79.88
294.603	90.88
294.833	86.88
295.064	74.88
295.295	72.88
295.525	90.88
295.756	80.88
295.987	73.88
296.217	86.88
296.448	98.88
296.679	89.88
296.909	95.88
297.14	92.88
297.37	89.88
297.601	85.88
297.831	83.88
298.062	69.88
298.292	75.88
298.523	74.88
298.753	84.88
298.984	94.88
299.214	92.88
299.445	80.88
299.675	84.88
299.905	79.88
300.136	84.88
300.366	74.88
300.597	93.88
300.827	82.88
301.057	98.88
301.288	85.88
301.518	94.88
301.748	100.88
301.979	98.88
302.209	77.88
302.439	76.88
302.669	94.88
302.9	74.88
303.13	82.88
303.36	86.88
303.59	90.88
303.82	97.88
304.051	73.88
304.281	84.88
304.511	86.88
304.741	74.88
304.971	79.88
305.201	81.88
305.431	79.88
305.661	86.88
305.891	90.88
306.121	88.88
306.352	84.88
306.582	73.88
306.812	90.88
307.042	94.88
307.272	88.88
307.502	82.88
307.731	82.88
307.961	78.88
308.191	87.88
308.421	84.88
308.651	80.88
308.881	88.88
309.111	72.88
309.341	88.88
309.571	92.88
309.8	84.88
310.03	82.88
310.26	84.88
310.49	74.88
310.72	77.88
310.949	87.88
311.179	81.88
311.409	85.88
311.639	83.88
311.868	91.88
312.098	83.88
312.328	93.88
312.557	86.88
312.787	83.88
313.017	73.88
313.246	88.88
313.476	72.88
313.706	74.88
313.935	84.88
314.165	82.88
314.394	68.88
314.624	63.88
314.853	76.88
315.083	88.88
315.312	81.88
315.542	80.88
315.771	85.88
316.001	75.88
316.23	81.88
316.46	88.88
316.689	58.88
316.919	89.88
317.148	73.88
317.377	81.88
317.607	100.88
317.836	89.88
318.065	87.88
318.295	83.88
318.524	83.88
318.753	88.88
318.983	76.88
319.212	87.88
319.441	91.88
319.67	89.88
319.9	91.88
320.129	69.88
320.358	78.88
320.587	78.88
320.816	79.88
321.046	98.88
321.275	77.88
321.504	81.88
321.733	89.88
321.962	99.88
322.191	78.88
322.42	89.88
322.649	91.88
322.878	80.88
323.108	100.88
323.337	96.88
323.566	82.88
323.795	83.88
324.024	75.88
324.253	92.88
324.482	90.88
324.71	79.88
324.939	79.88
325.168	79.88
325.397	79.88
325.626	80.88
325.855	72.88
326.084	78.88
326.313	91.88
326.542	85.88
326.77	95.88
326.999	85.88
327.228	69.88
327.457	95.88
327.686	83.88
327.914	81.88
328.143	75.88
328.372	85.88
328.6	79.88
328.829	77.88
329.058	67.88
329.287	91.88
329.515	85.88
329.744	91.88
329.972	80.88
330.201	79.88
330.43	85.88
330.658	99.88
330.887	82.88
331.115	80.88
331.344	90.88
331.572	78.88
331.801	82.88
332.03	84.88
332.258	82.88
332.486	75.88
332.715	73.88
332.943	79.88
333.172	77.88
333.4	71.88
333.629	86.88
333.857	70.88
334.085	96.88
334.314	87.88
334.542	64.88
334.771	65.88
334.999	84.88
335.227	83.88
335.455	83.88
335.684	75.88
335.912	84.88
336.14	78.88
336.369	83.88
336.597	80.88
336.825	83.88
337.053	90.88
337.281	84.88
337.51	83.88
337.738	79.88
337.966	81.88
338.194	91.88
338.422	80.88
338.65	81.88
338.878	81.88
339.106	77.88
339.334	79.88
339.562	74.88
339.79	79.88
340.018	81.88
340.246	74.88
340.474	81.88
340.702	81.88
340.93	76.88
341.158	80.88
341.386	81.88
341.614	91.88
341.842	82.88
342.07	94.88
342.298	78.88
342.526	69.88
342.754	73.88
342.981	83.88
343.209	82.88
343.437	78.88
343.665	70.88
343.893	92.88
344.12	95.88
344.348	82.88
344.576	89.88
344.804	84.88
345.031	77.88
345.259	95.88
345.487	85.88
345.714	76.88
345.942	84.88
346.17	82.88
346.397	84.88
346.625	92.88
346.853	99.88
347.08	75.88
347.308	85.88
347.535	70.88
347.763	90.88
347.99	81.88
348.218	70.88
348.445	75.88
348.673	77.88
348.9	81.88
349.128	84.88
349.355	82.88
349.583	82.88
349.81	85.88
350.037	78.88
350.265	79.88
350.492	67.88
350.72	77.88
350.947	78.88
351.174	84.88
351.402	88.88
351.629	73.88
351.856	83.88
352.083	70.88
352.311	93.88
352.538	88.88
352.765	88.88
352.992	90.88
353.22	75.88
353.447	86.88
353.674	78.88
353.901	81.88
354.128	80.88
354.355	82.88
354.583	71.88
354.81	84.88
355.037	69.88
355.264	84.88
355.491	100.88
355.718	82.88
355.945	74.88
356.172	82.88
356.399	79.88
356.626	85.88
356.853	80.88
357.08	85.88
357.307	83.88
357.534	87.88
357.761	76.88
357.988	85.88
358.215	93.88
358.441	81.88
358.668	78.88
358.895	85.88
359.122	73.88
359.349	78.88
359.576	82.88
359.802	71.88
360.029	77.88
360.256	69.88
360.483	89.88
360.709	87.88
360.936	73.88
361.163	82.88
361.39	72.88
361.616	79.88
361.843	79.88
362.07	89.88
362.296	68.88
362.523	85.88
362.749	83.88
362.976	89.88
363.203	85.88
363.429	60.88
363.656	87.88
363.882	78.88
364.109	79.88
364.335	80.88
364.562	78.88
364.788	93.88
365.015	88.88
365.241	75.88
365.468	64.88
365.694	86.88
365.92	93.88
366.147	84.88
366.373	83.88
366.599	71.88
366.826	77.88
367.052	88.88
367.278	81.88
367.505	77.88
367.731	94.88
367.957	81.88
368.184	77.88
368.41	75.88
368.636	74.88
368.862	89.88
369.089	78.88
369.315	70.88
369.541	84.88
369.767	88.88
369.993	77.88
370.219	92.88
370.445	86.88
370.672	78.88
370.898	90.88
371.124	74.88
371.35	74.88
371.576	82.88
371.802	79.88
372.028	83.88
372.254	84.88
372.48	75.88
372.706	81.88
372.932	82.88
373.158	80.88
373.384	85.88
373.61	93.88
373.835	97.88
374.061	78.88
374.287	82.88
374.513	68.88
374.739	90.88
374.965	75.88
375.191	74.88
375.416	91.88
375.642	69.88
375.868	85.88
376.094	83.88
376.319	84.88
376.545	83.88
376.771	83.88
376.997	84.88
377.222	75.88
377.448	68.88
377.674	59.88
377.899	81.88
378.125	85.88
378.35	89.88
378.576	73.88
378.802	90.88
379.027	69.88
379.253	79.88
379.478	72.88
379.704	83.88
379.929	78.88
380.155	69.88
380.38	66.88
380.606	83.88
380.831	75.88
381.057	77.88
381.282	75.88
381.507	84.88
381.733	99.88
381.958	84.88
382.184	75.88
382.409	84.88
382.634	84.88
382.86	78.88
383.085	88.88
383.31	87.88
383.535	78.88
383.761	76.88
383.986	80.88
384.211	83.88
384.436	81.88
384.662	69.88
384.887	86.88
385.112	70.88
385.337	93.88
385.562	74.88
385.787	76.88
386.013	76.88
386.238	78.88
386.463	86.88
386.688	83.88
386.913	78.88
387.138	81.88
387.363	87.88
387.588	90.88
387.813	86.88
388.038	66.88
388.263	72.88
388.488	64.88
388.713	75.88
388.938	79.88
389.163	84.88
389.387	83.88
389.612	64.88
389.837	86.88
390.062	83.88
390.287	83.88
390.512	86.88
390.736	95.88
390.961	75.88
391.186	75.88
391.411	82.88
391.636	79.88
391.86	87.88
392.085	77.88
392.31	87.88
392.534	72.88
392.759	77.88
392.984	78.88
393.208	78.88
393.433	92.88
393.658	70.88
393.882	63.88
394.107	84.88
394.331	73.88
394.556	71.88
394.78	81.88
395.005	80.88
395.229	79.88
395.454	74.88
395.678	69.88
395.903	81.88
396.127	87.88
396.352	80.88
396.576	74.88
396.801	84.88
397.025	90.88
397.249	79.88
397.474	81.88
397.698	80.88
397.922	87.88
398.147	84.88
398.371	89.88
398.595	93.88
398.82	82.88
399.044	67.88
399.268	83.88
399.492	74.88
399.717	84.88
399.941	68.88
400.165	76.88
400.389	77.88
400.613	77.88
400.837	66.88
401.062	70.88
401.286	84.88
401.51	69.88
401.734	94.88
401.958	75.88
402.182	71.88
402.406	77.88
402.63	88.88
402.854	64.88
403.078	77.88
403.302	82.88
403.526	94.88
403.75	85.88
403.974	98.88
404.198	85.88
404.422	83.88
404.645	77.88
404.869	77.88
405.093	80.88
405.317	83.88
405.541	86.88
405.765	92.88
405.988	90.88
406.212	89.88
406.436	86.88
406.66	91.88
406.883	90.88
407.107	65.88
407.331	82.88
407.555	75.88
407.778	73.88
408.002	75.88
408.226	78.88
408.449	75.88
408.673	94.88
408.896	79.88
409.12	100.88
409.344	95.88
409.567	77.88
409.791	89.88
410.014	76.88
410.238	75.88
410.461	73.88
410.685	85.88
410.908	78.88
411.132	87.88
411.355	78.88
411.578	82.88
411.802	76.88
412.025	72.88
412.249	90.88
412.472	77.88
412.695	93.88
412.919	65.88
413.142	85.88
413.365	92.88
413.589	85.88
413.812	77.88
414.035	93.88
414.258	80.88
414.482	79.88
414.705	98.88
414.928	79.88
415.151	76.88
415.374	80.88
415.597	76.88
415.821	83.88
416.044	70.88
416.267	81.88
416.49	83.88
416.713	75.88
416.936	84.88
417.159	83.88
417.382	82.88
417.605	71.88
417.828	76.88
418.051	67.88
418.274	81.88
418.497	74.88
418.72	74.88
418.943	82.88
419.166	87.88
419.389	86.88
419.611	84.88
419.834	98.88
420.057	92.88
420.28	85.88
420.503	89.88
420.726	78.88
420.948	75.88
421.171	83.88
421.394	77.88
421.617	95.88
421.839	81.88
422.062	85.88
422.285	83.88
422.507	77.88
422.73	73.88
422.953	78.88
423.175	88.88
423.398	69.88
423.621	62.88
423.843	79.88
424.066	88.88
424.288	81.88
424.511	79.88
424.733	74.88
424.956	80.88
425.178	67.88
425.401	80.88
425.623	87.88
425.846	67.88
426.068	72.88
426.291	57.88
426.513	90.88
426.735	85.88
426.958	79.88
427.18	87.88
427.402	81.88
427.625	75.88
427.847	75.88
428.069	83.88
428.292	61.88
428.514	80.88
428.736	74.88
428.958	83.88
429.181	82.88
429.403	79.88
429.625	83.88
429.847	80.88
430.069	81.88
430.292	81.88
430.514	83.88
430.736	77.88
430.958	86.88
431.18	67.88
431.402	67.88
431.624	71.88
431.846	85.88
432.068	68.88
432.29	69.88
432.512	80.88
432.734	70.88
432.956	77.88
433.178	73.88
433.4	78.88
433.622	86.88
433.844	65.88
434.066	80.88
434.287	70.88
434.509	79.88
434.731	77.88
434.953	88.88
435.175	80.88
435.397	89.88
435.618	79.88
435.84	95.88
436.062	91.88
436.284	69.88
436.505	91.88
436.727	81.88
436.949	64.88
437.17	81.88
437.392	83.88
437.614	83.88
437.835	86.88
438.057	69.88
438.278	59.88
438.5	73.88
438.721	75.88
438.943	69.88
439.165	59.88
439.386	57.88
439.608	70.88
439.829	69.88
440.05	77.88
440.272	71.88
440.493	68.88
440.715	76.88
440.936	79.88
441.158	77.88
441.379	81.88
441.6	75.88
441.822	65.88
442.043	92.88
442.264	78.88
442.486	82.88
442.707	78.88
442.928	79.88
443.149	83.88
443.371	85.88
443.592	79.88
443.813	78.88
444.034	77.88
444.255	86.88
444.476	75.88
444.698	77.88
444.919	86.88
445.14	158.88
445.361	113.88
445.582	77.88
445.803	77.88
446.024	82.88
446.245	83.88
446.466	83.88
446.687	84.88
446.908	75.88
447.129	83.88
447.35	77.88
447.571	91.88
447.792	80.88
448.013	83.88
448.234	69.88
448.455	77.88
448.675	80.88
448.896	59.88
449.117	78.88
449.338	83.88
449.559	91.88
449.779	85.88
450	97.88
450.221	79.88
450.442	77.88
450.662	80.88
450.883	81.88
451.104	76.88
451.324	82.88
451.545	77.88
451.766	78.88
451.986	74.88
452.207	93.88
452.428	78.88
452.648	72.88
452.869	66.88
453.089	70.88
453.31	82.88
453.53	68.88
453.751	68.88
453.971	84.88
454.192	83.88
454.412	79.88
454.633	79.88
454.853	75.88
455.073	78.88
455.294	80.88
455.514	79.88
455.734	74.88
455.955	71.88
456.175	90.88
456.395	78.88
456.616	74.88
456.836	76.88
457.056	90.88
457.276	86.88
457.497	71.88
457.717	84.88
457.937	85.88
458.157	86.88
458.377	84.88
458.598	68.88
458.818	78.88
459.038	79.88
459.258	81.88
459.478	81.88
459.698	86.88
459.918	83.88
460.138	71.88
460.358	73.88
460.578	79.88
460.798	79.88
461.018	70.88
461.238	92.88
461.458	89.88
461.678	89.88
461.898	90.88
462.118	72.88
462.338	69.88
462.558	79.88
462.777	80.88
462.997	84.88
463.217	76.88
463.437	81.88
463.657	65.88
463.876	86.88
464.096	84.88
464.316	86.88
464.536	64.88
464.755	89.88
464.975	92.88
465.195	84.88
465.414	77.88
465.634	89.88
465.854	83.88
466.073	83.88
466.293	64.88
466.512	67.88
466.732	75.88
466.951	83.88
467.171	83.88
467.391	76.88
467.61	69.88
467.829	85.88
468.049	77.88
468.268	72.88
468.488	90.88
468.707	87.88
468.927	85.88
469.146	89.88
469.365	76.88
469.585	84.88
469.804	82.88
470.023	82.88
470.243	83.88
470.462	85.88
470.681	90.88
470.901	89.88
471.12	73.88
471.339	89.88
471.558	84.88
471.777	84.88
471.997	81.88
472.216	84.88
472.435	80.88
472.654	76.88
472.873	79.88
473.092	88.88
473.311	81.88
473.53	89.88
473.749	81.88
473.968	91.88
474.187	78.88
474.406	71.88
474.625	72.88
474.844	79.88
475.063	77.88
475.282	75.88
475.501	82.88
475.72	84.88
475.939	79.88
476.158	89.88
476.377	93.88
476.596	83.88
476.814	75.88
477.033	87.88
477.252	86.88
477.471	85.88
477.69	89.88
477.908	91.88
478.127	81.88
478.346	85.88
478.564	72.88
478.783	83.88
479.002	79.88
479.22	73.88
479.439	86.88
479.658	84.88
479.876	86.88
480.095	94.88
480.313	97.88
480.532	86.88
480.751	81.88
480.969	84.88
481.188	81.88
481.406	86.88
481.624	79.88
481.843	83.88
482.061	100.88
482.28	86.88
482.498	86.88
482.717	70.88
482.935	73.88
483.153	74.88
483.372	79.88
483.59	71.88
483.808	80.88
484.027	78.88
484.245	96.88
484.463	87.88
484.681	106.88
484.9	77.88
485.118	84.88
485.336	75.88
485.554	85.88
485.772	82.88
485.99	88.88
486.209	86.88
486.427	82.88
486.645	75.88
486.863	87.88
487.081	83.88
487.299	94.88
487.517	78.88
487.735	91.88
487.953	68.88
488.171	78.88
488.389	69.88
488.607	89.88
488.825	89.88
489.043	72.88
489.261	83.88
489.479	93.88
489.696	87.88
489.914	92.88
490.132	87.88
490.35	72.88
490.568	67.88
490.786	89.88
491.003	72.88
491.221	82.88
491.439	76.88
491.657	79.88
491.874	89.88
492.092	73.88
492.31	75.88
492.527	80.88
492.745	73.88
492.963	83.88
493.18	91.88
493.398	83.88
493.615	74.88
493.833	78.88
494.05	80.88
494.268	77.88
494.485	86.88
494.703	71.88
494.92	75.88
495.138	94.88
495.355	99.88
495.573	82.88
495.79	79.88
496.008	81.88
496.225	94.88
496.442	89.88
496.66	87.88
496.877	65.88
497.094	77.88
497.312	89.88
497.529	86.88
497.746	76.88
497.963	75.88
498.181	59.88
498.398	84.88
498.615	70.88
498.832	75.88
499.049	86.88
499.267	81.88
499.484	89.88
499.701	83.88
499.918	83.88
500.135	75.88
500.352	88.88
500.569	79.88
500.786	82.88
501.003	79.88
501.22	81.88
501.437	100.88
501.654	70.88
501.871	78.88
502.088	73.88
502.305	85.88
502.522	80.88
502.739	88.88
502.956	82.88
503.172	89.88
503.389	85.88
503.606	75.88
503.823	86.88
504.04	85.88
504.256	71.88
504.473	90.88
504.69	84.88
504.907	94.88
505.123	94.88
505.34	87.88
505.557	84.88
505.773	72.88
505.99	87.88
506.207	76.88
506.423	84.88
506.64	75.88
506.856	84.88
507.073	86.88
507.289	89.88
507.506	74.88
507.722	90.88
507.939	73.88
508.155	89.88
508.372	85.88
508.588	84.88
508.805	84.88
509.021	85.88
509.238	79.88
509.454	80.88
509.67	73.88
509.887	68.88
510.103	83.88
510.319	72.88
510.536	85.88
510.752	85.88
510.968	91.88
511.184	71.88
511.401	88.88
511.617	71.88
511.833	86.88
512.049	77.88
512.265	94.88
512.481	87.88
512.698	92.88
512.914	91.88
513.13	77.88
513.346	78.88
513.562	84.88
513.778	77.88
513.994	69.88
514.21	82.88
514.426	90.88
514.642	79.88
514.858	99.88
515.074	92.88
515.29	75.88
515.506	73.88
515.721	87.88
515.937	97.88
516.153	75.88
516.369	70.88
516.585	89.88
516.801	87.88
517.016	67.88
517.232	79.88
517.448	75.88
517.664	71.88
517.879	75.88
518.095	97.88
518.311	70.88
518.527	84.88
518.742	85.88
518.958	73.88
519.173	84.88
519.389	81.88
519.605	90.88
519.82	102.88
520.036	92.88
