Data from Background_3_HRD10591_00076.txt Node
Date: Wed Nov 05 14:49:57 EST 2025
User: Yrep
Spectrometer: HR+D1059
Trigger mode: 1
Integration Time (sec): 1.000000E-1
Scans to average: 1
Electric dark correction enabled: true
Nonlinearity correction enabled: false
Boxcar width: 0
XAxis mode: Wavelengths
Number of Pixels in Spectrum: 2048
>>>>>Begin Spectral Data<<<<<
223.165	-26.69
223.4	-26.69
223.635	-26.69
223.869	-13.69
224.104	-4.69
224.338	-14.69
224.573	-11.69
224.808	-3.69
225.042	-4.69
225.277	-0.69
225.511	-9.69
225.746	-7.69
225.98	11.31
226.215	2.31
226.449	13.31
226.683	22.31
226.918	26.31
227.152	22.31
227.387	29.31
227.621	51.31
227.856	46.31
228.09	41.31
228.324	52.31
228.559	55.31
228.793	46.31
229.027	50.31
229.262	48.31
229.496	78.31
229.73	76.31
229.964	65.31
230.199	74.31
230.433	71.31
230.667	68.31
230.901	91.31
231.136	86.31
231.37	77.31
231.604	77.31
231.838	79.31
232.072	78.31
232.306	75.31
232.541	83.31
232.775	78.31
233.009	95.31
233.243	82.31
233.477	74.31
233.711	87.31
233.945	90.31
234.179	72.31
234.413	91.31
234.647	77.31
234.881	90.31
235.115	79.31
235.349	86.31
235.583	83.31
235.817	67.31
236.051	73.31
236.285	73.31
236.519	80.31
236.753	72.31
236.987	75.31
237.221	74.31
237.455	72.31
237.689	71.31
237.922	80.31
238.156	83.31
238.39	73.31
238.624	61.31
238.858	80.31
239.091	77.31
239.325	70.31
239.559	76.31
239.793	69.31
240.027	71.31
240.26	69.31
240.494	62.31
240.728	74.31
240.961	73.31
241.195	74.31
241.429	76.31
241.662	69.31
241.896	73.31
242.13	83.31
242.363	71.31
242.597	78.31
242.83	77.31
243.064	61.31
243.298	72.31
243.531	72.31
243.765	64.31
243.998	73.31
244.232	75.31
244.465	80.31
244.699	63.31
244.932	80.31
245.166	73.31
245.399	70.31
245.633	76.31
245.866	84.31
246.099	68.31
246.333	80.31
246.566	88.31
246.8	84.31
247.033	75.31
247.266	78.31
247.5	68.31
247.733	85.31
247.966	78.31
248.2	62.31
248.433	81.31
248.666	75.31
248.899	70.31
249.133	58.31
249.366	61.31
249.599	80.31
249.832	78.31
250.066	68.31
250.299	82.31
250.532	90.31
250.765	81.31
250.998	75.31
251.231	75.31
251.465	78.31
251.698	67.31
251.931	75.31
252.164	81.31
252.397	74.31
252.63	85.31
252.863	75.31
253.096	84.31
253.329	80.31
253.562	81.31
253.795	73.31
254.028	81.31
254.261	76.31
254.494	64.31
254.727	67.31
254.96	80.31
255.193	91.31
255.426	79.31
255.659	73.31
255.892	78.31
256.124	79.31
256.357	83.31
256.59	98.31
256.823	96.31
257.056	78.31
257.289	73.31
257.521	71.31
257.754	81.31
257.987	67.31
258.22	81.31
258.452	86.31
258.685	75.31
258.918	72.31
259.151	64.31
259.383	73.31
259.616	74.31
259.849	66.31
260.081	63.31
260.314	71.31
260.547	85.31
260.779	72.31
261.012	84.31
261.244	76.31
261.477	79.31
261.71	68.31
261.942	74.31
262.175	96.31
262.407	89.31
262.64	80.31
262.872	73.31
263.105	80.31
263.337	89.31
263.57	70.31
263.802	68.31
264.035	88.31
264.267	75.31
264.499	77.31
264.732	79.31
264.964	95.31
265.197	74.31
265.429	82.31
265.661	68.31
265.894	75.31
266.126	72.31
266.358	87.31
266.591	77.31
266.823	77.31
267.055	72.31
267.287	93.31
267.52	88.31
267.752	88.31
267.984	75.31
268.216	77.31
268.448	85.31
268.681	89.31
268.913	82.31
269.145	68.31
269.377	86.31
269.609	65.31
269.841	73.31
270.073	90.31
270.306	75.31
270.538	81.31
270.77	75.31
271.002	95.31
271.234	86.31
271.466	79.31
271.698	64.31
271.93	75.31
272.162	87.31
272.394	70.31
272.626	77.31
272.858	74.31
273.09	92.31
273.322	73.31
273.553	89.31
273.785	79.31
274.017	74.31
274.249	72.31
274.481	65.31
274.713	65.31
274.945	85.31
275.176	75.31
275.408	67.31
275.64	73.31
275.872	75.31
276.104	72.31
276.335	76.31
276.567	80.31
276.799	77.31
277.031	76.31
277.262	79.31
277.494	86.31
277.726	91.31
277.957	71.31
278.189	75.31
278.421	80.31
278.652	75.31
278.884	74.31
279.115	76.31
279.347	97.31
279.579	79.31
279.81	65.31
280.042	87.31
280.273	83.31
280.505	67.31
280.736	66.31
280.968	81.31
281.199	79.31
281.431	79.31
281.662	94.31
281.894	93.31
282.125	86.31
282.356	74.31
282.588	75.31
282.819	67.31
283.051	87.31
283.282	88.31
283.513	89.31
283.745	93.31
283.976	76.31
284.207	73.31
284.439	72.31
284.67	79.31
284.901	79.31
285.132	77.31
285.364	60.31
285.595	68.31
285.826	71.31
286.057	88.31
286.288	66.31
286.52	74.31
286.751	91.31
286.982	74.31
287.213	83.31
287.444	82.31
287.675	79.31
287.906	82.31
288.138	76.31
288.369	90.31
288.6	77.31
288.831	77.31
289.062	85.31
289.293	77.31
289.524	82.31
289.755	85.31
289.986	69.31
290.217	77.31
290.448	69.31
290.679	78.31
290.91	78.31
291.141	83.31
291.371	91.31
291.602	78.31
291.833	77.31
292.064	75.31
292.295	94.31
292.526	75.31
292.757	74.31
292.987	79.31
293.218	86.31
293.449	86.31
293.68	78.31
293.91	72.31
294.141	80.31
294.372	82.31
294.603	74.31
294.833	78.31
295.064	84.31
295.295	65.31
295.525	80.31
295.756	78.31
295.987	80.31
296.217	68.31
296.448	82.31
296.679	79.31
296.909	80.31
297.14	90.31
297.37	75.31
297.601	78.31
297.831	94.31
298.062	81.31
298.292	80.31
298.523	88.31
298.753	88.31
298.984	71.31
299.214	61.31
299.445	80.31
299.675	87.31
299.905	83.31
300.136	79.31
300.366	71.31
300.597	80.31
300.827	85.31
301.057	67.31
301.288	94.31
301.518	77.31
301.748	76.31
301.979	98.31
302.209	69.31
302.439	71.31
302.669	70.31
302.9	71.31
303.13	72.31
303.36	87.31
303.59	72.31
303.82	72.31
304.051	78.31
304.281	80.31
304.511	80.31
304.741	85.31
304.971	68.31
305.201	81.31
305.431	97.31
305.661	82.31
305.891	74.31
306.121	76.31
306.352	95.31
306.582	76.31
306.812	76.31
307.042	78.31
307.272	78.31
307.502	77.31
307.731	66.31
307.961	83.31
308.191	80.31
308.421	74.31
308.651	75.31
308.881	73.31
309.111	81.31
309.341	85.31
309.571	91.31
309.8	88.31
310.03	73.31
310.26	88.31
310.49	78.31
310.72	81.31
310.949	85.31
311.179	85.31
311.409	90.31
311.639	103.31
311.868	86.31
312.098	85.31
312.328	81.31
312.557	75.31
312.787	70.31
313.017	79.31
313.246	89.31
313.476	75.31
313.706	73.31
313.935	88.31
314.165	81.31
314.394	71.31
314.624	73.31
314.853	90.31
315.083	79.31
315.312	89.31
315.542	74.31
315.771	77.31
316.001	75.31
316.23	77.31
316.46	71.31
316.689	72.31
316.919	77.31
317.148	78.31
317.377	75.31
317.607	84.31
317.836	92.31
318.065	89.31
318.295	96.31
318.524	78.31
318.753	85.31
318.983	79.31
319.212	93.31
319.441	84.31
319.67	74.31
319.9	83.31
320.129	67.31
320.358	77.31
320.587	92.31
320.816	65.31
321.046	89.31
321.275	91.31
321.504	80.31
321.733	90.31
321.962	85.31
322.191	64.31
322.42	83.31
322.649	77.31
322.878	95.31
323.108	97.31
323.337	81.31
323.566	95.31
323.795	83.31
324.024	83.31
324.253	62.31
324.482	82.31
324.71	77.31
324.939	71.31
325.168	71.31
325.397	89.31
325.626	67.31
325.855	71.31
326.084	81.31
326.313	85.31
326.542	78.31
326.77	68.31
326.999	98.31
327.228	80.31
327.457	87.31
327.686	87.31
327.914	80.31
328.143	89.31
328.372	64.31
328.6	83.31
328.829	91.31
329.058	77.31
329.287	80.31
329.515	87.31
329.744	85.31
329.972	91.31
330.201	86.31
330.43	77.31
330.658	72.31
330.887	88.31
331.115	77.31
331.344	86.31
331.572	88.31
331.801	85.31
332.03	88.31
332.258	82.31
332.486	61.31
332.715	90.31
332.943	73.31
333.172	80.31
333.4	73.31
333.629	70.31
333.857	73.31
334.085	76.31
334.314	79.31
334.542	67.31
334.771	77.31
334.999	85.31
335.227	87.31
335.455	85.31
335.684	80.31
335.912	81.31
336.14	71.31
336.369	97.31
336.597	77.31
336.825	88.31
337.053	76.31
337.281	82.31
337.51	73.31
337.738	74.31
337.966	79.31
338.194	75.31
338.422	79.31
338.65	75.31
338.878	90.31
339.106	85.31
339.334	86.31
339.562	94.31
339.79	72.31
340.018	82.31
340.246	89.31
340.474	82.31
340.702	87.31
340.93	68.31
341.158	80.31
341.386	78.31
341.614	80.31
341.842	78.31
342.07	80.31
342.298	82.31
342.526	83.31
342.754	67.31
342.981	86.31
343.209	85.31
343.437	82.31
343.665	80.31
343.893	88.31
344.12	88.31
344.348	66.31
344.576	68.31
344.804	87.31
345.031	77.31
345.259	90.31
345.487	79.31
345.714	71.31
345.942	81.31
346.17	74.31
346.397	76.31
346.625	79.31
346.853	101.31
347.08	77.31
347.308	84.31
347.535	89.31
347.763	75.31
347.99	86.31
348.218	83.31
348.445	80.31
348.673	77.31
348.9	84.31
349.128	86.31
349.355	73.31
349.583	101.31
349.81	69.31
350.037	80.31
350.265	84.31
350.492	75.31
350.72	58.31
350.947	74.31
351.174	74.31
351.402	96.31
351.629	78.31
351.856	84.31
352.083	85.31
352.311	75.31
352.538	77.31
352.765	63.31
352.992	85.31
353.22	82.31
353.447	77.31
353.674	91.31
353.901	78.31
354.128	85.31
354.355	85.31
354.583	74.31
354.81	78.31
355.037	90.31
355.264	70.31
355.491	86.31
355.718	76.31
355.945	80.31
356.172	80.31
356.399	70.31
356.626	87.31
356.853	82.31
357.08	75.31
357.307	83.31
357.534	81.31
357.761	77.31
357.988	67.31
358.215	78.31
358.441	83.31
358.668	86.31
358.895	85.31
359.122	84.31
359.349	70.31
359.576	79.31
359.802	79.31
360.029	77.31
360.256	78.31
360.483	79.31
360.709	84.31
360.936	95.31
361.163	90.31
361.39	77.31
361.616	73.31
361.843	73.31
362.07	88.31
362.296	80.31
362.523	82.31
362.749	71.31
362.976	73.31
363.203	76.31
363.429	68.31
363.656	84.31
363.882	77.31
364.109	94.31
364.335	88.31
364.562	75.31
364.788	84.31
365.015	77.31
365.241	74.31
365.468	77.31
365.694	92.31
365.92	80.31
366.147	76.31
366.373	93.31
366.599	68.31
366.826	85.31
367.052	81.31
367.278	73.31
367.505	83.31
367.731	80.31
367.957	93.31
368.184	78.31
368.41	88.31
368.636	72.31
368.862	84.31
369.089	70.31
369.315	70.31
369.541	81.31
369.767	70.31
369.993	74.31
370.219	79.31
370.445	89.31
370.672	72.31
370.898	76.31
371.124	86.31
371.35	76.31
371.576	86.31
371.802	85.31
372.028	90.31
372.254	91.31
372.48	78.31
372.706	73.31
372.932	74.31
373.158	80.31
373.384	83.31
373.61	81.31
373.835	84.31
374.061	86.31
374.287	88.31
374.513	85.31
374.739	74.31
374.965	81.31
375.191	90.31
375.416	72.31
375.642	87.31
375.868	81.31
376.094	75.31
376.319	86.31
376.545	79.31
376.771	69.31
376.997	75.31
377.222	75.31
377.448	65.31
377.674	71.31
377.899	93.31
378.125	80.31
378.35	83.31
378.576	89.31
378.802	60.31
379.027	66.31
379.253	66.31
379.478	83.31
379.704	67.31
379.929	62.31
380.155	81.31
380.38	73.31
380.606	74.31
380.831	73.31
381.057	88.31
381.282	73.31
381.507	69.31
381.733	80.31
381.958	73.31
382.184	75.31
382.409	82.31
382.634	80.31
382.86	78.31
383.085	89.31
383.31	75.31
383.535	86.31
383.761	85.31
383.986	72.31
384.211	87.31
384.436	91.31
384.662	70.31
384.887	86.31
385.112	77.31
385.337	72.31
385.562	70.31
385.787	77.31
386.013	77.31
386.238	76.31
386.463	86.31
386.688	90.31
386.913	68.31
387.138	74.31
387.363	81.31
387.588	81.31
387.813	66.31
388.038	74.31
388.263	82.31
388.488	86.31
388.713	80.31
388.938	85.31
389.163	83.31
389.387	83.31
389.612	90.31
389.837	78.31
390.062	81.31
390.287	74.31
390.512	75.31
390.736	92.31
390.961	64.31
391.186	78.31
391.411	57.31
391.636	79.31
391.86	85.31
392.085	69.31
392.31	73.31
392.534	94.31
392.759	70.31
392.984	77.31
393.208	76.31
393.433	89.31
393.658	68.31
393.882	81.31
394.107	85.31
394.331	73.31
394.556	72.31
394.78	70.31
395.005	80.31
395.229	78.31
395.454	65.31
395.678	67.31
395.903	78.31
396.127	74.31
396.352	74.31
396.576	76.31
396.801	92.31
397.025	85.31
397.249	82.31
397.474	75.31
397.698	71.31
397.922	85.31
398.147	74.31
398.371	76.31
398.595	77.31
398.82	86.31
399.044	77.31
399.268	76.31
399.492	86.31
399.717	93.31
399.941	82.31
400.165	64.31
400.389	77.31
400.613	73.31
400.837	78.31
401.062	73.31
401.286	81.31
401.51	89.31
401.734	82.31
401.958	68.31
402.182	84.31
402.406	86.31
402.63	77.31
402.854	81.31
403.078	63.31
403.302	68.31
403.526	75.31
403.75	80.31
403.974	77.31
404.198	62.31
404.422	83.31
404.645	75.31
404.869	88.31
405.093	91.31
405.317	80.31
405.541	75.31
405.765	77.31
405.988	90.31
406.212	87.31
406.436	73.31
406.66	92.31
406.883	88.31
407.107	62.31
407.331	68.31
407.555	83.31
407.778	83.31
408.002	63.31
408.226	71.31
408.449	73.31
408.673	78.31
408.896	77.31
409.12	78.31
409.344	71.31
409.567	75.31
409.791	85.31
410.014	78.31
410.238	66.31
410.461	66.31
410.685	73.31
410.908	74.31
411.132	80.31
411.355	73.31
411.578	73.31
411.802	76.31
412.025	73.31
412.249	73.31
412.472	79.31
412.695	78.31
412.919	86.31
413.142	71.31
413.365	79.31
413.589	76.31
413.812	82.31
414.035	71.31
414.258	77.31
414.482	70.31
414.705	95.31
414.928	73.31
415.151	73.31
415.374	75.31
415.597	81.31
415.821	75.31
416.044	86.31
416.267	86.31
416.49	75.31
416.713	71.31
416.936	81.31
417.159	58.31
417.382	73.31
417.605	77.31
417.828	78.31
418.051	77.31
418.274	69.31
418.497	89.31
418.72	75.31
418.943	78.31
419.166	83.31
419.389	75.31
419.611	82.31
419.834	63.31
420.057	68.31
420.28	75.31
420.503	80.31
420.726	66.31
420.948	89.31
421.171	68.31
421.394	64.31
421.617	74.31
421.839	53.31
422.062	77.31
422.285	79.31
422.507	76.31
422.73	85.31
422.953	80.31
423.175	81.31
423.398	63.31
423.621	89.31
423.843	73.31
424.066	78.31
424.288	63.31
424.511	74.31
424.733	82.31
424.956	86.31
425.178	84.31
425.401	86.31
425.623	88.31
425.846	79.31
426.068	68.31
426.291	64.31
426.513	76.31
426.735	86.31
426.958	73.31
427.18	78.31
427.402	82.31
427.625	66.31
427.847	70.31
428.069	55.31
428.292	66.31
428.514	73.31
428.736	83.31
428.958	88.31
429.181	65.31
429.403	82.31
429.625	78.31
429.847	71.31
430.069	77.31
430.292	82.31
430.514	81.31
430.736	54.31
430.958	86.31
431.18	78.31
431.402	74.31
431.624	95.31
431.846	76.31
432.068	80.31
432.29	84.31
432.512	72.31
432.734	79.31
432.956	78.31
433.178	73.31
433.4	90.31
433.622	72.31
433.844	88.31
434.066	82.31
434.287	72.31
434.509	83.31
434.731	67.31
434.953	75.31
435.175	71.31
435.397	68.31
435.618	83.31
435.84	71.31
436.062	74.31
436.284	61.31
436.505	71.31
436.727	67.31
436.949	74.31
437.17	84.31
437.392	71.31
437.614	73.31
437.835	77.31
438.057	73.31
438.278	81.31
438.5	67.31
438.721	78.31
438.943	66.31
439.165	86.31
439.386	79.31
439.608	78.31
439.829	71.31
440.05	74.31
440.272	89.31
440.493	82.31
440.715	71.31
440.936	81.31
441.158	80.31
441.379	81.31
441.6	83.31
441.822	76.31
442.043	79.31
442.264	65.31
442.486	68.31
442.707	60.31
442.928	65.31
443.149	85.31
443.371	81.31
443.592	81.31
443.813	70.31
444.034	74.31
444.255	83.31
444.476	60.31
444.698	81.31
444.919	89.31
445.14	150.31
445.361	117.31
445.582	80.31
445.803	75.31
446.024	81.31
446.245	85.31
446.466	71.31
446.687	78.31
446.908	71.31
447.129	80.31
447.35	70.31
447.571	65.31
447.792	71.31
448.013	63.31
448.234	66.31
448.455	77.31
448.675	86.31
448.896	85.31
449.117	87.31
449.338	76.31
449.559	80.31
449.779	75.31
450	85.31
450.221	75.31
450.442	62.31
450.662	71.31
450.883	79.31
451.104	81.31
451.324	79.31
451.545	77.31
451.766	64.31
451.986	72.31
452.207	69.31
452.428	83.31
452.648	81.31
452.869	74.31
453.089	89.31
453.31	76.31
453.53	75.31
453.751	77.31
453.971	79.31
454.192	76.31
454.412	65.31
454.633	69.31
454.853	96.31
455.073	72.31
455.294	65.31
455.514	91.31
455.734	71.31
455.955	72.31
456.175	72.31
456.395	91.31
456.616	76.31
456.836	68.31
457.056	66.31
457.276	72.31
457.497	82.31
457.717	67.31
457.937	78.31
458.157	85.31
458.377	83.31
458.598	77.31
458.818	76.31
459.038	76.31
459.258	78.31
459.478	63.31
459.698	65.31
459.918	71.31
460.138	64.31
460.358	82.31
460.578	75.31
460.798	73.31
461.018	83.31
461.238	86.31
461.458	78.31
461.678	81.31
461.898	86.31
462.118	79.31
462.338	71.31
462.558	77.31
462.777	75.31
462.997	72.31
463.217	72.31
463.437	66.31
463.657	70.31
463.876	77.31
464.096	82.31
464.316	75.31
464.536	70.31
464.755	73.31
464.975	69.31
465.195	70.31
465.414	79.31
465.634	85.31
465.854	61.31
466.073	85.31
466.293	61.31
466.512	77.31
466.732	79.31
466.951	82.31
467.171	72.31
467.391	83.31
467.61	73.31
467.829	73.31
468.049	74.31
468.268	77.31
468.488	66.31
468.707	73.31
468.927	87.31
469.146	73.31
469.365	77.31
469.585	85.31
469.804	79.31
470.023	73.31
470.243	71.31
470.462	80.31
470.681	85.31
470.901	84.31
471.12	80.31
471.339	70.31
471.558	71.31
471.777	75.31
471.997	84.31
472.216	76.31
472.435	72.31
472.654	75.31
472.873	69.31
473.092	82.31
473.311	66.31
473.53	80.31
473.749	79.31
473.968	73.31
474.187	62.31
474.406	68.31
474.625	82.31
474.844	80.31
475.063	83.31
475.282	77.31
475.501	77.31
475.72	92.31
475.939	69.31
476.158	85.31
476.377	78.31
476.596	73.31
476.814	73.31
477.033	71.31
477.252	67.31
477.471	71.31
477.69	93.31
477.908	62.31
478.127	83.31
478.346	71.31
478.564	63.31
478.783	77.31
479.002	83.31
479.22	77.31
479.439	76.31
479.658	71.31
479.876	77.31
480.095	65.31
480.313	77.31
480.532	75.31
480.751	76.31
480.969	72.31
481.188	86.31
481.406	62.31
481.624	62.31
481.843	84.31
482.061	81.31
482.28	74.31
482.498	71.31
482.717	61.31
482.935	81.31
483.153	73.31
483.372	74.31
483.59	74.31
483.808	79.31
484.027	77.31
484.245	68.31
484.463	76.31
484.681	93.31
484.9	86.31
485.118	67.31
485.336	60.31
485.554	83.31
485.772	81.31
485.99	77.31
486.209	87.31
486.427	83.31
486.645	63.31
486.863	76.31
487.081	68.31
487.299	73.31
487.517	66.31
487.735	71.31
487.953	89.31
488.171	79.31
488.389	95.31
488.607	84.31
488.825	82.31
489.043	85.31
489.261	87.31
489.479	67.31
489.696	75.31
489.914	82.31
490.132	75.31
490.35	95.31
490.568	84.31
490.786	77.31
491.003	75.31
491.221	68.31
491.439	79.31
491.657	86.31
491.874	81.31
492.092	66.31
492.31	80.31
492.527	69.31
492.745	81.31
492.963	82.31
493.18	83.31
493.398	85.31
493.615	82.31
493.833	79.31
494.05	67.31
494.268	74.31
494.485	84.31
494.703	78.31
494.92	79.31
495.138	68.31
495.355	63.31
495.573	66.31
495.79	72.31
496.008	92.31
496.225	83.31
496.442	83.31
496.66	78.31
496.877	76.31
497.094	71.31
497.312	76.31
497.529	71.31
497.746	64.31
497.963	77.31
498.181	71.31
498.398	94.31
498.615	74.31
498.832	75.31
499.049	62.31
499.267	96.31
499.484	85.31
499.701	74.31
499.918	75.31
500.135	67.31
500.352	91.31
500.569	80.31
500.786	84.31
501.003	79.31
501.22	81.31
501.437	79.31
501.654	60.31
501.871	70.31
502.088	65.31
502.305	88.31
502.522	89.31
502.739	78.31
502.956	71.31
503.172	90.31
503.389	77.31
503.606	77.31
503.823	62.31
504.04	85.31
504.256	79.31
504.473	79.31
504.69	72.31
504.907	77.31
505.123	76.31
505.34	77.31
505.557	72.31
505.773	75.31
505.99	90.31
506.207	94.31
506.423	77.31
506.64	77.31
506.856	60.31
507.073	68.31
507.289	76.31
507.506	77.31
507.722	76.31
507.939	85.31
508.155	75.31
508.372	75.31
508.588	71.31
508.805	62.31
509.021	77.31
509.238	91.31
509.454	76.31
509.67	77.31
509.887	80.31
510.103	76.31
510.319	73.31
510.536	79.31
510.752	80.31
510.968	87.31
511.184	73.31
511.401	84.31
511.617	82.31
511.833	78.31
512.049	88.31
512.265	90.31
512.481	79.31
512.698	76.31
512.914	85.31
513.13	97.31
513.346	90.31
513.562	80.31
513.778	85.31
513.994	79.31
514.21	87.31
514.426	75.31
514.642	75.31
514.858	65.31
515.074	77.31
515.29	93.31
515.506	69.31
515.721	83.31
515.937	85.31
516.153	95.31
516.369	80.31
516.585	77.31
516.801	78.31
517.016	85.31
517.232	81.31
517.448	79.31
517.664	82.31
517.879	71.31
518.095	78.31
518.311	83.31
518.527	66.31
518.742	78.31
518.958	67.31
519.173	88.31
519.389	87.31
519.605	81.31
519.82	63.31
520.036	87.31
520.251	77.31
