Data from Background_3_HRD10591_00087.txt Node
Date: Wed Nov 05 14:50:03 EST 2025
User: Yrep
Spectrometer: HR+D1059
Trigger mode: 1
Integration Time (sec): 1.000000E-1
Scans to average: 1
Electric dark correction enabled: true
Nonlinearity correction enabled: false
Boxcar width: 0
XAxis mode: Wavelengths
Number of Pixels in Spectrum: 2048
>>>>>Begin Spectral Data<<<<<
223.165	-16.38
223.4	-16.38
223.635	-16.38
223.869	-15.38
224.104	-30.38
224.338	-15.38
224.573	0.62
224.808	-15.38
225.042	-0.38
225.277	2.62
225.511	6.62
225.746	3.62
225.98	-8.38
226.215	8.62
226.449	11.62
226.683	16.62
226.918	21.62
227.152	29.62
227.387	41.62
227.621	18.62
227.856	45.62
228.09	39.62
228.324	48.62
228.559	57.62
228.793	69.62
229.027	65.62
229.262	57.62
229.496	75.62
229.73	62.62
229.964	65.62
230.199	64.62
230.433	69.62
230.667	65.62
230.901	77.62
231.136	85.62
231.37	74.62
231.604	73.62
231.838	72.62
232.072	86.62
232.306	63.62
232.541	61.62
232.775	85.62
233.009	73.62
233.243	83.62
233.477	67.62
233.711	81.62
233.945	66.62
234.179	78.62
234.413	67.62
234.647	68.62
234.881	83.62
235.115	78.62
235.349	79.62
235.583	86.62
235.817	64.62
236.051	79.62
236.285	61.62
236.519	92.62
236.753	82.62
236.987	73.62
237.221	74.62
237.455	63.62
237.689	76.62
237.922	72.62
238.156	71.62
238.39	77.62
238.624	76.62
238.858	72.62
239.091	69.62
239.325	72.62
239.559	76.62
239.793	65.62
240.027	72.62
240.26	66.62
240.494	74.62
240.728	67.62
240.961	60.62
241.195	80.62
241.429	77.62
241.662	65.62
241.896	74.62
242.13	62.62
242.363	77.62
242.597	68.62
242.83	82.62
243.064	68.62
243.298	81.62
243.531	73.62
243.765	66.62
243.998	65.62
244.232	79.62
244.465	68.62
244.699	59.62
244.932	78.62
245.166	70.62
245.399	70.62
245.633	74.62
245.866	73.62
246.099	69.62
246.333	88.62
246.566	77.62
246.8	81.62
247.033	86.62
247.266	74.62
247.5	70.62
247.733	85.62
247.966	83.62
248.2	65.62
248.433	63.62
248.666	82.62
248.899	75.62
249.133	84.62
249.366	85.62
249.599	71.62
249.832	88.62
250.066	73.62
250.299	82.62
250.532	101.62
250.765	77.62
250.998	70.62
251.231	66.62
251.465	65.62
251.698	73.62
251.931	78.62
252.164	61.62
252.397	76.62
252.63	77.62
252.863	77.62
253.096	80.62
253.329	66.62
253.562	74.62
253.795	67.62
254.028	80.62
254.261	80.62
254.494	87.62
254.727	81.62
254.96	56.62
255.193	65.62
255.426	84.62
255.659	68.62
255.892	81.62
256.124	79.62
256.357	83.62
256.59	82.62
256.823	79.62
257.056	71.62
257.289	83.62
257.521	73.62
257.754	64.62
257.987	82.62
258.22	86.62
258.452	74.62
258.685	78.62
258.918	83.62
259.151	62.62
259.383	86.62
259.616	75.62
259.849	66.62
260.081	71.62
260.314	76.62
260.547	80.62
260.779	89.62
261.012	82.62
261.244	77.62
261.477	83.62
261.71	71.62
261.942	80.62
262.175	79.62
262.407	70.62
262.64	80.62
262.872	73.62
263.105	61.62
263.337	91.62
263.57	63.62
263.802	69.62
264.035	77.62
264.267	83.62
264.499	77.62
264.732	67.62
264.964	69.62
265.197	77.62
265.429	64.62
265.661	82.62
265.894	78.62
266.126	83.62
266.358	61.62
266.591	81.62
266.823	82.62
267.055	90.62
267.287	80.62
267.52	71.62
267.752	83.62
267.984	82.62
268.216	88.62
268.448	77.62
268.681	83.62
268.913	72.62
269.145	76.62
269.377	94.62
269.609	69.62
269.841	74.62
270.073	65.62
270.306	70.62
270.538	73.62
270.77	61.62
271.002	86.62
271.234	83.62
271.466	86.62
271.698	65.62
271.93	89.62
272.162	77.62
272.394	67.62
272.626	80.62
272.858	82.62
273.09	73.62
273.322	79.62
273.553	67.62
273.785	79.62
274.017	61.62
274.249	71.62
274.481	87.62
274.713	75.62
274.945	65.62
275.176	61.62
275.408	80.62
275.64	85.62
275.872	92.62
276.104	90.62
276.335	79.62
276.567	86.62
276.799	88.62
277.031	81.62
277.262	82.62
277.494	70.62
277.726	81.62
277.957	75.62
278.189	71.62
278.421	69.62
278.652	73.62
278.884	80.62
279.115	94.62
279.347	79.62
279.579	75.62
279.81	92.62
280.042	93.62
280.273	88.62
280.505	84.62
280.736	88.62
280.968	75.62
281.199	83.62
281.431	81.62
281.662	74.62
281.894	85.62
282.125	87.62
282.356	78.62
282.588	83.62
282.819	84.62
283.051	82.62
283.282	71.62
283.513	81.62
283.745	67.62
283.976	85.62
284.207	87.62
284.439	81.62
284.67	82.62
284.901	80.62
285.132	82.62
285.364	89.62
285.595	84.62
285.826	79.62
286.057	91.62
286.288	87.62
286.52	85.62
286.751	76.62
286.982	96.62
287.213	82.62
287.444	91.62
287.675	75.62
287.906	86.62
288.138	81.62
288.369	67.62
288.6	76.62
288.831	76.62
289.062	95.62
289.293	82.62
289.524	77.62
289.755	74.62
289.986	82.62
290.217	79.62
290.448	84.62
290.679	80.62
290.91	86.62
291.141	77.62
291.371	77.62
291.602	87.62
291.833	89.62
292.064	95.62
292.295	82.62
292.526	84.62
292.757	91.62
292.987	83.62
293.218	79.62
293.449	79.62
293.68	82.62
293.91	89.62
294.141	78.62
294.372	68.62
294.603	82.62
294.833	78.62
295.064	83.62
295.295	85.62
295.525	89.62
295.756	83.62
295.987	71.62
296.217	88.62
296.448	79.62
296.679	73.62
296.909	77.62
297.14	76.62
297.37	78.62
297.601	79.62
297.831	76.62
298.062	74.62
298.292	74.62
298.523	79.62
298.753	91.62
298.984	65.62
299.214	80.62
299.445	93.62
299.675	85.62
299.905	74.62
300.136	76.62
300.366	71.62
300.597	75.62
300.827	84.62
301.057	81.62
301.288	72.62
301.518	81.62
301.748	86.62
301.979	97.62
302.209	83.62
302.439	75.62
302.669	96.62
302.9	82.62
303.13	94.62
303.36	80.62
303.59	78.62
303.82	85.62
304.051	82.62
304.281	93.62
304.511	89.62
304.741	87.62
304.971	86.62
305.201	72.62
305.431	80.62
305.661	76.62
305.891	78.62
306.121	73.62
306.352	89.62
306.582	95.62
306.812	85.62
307.042	69.62
307.272	86.62
307.502	75.62
307.731	86.62
307.961	79.62
308.191	85.62
308.421	87.62
308.651	87.62
308.881	76.62
309.111	84.62
309.341	84.62
309.571	81.62
309.8	68.62
310.03	79.62
310.26	91.62
310.49	74.62
310.72	91.62
310.949	101.62
311.179	77.62
311.409	72.62
311.639	88.62
311.868	90.62
312.098	81.62
312.328	91.62
312.557	77.62
312.787	77.62
313.017	79.62
313.246	87.62
313.476	61.62
313.706	92.62
313.935	81.62
314.165	79.62
314.394	81.62
314.624	77.62
314.853	79.62
315.083	85.62
315.312	80.62
315.542	84.62
315.771	76.62
316.001	81.62
316.23	89.62
316.46	90.62
316.689	95.62
316.919	79.62
317.148	77.62
317.377	85.62
317.607	83.62
317.836	74.62
318.065	78.62
318.295	93.62
318.524	83.62
318.753	80.62
318.983	78.62
319.212	85.62
319.441	90.62
319.67	77.62
319.9	74.62
320.129	64.62
320.358	90.62
320.587	93.62
320.816	72.62
321.046	82.62
321.275	63.62
321.504	72.62
321.733	90.62
321.962	73.62
322.191	75.62
322.42	84.62
322.649	89.62
322.878	85.62
323.108	83.62
323.337	81.62
323.566	80.62
323.795	92.62
324.024	85.62
324.253	79.62
324.482	84.62
324.71	81.62
324.939	80.62
325.168	87.62
325.397	90.62
325.626	91.62
325.855	78.62
326.084	79.62
326.313	86.62
326.542	80.62
326.77	79.62
326.999	84.62
327.228	77.62
327.457	81.62
327.686	77.62
327.914	81.62
328.143	83.62
328.372	73.62
328.6	75.62
328.829	88.62
329.058	78.62
329.287	83.62
329.515	84.62
329.744	74.62
329.972	77.62
330.201	89.62
330.43	85.62
330.658	78.62
330.887	85.62
331.115	71.62
331.344	69.62
331.572	87.62
331.801	73.62
332.03	80.62
332.258	75.62
332.486	71.62
332.715	68.62
332.943	73.62
333.172	74.62
333.4	79.62
333.629	87.62
333.857	71.62
334.085	79.62
334.314	75.62
334.542	80.62
334.771	70.62
334.999	81.62
335.227	91.62
335.455	78.62
335.684	79.62
335.912	71.62
336.14	83.62
336.369	67.62
336.597	85.62
336.825	71.62
337.053	77.62
337.281	76.62
337.51	79.62
337.738	88.62
337.966	89.62
338.194	70.62
338.422	82.62
338.65	88.62
338.878	73.62
339.106	77.62
339.334	86.62
339.562	70.62
339.79	85.62
340.018	89.62
340.246	70.62
340.474	91.62
340.702	66.62
340.93	71.62
341.158	82.62
341.386	74.62
341.614	84.62
341.842	86.62
342.07	87.62
342.298	86.62
342.526	80.62
342.754	82.62
342.981	75.62
343.209	67.62
343.437	93.62
343.665	83.62
343.893	67.62
344.12	89.62
344.348	78.62
344.576	78.62
344.804	79.62
345.031	67.62
345.259	83.62
345.487	78.62
345.714	83.62
345.942	77.62
346.17	71.62
346.397	74.62
346.625	85.62
346.853	77.62
347.08	74.62
347.308	85.62
347.535	72.62
347.763	81.62
347.99	83.62
348.218	80.62
348.445	89.62
348.673	81.62
348.9	73.62
349.128	66.62
349.355	79.62
349.583	73.62
349.81	86.62
350.037	77.62
350.265	82.62
350.492	89.62
350.72	71.62
350.947	68.62
351.174	79.62
351.402	85.62
351.629	82.62
351.856	89.62
352.083	90.62
352.311	79.62
352.538	74.62
352.765	79.62
352.992	78.62
353.22	83.62
353.447	80.62
353.674	89.62
353.901	76.62
354.128	75.62
354.355	71.62
354.583	87.62
354.81	78.62
355.037	79.62
355.264	71.62
355.491	82.62
355.718	91.62
355.945	72.62
356.172	82.62
356.399	92.62
356.626	79.62
356.853	60.62
357.08	75.62
357.307	76.62
357.534	87.62
357.761	80.62
357.988	73.62
358.215	92.62
358.441	77.62
358.668	73.62
358.895	91.62
359.122	78.62
359.349	71.62
359.576	79.62
359.802	75.62
360.029	73.62
360.256	84.62
360.483	82.62
360.709	86.62
360.936	87.62
361.163	65.62
361.39	79.62
361.616	88.62
361.843	63.62
362.07	85.62
362.296	69.62
362.523	64.62
362.749	87.62
362.976	73.62
363.203	71.62
363.429	81.62
363.656	77.62
363.882	79.62
364.109	81.62
364.335	71.62
364.562	88.62
364.788	90.62
365.015	77.62
365.241	79.62
365.468	71.62
365.694	76.62
365.92	77.62
366.147	90.62
366.373	81.62
366.599	78.62
366.826	75.62
367.052	58.62
367.278	71.62
367.505	78.62
367.731	82.62
367.957	73.62
368.184	71.62
368.41	86.62
368.636	64.62
368.862	82.62
369.089	80.62
369.315	83.62
369.541	65.62
369.767	75.62
369.993	82.62
370.219	77.62
370.445	74.62
370.672	74.62
370.898	78.62
371.124	84.62
371.35	79.62
371.576	81.62
371.802	62.62
372.028	77.62
372.254	71.62
372.48	77.62
372.706	76.62
372.932	82.62
373.158	82.62
373.384	91.62
373.61	88.62
373.835	87.62
374.061	78.62
374.287	89.62
374.513	79.62
374.739	65.62
374.965	74.62
375.191	69.62
375.416	74.62
375.642	82.62
375.868	79.62
376.094	95.62
376.319	65.62
376.545	67.62
376.771	80.62
376.997	80.62
377.222	91.62
377.448	71.62
377.674	71.62
377.899	88.62
378.125	83.62
378.35	81.62
378.576	78.62
378.802	66.62
379.027	84.62
379.253	67.62
379.478	79.62
379.704	84.62
379.929	73.62
380.155	84.62
380.38	89.62
380.606	75.62
380.831	67.62
381.057	65.62
381.282	75.62
381.507	82.62
381.733	62.62
381.958	72.62
382.184	72.62
382.409	82.62
382.634	78.62
382.86	72.62
383.085	85.62
383.31	82.62
383.535	78.62
383.761	95.62
383.986	68.62
384.211	71.62
384.436	81.62
384.662	98.62
384.887	78.62
385.112	91.62
385.337	68.62
385.562	63.62
385.787	78.62
386.013	70.62
386.238	82.62
386.463	98.62
386.688	94.62
386.913	82.62
387.138	64.62
387.363	77.62
387.588	76.62
387.813	81.62
388.038	96.62
388.263	79.62
388.488	74.62
388.713	80.62
388.938	83.62
389.163	77.62
389.387	82.62
389.612	65.62
389.837	105.62
390.062	57.62
390.287	74.62
390.512	85.62
390.736	81.62
390.961	85.62
391.186	84.62
391.411	67.62
391.636	79.62
391.86	76.62
392.085	75.62
392.31	61.62
392.534	65.62
392.759	86.62
392.984	87.62
393.208	62.62
393.433	74.62
393.658	67.62
393.882	69.62
394.107	78.62
394.331	83.62
394.556	73.62
394.78	73.62
395.005	74.62
395.229	75.62
395.454	63.62
395.678	71.62
395.903	76.62
396.127	78.62
396.352	77.62
396.576	55.62
396.801	86.62
397.025	71.62
397.249	67.62
397.474	64.62
397.698	56.62
397.922	71.62
398.147	83.62
398.371	90.62
398.595	79.62
398.82	73.62
399.044	66.62
399.268	81.62
399.492	87.62
399.717	80.62
399.941	81.62
400.165	75.62
400.389	71.62
400.613	65.62
400.837	94.62
401.062	81.62
401.286	92.62
401.51	70.62
401.734	64.62
401.958	78.62
402.182	73.62
402.406	84.62
402.63	77.62
402.854	80.62
403.078	81.62
403.302	83.62
403.526	94.62
403.75	82.62
403.974	74.62
404.198	79.62
404.422	74.62
404.645	81.62
404.869	77.62
405.093	62.62
405.317	73.62
405.541	66.62
405.765	66.62
405.988	74.62
406.212	74.62
406.436	78.62
406.66	84.62
406.883	70.62
407.107	73.62
407.331	78.62
407.555	66.62
407.778	73.62
408.002	68.62
408.226	75.62
408.449	80.62
408.673	77.62
408.896	82.62
409.12	77.62
409.344	79.62
409.567	67.62
409.791	67.62
410.014	89.62
410.238	55.62
410.461	71.62
410.685	77.62
410.908	73.62
411.132	73.62
411.355	82.62
411.578	80.62
411.802	73.62
412.025	74.62
412.249	83.62
412.472	72.62
412.695	60.62
412.919	70.62
413.142	87.62
413.365	65.62
413.589	76.62
413.812	61.62
414.035	86.62
414.258	80.62
414.482	77.62
414.705	70.62
414.928	79.62
415.151	91.62
415.374	81.62
415.597	81.62
415.821	83.62
416.044	76.62
416.267	75.62
416.49	73.62
416.713	82.62
416.936	67.62
417.159	68.62
417.382	78.62
417.605	79.62
417.828	68.62
418.051	65.62
418.274	84.62
418.497	81.62
418.72	75.62
418.943	84.62
419.166	68.62
419.389	77.62
419.611	72.62
419.834	71.62
420.057	77.62
420.28	69.62
420.503	81.62
420.726	70.62
420.948	74.62
421.171	70.62
421.394	79.62
421.617	74.62
421.839	76.62
422.062	71.62
422.285	88.62
422.507	69.62
422.73	77.62
422.953	78.62
423.175	77.62
423.398	84.62
423.621	76.62
423.843	77.62
424.066	85.62
424.288	69.62
424.511	93.62
424.733	75.62
424.956	73.62
425.178	74.62
425.401	83.62
425.623	68.62
425.846	53.62
426.068	68.62
426.291	70.62
426.513	80.62
426.735	79.62
426.958	60.62
427.18	77.62
427.402	81.62
427.625	72.62
427.847	66.62
428.069	78.62
428.292	84.62
428.514	87.62
428.736	83.62
428.958	83.62
429.181	87.62
429.403	89.62
429.625	77.62
429.847	61.62
430.069	85.62
430.292	63.62
430.514	77.62
430.736	82.62
430.958	69.62
431.18	74.62
431.402	85.62
431.624	76.62
431.846	75.62
432.068	59.62
432.29	77.62
432.512	83.62
432.734	74.62
432.956	83.62
433.178	77.62
433.4	81.62
433.622	78.62
433.844	73.62
434.066	88.62
434.287	86.62
434.509	80.62
434.731	61.62
434.953	66.62
435.175	65.62
435.397	74.62
435.618	77.62
435.84	83.62
436.062	86.62
436.284	90.62
436.505	85.62
436.727	67.62
436.949	82.62
437.17	75.62
437.392	58.62
437.614	74.62
437.835	74.62
438.057	65.62
438.278	70.62
438.5	83.62
438.721	75.62
438.943	77.62
439.165	85.62
439.386	76.62
439.608	85.62
439.829	86.62
440.05	90.62
440.272	85.62
440.493	69.62
440.715	82.62
440.936	82.62
441.158	65.62
441.379	66.62
441.6	76.62
441.822	77.62
442.043	89.62
442.264	80.62
442.486	77.62
442.707	77.62
442.928	88.62
443.149	71.62
443.371	91.62
443.592	85.62
443.813	78.62
444.034	89.62
444.255	83.62
444.476	81.62
444.698	88.62
444.919	70.62
445.14	167.62
445.361	108.62
445.582	81.62
445.803	68.62
446.024	78.62
446.245	81.62
446.466	80.62
446.687	80.62
446.908	83.62
447.129	73.62
447.35	93.62
447.571	86.62
447.792	71.62
448.013	76.62
448.234	75.62
448.455	70.62
448.675	81.62
448.896	71.62
449.117	75.62
449.338	80.62
449.559	83.62
449.779	70.62
450	75.62
450.221	63.62
450.442	94.62
450.662	71.62
450.883	77.62
451.104	82.62
451.324	65.62
451.545	71.62
451.766	65.62
451.986	77.62
452.207	69.62
452.428	68.62
452.648	84.62
452.869	87.62
453.089	78.62
453.31	74.62
453.53	66.62
453.751	73.62
453.971	78.62
454.192	71.62
454.412	89.62
454.633	75.62
454.853	66.62
455.073	68.62
455.294	83.62
455.514	70.62
455.734	61.62
455.955	85.62
456.175	74.62
456.395	74.62
456.616	79.62
456.836	57.62
457.056	67.62
457.276	73.62
457.497	71.62
457.717	82.62
457.937	86.62
458.157	75.62
458.377	73.62
458.598	78.62
458.818	84.62
459.038	70.62
459.258	74.62
459.478	71.62
459.698	69.62
459.918	65.62
460.138	67.62
460.358	71.62
460.578	72.62
460.798	74.62
461.018	76.62
461.238	89.62
461.458	74.62
461.678	76.62
461.898	70.62
462.118	89.62
462.338	88.62
462.558	73.62
462.777	80.62
462.997	60.62
463.217	85.62
463.437	76.62
463.657	74.62
463.876	79.62
464.096	63.62
464.316	74.62
464.536	89.62
464.755	77.62
464.975	79.62
465.195	81.62
465.414	73.62
465.634	62.62
465.854	83.62
466.073	68.62
466.293	61.62
466.512	73.62
466.732	61.62
466.951	89.62
467.171	78.62
467.391	82.62
467.61	67.62
467.829	75.62
468.049	59.62
468.268	56.62
468.488	87.62
468.707	63.62
468.927	74.62
469.146	74.62
469.365	60.62
469.585	60.62
469.804	72.62
470.023	76.62
470.243	67.62
470.462	74.62
470.681	70.62
470.901	86.62
471.12	87.62
471.339	81.62
471.558	86.62
471.777	78.62
471.997	64.62
472.216	68.62
472.435	82.62
472.654	63.62
472.873	82.62
473.092	60.62
473.311	86.62
473.53	66.62
473.749	71.62
473.968	78.62
474.187	79.62
474.406	71.62
474.625	68.62
474.844	71.62
475.063	65.62
475.282	80.62
475.501	67.62
475.72	83.62
475.939	72.62
476.158	73.62
476.377	77.62
476.596	66.62
476.814	74.62
477.033	53.62
477.252	81.62
477.471	77.62
477.69	64.62
477.908	64.62
478.127	62.62
478.346	83.62
478.564	82.62
478.783	62.62
479.002	71.62
479.22	68.62
479.439	87.62
479.658	73.62
479.876	70.62
480.095	76.62
480.313	81.62
480.532	90.62
480.751	81.62
480.969	73.62
481.188	71.62
481.406	73.62
481.624	80.62
481.843	78.62
482.061	85.62
482.28	71.62
482.498	75.62
482.717	74.62
482.935	74.62
483.153	81.62
483.372	65.62
483.59	79.62
483.808	82.62
484.027	73.62
484.245	77.62
484.463	65.62
484.681	75.62
484.9	87.62
485.118	79.62
485.336	73.62
485.554	77.62
485.772	77.62
485.99	77.62
486.209	80.62
486.427	67.62
486.645	76.62
486.863	71.62
487.081	76.62
487.299	79.62
487.517	77.62
487.735	83.62
487.953	79.62
488.171	76.62
488.389	79.62
488.607	86.62
488.825	66.62
489.043	66.62
489.261	78.62
489.479	69.62
489.696	98.62
489.914	91.62
490.132	81.62
490.35	70.62
490.568	67.62
490.786	85.62
491.003	73.62
491.221	69.62
491.439	67.62
491.657	85.62
491.874	83.62
492.092	87.62
492.31	81.62
492.527	71.62
492.745	65.62
492.963	67.62
493.18	73.62
493.398	84.62
493.615	70.62
493.833	80.62
494.05	86.62
494.268	77.62
494.485	74.62
494.703	85.62
494.92	85.62
495.138	83.62
495.355	73.62
495.573	74.62
495.79	77.62
496.008	71.62
496.225	75.62
496.442	55.62
496.66	78.62
496.877	89.62
497.094	61.62
497.312	84.62
497.529	79.62
497.746	72.62
497.963	70.62
498.181	97.62
498.398	73.62
498.615	67.62
498.832	77.62
499.049	78.62
499.267	89.62
499.484	72.62
499.701	79.62
499.918	79.62
500.135	86.62
500.352	84.62
500.569	72.62
500.786	81.62
501.003	62.62
501.22	73.62
501.437	77.62
501.654	75.62
501.871	87.62
502.088	76.62
502.305	78.62
502.522	87.62
502.739	90.62
502.956	73.62
503.172	80.62
503.389	78.62
503.606	62.62
503.823	80.62
504.04	77.62
504.256	75.62
504.473	93.62
504.69	81.62
504.907	90.62
505.123	77.62
505.34	67.62
505.557	72.62
505.773	71.62
505.99	74.62
506.207	82.62
506.423	66.62
506.64	86.62
506.856	61.62
507.073	48.62
507.289	65.62
507.506	72.62
507.722	91.62
507.939	88.62
508.155	78.62
508.372	73.62
508.588	77.62
508.805	63.62
509.021	71.62
509.238	77.62
509.454	76.62
509.67	73.62
509.887	76.62
510.103	79.62
510.319	62.62
510.536	81.62
510.752	77.62
510.968	75.62
511.184	75.62
511.401	68.62
511.617	80.62
511.833	75.62
512.049	77.62
512.265	86.62
512.481	77.62
512.698	79.62
512.914	70.62
513.13	80.62
513.346	79.62
513.562	86.62
513.778	89.62
513.994	73.62
514.21	76.62
514.426	73.62
514.642	86.62
514.858	77.62
515.074	71.62
515.29	75.62
515.506	88.62
515.721	73.62
515.937	83.62
516.153	85.62
516.369	69.62
516.585	82.62
516.801	61.62
517.016	77.62
517.232	70.62
517.448	80.62
517.664	97.62
517.879	77.62
518.095	84.62
518.311	79.62
518.527	78.62
518.742	93.62
518.958	84.62
519.173	79.62
519.389	81.62
519.605	86.62
519.82	81.62
520.036	89.62
520.251	88.62
