Data from Background_3_HRD10591_00062.txt Node
Date: Wed Nov 05 14:49:50 EST 2025
User: Yrep
Spectrometer: HR+D1059
Trigger mode: 1
Integration Time (sec): 1.000000E-1
Scans to average: 1
Electric dark correction enabled: true
Nonlinearity correction enabled: false
Boxcar width: 0
XAxis mode: Wavelengths
Number of Pixels in Spectrum: 2048
>>>>>Begin Spectral Data<<<<<
223.165	-3.5
223.4	-3.5
223.635	-3.5
223.869	-7.5
224.104	-25.5
224.338	2.5
224.573	-22.5
224.808	-11.5
225.042	-16.5
225.277	-19.5
225.511	3.5
225.746	-2.5
225.98	-4.5
226.215	21.5
226.449	6.5
226.683	8.5
226.918	39.5
227.152	31.5
227.387	32.5
227.621	27.5
227.856	40.5
228.09	43.5
228.324	56.5
228.559	60.5
228.793	39.5
229.027	60.5
229.262	62.5
229.496	65.5
229.73	76.5
229.964	68.5
230.199	58.5
230.433	66.5
230.667	86.5
230.901	77.5
231.136	78.5
231.37	67.5
231.604	78.5
231.838	59.5
232.072	89.5
232.306	87.5
232.541	89.5
232.775	90.5
233.009	78.5
233.243	66.5
233.477	82.5
233.711	73.5
233.945	72.5
234.179	85.5
234.413	77.5
234.647	73.5
234.881	82.5
235.115	79.5
235.349	74.5
235.583	78.5
235.817	77.5
236.051	71.5
236.285	76.5
236.519	56.5
236.753	58.5
236.987	74.5
237.221	71.5
237.455	62.5
237.689	88.5
237.922	76.5
238.156	68.5
238.39	67.5
238.624	67.5
238.858	67.5
239.091	64.5
239.325	72.5
239.559	77.5
239.793	83.5
240.027	94.5
240.26	67.5
240.494	70.5
240.728	68.5
240.961	74.5
241.195	77.5
241.429	76.5
241.662	74.5
241.896	79.5
242.13	67.5
242.363	65.5
242.597	73.5
242.83	61.5
243.064	72.5
243.298	74.5
243.531	84.5
243.765	78.5
243.998	73.5
244.232	70.5
244.465	74.5
244.699	85.5
244.932	69.5
245.166	76.5
245.399	77.5
245.633	63.5
245.866	68.5
246.099	72.5
246.333	78.5
246.566	80.5
246.8	69.5
247.033	60.5
247.266	74.5
247.5	66.5
247.733	72.5
247.966	66.5
248.2	72.5
248.433	70.5
248.666	66.5
248.899	68.5
249.133	73.5
249.366	68.5
249.599	82.5
249.832	71.5
250.066	88.5
250.299	75.5
250.532	89.5
250.765	65.5
250.998	94.5
251.231	72.5
251.465	73.5
251.698	76.5
251.931	66.5
252.164	80.5
252.397	80.5
252.63	75.5
252.863	71.5
253.096	79.5
253.329	80.5
253.562	75.5
253.795	91.5
254.028	76.5
254.261	76.5
254.494	65.5
254.727	75.5
254.96	77.5
255.193	79.5
255.426	84.5
255.659	81.5
255.892	77.5
256.124	82.5
256.357	69.5
256.59	73.5
256.823	69.5
257.056	74.5
257.289	81.5
257.521	66.5
257.754	73.5
257.987	60.5
258.22	74.5
258.452	72.5
258.685	73.5
258.918	78.5
259.151	71.5
259.383	71.5
259.616	85.5
259.849	73.5
260.081	81.5
260.314	85.5
260.547	72.5
260.779	66.5
261.012	85.5
261.244	84.5
261.477	94.5
261.71	70.5
261.942	86.5
262.175	90.5
262.407	77.5
262.64	80.5
262.872	86.5
263.105	83.5
263.337	83.5
263.57	71.5
263.802	84.5
264.035	69.5
264.267	84.5
264.499	79.5
264.732	82.5
264.964	55.5
265.197	79.5
265.429	80.5
265.661	82.5
265.894	78.5
266.126	84.5
266.358	69.5
266.591	75.5
266.823	76.5
267.055	83.5
267.287	86.5
267.52	78.5
267.752	81.5
267.984	68.5
268.216	82.5
268.448	79.5
268.681	88.5
268.913	77.5
269.145	80.5
269.377	82.5
269.609	78.5
269.841	90.5
270.073	73.5
270.306	66.5
270.538	78.5
270.77	75.5
271.002	80.5
271.234	86.5
271.466	76.5
271.698	57.5
271.93	76.5
272.162	80.5
272.394	91.5
272.626	78.5
272.858	88.5
273.09	87.5
273.322	81.5
273.553	70.5
273.785	83.5
274.017	74.5
274.249	80.5
274.481	88.5
274.713	86.5
274.945	75.5
275.176	78.5
275.408	85.5
275.64	90.5
275.872	73.5
276.104	82.5
276.335	89.5
276.567	90.5
276.799	74.5
277.031	69.5
277.262	80.5
277.494	80.5
277.726	62.5
277.957	77.5
278.189	85.5
278.421	82.5
278.652	81.5
278.884	76.5
279.115	85.5
279.347	87.5
279.579	72.5
279.81	84.5
280.042	100.5
280.273	75.5
280.505	76.5
280.736	85.5
280.968	65.5
281.199	80.5
281.431	92.5
281.662	83.5
281.894	101.5
282.125	77.5
282.356	101.5
282.588	85.5
282.819	87.5
283.051	81.5
283.282	85.5
283.513	86.5
283.745	92.5
283.976	93.5
284.207	77.5
284.439	80.5
284.67	65.5
284.901	85.5
285.132	86.5
285.364	78.5
285.595	84.5
285.826	74.5
286.057	79.5
286.288	78.5
286.52	75.5
286.751	62.5
286.982	84.5
287.213	80.5
287.444	84.5
287.675	74.5
287.906	82.5
288.138	84.5
288.369	84.5
288.6	70.5
288.831	68.5
289.062	90.5
289.293	80.5
289.524	81.5
289.755	92.5
289.986	80.5
290.217	92.5
290.448	76.5
290.679	70.5
290.91	86.5
291.141	81.5
291.371	86.5
291.602	79.5
291.833	89.5
292.064	85.5
292.295	77.5
292.526	75.5
292.757	81.5
292.987	83.5
293.218	77.5
293.449	72.5
293.68	67.5
293.91	78.5
294.141	77.5
294.372	63.5
294.603	66.5
294.833	76.5
295.064	76.5
295.295	79.5
295.525	74.5
295.756	84.5
295.987	78.5
296.217	86.5
296.448	85.5
296.679	84.5
296.909	84.5
297.14	79.5
297.37	90.5
297.601	83.5
297.831	79.5
298.062	75.5
298.292	71.5
298.523	73.5
298.753	98.5
298.984	72.5
299.214	70.5
299.445	83.5
299.675	88.5
299.905	85.5
300.136	64.5
300.366	92.5
300.597	85.5
300.827	76.5
301.057	73.5
301.288	90.5
301.518	85.5
301.748	67.5
301.979	91.5
302.209	77.5
302.439	81.5
302.669	83.5
302.9	78.5
303.13	82.5
303.36	73.5
303.59	92.5
303.82	81.5
304.051	81.5
304.281	83.5
304.511	65.5
304.741	93.5
304.971	71.5
305.201	85.5
305.431	72.5
305.661	90.5
305.891	86.5
306.121	84.5
306.352	71.5
306.582	86.5
306.812	80.5
307.042	81.5
307.272	77.5
307.502	66.5
307.731	68.5
307.961	77.5
308.191	77.5
308.421	89.5
308.651	78.5
308.881	90.5
309.111	82.5
309.341	80.5
309.571	82.5
309.8	93.5
310.03	73.5
310.26	76.5
310.49	64.5
310.72	66.5
310.949	80.5
311.179	69.5
311.409	86.5
311.639	77.5
311.868	89.5
312.098	76.5
312.328	73.5
312.557	90.5
312.787	97.5
313.017	80.5
313.246	66.5
313.476	82.5
313.706	86.5
313.935	87.5
314.165	78.5
314.394	77.5
314.624	88.5
314.853	86.5
315.083	74.5
315.312	95.5
315.542	80.5
315.771	79.5
316.001	79.5
316.23	87.5
316.46	76.5
316.689	88.5
316.919	77.5
317.148	81.5
317.377	75.5
317.607	95.5
317.836	88.5
318.065	74.5
318.295	75.5
318.524	86.5
318.753	83.5
318.983	87.5
319.212	85.5
319.441	85.5
319.67	78.5
319.9	77.5
320.129	88.5
320.358	66.5
320.587	76.5
320.816	72.5
321.046	74.5
321.275	100.5
321.504	78.5
321.733	70.5
321.962	73.5
322.191	88.5
322.42	82.5
322.649	76.5
322.878	96.5
323.108	80.5
323.337	87.5
323.566	95.5
323.795	81.5
324.024	60.5
324.253	72.5
324.482	80.5
324.71	86.5
324.939	80.5
325.168	56.5
325.397	77.5
325.626	78.5
325.855	69.5
326.084	84.5
326.313	82.5
326.542	82.5
326.77	79.5
326.999	88.5
327.228	95.5
327.457	84.5
327.686	80.5
327.914	79.5
328.143	70.5
328.372	78.5
328.6	90.5
328.829	93.5
329.058	82.5
329.287	77.5
329.515	84.5
329.744	72.5
329.972	78.5
330.201	74.5
330.43	79.5
330.658	70.5
330.887	82.5
331.115	78.5
331.344	85.5
331.572	86.5
331.801	72.5
332.03	88.5
332.258	86.5
332.486	77.5
332.715	84.5
332.943	94.5
333.172	88.5
333.4	78.5
333.629	59.5
333.857	84.5
334.085	62.5
334.314	85.5
334.542	75.5
334.771	74.5
334.999	67.5
335.227	92.5
335.455	77.5
335.684	89.5
335.912	70.5
336.14	91.5
336.369	64.5
336.597	81.5
336.825	68.5
337.053	84.5
337.281	83.5
337.51	92.5
337.738	84.5
337.966	68.5
338.194	74.5
338.422	79.5
338.65	80.5
338.878	82.5
339.106	74.5
339.334	76.5
339.562	72.5
339.79	87.5
340.018	84.5
340.246	90.5
340.474	71.5
340.702	82.5
340.93	90.5
341.158	85.5
341.386	80.5
341.614	81.5
341.842	87.5
342.07	68.5
342.298	68.5
342.526	88.5
342.754	95.5
342.981	72.5
343.209	79.5
343.437	92.5
343.665	73.5
343.893	61.5
344.12	81.5
344.348	72.5
344.576	73.5
344.804	80.5
345.031	70.5
345.259	70.5
345.487	84.5
345.714	88.5
345.942	79.5
346.17	67.5
346.397	78.5
346.625	83.5
346.853	92.5
347.08	83.5
347.308	95.5
347.535	87.5
347.763	77.5
347.99	77.5
348.218	78.5
348.445	72.5
348.673	67.5
348.9	85.5
349.128	80.5
349.355	61.5
349.583	65.5
349.81	80.5
350.037	80.5
350.265	68.5
350.492	86.5
350.72	85.5
350.947	81.5
351.174	87.5
351.402	72.5
351.629	85.5
351.856	76.5
352.083	74.5
352.311	86.5
352.538	77.5
352.765	78.5
352.992	94.5
353.22	75.5
353.447	72.5
353.674	87.5
353.901	83.5
354.128	85.5
354.355	92.5
354.583	83.5
354.81	94.5
355.037	73.5
355.264	80.5
355.491	81.5
355.718	85.5
355.945	86.5
356.172	90.5
356.399	66.5
356.626	84.5
356.853	90.5
357.08	79.5
357.307	84.5
357.534	74.5
357.761	89.5
357.988	69.5
358.215	75.5
358.441	65.5
358.668	74.5
358.895	63.5
359.122	72.5
359.349	79.5
359.576	69.5
359.802	77.5
360.029	87.5
360.256	84.5
360.483	80.5
360.709	71.5
360.936	82.5
361.163	92.5
361.39	78.5
361.616	76.5
361.843	81.5
362.07	78.5
362.296	85.5
362.523	89.5
362.749	70.5
362.976	89.5
363.203	94.5
363.429	77.5
363.656	94.5
363.882	69.5
364.109	78.5
364.335	88.5
364.562	70.5
364.788	73.5
365.015	73.5
365.241	86.5
365.468	90.5
365.694	73.5
365.92	80.5
366.147	68.5
366.373	64.5
366.599	82.5
366.826	62.5
367.052	86.5
367.278	73.5
367.505	92.5
367.731	83.5
367.957	69.5
368.184	73.5
368.41	76.5
368.636	82.5
368.862	78.5
369.089	62.5
369.315	77.5
369.541	89.5
369.767	91.5
369.993	75.5
370.219	64.5
370.445	63.5
370.672	80.5
370.898	74.5
371.124	78.5
371.35	80.5
371.576	70.5
371.802	81.5
372.028	82.5
372.254	86.5
372.48	86.5
372.706	86.5
372.932	77.5
373.158	75.5
373.384	88.5
373.61	91.5
373.835	86.5
374.061	74.5
374.287	73.5
374.513	77.5
374.739	76.5
374.965	72.5
375.191	74.5
375.416	76.5
375.642	100.5
375.868	86.5
376.094	74.5
376.319	77.5
376.545	86.5
376.771	87.5
376.997	76.5
377.222	68.5
377.448	62.5
377.674	64.5
377.899	68.5
378.125	77.5
378.35	80.5
378.576	79.5
378.802	79.5
379.027	73.5
379.253	71.5
379.478	78.5
379.704	77.5
379.929	80.5
380.155	61.5
380.38	81.5
380.606	85.5
380.831	83.5
381.057	89.5
381.282	74.5
381.507	75.5
381.733	78.5
381.958	81.5
382.184	86.5
382.409	72.5
382.634	89.5
382.86	81.5
383.085	88.5
383.31	89.5
383.535	84.5
383.761	84.5
383.986	74.5
384.211	86.5
384.436	92.5
384.662	81.5
384.887	64.5
385.112	82.5
385.337	89.5
385.562	78.5
385.787	85.5
386.013	72.5
386.238	78.5
386.463	76.5
386.688	84.5
386.913	86.5
387.138	94.5
387.363	81.5
387.588	73.5
387.813	70.5
388.038	74.5
388.263	65.5
388.488	72.5
388.713	77.5
388.938	74.5
389.163	67.5
389.387	84.5
389.612	87.5
389.837	79.5
390.062	84.5
390.287	82.5
390.512	77.5
390.736	78.5
390.961	77.5
391.186	69.5
391.411	66.5
391.636	79.5
391.86	72.5
392.085	91.5
392.31	81.5
392.534	72.5
392.759	70.5
392.984	87.5
393.208	68.5
393.433	72.5
393.658	86.5
393.882	81.5
394.107	70.5
394.331	72.5
394.556	74.5
394.78	72.5
395.005	67.5
395.229	80.5
395.454	68.5
395.678	77.5
395.903	78.5
396.127	89.5
396.352	84.5
396.576	69.5
396.801	87.5
397.025	73.5
397.249	88.5
397.474	84.5
397.698	75.5
397.922	80.5
398.147	81.5
398.371	57.5
398.595	80.5
398.82	78.5
399.044	81.5
399.268	72.5
399.492	72.5
399.717	80.5
399.941	61.5
400.165	75.5
400.389	66.5
400.613	60.5
400.837	81.5
401.062	84.5
401.286	80.5
401.51	75.5
401.734	85.5
401.958	70.5
402.182	75.5
402.406	78.5
402.63	69.5
402.854	88.5
403.078	77.5
403.302	75.5
403.526	69.5
403.75	84.5
403.974	72.5
404.198	72.5
404.422	85.5
404.645	84.5
404.869	83.5
405.093	74.5
405.317	82.5
405.541	74.5
405.765	80.5
405.988	84.5
406.212	78.5
406.436	87.5
406.66	76.5
406.883	77.5
407.107	77.5
407.331	69.5
407.555	72.5
407.778	89.5
408.002	74.5
408.226	66.5
408.449	54.5
408.673	74.5
408.896	76.5
409.12	67.5
409.344	83.5
409.567	65.5
409.791	79.5
410.014	78.5
410.238	74.5
410.461	78.5
410.685	56.5
410.908	81.5
411.132	75.5
411.355	84.5
411.578	88.5
411.802	85.5
412.025	74.5
412.249	81.5
412.472	84.5
412.695	61.5
412.919	65.5
413.142	83.5
413.365	76.5
413.589	76.5
413.812	74.5
414.035	88.5
414.258	79.5
414.482	79.5
414.705	82.5
414.928	74.5
415.151	87.5
415.374	56.5
415.597	81.5
415.821	78.5
416.044	69.5
416.267	71.5
416.49	74.5
416.713	70.5
416.936	85.5
417.159	73.5
417.382	70.5
417.605	80.5
417.828	84.5
418.051	85.5
418.274	78.5
418.497	84.5
418.72	70.5
418.943	71.5
419.166	79.5
419.389	73.5
419.611	86.5
419.834	76.5
420.057	78.5
420.28	74.5
420.503	72.5
420.726	72.5
420.948	85.5
421.171	74.5
421.394	67.5
421.617	66.5
421.839	84.5
422.062	76.5
422.285	76.5
422.507	74.5
422.73	57.5
422.953	69.5
423.175	80.5
423.398	67.5
423.621	66.5
423.843	72.5
424.066	77.5
424.288	76.5
424.511	77.5
424.733	77.5
424.956	73.5
425.178	80.5
425.401	74.5
425.623	72.5
425.846	72.5
426.068	79.5
426.291	67.5
426.513	55.5
426.735	75.5
426.958	72.5
427.18	76.5
427.402	71.5
427.625	81.5
427.847	64.5
428.069	74.5
428.292	87.5
428.514	82.5
428.736	72.5
428.958	69.5
429.181	86.5
429.403	75.5
429.625	78.5
429.847	73.5
430.069	75.5
430.292	78.5
430.514	90.5
430.736	80.5
430.958	80.5
431.18	76.5
431.402	84.5
431.624	84.5
431.846	79.5
432.068	90.5
432.29	77.5
432.512	84.5
432.734	77.5
432.956	68.5
433.178	82.5
433.4	67.5
433.622	72.5
433.844	89.5
434.066	70.5
434.287	84.5
434.509	84.5
434.731	77.5
434.953	63.5
435.175	62.5
435.397	80.5
435.618	76.5
435.84	74.5
436.062	66.5
436.284	79.5
436.505	85.5
436.727	74.5
436.949	86.5
437.17	57.5
437.392	69.5
437.614	78.5
437.835	72.5
438.057	76.5
438.278	74.5
438.5	72.5
438.721	63.5
438.943	82.5
439.165	74.5
439.386	77.5
439.608	77.5
439.829	66.5
440.05	76.5
440.272	84.5
440.493	79.5
440.715	71.5
440.936	79.5
441.158	76.5
441.379	86.5
441.6	74.5
441.822	80.5
442.043	76.5
442.264	75.5
442.486	73.5
442.707	66.5
442.928	82.5
443.149	65.5
443.371	77.5
443.592	74.5
443.813	75.5
444.034	73.5
444.255	73.5
444.476	74.5
444.698	75.5
444.919	72.5
445.14	154.5
445.361	114.5
445.582	87.5
445.803	74.5
446.024	68.5
446.245	80.5
446.466	73.5
446.687	56.5
446.908	75.5
447.129	63.5
447.35	79.5
447.571	74.5
447.792	79.5
448.013	63.5
448.234	78.5
448.455	68.5
448.675	78.5
448.896	92.5
449.117	76.5
449.338	79.5
449.559	66.5
449.779	74.5
450	82.5
450.221	77.5
450.442	74.5
450.662	73.5
450.883	76.5
451.104	88.5
451.324	93.5
451.545	89.5
451.766	72.5
451.986	76.5
452.207	81.5
452.428	70.5
452.648	72.5
452.869	79.5
453.089	70.5
453.31	75.5
453.53	81.5
453.751	69.5
453.971	76.5
454.192	87.5
454.412	80.5
454.633	87.5
454.853	77.5
455.073	72.5
455.294	80.5
455.514	82.5
455.734	70.5
455.955	93.5
456.175	99.5
456.395	81.5
456.616	86.5
456.836	76.5
457.056	64.5
457.276	72.5
457.497	70.5
457.717	78.5
457.937	74.5
458.157	73.5
458.377	75.5
458.598	64.5
458.818	78.5
459.038	78.5
459.258	69.5
459.478	77.5
459.698	70.5
459.918	73.5
460.138	76.5
460.358	85.5
460.578	71.5
460.798	83.5
461.018	84.5
461.238	77.5
461.458	77.5
461.678	74.5
461.898	84.5
462.118	72.5
462.338	77.5
462.558	77.5
462.777	67.5
462.997	84.5
463.217	81.5
463.437	68.5
463.657	88.5
463.876	72.5
464.096	89.5
464.316	72.5
464.536	61.5
464.755	70.5
464.975	75.5
465.195	78.5
465.414	85.5
465.634	87.5
465.854	83.5
466.073	92.5
466.293	75.5
466.512	60.5
466.732	74.5
466.951	76.5
467.171	77.5
467.391	77.5
467.61	74.5
467.829	72.5
468.049	82.5
468.268	71.5
468.488	72.5
468.707	74.5
468.927	84.5
469.146	76.5
469.365	62.5
469.585	80.5
469.804	80.5
470.023	74.5
470.243	67.5
470.462	68.5
470.681	85.5
470.901	72.5
471.12	70.5
471.339	73.5
471.558	82.5
471.777	79.5
471.997	85.5
472.216	80.5
472.435	74.5
472.654	71.5
472.873	80.5
473.092	76.5
473.311	87.5
473.53	84.5
473.749	88.5
473.968	85.5
474.187	66.5
474.406	63.5
474.625	70.5
474.844	69.5
475.063	80.5
475.282	74.5
475.501	77.5
475.72	89.5
475.939	78.5
476.158	64.5
476.377	82.5
476.596	82.5
476.814	67.5
477.033	67.5
477.252	71.5
477.471	80.5
477.69	82.5
477.908	68.5
478.127	78.5
478.346	77.5
478.564	72.5
478.783	86.5
479.002	73.5
479.22	75.5
479.439	72.5
479.658	74.5
479.876	77.5
480.095	77.5
480.313	84.5
480.532	83.5
480.751	74.5
480.969	73.5
481.188	84.5
481.406	80.5
481.624	72.5
481.843	84.5
482.061	69.5
482.28	74.5
482.498	84.5
482.717	61.5
482.935	94.5
483.153	74.5
483.372	78.5
483.59	84.5
483.808	77.5
484.027	78.5
484.245	81.5
484.463	77.5
484.681	86.5
484.9	72.5
485.118	84.5
485.336	76.5
485.554	64.5
485.772	62.5
485.99	76.5
486.209	69.5
486.427	69.5
486.645	81.5
486.863	66.5
487.081	76.5
487.299	81.5
487.517	78.5
487.735	80.5
487.953	96.5
488.171	82.5
488.389	81.5
488.607	75.5
488.825	77.5
489.043	88.5
489.261	92.5
489.479	88.5
489.696	71.5
489.914	60.5
490.132	82.5
490.35	74.5
490.568	85.5
490.786	72.5
491.003	82.5
491.221	80.5
491.439	82.5
491.657	79.5
491.874	78.5
492.092	76.5
492.31	73.5
492.527	86.5
492.745	68.5
492.963	74.5
493.18	79.5
493.398	84.5
493.615	76.5
493.833	88.5
494.05	84.5
494.268	83.5
494.485	72.5
494.703	89.5
494.92	85.5
495.138	79.5
495.355	81.5
495.573	76.5
495.79	85.5
496.008	77.5
496.225	82.5
496.442	91.5
496.66	88.5
496.877	83.5
497.094	70.5
497.312	72.5
497.529	84.5
497.746	72.5
497.963	81.5
498.181	81.5
498.398	75.5
498.615	93.5
498.832	79.5
499.049	81.5
499.267	73.5
499.484	71.5
499.701	69.5
499.918	75.5
500.135	78.5
500.352	80.5
500.569	83.5
500.786	71.5
501.003	89.5
501.22	78.5
501.437	83.5
501.654	91.5
501.871	84.5
502.088	74.5
502.305	73.5
502.522	74.5
502.739	72.5
502.956	65.5
503.172	74.5
503.389	79.5
503.606	68.5
503.823	64.5
504.04	76.5
504.256	87.5
504.473	80.5
504.69	86.5
504.907	77.5
505.123	78.5
505.34	61.5
505.557	84.5
505.773	82.5
505.99	74.5
506.207	86.5
506.423	90.5
506.64	80.5
506.856	82.5
507.073	81.5
507.289	81.5
507.506	84.5
507.722	62.5
507.939	67.5
508.155	85.5
508.372	80.5
508.588	76.5
508.805	102.5
509.021	85.5
509.238	88.5
509.454	77.5
509.67	82.5
509.887	77.5
510.103	65.5
510.319	79.5
510.536	89.5
510.752	82.5
510.968	65.5
511.184	59.5
511.401	72.5
511.617	88.5
511.833	98.5
512.049	76.5
512.265	89.5
512.481	72.5
512.698	76.5
512.914	73.5
513.13	77.5
513.346	81.5
513.562	74.5
513.778	61.5
513.994	81.5
514.21	74.5
514.426	76.5
514.642	84.5
514.858	86.5
515.074	76.5
515.29	76.5
515.506	84.5
515.721	72.5
515.937	72.5
516.153	80.5
516.369	72.5
516.585	70.5
516.801	72.5
517.016	82.5
517.232	72.5
517.448	61.5
517.664	77.5
517.879	67.5
518.095	78.5
518.311	80.5
518.527	94.5
518.742	74.5
518.958	69.5
519.173	69.5
519.389	79.5
519.605	69.5
519.82	80.5
520.036	70.5
520.251	78.5
520.467	76.5
520.682	65.5
520.898	87.5
521.113	99.5
521.329	80.5
521.544	71.5
521.76	84.5
521.975	70.5
522.19	80.5
522.406	82.5
522.621	89.5
522.836	78.5
523.052	88.5
523.267	76.5
523.482	78.5
523.698	76.5
523.913	77.5
524.128	84.5
524.343	92.5
524.559	76.5
524.774	81.5
524.989	93.5
525.204	81.5
525.419	61.5
525.634	76.5
525.849	81.5
526.064	72.5
526.28	76.5
526.495	72.5
526.71	80.5
526.925	70.5
527.14	72.5
527.355	80.5
527.57	77.5
527.785	88.5
527.999	77.5
528.214	74.5
528.429	85.5
528.644	83.5
528.859	78.5
529.074	70.5
529.289	73.5
529.503	58.5
529.718	100.5
529.933	87.5
530.148	79.5
530.363	73.5
530.577	66.5
530.792	90.5
531.007	75.5
531.221	76.5
531.436	66.5
531.651	70.5
531.865	79.5
532.08	78.5
532.295	83.5
532.509	78.5
532.724	91.5
532.938	84.5
533.153	81.5
533.367	80.5
533.582	80.5
533.796	73.5
534.011	81.5
534.225	70.5
534.44	81.5
534.654	73.5
534.868	92.5
535.083	74.5
535.297	82.5
535.511	66.5
535.726	87.5
535.94	87.5
536.154	84.5
536.369	77.5
536.583	73.5
536.797	85.5
537.011	81.5
537.225	66.5
537.44	83.5
537.654	97.5
537.868	72.5
538.082	77.5
538.296	80.5
538.51	89.5
538.724	80.5
538.938	95.5
539.153	88.5
539.367	70.5
539.581	70.5
539.795	87.5
540.009	89.5
540.222	70.5
540.436	84.5
540.65	66.5
