Data from Background_3_HRD10591_00048.txt Node
Date: Wed Nov 05 14:49:43 EST 2025
User: Yrep
Spectrometer: HR+D1059
Trigger mode: 1
Integration Time (sec): 1.000000E-1
Scans to average: 1
Electric dark correction enabled: true
Nonlinearity correction enabled: false
Boxcar width: 0
XAxis mode: Wavelengths
Number of Pixels in Spectrum: 2048
>>>>>Begin Spectral Data<<<<<
223.165	-5.94
223.4	-5.94
223.635	-5.94
223.869	-9.94
224.104	-27.94
224.338	-13.94
224.573	-6.94
224.808	-8.94
225.042	-10.94
225.277	13.06
225.511	4.06
225.746	4.06
225.98	-8.94
226.215	-6.94
226.449	22.06
226.683	10.06
226.918	23.06
227.152	24.06
227.387	48.06
227.621	30.06
227.856	55.06
228.09	32.06
228.324	40.06
228.559	62.06
228.793	58.06
229.027	71.06
229.262	71.06
229.496	65.06
229.73	73.06
229.964	88.06
230.199	77.06
230.433	72.06
230.667	96.06
230.901	67.06
231.136	80.06
231.37	95.06
231.604	76.06
231.838	78.06
232.072	83.06
232.306	75.06
232.541	85.06
232.775	78.06
233.009	86.06
233.243	73.06
233.477	90.06
233.711	72.06
233.945	71.06
234.179	87.06
234.413	79.06
234.647	74.06
234.881	94.06
235.115	80.06
235.349	82.06
235.583	85.06
235.817	77.06
236.051	86.06
236.285	82.06
236.519	72.06
236.753	83.06
236.987	85.06
237.221	71.06
237.455	84.06
237.689	84.06
237.922	87.06
238.156	77.06
238.39	78.06
238.624	70.06
238.858	72.06
239.091	89.06
239.325	81.06
239.559	77.06
239.793	97.06
240.027	91.06
240.26	83.06
240.494	65.06
240.728	84.06
240.961	80.06
241.195	103.06
241.429	80.06
241.662	78.06
241.896	71.06
242.13	87.06
242.363	89.06
242.597	80.06
242.83	88.06
243.064	88.06
243.298	82.06
243.531	76.06
243.765	79.06
243.998	80.06
244.232	81.06
244.465	80.06
244.699	79.06
244.932	79.06
245.166	73.06
245.399	83.06
245.633	82.06
245.866	92.06
246.099	90.06
246.333	84.06
246.566	90.06
246.8	83.06
247.033	81.06
247.266	79.06
247.5	91.06
247.733	77.06
247.966	82.06
248.2	109.06
248.433	72.06
248.666	89.06
248.899	88.06
249.133	73.06
249.366	82.06
249.599	78.06
249.832	75.06
250.066	96.06
250.299	87.06
250.532	92.06
250.765	83.06
250.998	82.06
251.231	87.06
251.465	91.06
251.698	93.06
251.931	95.06
252.164	89.06
252.397	91.06
252.63	70.06
252.863	87.06
253.096	85.06
253.329	82.06
253.562	85.06
253.795	92.06
254.028	80.06
254.261	64.06
254.494	80.06
254.727	80.06
254.96	82.06
255.193	75.06
255.426	79.06
255.659	72.06
255.892	88.06
256.124	77.06
256.357	72.06
256.59	88.06
256.823	81.06
257.056	79.06
257.289	81.06
257.521	86.06
257.754	85.06
257.987	89.06
258.22	86.06
258.452	66.06
258.685	71.06
258.918	80.06
259.151	93.06
259.383	84.06
259.616	82.06
259.849	79.06
260.081	72.06
260.314	76.06
260.547	86.06
260.779	77.06
261.012	91.06
261.244	90.06
261.477	91.06
261.71	88.06
261.942	77.06
262.175	79.06
262.407	85.06
262.64	81.06
262.872	89.06
263.105	68.06
263.337	87.06
263.57	81.06
263.802	88.06
264.035	97.06
264.267	95.06
264.499	97.06
264.732	86.06
264.964	90.06
265.197	87.06
265.429	92.06
265.661	83.06
265.894	82.06
266.126	95.06
266.358	84.06
266.591	89.06
266.823	94.06
267.055	90.06
267.287	101.06
267.52	86.06
267.752	78.06
267.984	90.06
268.216	69.06
268.448	87.06
268.681	87.06
268.913	86.06
269.145	80.06
269.377	81.06
269.609	88.06
269.841	93.06
270.073	75.06
270.306	88.06
270.538	97.06
270.77	94.06
271.002	99.06
271.234	86.06
271.466	81.06
271.698	87.06
271.93	84.06
272.162	96.06
272.394	68.06
272.626	85.06
272.858	86.06
273.09	82.06
273.322	100.06
273.553	89.06
273.785	83.06
274.017	86.06
274.249	81.06
274.481	78.06
274.713	78.06
274.945	90.06
275.176	64.06
275.408	78.06
275.64	78.06
275.872	67.06
276.104	82.06
276.335	92.06
276.567	101.06
276.799	84.06
277.031	89.06
277.262	95.06
277.494	92.06
277.726	84.06
277.957	77.06
278.189	84.06
278.421	73.06
278.652	89.06
278.884	88.06
279.115	83.06
279.347	103.06
279.579	81.06
279.81	81.06
280.042	93.06
280.273	95.06
280.505	89.06
280.736	86.06
280.968	89.06
281.199	92.06
281.431	92.06
281.662	88.06
281.894	79.06
282.125	67.06
282.356	96.06
282.588	82.06
282.819	77.06
283.051	85.06
283.282	75.06
283.513	78.06
283.745	84.06
283.976	85.06
284.207	83.06
284.439	89.06
284.67	96.06
284.901	89.06
285.132	82.06
285.364	98.06
285.595	105.06
285.826	93.06
286.057	99.06
286.288	90.06
286.52	97.06
286.751	92.06
286.982	95.06
287.213	76.06
287.444	87.06
287.675	80.06
287.906	91.06
288.138	93.06
288.369	89.06
288.6	85.06
288.831	91.06
289.062	96.06
289.293	88.06
289.524	83.06
289.755	101.06
289.986	89.06
290.217	86.06
290.448	95.06
290.679	74.06
290.91	87.06
291.141	78.06
291.371	92.06
291.602	86.06
291.833	89.06
292.064	112.06
292.295	96.06
292.526	84.06
292.757	87.06
292.987	85.06
293.218	83.06
293.449	84.06
293.68	85.06
293.91	88.06
294.141	89.06
294.372	97.06
294.603	95.06
294.833	73.06
295.064	90.06
295.295	87.06
295.525	78.06
295.756	82.06
295.987	84.06
296.217	96.06
296.448	94.06
296.679	93.06
296.909	80.06
297.14	82.06
297.37	90.06
297.601	95.06
297.831	88.06
298.062	86.06
298.292	96.06
298.523	80.06
298.753	85.06
298.984	75.06
299.214	74.06
299.445	78.06
299.675	85.06
299.905	73.06
300.136	92.06
300.366	98.06
300.597	90.06
300.827	75.06
301.057	93.06
301.288	88.06
301.518	84.06
301.748	84.06
301.979	102.06
302.209	99.06
302.439	93.06
302.669	79.06
302.9	87.06
303.13	84.06
303.36	88.06
303.59	84.06
303.82	93.06
304.051	100.06
304.281	81.06
304.511	95.06
304.741	98.06
304.971	80.06
305.201	78.06
305.431	77.06
305.661	94.06
305.891	89.06
306.121	94.06
306.352	90.06
306.582	82.06
306.812	93.06
307.042	93.06
307.272	87.06
307.502	82.06
307.731	86.06
307.961	94.06
308.191	90.06
308.421	82.06
308.651	92.06
308.881	88.06
309.111	95.06
309.341	95.06
309.571	96.06
309.8	97.06
310.03	77.06
310.26	91.06
310.49	84.06
310.72	95.06
310.949	94.06
311.179	89.06
311.409	94.06
311.639	79.06
311.868	82.06
312.098	94.06
312.328	81.06
312.557	97.06
312.787	88.06
313.017	80.06
313.246	96.06
313.476	86.06
313.706	87.06
313.935	84.06
314.165	109.06
314.394	73.06
314.624	94.06
314.853	80.06
315.083	89.06
315.312	87.06
315.542	75.06
315.771	78.06
316.001	90.06
316.23	80.06
316.46	74.06
316.689	89.06
316.919	73.06
317.148	91.06
317.377	81.06
317.607	78.06
317.836	92.06
318.065	100.06
318.295	69.06
318.524	89.06
318.753	103.06
318.983	90.06
319.212	81.06
319.441	73.06
319.67	93.06
319.9	101.06
320.129	90.06
320.358	79.06
320.587	102.06
320.816	88.06
321.046	87.06
321.275	93.06
321.504	86.06
321.733	100.06
321.962	80.06
322.191	80.06
322.42	78.06
322.649	87.06
322.878	99.06
323.108	90.06
323.337	95.06
323.566	96.06
323.795	88.06
324.024	86.06
324.253	93.06
324.482	92.06
324.71	104.06
324.939	96.06
325.168	99.06
325.397	94.06
325.626	76.06
325.855	85.06
326.084	87.06
326.313	88.06
326.542	90.06
326.77	81.06
326.999	92.06
327.228	90.06
327.457	99.06
327.686	87.06
327.914	89.06
328.143	91.06
328.372	86.06
328.6	95.06
328.829	92.06
329.058	85.06
329.287	96.06
329.515	95.06
329.744	90.06
329.972	92.06
330.201	94.06
330.43	90.06
330.658	100.06
330.887	95.06
331.115	96.06
331.344	93.06
331.572	86.06
331.801	78.06
332.03	83.06
332.258	83.06
332.486	83.06
332.715	98.06
332.943	73.06
333.172	80.06
333.4	82.06
333.629	96.06
333.857	90.06
334.085	109.06
334.314	82.06
334.542	97.06
334.771	87.06
334.999	89.06
335.227	85.06
335.455	86.06
335.684	85.06
335.912	98.06
336.14	96.06
336.369	88.06
336.597	82.06
336.825	86.06
337.053	81.06
337.281	99.06
337.51	98.06
337.738	83.06
337.966	83.06
338.194	89.06
338.422	92.06
338.65	71.06
338.878	86.06
339.106	83.06
339.334	108.06
339.562	92.06
339.79	88.06
340.018	89.06
340.246	72.06
340.474	91.06
340.702	88.06
340.93	82.06
341.158	84.06
341.386	93.06
341.614	93.06
341.842	92.06
342.07	86.06
342.298	70.06
342.526	80.06
342.754	84.06
342.981	90.06
343.209	90.06
343.437	96.06
343.665	88.06
343.893	71.06
344.12	86.06
344.348	97.06
344.576	86.06
344.804	79.06
345.031	73.06
345.259	82.06
345.487	93.06
345.714	90.06
345.942	82.06
346.17	96.06
346.397	86.06
346.625	89.06
346.853	85.06
347.08	82.06
347.308	104.06
347.535	91.06
347.763	92.06
347.99	90.06
348.218	101.06
348.445	90.06
348.673	99.06
348.9	92.06
349.128	97.06
349.355	93.06
349.583	85.06
349.81	86.06
350.037	94.06
350.265	68.06
350.492	96.06
350.72	84.06
350.947	99.06
351.174	99.06
351.402	80.06
351.629	91.06
351.856	97.06
352.083	88.06
352.311	79.06
352.538	80.06
352.765	76.06
352.992	81.06
353.22	102.06
353.447	87.06
353.674	96.06
353.901	86.06
354.128	83.06
354.355	79.06
354.583	99.06
354.81	82.06
355.037	83.06
355.264	112.06
355.491	84.06
355.718	79.06
355.945	85.06
356.172	101.06
356.399	94.06
356.626	91.06
356.853	90.06
357.08	81.06
357.307	88.06
357.534	84.06
357.761	89.06
357.988	72.06
358.215	99.06
358.441	88.06
358.668	69.06
358.895	81.06
359.122	82.06
359.349	88.06
359.576	91.06
359.802	95.06
360.029	82.06
360.256	70.06
360.483	84.06
360.709	88.06
360.936	83.06
361.163	79.06
361.39	96.06
361.616	87.06
361.843	90.06
362.07	98.06
362.296	87.06
362.523	80.06
362.749	101.06
362.976	82.06
363.203	85.06
363.429	89.06
363.656	85.06
363.882	83.06
364.109	82.06
364.335	84.06
364.562	82.06
364.788	89.06
365.015	101.06
365.241	94.06
365.468	81.06
365.694	85.06
365.92	89.06
366.147	90.06
366.373	90.06
366.599	90.06
366.826	95.06
367.052	89.06
367.278	84.06
367.505	88.06
367.731	97.06
367.957	93.06
368.184	84.06
368.41	75.06
368.636	89.06
368.862	90.06
369.089	89.06
369.315	93.06
369.541	90.06
369.767	88.06
369.993	89.06
370.219	94.06
370.445	95.06
370.672	82.06
370.898	69.06
371.124	85.06
371.35	67.06
371.576	89.06
371.802	95.06
372.028	93.06
372.254	80.06
372.48	88.06
372.706	85.06
372.932	90.06
373.158	86.06
373.384	86.06
373.61	94.06
373.835	88.06
374.061	91.06
374.287	103.06
374.513	80.06
374.739	84.06
374.965	96.06
375.191	70.06
375.416	85.06
375.642	96.06
375.868	104.06
376.094	84.06
376.319	94.06
376.545	101.06
376.771	97.06
376.997	75.06
377.222	76.06
377.448	81.06
377.674	86.06
377.899	110.06
378.125	91.06
378.35	89.06
378.576	87.06
378.802	90.06
379.027	79.06
379.253	90.06
379.478	79.06
379.704	88.06
379.929	86.06
380.155	96.06
380.38	97.06
380.606	94.06
380.831	92.06
381.057	83.06
381.282	87.06
381.507	82.06
381.733	84.06
381.958	94.06
382.184	81.06
382.409	88.06
382.634	78.06
382.86	81.06
383.085	95.06
383.31	85.06
383.535	89.06
383.761	85.06
383.986	81.06
384.211	88.06
384.436	74.06
384.662	88.06
384.887	74.06
385.112	106.06
385.337	90.06
385.562	93.06
385.787	91.06
386.013	79.06
386.238	75.06
386.463	78.06
386.688	93.06
386.913	90.06
387.138	95.06
387.363	80.06
387.588	82.06
387.813	93.06
388.038	75.06
388.263	86.06
388.488	88.06
388.713	84.06
388.938	89.06
389.163	88.06
389.387	82.06
389.612	86.06
389.837	82.06
390.062	83.06
390.287	92.06
390.512	80.06
390.736	92.06
390.961	95.06
391.186	88.06
391.411	85.06
391.636	84.06
391.86	78.06
392.085	87.06
392.31	90.06
392.534	94.06
392.759	97.06
392.984	83.06
393.208	92.06
393.433	92.06
393.658	83.06
393.882	83.06
394.107	89.06
394.331	90.06
394.556	94.06
394.78	78.06
395.005	98.06
395.229	86.06
395.454	102.06
395.678	87.06
395.903	79.06
396.127	89.06
396.352	86.06
396.576	78.06
396.801	92.06
397.025	82.06
397.249	78.06
397.474	66.06
397.698	78.06
397.922	92.06
398.147	90.06
398.371	92.06
398.595	93.06
398.82	92.06
399.044	88.06
399.268	73.06
399.492	86.06
399.717	84.06
399.941	92.06
400.165	94.06
400.389	89.06
400.613	78.06
400.837	74.06
401.062	101.06
401.286	92.06
401.51	80.06
401.734	86.06
401.958	90.06
402.182	85.06
402.406	78.06
402.63	84.06
402.854	90.06
403.078	80.06
403.302	89.06
403.526	87.06
403.75	71.06
403.974	89.06
404.198	89.06
404.422	88.06
404.645	94.06
404.869	79.06
405.093	96.06
405.317	96.06
405.541	78.06
405.765	91.06
405.988	77.06
406.212	97.06
406.436	86.06
406.66	88.06
406.883	85.06
407.107	70.06
407.331	74.06
407.555	85.06
407.778	96.06
408.002	74.06
408.226	80.06
408.449	94.06
408.673	77.06
408.896	68.06
409.12	81.06
409.344	82.06
409.567	76.06
409.791	79.06
410.014	89.06
410.238	71.06
410.461	81.06
410.685	86.06
410.908	86.06
411.132	76.06
411.355	82.06
411.578	80.06
411.802	61.06
412.025	91.06
412.249	86.06
412.472	79.06
412.695	78.06
412.919	83.06
413.142	87.06
413.365	88.06
413.589	93.06
413.812	100.06
414.035	97.06
414.258	93.06
414.482	71.06
414.705	92.06
414.928	89.06
415.151	84.06
415.374	84.06
415.597	88.06
415.821	96.06
416.044	85.06
416.267	90.06
416.49	84.06
416.713	90.06
416.936	74.06
417.159	85.06
417.382	74.06
417.605	80.06
417.828	97.06
418.051	86.06
418.274	103.06
418.497	93.06
418.72	77.06
418.943	89.06
419.166	101.06
419.389	86.06
419.611	95.06
419.834	92.06
420.057	86.06
420.28	74.06
420.503	87.06
420.726	78.06
420.948	87.06
421.171	95.06
421.394	84.06
421.617	89.06
421.839	81.06
422.062	89.06
422.285	89.06
422.507	93.06
422.73	77.06
422.953	84.06
423.175	94.06
423.398	89.06
423.621	82.06
423.843	103.06
424.066	86.06
424.288	95.06
424.511	75.06
424.733	88.06
424.956	86.06
425.178	90.06
425.401	95.06
425.623	86.06
425.846	92.06
426.068	92.06
426.291	84.06
426.513	90.06
426.735	88.06
426.958	86.06
427.18	65.06
427.402	89.06
427.625	88.06
427.847	83.06
428.069	94.06
428.292	81.06
428.514	97.06
428.736	107.06
428.958	89.06
429.181	79.06
429.403	90.06
429.625	78.06
429.847	81.06
430.069	84.06
430.292	81.06
430.514	89.06
430.736	65.06
430.958	84.06
431.18	100.06
431.402	93.06
431.624	76.06
431.846	79.06
432.068	81.06
432.29	77.06
432.512	90.06
432.734	83.06
432.956	98.06
433.178	97.06
433.4	98.06
433.622	85.06
433.844	82.06
434.066	78.06
434.287	89.06
434.509	85.06
434.731	88.06
434.953	95.06
435.175	90.06
435.397	85.06
435.618	80.06
435.84	80.06
436.062	87.06
436.284	74.06
436.505	91.06
436.727	87.06
436.949	94.06
437.17	80.06
437.392	84.06
437.614	76.06
437.835	87.06
438.057	100.06
438.278	82.06
438.5	72.06
438.721	84.06
438.943	80.06
439.165	94.06
439.386	102.06
439.608	82.06
439.829	87.06
440.05	71.06
440.272	93.06
440.493	94.06
440.715	85.06
440.936	88.06
441.158	88.06
441.379	92.06
441.6	83.06
441.822	80.06
442.043	88.06
442.264	84.06
442.486	73.06
442.707	80.06
442.928	88.06
443.149	76.06
443.371	85.06
443.592	80.06
443.813	68.06
444.034	101.06
444.255	68.06
444.476	80.06
444.698	90.06
444.919	88.06
445.14	136.06
445.361	120.06
445.582	84.06
445.803	85.06
446.024	77.06
446.245	80.06
446.466	86.06
446.687	88.06
446.908	80.06
447.129	87.06
447.35	85.06
447.571	74.06
447.792	71.06
448.013	89.06
448.234	92.06
448.455	93.06
448.675	82.06
448.896	93.06
449.117	98.06
449.338	85.06
449.559	90.06
449.779	83.06
450	94.06
450.221	89.06
450.442	78.06
450.662	95.06
450.883	91.06
451.104	68.06
451.324	97.06
451.545	91.06
451.766	84.06
451.986	82.06
452.207	89.06
452.428	82.06
452.648	81.06
452.869	88.06
453.089	81.06
453.31	95.06
453.53	81.06
453.751	97.06
453.971	84.06
454.192	90.06
454.412	78.06
454.633	93.06
454.853	79.06
455.073	94.06
455.294	99.06
455.514	88.06
455.734	91.06
455.955	90.06
456.175	86.06
456.395	90.06
456.616	99.06
456.836	84.06
457.056	76.06
457.276	73.06
457.497	96.06
457.717	89.06
457.937	80.06
458.157	80.06
458.377	90.06
458.598	86.06
458.818	89.06
459.038	75.06
459.258	80.06
459.478	80.06
459.698	84.06
459.918	92.06
460.138	94.06
460.358	87.06
460.578	81.06
460.798	89.06
461.018	88.06
461.238	89.06
461.458	76.06
461.678	80.06
461.898	89.06
462.118	82.06
462.338	84.06
462.558	102.06
462.777	86.06
462.997	92.06
463.217	94.06
463.437	76.06
463.657	103.06
463.876	102.06
464.096	83.06
464.316	78.06
464.536	88.06
464.755	64.06
464.975	90.06
465.195	89.06
465.414	77.06
465.634	88.06
465.854	86.06
466.073	90.06
466.293	93.06
466.512	85.06
466.732	92.06
466.951	90.06
467.171	96.06
467.391	92.06
467.61	98.06
467.829	87.06
468.049	84.06
468.268	84.06
468.488	81.06
468.707	70.06
468.927	80.06
469.146	70.06
469.365	89.06
469.585	85.06
469.804	68.06
470.023	72.06
470.243	83.06
470.462	90.06
470.681	92.06
470.901	77.06
471.12	64.06
471.339	84.06
471.558	78.06
471.777	81.06
471.997	93.06
472.216	87.06
472.435	93.06
472.654	97.06
472.873	92.06
473.092	90.06
473.311	80.06
473.53	88.06
473.749	84.06
473.968	73.06
474.187	94.06
474.406	89.06
474.625	81.06
474.844	88.06
475.063	89.06
475.282	73.06
475.501	92.06
475.72	89.06
475.939	89.06
476.158	85.06
476.377	83.06
476.596	76.06
476.814	85.06
477.033	89.06
477.252	94.06
477.471	84.06
477.69	85.06
477.908	81.06
478.127	80.06
478.346	84.06
478.564	87.06
478.783	89.06
479.002	89.06
479.22	70.06
479.439	91.06
479.658	84.06
479.876	96.06
480.095	79.06
480.313	92.06
480.532	83.06
480.751	92.06
480.969	90.06
481.188	102.06
481.406	98.06
481.624	94.06
481.843	82.06
482.061	83.06
482.28	88.06
482.498	89.06
482.717	70.06
482.935	76.06
483.153	76.06
483.372	90.06
483.59	79.06
483.808	82.06
484.027	85.06
484.245	87.06
484.463	83.06
484.681	97.06
484.9	101.06
485.118	90.06
485.336	97.06
485.554	89.06
485.772	80.06
485.99	97.06
486.209	97.06
486.427	78.06
486.645	96.06
486.863	93.06
487.081	77.06
487.299	84.06
487.517	82.06
487.735	76.06
487.953	75.06
488.171	80.06
488.389	89.06
488.607	94.06
488.825	88.06
489.043	83.06
489.261	92.06
489.479	83.06
489.696	78.06
489.914	104.06
490.132	86.06
490.35	73.06
490.568	65.06
490.786	77.06
491.003	87.06
491.221	86.06
491.439	89.06
491.657	84.06
491.874	88.06
492.092	86.06
492.31	79.06
492.527	79.06
492.745	78.06
492.963	77.06
493.18	78.06
493.398	85.06
493.615	66.06
493.833	80.06
494.05	82.06
494.268	74.06
494.485	82.06
494.703	95.06
494.92	78.06
495.138	92.06
495.355	81.06
495.573	78.06
495.79	95.06
496.008	89.06
496.225	78.06
496.442	87.06
496.66	99.06
496.877	88.06
497.094	108.06
497.312	86.06
497.529	90.06
497.746	84.06
497.963	94.06
498.181	106.06
498.398	80.06
498.615	85.06
498.832	80.06
499.049	82.06
499.267	85.06
499.484	88.06
499.701	83.06
499.918	90.06
500.135	79.06
500.352	81.06
500.569	59.06
500.786	89.06
501.003	87.06
501.22	73.06
501.437	74.06
501.654	98.06
501.871	90.06
502.088	85.06
502.305	100.06
502.522	78.06
502.739	98.06
502.956	84.06
503.172	87.06
503.389	86.06
503.606	96.06
503.823	91.06
504.04	90.06
504.256	91.06
504.473	66.06
504.69	78.06
504.907	89.06
505.123	82.06
505.34	73.06
505.557	89.06
505.773	91.06
505.99	80.06
506.207	96.06
506.423	85.06
506.64	83.06
506.856	93.06
507.073	92.06
507.289	79.06
507.506	75.06
507.722	87.06
507.939	91.06
508.155	81.06
508.372	82.06
508.588	88.06
508.805	92.06
509.021	70.06
509.238	83.06
509.454	94.06
509.67	88.06
509.887	94.06
510.103	84.06
510.319	85.06
510.536	87.06
510.752	88.06
510.968	75.06
511.184	93.06
511.401	84.06
511.617	80.06
511.833	96.06
512.049	92.06
512.265	82.06
512.481	87.06
512.698	81.06
512.914	92.06
513.13	82.06
513.346	98.06
513.562	80.06
513.778	94.06
513.994	80.06
514.21	82.06
514.426	84.06
514.642	86.06
514.858	96.06
515.074	87.06
515.29	104.06
515.506	98.06
515.721	86.06
515.937	112.06
516.153	96.06
516.369	85.06
516.585	87.06
516.801	73.06
517.016	88.06
517.232	95.06
517.448	82.06
517.664	85.06
517.879	92.06
518.095	74.06
518.311	80.06
518.527	88.06
518.742	89.06
518.958	71.06
519.173	80.06
519.389	88.06
