Data from Background_3_HRD10591_00002.txt Node
Date: Wed Nov 05 14:49:21 EST 2025
User: Yrep
Spectrometer: HR+D1059
Trigger mode: 1
Integration Time (sec): 1.000000E-1
Scans to average: 1
Electric dark correction enabled: true
Nonlinearity correction enabled: false
Boxcar width: 0
XAxis mode: Wavelengths
Number of Pixels in Spectrum: 2048
>>>>>Begin Spectral Data<<<<<
223.165	-4.81
223.4	-4.81
223.635	-4.81
223.869	-10.81
224.104	-32.81
224.338	-15.81
224.573	-16.81
224.808	-24.81
225.042	-5.81
225.277	-10.81
225.511	5.19
225.746	-2.81
225.98	7.19
226.215	5.19
226.449	17.19
226.683	22.19
226.918	32.19
227.152	36.19
227.387	41.19
227.621	51.19
227.856	56.19
228.09	41.19
228.324	50.19
228.559	55.19
228.793	61.19
229.027	51.19
229.262	68.19
229.496	56.19
229.73	66.19
229.964	73.19
230.199	82.19
230.433	76.19
230.667	77.19
230.901	87.19
231.136	79.19
231.37	80.19
231.604	82.19
231.838	82.19
232.072	95.19
232.306	83.19
232.541	80.19
232.775	73.19
233.009	79.19
233.243	67.19
233.477	83.19
233.711	79.19
233.945	81.19
234.179	92.19
234.413	81.19
234.647	74.19
234.881	71.19
235.115	72.19
235.349	76.19
235.583	93.19
235.817	81.19
236.051	91.19
236.285	71.19
236.519	89.19
236.753	83.19
236.987	79.19
237.221	81.19
237.455	82.19
237.689	86.19
237.922	83.19
238.156	68.19
238.39	77.19
238.624	79.19
238.858	82.19
239.091	66.19
239.325	70.19
239.559	75.19
239.793	78.19
240.027	75.19
240.26	84.19
240.494	76.19
240.728	66.19
240.961	74.19
241.195	64.19
241.429	79.19
241.662	85.19
241.896	94.19
242.13	77.19
242.363	83.19
242.597	87.19
242.83	87.19
243.064	85.19
243.298	83.19
243.531	93.19
243.765	84.19
243.998	77.19
244.232	71.19
244.465	80.19
244.699	81.19
244.932	87.19
245.166	70.19
245.399	87.19
245.633	78.19
245.866	77.19
246.099	73.19
246.333	96.19
246.566	88.19
246.8	78.19
247.033	86.19
247.266	87.19
247.5	78.19
247.733	91.19
247.966	81.19
248.2	72.19
248.433	81.19
248.666	79.19
248.899	98.19
249.133	91.19
249.366	100.19
249.599	93.19
249.832	81.19
250.066	80.19
250.299	80.19
250.532	84.19
250.765	84.19
250.998	68.19
251.231	72.19
251.465	87.19
251.698	97.19
251.931	69.19
252.164	85.19
252.397	81.19
252.63	86.19
252.863	77.19
253.096	66.19
253.329	92.19
253.562	89.19
253.795	82.19
254.028	85.19
254.261	79.19
254.494	87.19
254.727	85.19
254.96	71.19
255.193	88.19
255.426	82.19
255.659	78.19
255.892	86.19
256.124	89.19
256.357	74.19
256.59	70.19
256.823	88.19
257.056	89.19
257.289	79.19
257.521	81.19
257.754	80.19
257.987	79.19
258.22	63.19
258.452	79.19
258.685	81.19
258.918	81.19
259.151	79.19
259.383	81.19
259.616	89.19
259.849	90.19
260.081	85.19
260.314	90.19
260.547	74.19
260.779	97.19
261.012	86.19
261.244	74.19
261.477	78.19
261.71	101.19
261.942	85.19
262.175	82.19
262.407	92.19
262.64	77.19
262.872	107.19
263.105	84.19
263.337	87.19
263.57	78.19
263.802	77.19
264.035	89.19
264.267	85.19
264.499	88.19
264.732	84.19
264.964	85.19
265.197	82.19
265.429	87.19
265.661	88.19
265.894	87.19
266.126	88.19
266.358	75.19
266.591	87.19
266.823	92.19
267.055	85.19
267.287	70.19
267.52	91.19
267.752	84.19
267.984	81.19
268.216	84.19
268.448	85.19
268.681	81.19
268.913	83.19
269.145	84.19
269.377	82.19
269.609	78.19
269.841	85.19
270.073	91.19
270.306	74.19
270.538	70.19
270.77	89.19
271.002	82.19
271.234	68.19
271.466	85.19
271.698	92.19
271.93	83.19
272.162	91.19
272.394	87.19
272.626	72.19
272.858	77.19
273.09	96.19
273.322	88.19
273.553	83.19
273.785	87.19
274.017	94.19
274.249	80.19
274.481	81.19
274.713	76.19
274.945	96.19
275.176	87.19
275.408	82.19
275.64	82.19
275.872	79.19
276.104	79.19
276.335	94.19
276.567	87.19
276.799	87.19
277.031	88.19
277.262	68.19
277.494	89.19
277.726	93.19
277.957	80.19
278.189	94.19
278.421	80.19
278.652	79.19
278.884	83.19
279.115	87.19
279.347	83.19
279.579	94.19
279.81	91.19
280.042	96.19
280.273	85.19
280.505	87.19
280.736	77.19
280.968	85.19
281.199	92.19
281.431	83.19
281.662	81.19
281.894	80.19
282.125	77.19
282.356	84.19
282.588	84.19
282.819	79.19
283.051	86.19
283.282	78.19
283.513	83.19
283.745	86.19
283.976	81.19
284.207	77.19
284.439	91.19
284.67	106.19
284.901	74.19
285.132	76.19
285.364	82.19
285.595	85.19
285.826	80.19
286.057	73.19
286.288	84.19
286.52	97.19
286.751	93.19
286.982	77.19
287.213	86.19
287.444	96.19
287.675	80.19
287.906	87.19
288.138	77.19
288.369	77.19
288.6	73.19
288.831	85.19
289.062	83.19
289.293	94.19
289.524	91.19
289.755	77.19
289.986	83.19
290.217	77.19
290.448	68.19
290.679	76.19
290.91	80.19
291.141	85.19
291.371	87.19
291.602	91.19
291.833	80.19
292.064	86.19
292.295	76.19
292.526	85.19
292.757	88.19
292.987	93.19
293.218	93.19
293.449	86.19
293.68	81.19
293.91	93.19
294.141	87.19
294.372	91.19
294.603	85.19
294.833	89.19
295.064	78.19
295.295	81.19
295.525	81.19
295.756	100.19
295.987	85.19
296.217	80.19
296.448	83.19
296.679	94.19
296.909	86.19
297.14	99.19
297.37	89.19
297.601	82.19
297.831	85.19
298.062	84.19
298.292	101.19
298.523	91.19
298.753	89.19
298.984	85.19
299.214	84.19
299.445	86.19
299.675	82.19
299.905	81.19
300.136	77.19
300.366	83.19
300.597	81.19
300.827	81.19
301.057	87.19
301.288	89.19
301.518	88.19
301.748	77.19
301.979	106.19
302.209	81.19
302.439	88.19
302.669	84.19
302.9	75.19
303.13	85.19
303.36	99.19
303.59	80.19
303.82	91.19
304.051	85.19
304.281	90.19
304.511	94.19
304.741	92.19
304.971	80.19
305.201	92.19
305.431	87.19
305.661	87.19
305.891	99.19
306.121	91.19
306.352	81.19
306.582	86.19
306.812	79.19
307.042	75.19
307.272	89.19
307.502	93.19
307.731	84.19
307.961	84.19
308.191	74.19
308.421	70.19
308.651	89.19
308.881	87.19
309.111	73.19
309.341	79.19
309.571	91.19
309.8	79.19
310.03	92.19
310.26	92.19
310.49	77.19
310.72	87.19
310.949	85.19
311.179	77.19
311.409	81.19
311.639	95.19
311.868	111.19
312.098	93.19
312.328	88.19
312.557	99.19
312.787	77.19
313.017	78.19
313.246	79.19
313.476	77.19
313.706	77.19
313.935	79.19
314.165	63.19
314.394	87.19
314.624	78.19
314.853	95.19
315.083	77.19
315.312	93.19
315.542	88.19
315.771	93.19
316.001	74.19
316.23	83.19
316.46	92.19
316.689	87.19
316.919	79.19
317.148	78.19
317.377	83.19
317.607	91.19
317.836	87.19
318.065	85.19
318.295	75.19
318.524	79.19
318.753	62.19
318.983	79.19
319.212	81.19
319.441	87.19
319.67	76.19
319.9	91.19
320.129	88.19
320.358	86.19
320.587	86.19
320.816	79.19
321.046	87.19
321.275	88.19
321.504	87.19
321.733	90.19
321.962	94.19
322.191	94.19
322.42	85.19
322.649	97.19
322.878	70.19
323.108	89.19
323.337	86.19
323.566	87.19
323.795	84.19
324.024	81.19
324.253	85.19
324.482	89.19
324.71	74.19
324.939	91.19
325.168	74.19
325.397	73.19
325.626	85.19
325.855	87.19
326.084	99.19
326.313	86.19
326.542	77.19
326.77	100.19
326.999	68.19
327.228	93.19
327.457	86.19
327.686	76.19
327.914	86.19
328.143	102.19
328.372	100.19
328.6	103.19
328.829	94.19
329.058	91.19
329.287	94.19
329.515	88.19
329.744	80.19
329.972	96.19
330.201	93.19
330.43	90.19
330.658	73.19
330.887	83.19
331.115	84.19
331.344	93.19
331.572	93.19
331.801	86.19
332.03	82.19
332.258	86.19
332.486	70.19
332.715	81.19
332.943	87.19
333.172	80.19
333.4	89.19
333.629	80.19
333.857	75.19
334.085	92.19
334.314	91.19
334.542	71.19
334.771	76.19
334.999	79.19
335.227	77.19
335.455	93.19
335.684	85.19
335.912	92.19
336.14	101.19
336.369	79.19
336.597	77.19
336.825	78.19
337.053	96.19
337.281	83.19
337.51	84.19
337.738	92.19
337.966	79.19
338.194	98.19
338.422	82.19
338.65	103.19
338.878	73.19
339.106	83.19
339.334	86.19
339.562	80.19
339.79	76.19
340.018	77.19
340.246	76.19
340.474	84.19
340.702	79.19
340.93	77.19
341.158	79.19
341.386	90.19
341.614	88.19
341.842	94.19
342.07	78.19
342.298	85.19
342.526	91.19
342.754	88.19
342.981	86.19
343.209	88.19
343.437	86.19
343.665	80.19
343.893	86.19
344.12	91.19
344.348	88.19
344.576	88.19
344.804	82.19
345.031	94.19
345.259	88.19
345.487	86.19
345.714	84.19
345.942	86.19
346.17	82.19
346.397	85.19
346.625	83.19
346.853	95.19
347.08	102.19
347.308	98.19
347.535	82.19
347.763	72.19
347.99	81.19
348.218	93.19
348.445	92.19
348.673	80.19
348.9	77.19
349.128	98.19
349.355	77.19
349.583	77.19
349.81	85.19
350.037	74.19
350.265	81.19
350.492	96.19
350.72	83.19
350.947	85.19
351.174	93.19
351.402	93.19
351.629	85.19
351.856	88.19
352.083	84.19
352.311	98.19
352.538	81.19
352.765	88.19
352.992	93.19
353.22	95.19
353.447	80.19
353.674	79.19
353.901	91.19
354.128	96.19
354.355	83.19
354.583	81.19
354.81	82.19
355.037	86.19
355.264	95.19
355.491	79.19
355.718	73.19
355.945	98.19
356.172	97.19
356.399	95.19
356.626	84.19
356.853	78.19
357.08	80.19
357.307	73.19
357.534	86.19
357.761	77.19
357.988	84.19
358.215	78.19
358.441	83.19
358.668	85.19
358.895	97.19
359.122	89.19
359.349	84.19
359.576	95.19
359.802	79.19
360.029	93.19
360.256	93.19
360.483	89.19
360.709	94.19
360.936	89.19
361.163	83.19
361.39	79.19
361.616	74.19
361.843	85.19
362.07	87.19
362.296	87.19
362.523	84.19
362.749	77.19
362.976	85.19
363.203	86.19
363.429	103.19
363.656	78.19
363.882	92.19
364.109	87.19
364.335	81.19
364.562	75.19
364.788	88.19
365.015	89.19
365.241	91.19
365.468	90.19
365.694	83.19
365.92	90.19
366.147	92.19
366.373	80.19
366.599	78.19
366.826	83.19
367.052	62.19
367.278	99.19
367.505	94.19
367.731	98.19
367.957	94.19
368.184	91.19
368.41	81.19
368.636	80.19
368.862	87.19
369.089	94.19
369.315	81.19
369.541	85.19
369.767	71.19
369.993	80.19
370.219	87.19
370.445	93.19
370.672	78.19
370.898	79.19
371.124	82.19
371.35	74.19
371.576	86.19
371.802	91.19
372.028	96.19
372.254	88.19
372.48	73.19
372.706	86.19
372.932	75.19
373.158	77.19
373.384	77.19
373.61	82.19
373.835	95.19
374.061	79.19
374.287	94.19
374.513	83.19
374.739	75.19
374.965	96.19
375.191	81.19
375.416	80.19
375.642	96.19
375.868	81.19
376.094	86.19
376.319	79.19
376.545	82.19
376.771	75.19
376.997	85.19
377.222	91.19
377.448	83.19
377.674	85.19
377.899	89.19
378.125	81.19
378.35	88.19
378.576	87.19
378.802	77.19
379.027	80.19
379.253	83.19
379.478	94.19
379.704	79.19
379.929	85.19
380.155	81.19
380.38	78.19
380.606	69.19
380.831	94.19
381.057	93.19
381.282	79.19
381.507	84.19
381.733	80.19
381.958	89.19
382.184	88.19
382.409	88.19
382.634	88.19
382.86	81.19
383.085	93.19
383.31	66.19
383.535	93.19
383.761	88.19
383.986	77.19
384.211	77.19
384.436	88.19
384.662	70.19
384.887	77.19
385.112	73.19
385.337	77.19
385.562	73.19
385.787	79.19
386.013	68.19
386.238	77.19
386.463	74.19
386.688	93.19
386.913	74.19
387.138	79.19
387.363	84.19
387.588	88.19
387.813	92.19
388.038	80.19
388.263	71.19
388.488	81.19
388.713	84.19
388.938	78.19
389.163	91.19
389.387	63.19
389.612	84.19
389.837	86.19
390.062	96.19
390.287	84.19
390.512	80.19
390.736	78.19
390.961	77.19
391.186	71.19
391.411	79.19
391.636	85.19
391.86	92.19
392.085	81.19
392.31	84.19
392.534	93.19
392.759	76.19
392.984	87.19
393.208	90.19
393.433	81.19
393.658	85.19
393.882	72.19
394.107	89.19
394.331	66.19
394.556	91.19
394.78	82.19
395.005	108.19
395.229	89.19
395.454	91.19
395.678	87.19
395.903	88.19
396.127	97.19
396.352	83.19
396.576	75.19
396.801	81.19
397.025	70.19
397.249	91.19
397.474	81.19
397.698	83.19
397.922	81.19
398.147	74.19
398.371	79.19
398.595	78.19
398.82	86.19
399.044	92.19
399.268	87.19
399.492	78.19
399.717	84.19
399.941	89.19
400.165	85.19
400.389	83.19
400.613	78.19
400.837	81.19
401.062	71.19
401.286	75.19
401.51	79.19
401.734	77.19
401.958	84.19
402.182	72.19
402.406	75.19
402.63	79.19
402.854	74.19
403.078	89.19
403.302	81.19
403.526	77.19
403.75	90.19
403.974	86.19
404.198	87.19
404.422	78.19
404.645	72.19
404.869	90.19
405.093	88.19
405.317	80.19
405.541	84.19
405.765	78.19
405.988	93.19
406.212	78.19
406.436	93.19
406.66	85.19
406.883	83.19
407.107	83.19
407.331	75.19
407.555	85.19
407.778	78.19
408.002	83.19
408.226	88.19
408.449	86.19
408.673	69.19
408.896	87.19
409.12	88.19
409.344	90.19
409.567	94.19
409.791	95.19
410.014	87.19
410.238	81.19
410.461	89.19
410.685	92.19
410.908	85.19
411.132	79.19
411.355	83.19
411.578	86.19
411.802	73.19
412.025	91.19
412.249	78.19
412.472	81.19
412.695	78.19
412.919	79.19
413.142	76.19
413.365	85.19
413.589	73.19
413.812	78.19
414.035	101.19
414.258	88.19
414.482	93.19
414.705	84.19
414.928	81.19
415.151	94.19
415.374	90.19
415.597	79.19
415.821	97.19
416.044	89.19
416.267	82.19
416.49	80.19
416.713	87.19
416.936	74.19
417.159	65.19
417.382	79.19
417.605	85.19
417.828	75.19
418.051	91.19
418.274	78.19
418.497	79.19
418.72	73.19
418.943	78.19
419.166	80.19
419.389	74.19
419.611	65.19
419.834	70.19
420.057	97.19
420.28	85.19
420.503	81.19
420.726	77.19
420.948	98.19
421.171	78.19
421.394	91.19
421.617	73.19
421.839	84.19
422.062	77.19
422.285	92.19
422.507	76.19
422.73	71.19
422.953	83.19
423.175	94.19
423.398	99.19
423.621	87.19
423.843	89.19
424.066	92.19
424.288	78.19
424.511	67.19
424.733	94.19
424.956	78.19
425.178	91.19
425.401	87.19
425.623	80.19
425.846	73.19
426.068	79.19
426.291	83.19
426.513	91.19
426.735	79.19
426.958	81.19
427.18	84.19
427.402	89.19
427.625	95.19
427.847	82.19
428.069	85.19
428.292	83.19
428.514	76.19
428.736	76.19
428.958	77.19
429.181	83.19
429.403	81.19
429.625	85.19
429.847	78.19
430.069	77.19
430.292	74.19
430.514	92.19
430.736	81.19
430.958	90.19
431.18	71.19
431.402	86.19
431.624	83.19
431.846	89.19
432.068	91.19
432.29	83.19
432.512	74.19
432.734	77.19
432.956	72.19
433.178	78.19
433.4	83.19
433.622	93.19
433.844	88.19
434.066	89.19
434.287	96.19
434.509	77.19
434.731	82.19
434.953	71.19
435.175	82.19
435.397	83.19
435.618	84.19
435.84	92.19
436.062	80.19
436.284	89.19
436.505	84.19
436.727	95.19
436.949	71.19
437.17	84.19
437.392	90.19
437.614	61.19
437.835	79.19
438.057	83.19
438.278	85.19
438.5	81.19
438.721	88.19
438.943	77.19
439.165	87.19
439.386	88.19
439.608	78.19
439.829	81.19
440.05	79.19
440.272	76.19
440.493	67.19
440.715	86.19
440.936	79.19
441.158	73.19
441.379	73.19
441.6	77.19
441.822	85.19
442.043	88.19
442.264	86.19
442.486	81.19
442.707	99.19
442.928	77.19
443.149	81.19
443.371	93.19
443.592	84.19
443.813	84.19
444.034	92.19
444.255	86.19
444.476	79.19
444.698	79.19
444.919	79.19
445.14	155.19
445.361	120.19
445.582	91.19
445.803	70.19
446.024	92.19
446.245	77.19
446.466	84.19
446.687	82.19
446.908	82.19
447.129	81.19
447.35	93.19
447.571	85.19
447.792	82.19
448.013	92.19
448.234	69.19
448.455	75.19
448.675	85.19
448.896	75.19
449.117	87.19
449.338	78.19
449.559	92.19
449.779	79.19
450	84.19
450.221	86.19
450.442	82.19
450.662	84.19
450.883	84.19
451.104	81.19
451.324	83.19
451.545	87.19
451.766	77.19
451.986	94.19
452.207	60.19
452.428	96.19
452.648	86.19
452.869	89.19
453.089	86.19
453.31	70.19
453.53	63.19
453.751	86.19
453.971	76.19
454.192	88.19
454.412	77.19
454.633	79.19
454.853	73.19
455.073	87.19
455.294	94.19
455.514	96.19
455.734	78.19
455.955	79.19
456.175	87.19
456.395	77.19
456.616	84.19
456.836	80.19
457.056	73.19
457.276	77.19
457.497	81.19
457.717	83.19
457.937	87.19
458.157	83.19
458.377	91.19
458.598	80.19
458.818	79.19
459.038	74.19
459.258	84.19
459.478	92.19
459.698	96.19
459.918	70.19
460.138	79.19
460.358	94.19
460.578	96.19
460.798	87.19
461.018	87.19
461.238	83.19
461.458	80.19
461.678	86.19
461.898	76.19
462.118	93.19
462.338	87.19
462.558	95.19
462.777	71.19
462.997	86.19
463.217	79.19
463.437	79.19
463.657	79.19
463.876	79.19
464.096	76.19
464.316	73.19
464.536	91.19
464.755	79.19
464.975	81.19
465.195	83.19
465.414	90.19
465.634	86.19
465.854	92.19
466.073	97.19
466.293	96.19
466.512	81.19
466.732	80.19
466.951	88.19
467.171	92.19
467.391	82.19
467.61	78.19
467.829	75.19
468.049	91.19
468.268	82.19
468.488	83.19
468.707	104.19
468.927	82.19
469.146	81.19
469.365	65.19
469.585	87.19
469.804	73.19
470.023	76.19
470.243	77.19
470.462	63.19
470.681	92.19
470.901	68.19
471.12	93.19
471.339	96.19
471.558	83.19
471.777	65.19
471.997	85.19
472.216	77.19
472.435	85.19
472.654	81.19
472.873	87.19
473.092	73.19
473.311	73.19
473.53	68.19
473.749	96.19
473.968	90.19
474.187	91.19
474.406	83.19
474.625	83.19
474.844	91.19
475.063	82.19
475.282	88.19
475.501	68.19
475.72	88.19
475.939	84.19
476.158	86.19
476.377	73.19
476.596	73.19
476.814	87.19
477.033	95.19
477.252	86.19
477.471	72.19
477.69	88.19
477.908	86.19
478.127	77.19
478.346	95.19
478.564	94.19
478.783	81.19
479.002	93.19
479.22	84.19
479.439	77.19
479.658	81.19
479.876	83.19
480.095	90.19
480.313	109.19
480.532	73.19
480.751	85.19
480.969	84.19
481.188	74.19
481.406	81.19
481.624	83.19
481.843	79.19
482.061	91.19
482.28	74.19
482.498	81.19
482.717	79.19
482.935	88.19
483.153	98.19
483.372	74.19
483.59	80.19
483.808	73.19
484.027	92.19
484.245	87.19
484.463	87.19
484.681	76.19
484.9	84.19
485.118	95.19
485.336	89.19
485.554	81.19
485.772	83.19
485.99	93.19
486.209	77.19
486.427	91.19
486.645	79.19
486.863	83.19
487.081	93.19
487.299	93.19
487.517	90.19
487.735	95.19
487.953	86.19
488.171	83.19
488.389	85.19
488.607	81.19
488.825	69.19
489.043	73.19
489.261	83.19
489.479	83.19
489.696	86.19
489.914	71.19
490.132	89.19
490.35	101.19
490.568	79.19
490.786	101.19
491.003	89.19
491.221	88.19
491.439	93.19
491.657	73.19
491.874	98.19
492.092	93.19
492.31	81.19
492.527	76.19
492.745	80.19
492.963	73.19
493.18	86.19
493.398	92.19
493.615	91.19
493.833	83.19
494.05	93.19
494.268	81.19
494.485	92.19
494.703	81.19
494.92	77.19
495.138	99.19
495.355	92.19
495.573	77.19
495.79	87.19
496.008	89.19
496.225	96.19
496.442	76.19
496.66	85.19
496.877	94.19
497.094	81.19
497.312	88.19
497.529	68.19
497.746	77.19
497.963	91.19
498.181	94.19
498.398	81.19
498.615	79.19
498.832	73.19
499.049	76.19
499.267	78.19
499.484	85.19
499.701	81.19
499.918	79.19
500.135	74.19
500.352	70.19
500.569	87.19
500.786	89.19
501.003	89.19
501.22	83.19
501.437	80.19
501.654	89.19
501.871	77.19
502.088	79.19
502.305	82.19
502.522	87.19
502.739	82.19
502.956	94.19
503.172	85.19
503.389	81.19
503.606	79.19
503.823	75.19
504.04	77.19
504.256	90.19
504.473	91.19
504.69	77.19
504.907	76.19
505.123	76.19
505.34	79.19
505.557	79.19
505.773	91.19
505.99	66.19
506.207	78.19
506.423	81.19
506.64	83.19
506.856	90.19
507.073	92.19
507.289	94.19
507.506	99.19
507.722	87.19
507.939	98.19
508.155	97.19
508.372	91.19
508.588	97.19
508.805	93.19
509.021	93.19
509.238	86.19
509.454	88.19
509.67	95.19
509.887	78.19
510.103	78.19
510.319	76.19
510.536	97.19
510.752	89.19
510.968	71.19
511.184	72.19
511.401	76.19
511.617	93.19
511.833	73.19
512.049	96.19
512.265	85.19
512.481	95.19
512.698	79.19
512.914	93.19
513.13	102.19
513.346	78.19
513.562	88.19
513.778	83.19
513.994	86.19
514.21	69.19
514.426	86.19
514.642	85.19
514.858	76.19
515.074	77.19
515.29	74.19
515.506	75.19
515.721	70.19
515.937	80.19
516.153	91.19
516.369	87.19
516.585	79.19
516.801	95.19
517.016	99.19
517.232	84.19
517.448	85.19
517.664	83.19
517.879	89.19
518.095	67.19
518.311	79.19
518.527	65.19
518.742	89.19
518.958	89.19
519.173	88.19
519.389	86.19
519.605	80.19
519.82	85.19
