Data from Background_3_HRD10591_00009.txt Node
Date: Wed Nov 05 14:49:24 EST 2025
User: Yrep
Spectrometer: HR+D1059
Trigger mode: 1
Integration Time (sec): 1.000000E-1
Scans to average: 1
Electric dark correction enabled: true
Nonlinearity correction enabled: false
Boxcar width: 0
XAxis mode: Wavelengths
Number of Pixels in Spectrum: 2048
>>>>>Begin Spectral Data<<<<<
223.165	-15.94
223.4	-15.94
223.635	-15.94
223.869	-16.94
224.104	-23.94
224.338	-19.94
224.573	-7.94
224.808	-20.94
225.042	-8.94
225.277	8.06
225.511	-5.94
225.746	8.06
225.98	12.06
226.215	16.06
226.449	12.06
226.683	16.06
226.918	27.06
227.152	21.06
227.387	38.06
227.621	29.06
227.856	29.06
228.09	46.06
228.324	49.06
228.559	50.06
228.793	65.06
229.027	71.06
229.262	66.06
229.496	59.06
229.73	61.06
229.964	61.06
230.199	76.06
230.433	77.06
230.667	75.06
230.901	75.06
231.136	65.06
231.37	70.06
231.604	77.06
231.838	76.06
232.072	79.06
232.306	83.06
232.541	70.06
232.775	93.06
233.009	84.06
233.243	76.06
233.477	68.06
233.711	80.06
233.945	77.06
234.179	71.06
234.413	82.06
234.647	93.06
234.881	79.06
235.115	80.06
235.349	78.06
235.583	81.06
235.817	89.06
236.051	90.06
236.285	88.06
236.519	67.06
236.753	63.06
236.987	77.06
237.221	73.06
237.455	74.06
237.689	78.06
237.922	68.06
238.156	87.06
238.39	73.06
238.624	85.06
238.858	70.06
239.091	71.06
239.325	65.06
239.559	74.06
239.793	73.06
240.027	69.06
240.26	74.06
240.494	61.06
240.728	64.06
240.961	73.06
241.195	81.06
241.429	73.06
241.662	84.06
241.896	65.06
242.13	60.06
242.363	77.06
242.597	84.06
242.83	82.06
243.064	70.06
243.298	68.06
243.531	73.06
243.765	83.06
243.998	91.06
244.232	89.06
244.465	69.06
244.699	82.06
244.932	75.06
245.166	72.06
245.399	72.06
245.633	92.06
245.866	68.06
246.099	70.06
246.333	89.06
246.566	76.06
246.8	77.06
247.033	84.06
247.266	71.06
247.5	57.06
247.733	74.06
247.966	74.06
248.2	81.06
248.433	75.06
248.666	74.06
248.899	79.06
249.133	79.06
249.366	79.06
249.599	73.06
249.832	70.06
250.066	78.06
250.299	84.06
250.532	74.06
250.765	86.06
250.998	88.06
251.231	73.06
251.465	79.06
251.698	67.06
251.931	69.06
252.164	83.06
252.397	82.06
252.63	74.06
252.863	61.06
253.096	79.06
253.329	61.06
253.562	81.06
253.795	83.06
254.028	68.06
254.261	75.06
254.494	87.06
254.727	82.06
254.96	69.06
255.193	69.06
255.426	73.06
255.659	91.06
255.892	65.06
256.124	78.06
256.357	74.06
256.59	82.06
256.823	76.06
257.056	83.06
257.289	64.06
257.521	79.06
257.754	77.06
257.987	71.06
258.22	72.06
258.452	73.06
258.685	80.06
258.918	74.06
259.151	77.06
259.383	76.06
259.616	78.06
259.849	72.06
260.081	73.06
260.314	83.06
260.547	88.06
260.779	77.06
261.012	83.06
261.244	80.06
261.477	73.06
261.71	76.06
261.942	67.06
262.175	80.06
262.407	81.06
262.64	77.06
262.872	73.06
263.105	91.06
263.337	85.06
263.57	81.06
263.802	76.06
264.035	71.06
264.267	76.06
264.499	80.06
264.732	79.06
264.964	77.06
265.197	80.06
265.429	72.06
265.661	75.06
265.894	73.06
266.126	80.06
266.358	84.06
266.591	68.06
266.823	79.06
267.055	61.06
267.287	83.06
267.52	84.06
267.752	81.06
267.984	73.06
268.216	81.06
268.448	72.06
268.681	81.06
268.913	86.06
269.145	82.06
269.377	75.06
269.609	72.06
269.841	76.06
270.073	81.06
270.306	73.06
270.538	62.06
270.77	75.06
271.002	87.06
271.234	81.06
271.466	94.06
271.698	77.06
271.93	80.06
272.162	75.06
272.394	66.06
272.626	78.06
272.858	79.06
273.09	75.06
273.322	79.06
273.553	97.06
273.785	85.06
274.017	87.06
274.249	82.06
274.481	86.06
274.713	90.06
274.945	70.06
275.176	83.06
275.408	78.06
275.64	81.06
275.872	67.06
276.104	81.06
276.335	78.06
276.567	76.06
276.799	75.06
277.031	85.06
277.262	78.06
277.494	81.06
277.726	83.06
277.957	81.06
278.189	85.06
278.421	88.06
278.652	85.06
278.884	78.06
279.115	76.06
279.347	76.06
279.579	79.06
279.81	89.06
280.042	88.06
280.273	90.06
280.505	75.06
280.736	69.06
280.968	68.06
281.199	73.06
281.431	86.06
281.662	84.06
281.894	75.06
282.125	76.06
282.356	68.06
282.588	72.06
282.819	81.06
283.051	73.06
283.282	73.06
283.513	91.06
283.745	72.06
283.976	96.06
284.207	76.06
284.439	84.06
284.67	83.06
284.901	86.06
285.132	72.06
285.364	79.06
285.595	83.06
285.826	90.06
286.057	95.06
286.288	56.06
286.52	83.06
286.751	77.06
286.982	59.06
287.213	76.06
287.444	80.06
287.675	82.06
287.906	91.06
288.138	83.06
288.369	83.06
288.6	67.06
288.831	88.06
289.062	79.06
289.293	89.06
289.524	67.06
289.755	80.06
289.986	87.06
290.217	70.06
290.448	74.06
290.679	67.06
290.91	75.06
291.141	77.06
291.371	76.06
291.602	77.06
291.833	79.06
292.064	80.06
292.295	87.06
292.526	78.06
292.757	84.06
292.987	79.06
293.218	81.06
293.449	77.06
293.68	100.06
293.91	71.06
294.141	85.06
294.372	69.06
294.603	63.06
294.833	79.06
295.064	77.06
295.295	75.06
295.525	72.06
295.756	86.06
295.987	86.06
296.217	66.06
296.448	84.06
296.679	83.06
296.909	72.06
297.14	84.06
297.37	90.06
297.601	88.06
297.831	80.06
298.062	83.06
298.292	84.06
298.523	93.06
298.753	68.06
298.984	79.06
299.214	84.06
299.445	79.06
299.675	97.06
299.905	82.06
300.136	81.06
300.366	86.06
300.597	89.06
300.827	90.06
301.057	73.06
301.288	93.06
301.518	89.06
301.748	71.06
301.979	94.06
302.209	79.06
302.439	94.06
302.669	77.06
302.9	79.06
303.13	79.06
303.36	91.06
303.59	69.06
303.82	77.06
304.051	85.06
304.281	66.06
304.511	83.06
304.741	74.06
304.971	77.06
305.201	76.06
305.431	73.06
305.661	104.06
305.891	74.06
306.121	81.06
306.352	77.06
306.582	75.06
306.812	90.06
307.042	75.06
307.272	84.06
307.502	78.06
307.731	73.06
307.961	87.06
308.191	90.06
308.421	91.06
308.651	80.06
308.881	79.06
309.111	83.06
309.341	78.06
309.571	73.06
309.8	74.06
310.03	82.06
310.26	73.06
310.49	85.06
310.72	64.06
310.949	95.06
311.179	75.06
311.409	93.06
311.639	81.06
311.868	80.06
312.098	71.06
312.328	75.06
312.557	90.06
312.787	61.06
313.017	81.06
313.246	77.06
313.476	74.06
313.706	82.06
313.935	69.06
314.165	85.06
314.394	83.06
314.624	92.06
314.853	86.06
315.083	94.06
315.312	80.06
315.542	71.06
315.771	93.06
316.001	80.06
316.23	77.06
316.46	69.06
316.689	67.06
316.919	68.06
317.148	70.06
317.377	83.06
317.607	76.06
317.836	72.06
318.065	88.06
318.295	72.06
318.524	79.06
318.753	76.06
318.983	69.06
319.212	63.06
319.441	80.06
319.67	74.06
319.9	85.06
320.129	79.06
320.358	84.06
320.587	82.06
320.816	80.06
321.046	82.06
321.275	84.06
321.504	80.06
321.733	64.06
321.962	83.06
322.191	82.06
322.42	82.06
322.649	93.06
322.878	83.06
323.108	83.06
323.337	76.06
323.566	69.06
323.795	66.06
324.024	81.06
324.253	89.06
324.482	87.06
324.71	88.06
324.939	90.06
325.168	83.06
325.397	77.06
325.626	82.06
325.855	74.06
326.084	92.06
326.313	78.06
326.542	90.06
326.77	90.06
326.999	79.06
327.228	77.06
327.457	72.06
327.686	83.06
327.914	77.06
328.143	81.06
328.372	76.06
328.6	84.06
328.829	83.06
329.058	87.06
329.287	65.06
329.515	73.06
329.744	83.06
329.972	83.06
330.201	88.06
330.43	80.06
330.658	79.06
330.887	76.06
331.115	89.06
331.344	77.06
331.572	84.06
331.801	85.06
332.03	91.06
332.258	90.06
332.486	82.06
332.715	88.06
332.943	79.06
333.172	74.06
333.4	72.06
333.629	83.06
333.857	83.06
334.085	74.06
334.314	83.06
334.542	82.06
334.771	77.06
334.999	93.06
335.227	79.06
335.455	77.06
335.684	88.06
335.912	82.06
336.14	79.06
336.369	79.06
336.597	92.06
336.825	79.06
337.053	81.06
337.281	81.06
337.51	89.06
337.738	73.06
337.966	84.06
338.194	79.06
338.422	99.06
338.65	93.06
338.878	73.06
339.106	79.06
339.334	90.06
339.562	77.06
339.79	85.06
340.018	86.06
340.246	81.06
340.474	84.06
340.702	69.06
340.93	80.06
341.158	70.06
341.386	89.06
341.614	63.06
341.842	72.06
342.07	63.06
342.298	82.06
342.526	82.06
342.754	78.06
342.981	90.06
343.209	73.06
343.437	100.06
343.665	83.06
343.893	84.06
344.12	73.06
344.348	69.06
344.576	85.06
344.804	78.06
345.031	78.06
345.259	82.06
345.487	76.06
345.714	78.06
345.942	91.06
346.17	81.06
346.397	86.06
346.625	85.06
346.853	73.06
347.08	84.06
347.308	77.06
347.535	84.06
347.763	91.06
347.99	92.06
348.218	74.06
348.445	82.06
348.673	85.06
348.9	67.06
349.128	79.06
349.355	76.06
349.583	78.06
349.81	71.06
350.037	75.06
350.265	77.06
350.492	70.06
350.72	77.06
350.947	78.06
351.174	75.06
351.402	62.06
351.629	82.06
351.856	96.06
352.083	93.06
352.311	70.06
352.538	87.06
352.765	84.06
352.992	87.06
353.22	83.06
353.447	76.06
353.674	79.06
353.901	95.06
354.128	87.06
354.355	78.06
354.583	75.06
354.81	86.06
355.037	84.06
355.264	84.06
355.491	81.06
355.718	80.06
355.945	80.06
356.172	75.06
356.399	79.06
356.626	67.06
356.853	80.06
357.08	66.06
357.307	82.06
357.534	82.06
357.761	91.06
357.988	92.06
358.215	75.06
358.441	92.06
358.668	69.06
358.895	74.06
359.122	73.06
359.349	85.06
359.576	89.06
359.802	87.06
360.029	80.06
360.256	78.06
360.483	73.06
360.709	82.06
360.936	73.06
361.163	83.06
361.39	77.06
361.616	80.06
361.843	60.06
362.07	78.06
362.296	77.06
362.523	83.06
362.749	82.06
362.976	83.06
363.203	72.06
363.429	69.06
363.656	84.06
363.882	82.06
364.109	85.06
364.335	69.06
364.562	68.06
364.788	75.06
365.015	80.06
365.241	75.06
365.468	73.06
365.694	83.06
365.92	67.06
366.147	90.06
366.373	76.06
366.599	83.06
366.826	84.06
367.052	81.06
367.278	81.06
367.505	81.06
367.731	90.06
367.957	87.06
368.184	76.06
368.41	103.06
368.636	82.06
368.862	81.06
369.089	65.06
369.315	76.06
369.541	97.06
369.767	85.06
369.993	80.06
370.219	72.06
370.445	87.06
370.672	77.06
370.898	74.06
371.124	89.06
371.35	75.06
371.576	68.06
371.802	66.06
372.028	79.06
372.254	89.06
372.48	73.06
372.706	82.06
372.932	76.06
373.158	79.06
373.384	70.06
373.61	91.06
373.835	86.06
374.061	79.06
374.287	72.06
374.513	81.06
374.739	75.06
374.965	83.06
375.191	75.06
375.416	82.06
375.642	66.06
375.868	63.06
376.094	103.06
376.319	89.06
376.545	77.06
376.771	79.06
376.997	91.06
377.222	81.06
377.448	82.06
377.674	89.06
377.899	92.06
378.125	89.06
378.35	85.06
378.576	75.06
378.802	83.06
379.027	82.06
379.253	75.06
379.478	73.06
379.704	69.06
379.929	77.06
380.155	87.06
380.38	88.06
380.606	72.06
380.831	64.06
381.057	79.06
381.282	81.06
381.507	86.06
381.733	98.06
381.958	74.06
382.184	84.06
382.409	73.06
382.634	79.06
382.86	84.06
383.085	82.06
383.31	82.06
383.535	90.06
383.761	81.06
383.986	82.06
384.211	81.06
384.436	73.06
384.662	74.06
384.887	71.06
385.112	63.06
385.337	76.06
385.562	95.06
385.787	77.06
386.013	65.06
386.238	65.06
386.463	79.06
386.688	79.06
386.913	71.06
387.138	74.06
387.363	77.06
387.588	75.06
387.813	89.06
388.038	91.06
388.263	85.06
388.488	67.06
388.713	84.06
388.938	71.06
389.163	82.06
389.387	74.06
389.612	73.06
389.837	66.06
390.062	71.06
390.287	85.06
390.512	72.06
390.736	75.06
390.961	63.06
391.186	76.06
391.411	78.06
391.636	63.06
391.86	89.06
392.085	82.06
392.31	83.06
392.534	78.06
392.759	79.06
392.984	79.06
393.208	73.06
393.433	70.06
393.658	74.06
393.882	74.06
394.107	87.06
394.331	71.06
394.556	78.06
394.78	80.06
395.005	88.06
395.229	78.06
395.454	79.06
395.678	64.06
395.903	66.06
396.127	76.06
396.352	70.06
396.576	78.06
396.801	75.06
397.025	73.06
397.249	79.06
397.474	82.06
397.698	79.06
397.922	64.06
398.147	74.06
398.371	78.06
398.595	74.06
398.82	78.06
399.044	76.06
399.268	88.06
399.492	75.06
399.717	55.06
399.941	76.06
400.165	83.06
400.389	80.06
400.613	93.06
400.837	82.06
401.062	89.06
401.286	69.06
401.51	84.06
401.734	65.06
401.958	75.06
402.182	74.06
402.406	64.06
402.63	88.06
402.854	84.06
403.078	63.06
403.302	84.06
403.526	73.06
403.75	87.06
403.974	76.06
404.198	86.06
404.422	70.06
404.645	79.06
404.869	71.06
405.093	82.06
405.317	65.06
405.541	80.06
405.765	65.06
405.988	75.06
406.212	87.06
406.436	68.06
406.66	65.06
406.883	88.06
407.107	64.06
407.331	73.06
407.555	67.06
407.778	73.06
408.002	61.06
408.226	75.06
408.449	79.06
408.673	78.06
408.896	79.06
409.12	75.06
409.344	89.06
409.567	77.06
409.791	57.06
410.014	80.06
410.238	79.06
410.461	67.06
410.685	84.06
410.908	64.06
411.132	95.06
411.355	78.06
411.578	71.06
411.802	77.06
412.025	81.06
412.249	78.06
412.472	77.06
412.695	72.06
412.919	81.06
413.142	82.06
413.365	80.06
413.589	76.06
413.812	69.06
414.035	87.06
414.258	83.06
414.482	67.06
414.705	68.06
414.928	76.06
415.151	65.06
415.374	85.06
415.597	65.06
415.821	87.06
416.044	70.06
416.267	84.06
416.49	82.06
416.713	65.06
416.936	81.06
417.159	74.06
417.382	67.06
417.605	76.06
417.828	82.06
418.051	79.06
418.274	75.06
418.497	69.06
418.72	76.06
418.943	79.06
419.166	74.06
419.389	87.06
419.611	84.06
419.834	81.06
420.057	73.06
420.28	83.06
420.503	77.06
420.726	78.06
420.948	77.06
421.171	74.06
421.394	94.06
421.617	77.06
421.839	57.06
422.062	68.06
422.285	65.06
422.507	77.06
422.73	83.06
422.953	78.06
423.175	70.06
423.398	73.06
423.621	85.06
423.843	65.06
424.066	79.06
424.288	79.06
424.511	82.06
424.733	79.06
424.956	83.06
425.178	58.06
425.401	79.06
425.623	81.06
425.846	97.06
426.068	66.06
426.291	78.06
426.513	75.06
426.735	66.06
426.958	73.06
427.18	71.06
427.402	65.06
427.625	83.06
427.847	57.06
428.069	71.06
428.292	81.06
428.514	73.06
428.736	83.06
428.958	87.06
429.181	76.06
429.403	68.06
429.625	77.06
429.847	63.06
430.069	84.06
430.292	89.06
430.514	74.06
430.736	66.06
430.958	68.06
431.18	67.06
431.402	67.06
431.624	76.06
431.846	76.06
432.068	62.06
432.29	78.06
432.512	74.06
432.734	87.06
432.956	81.06
433.178	71.06
433.4	87.06
433.622	85.06
433.844	75.06
434.066	84.06
434.287	77.06
434.509	70.06
434.731	79.06
434.953	73.06
435.175	83.06
435.397	83.06
435.618	74.06
435.84	73.06
436.062	67.06
436.284	68.06
436.505	75.06
436.727	83.06
436.949	72.06
437.17	90.06
437.392	68.06
437.614	103.06
437.835	80.06
438.057	87.06
438.278	89.06
438.5	92.06
438.721	72.06
438.943	75.06
439.165	78.06
439.386	74.06
439.608	76.06
439.829	61.06
440.05	83.06
440.272	78.06
440.493	81.06
440.715	68.06
440.936	84.06
441.158	69.06
441.379	77.06
441.6	89.06
441.822	84.06
442.043	65.06
442.264	65.06
442.486	92.06
442.707	74.06
442.928	87.06
443.149	81.06
443.371	70.06
443.592	71.06
443.813	75.06
444.034	67.06
444.255	76.06
444.476	87.06
444.698	71.06
444.919	76.06
445.14	142.06
445.361	96.06
445.582	86.06
445.803	70.06
446.024	76.06
446.245	91.06
446.466	88.06
446.687	73.06
446.908	74.06
447.129	88.06
447.35	77.06
447.571	75.06
447.792	75.06
448.013	80.06
448.234	77.06
448.455	80.06
448.675	76.06
448.896	80.06
449.117	76.06
449.338	77.06
449.559	73.06
449.779	62.06
450	72.06
450.221	81.06
450.442	69.06
450.662	80.06
450.883	70.06
451.104	69.06
451.324	79.06
451.545	69.06
451.766	70.06
451.986	84.06
452.207	78.06
452.428	91.06
452.648	85.06
452.869	73.06
453.089	72.06
453.31	79.06
453.53	83.06
453.751	79.06
453.971	84.06
454.192	76.06
454.412	75.06
454.633	73.06
454.853	83.06
455.073	83.06
455.294	86.06
455.514	96.06
455.734	55.06
455.955	79.06
456.175	78.06
456.395	93.06
456.616	75.06
456.836	89.06
457.056	79.06
457.276	76.06
457.497	77.06
457.717	86.06
457.937	84.06
458.157	85.06
458.377	67.06
458.598	77.06
458.818	79.06
459.038	75.06
459.258	81.06
459.478	67.06
459.698	60.06
459.918	71.06
460.138	81.06
460.358	78.06
460.578	70.06
460.798	86.06
461.018	79.06
461.238	72.06
461.458	68.06
461.678	81.06
461.898	84.06
462.118	84.06
462.338	71.06
462.558	67.06
462.777	87.06
462.997	82.06
463.217	68.06
463.437	77.06
463.657	60.06
463.876	84.06
464.096	75.06
464.316	83.06
464.536	84.06
464.755	85.06
464.975	84.06
465.195	73.06
465.414	77.06
465.634	79.06
465.854	74.06
466.073	66.06
466.293	86.06
466.512	81.06
466.732	76.06
466.951	86.06
467.171	61.06
467.391	81.06
467.61	52.06
467.829	63.06
468.049	83.06
468.268	68.06
468.488	72.06
468.707	79.06
468.927	83.06
469.146	79.06
469.365	85.06
469.585	78.06
469.804	81.06
470.023	74.06
470.243	80.06
470.462	82.06
470.681	66.06
470.901	75.06
471.12	80.06
471.339	84.06
471.558	75.06
471.777	89.06
471.997	84.06
472.216	82.06
472.435	73.06
472.654	92.06
472.873	85.06
473.092	78.06
473.311	95.06
473.53	83.06
473.749	85.06
473.968	101.06
474.187	87.06
474.406	81.06
474.625	90.06
474.844	77.06
475.063	77.06
475.282	75.06
475.501	66.06
475.72	99.06
475.939	81.06
476.158	70.06
476.377	66.06
476.596	94.06
476.814	74.06
477.033	78.06
477.252	84.06
477.471	81.06
477.69	71.06
477.908	69.06
478.127	81.06
478.346	76.06
478.564	72.06
478.783	87.06
479.002	78.06
479.22	61.06
479.439	71.06
479.658	88.06
479.876	80.06
480.095	81.06
480.313	86.06
480.532	83.06
480.751	76.06
480.969	91.06
481.188	83.06
481.406	77.06
481.624	88.06
481.843	90.06
482.061	85.06
482.28	85.06
482.498	81.06
482.717	77.06
482.935	99.06
483.153	72.06
483.372	61.06
483.59	87.06
483.808	85.06
484.027	87.06
484.245	90.06
484.463	70.06
484.681	80.06
484.9	70.06
485.118	68.06
485.336	76.06
485.554	65.06
485.772	81.06
485.99	73.06
486.209	82.06
486.427	69.06
486.645	77.06
486.863	85.06
487.081	72.06
487.299	68.06
487.517	91.06
487.735	76.06
487.953	91.06
488.171	87.06
488.389	83.06
488.607	88.06
488.825	87.06
489.043	80.06
489.261	91.06
489.479	77.06
489.696	90.06
489.914	86.06
490.132	73.06
490.35	95.06
490.568	81.06
490.786	85.06
491.003	68.06
491.221	64.06
491.439	89.06
491.657	88.06
491.874	99.06
492.092	77.06
492.31	80.06
492.527	77.06
492.745	73.06
492.963	81.06
493.18	87.06
493.398	87.06
493.615	77.06
493.833	78.06
494.05	77.06
494.268	79.06
494.485	77.06
494.703	79.06
494.92	74.06
495.138	61.06
495.355	82.06
495.573	81.06
495.79	92.06
496.008	91.06
496.225	79.06
496.442	79.06
496.66	88.06
496.877	88.06
497.094	87.06
497.312	69.06
497.529	84.06
497.746	76.06
497.963	74.06
498.181	89.06
498.398	81.06
498.615	80.06
498.832	82.06
499.049	59.06
499.267	87.06
499.484	81.06
499.701	82.06
499.918	70.06
500.135	74.06
500.352	76.06
500.569	92.06
500.786	73.06
501.003	80.06
501.22	92.06
501.437	70.06
501.654	87.06
501.871	79.06
502.088	70.06
502.305	84.06
502.522	73.06
502.739	87.06
502.956	88.06
503.172	82.06
503.389	72.06
503.606	77.06
503.823	87.06
504.04	80.06
504.256	79.06
504.473	89.06
504.69	71.06
504.907	72.06
505.123	79.06
505.34	86.06
505.557	85.06
505.773	91.06
505.99	77.06
506.207	83.06
506.423	86.06
506.64	99.06
506.856	76.06
507.073	81.06
507.289	75.06
507.506	73.06
507.722	88.06
507.939	91.06
508.155	79.06
508.372	79.06
508.588	91.06
508.805	67.06
509.021	82.06
509.238	85.06
509.454	78.06
509.67	84.06
509.887	80.06
510.103	79.06
510.319	95.06
510.536	76.06
510.752	63.06
510.968	81.06
511.184	93.06
511.401	81.06
511.617	83.06
511.833	77.06
512.049	79.06
512.265	79.06
512.481	76.06
512.698	76.06
512.914	85.06
513.13	81.06
513.346	85.06
513.562	76.06
513.778	79.06
513.994	78.06
514.21	78.06
514.426	84.06
514.642	76.06
514.858	85.06
515.074	74.06
515.29	96.06
515.506	76.06
515.721	81.06
515.937	79.06
516.153	78.06
516.369	72.06
516.585	72.06
516.801	68.06
517.016	77.06
517.232	67.06
517.448	87.06
517.664	84.06
517.879	95.06
518.095	87.06
518.311	75.06
518.527	76.06
518.742	81.06
518.958	74.06
519.173	64.06
519.389	82.06
519.605	80.06
519.82	79.06
520.036	83.06
