Data from Background_3_HRD10591_00069.txt Node
Date: Wed Nov 05 14:49:54 EST 2025
User: Yrep
Spectrometer: HR+D1059
Trigger mode: 1
Integration Time (sec): 1.000000E-1
Scans to average: 1
Electric dark correction enabled: true
Nonlinearity correction enabled: false
Boxcar width: 0
XAxis mode: Wavelengths
Number of Pixels in Spectrum: 2048
>>>>>Begin Spectral Data<<<<<
223.165	-17.81
223.4	-17.81
223.635	-17.81
223.869	-22.81
224.104	-18.81
224.338	-28.81
224.573	-18.81
224.808	-11.81
225.042	-6.81
225.277	-1.81
225.511	-0.81
225.746	10.19
225.98	22.19
226.215	10.19
226.449	6.19
226.683	25.19
226.918	30.19
227.152	24.19
227.387	43.19
227.621	34.19
227.856	31.19
228.09	38.19
228.324	53.19
228.559	59.19
228.793	71.19
229.027	49.19
229.262	74.19
229.496	78.19
229.73	71.19
229.964	84.19
230.199	95.19
230.433	77.19
230.667	79.19
230.901	68.19
231.136	69.19
231.37	84.19
231.604	85.19
231.838	80.19
232.072	73.19
232.306	82.19
232.541	87.19
232.775	72.19
233.009	70.19
233.243	76.19
233.477	84.19
233.711	83.19
233.945	86.19
234.179	83.19
234.413	81.19
234.647	71.19
234.881	79.19
235.115	90.19
235.349	66.19
235.583	80.19
235.817	81.19
236.051	89.19
236.285	79.19
236.519	70.19
236.753	83.19
236.987	64.19
237.221	71.19
237.455	80.19
237.689	87.19
237.922	73.19
238.156	74.19
238.39	56.19
238.624	79.19
238.858	90.19
239.091	85.19
239.325	87.19
239.559	65.19
239.793	71.19
240.027	92.19
240.26	76.19
240.494	80.19
240.728	65.19
240.961	81.19
241.195	78.19
241.429	77.19
241.662	64.19
241.896	77.19
242.13	71.19
242.363	71.19
242.597	83.19
242.83	70.19
243.064	53.19
243.298	78.19
243.531	71.19
243.765	82.19
243.998	77.19
244.232	72.19
244.465	77.19
244.699	70.19
244.932	69.19
245.166	71.19
245.399	67.19
245.633	88.19
245.866	65.19
246.099	82.19
246.333	90.19
246.566	80.19
246.8	86.19
247.033	66.19
247.266	69.19
247.5	82.19
247.733	76.19
247.966	78.19
248.2	78.19
248.433	84.19
248.666	95.19
248.899	86.19
249.133	80.19
249.366	82.19
249.599	87.19
249.832	69.19
250.066	79.19
250.299	69.19
250.532	76.19
250.765	70.19
250.998	83.19
251.231	86.19
251.465	64.19
251.698	81.19
251.931	86.19
252.164	77.19
252.397	75.19
252.63	68.19
252.863	76.19
253.096	68.19
253.329	72.19
253.562	84.19
253.795	69.19
254.028	71.19
254.261	85.19
254.494	74.19
254.727	77.19
254.96	84.19
255.193	82.19
255.426	70.19
255.659	78.19
255.892	92.19
256.124	72.19
256.357	95.19
256.59	78.19
256.823	80.19
257.056	78.19
257.289	70.19
257.521	79.19
257.754	80.19
257.987	84.19
258.22	90.19
258.452	85.19
258.685	81.19
258.918	79.19
259.151	83.19
259.383	98.19
259.616	89.19
259.849	87.19
260.081	82.19
260.314	69.19
260.547	89.19
260.779	83.19
261.012	62.19
261.244	85.19
261.477	66.19
261.71	80.19
261.942	77.19
262.175	83.19
262.407	80.19
262.64	84.19
262.872	74.19
263.105	89.19
263.337	103.19
263.57	81.19
263.802	85.19
264.035	78.19
264.267	84.19
264.499	73.19
264.732	84.19
264.964	84.19
265.197	90.19
265.429	82.19
265.661	86.19
265.894	72.19
266.126	86.19
266.358	81.19
266.591	74.19
266.823	94.19
267.055	91.19
267.287	86.19
267.52	83.19
267.752	84.19
267.984	86.19
268.216	90.19
268.448	90.19
268.681	97.19
268.913	81.19
269.145	64.19
269.377	95.19
269.609	74.19
269.841	90.19
270.073	86.19
270.306	85.19
270.538	95.19
270.77	79.19
271.002	69.19
271.234	74.19
271.466	97.19
271.698	85.19
271.93	78.19
272.162	93.19
272.394	72.19
272.626	85.19
272.858	94.19
273.09	90.19
273.322	80.19
273.553	92.19
273.785	100.19
274.017	81.19
274.249	75.19
274.481	65.19
274.713	73.19
274.945	82.19
275.176	66.19
275.408	99.19
275.64	73.19
275.872	84.19
276.104	59.19
276.335	81.19
276.567	93.19
276.799	82.19
277.031	85.19
277.262	77.19
277.494	105.19
277.726	94.19
277.957	77.19
278.189	80.19
278.421	91.19
278.652	91.19
278.884	82.19
279.115	80.19
279.347	84.19
279.579	80.19
279.81	83.19
280.042	86.19
280.273	89.19
280.505	78.19
280.736	87.19
280.968	86.19
281.199	80.19
281.431	82.19
281.662	94.19
281.894	80.19
282.125	88.19
282.356	89.19
282.588	92.19
282.819	81.19
283.051	85.19
283.282	91.19
283.513	92.19
283.745	93.19
283.976	80.19
284.207	94.19
284.439	85.19
284.67	76.19
284.901	80.19
285.132	87.19
285.364	95.19
285.595	90.19
285.826	79.19
286.057	92.19
286.288	81.19
286.52	83.19
286.751	84.19
286.982	93.19
287.213	69.19
287.444	86.19
287.675	76.19
287.906	87.19
288.138	81.19
288.369	84.19
288.6	77.19
288.831	89.19
289.062	85.19
289.293	85.19
289.524	77.19
289.755	99.19
289.986	97.19
290.217	79.19
290.448	94.19
290.679	87.19
290.91	75.19
291.141	72.19
291.371	94.19
291.602	98.19
291.833	78.19
292.064	90.19
292.295	81.19
292.526	77.19
292.757	71.19
292.987	77.19
293.218	89.19
293.449	82.19
293.68	74.19
293.91	78.19
294.141	86.19
294.372	94.19
294.603	77.19
294.833	98.19
295.064	91.19
295.295	89.19
295.525	83.19
295.756	99.19
295.987	78.19
296.217	83.19
296.448	105.19
296.679	81.19
296.909	88.19
297.14	83.19
297.37	93.19
297.601	74.19
297.831	72.19
298.062	86.19
298.292	82.19
298.523	80.19
298.753	80.19
298.984	71.19
299.214	90.19
299.445	76.19
299.675	91.19
299.905	76.19
300.136	83.19
300.366	82.19
300.597	93.19
300.827	84.19
301.057	87.19
301.288	102.19
301.518	95.19
301.748	85.19
301.979	89.19
302.209	92.19
302.439	95.19
302.669	87.19
302.9	88.19
303.13	99.19
303.36	98.19
303.59	76.19
303.82	86.19
304.051	88.19
304.281	76.19
304.511	96.19
304.741	85.19
304.971	84.19
305.201	83.19
305.431	86.19
305.661	79.19
305.891	84.19
306.121	90.19
306.352	91.19
306.582	87.19
306.812	96.19
307.042	91.19
307.272	82.19
307.502	99.19
307.731	81.19
307.961	76.19
308.191	96.19
308.421	89.19
308.651	83.19
308.881	92.19
309.111	93.19
309.341	86.19
309.571	86.19
309.8	81.19
310.03	82.19
310.26	90.19
310.49	88.19
310.72	78.19
310.949	99.19
311.179	89.19
311.409	81.19
311.639	92.19
311.868	79.19
312.098	80.19
312.328	72.19
312.557	81.19
312.787	92.19
313.017	81.19
313.246	76.19
313.476	80.19
313.706	89.19
313.935	91.19
314.165	84.19
314.394	94.19
314.624	85.19
314.853	81.19
315.083	93.19
315.312	95.19
315.542	86.19
315.771	83.19
316.001	75.19
316.23	73.19
316.46	87.19
316.689	81.19
316.919	98.19
317.148	93.19
317.377	86.19
317.607	86.19
317.836	97.19
318.065	100.19
318.295	83.19
318.524	91.19
318.753	84.19
318.983	79.19
319.212	89.19
319.441	80.19
319.67	83.19
319.9	83.19
320.129	85.19
320.358	73.19
320.587	88.19
320.816	93.19
321.046	72.19
321.275	91.19
321.504	83.19
321.733	79.19
321.962	83.19
322.191	81.19
322.42	77.19
322.649	82.19
322.878	87.19
323.108	83.19
323.337	90.19
323.566	96.19
323.795	81.19
324.024	78.19
324.253	75.19
324.482	81.19
324.71	89.19
324.939	81.19
325.168	74.19
325.397	93.19
325.626	95.19
325.855	89.19
326.084	70.19
326.313	83.19
326.542	92.19
326.77	85.19
326.999	88.19
327.228	87.19
327.457	90.19
327.686	83.19
327.914	96.19
328.143	84.19
328.372	88.19
328.6	96.19
328.829	94.19
329.058	90.19
329.287	85.19
329.515	73.19
329.744	95.19
329.972	84.19
330.201	79.19
330.43	94.19
330.658	84.19
330.887	83.19
331.115	86.19
331.344	87.19
331.572	82.19
331.801	75.19
332.03	94.19
332.258	96.19
332.486	83.19
332.715	77.19
332.943	94.19
333.172	87.19
333.4	83.19
333.629	84.19
333.857	75.19
334.085	89.19
334.314	87.19
334.542	80.19
334.771	90.19
334.999	92.19
335.227	84.19
335.455	79.19
335.684	76.19
335.912	93.19
336.14	75.19
336.369	79.19
336.597	77.19
336.825	76.19
337.053	84.19
337.281	97.19
337.51	93.19
337.738	82.19
337.966	101.19
338.194	80.19
338.422	95.19
338.65	89.19
338.878	75.19
339.106	90.19
339.334	78.19
339.562	78.19
339.79	78.19
340.018	76.19
340.246	92.19
340.474	79.19
340.702	93.19
340.93	93.19
341.158	82.19
341.386	73.19
341.614	83.19
341.842	83.19
342.07	83.19
342.298	69.19
342.526	90.19
342.754	87.19
342.981	84.19
343.209	74.19
343.437	103.19
343.665	98.19
343.893	99.19
344.12	97.19
344.348	85.19
344.576	95.19
344.804	76.19
345.031	89.19
345.259	85.19
345.487	77.19
345.714	85.19
345.942	98.19
346.17	85.19
346.397	83.19
346.625	85.19
346.853	77.19
347.08	83.19
347.308	88.19
347.535	93.19
347.763	86.19
347.99	99.19
348.218	96.19
348.445	85.19
348.673	80.19
348.9	76.19
349.128	69.19
349.355	71.19
349.583	69.19
349.81	77.19
350.037	101.19
350.265	98.19
350.492	86.19
350.72	94.19
350.947	78.19
351.174	83.19
351.402	76.19
351.629	92.19
351.856	83.19
352.083	83.19
352.311	98.19
352.538	69.19
352.765	87.19
352.992	86.19
353.22	81.19
353.447	84.19
353.674	85.19
353.901	78.19
354.128	82.19
354.355	86.19
354.583	80.19
354.81	86.19
355.037	99.19
355.264	78.19
355.491	85.19
355.718	69.19
355.945	73.19
356.172	73.19
356.399	87.19
356.626	93.19
356.853	94.19
357.08	85.19
357.307	71.19
357.534	78.19
357.761	92.19
357.988	87.19
358.215	91.19
358.441	75.19
358.668	90.19
358.895	89.19
359.122	82.19
359.349	102.19
359.576	82.19
359.802	71.19
360.029	77.19
360.256	87.19
360.483	94.19
360.709	98.19
360.936	93.19
361.163	80.19
361.39	80.19
361.616	83.19
361.843	86.19
362.07	89.19
362.296	72.19
362.523	85.19
362.749	70.19
362.976	78.19
363.203	92.19
363.429	79.19
363.656	78.19
363.882	83.19
364.109	91.19
364.335	76.19
364.562	95.19
364.788	88.19
365.015	98.19
365.241	85.19
365.468	79.19
365.694	77.19
365.92	85.19
366.147	86.19
366.373	89.19
366.599	99.19
366.826	80.19
367.052	84.19
367.278	91.19
367.505	74.19
367.731	85.19
367.957	86.19
368.184	78.19
368.41	75.19
368.636	91.19
368.862	90.19
369.089	79.19
369.315	95.19
369.541	85.19
369.767	92.19
369.993	73.19
370.219	68.19
370.445	83.19
370.672	81.19
370.898	79.19
371.124	82.19
371.35	94.19
371.576	78.19
371.802	83.19
372.028	90.19
372.254	91.19
372.48	77.19
372.706	79.19
372.932	77.19
373.158	96.19
373.384	82.19
373.61	90.19
373.835	89.19
374.061	83.19
374.287	79.19
374.513	79.19
374.739	88.19
374.965	78.19
375.191	85.19
375.416	87.19
375.642	96.19
375.868	77.19
376.094	72.19
376.319	87.19
376.545	85.19
376.771	87.19
376.997	89.19
377.222	99.19
377.448	90.19
377.674	73.19
377.899	77.19
378.125	85.19
378.35	90.19
378.576	89.19
378.802	89.19
379.027	93.19
379.253	89.19
379.478	84.19
379.704	81.19
379.929	80.19
380.155	94.19
380.38	81.19
380.606	81.19
380.831	92.19
381.057	91.19
381.282	74.19
381.507	88.19
381.733	91.19
381.958	91.19
382.184	77.19
382.409	87.19
382.634	89.19
382.86	85.19
383.085	93.19
383.31	77.19
383.535	85.19
383.761	82.19
383.986	87.19
384.211	72.19
384.436	86.19
384.662	87.19
384.887	89.19
385.112	90.19
385.337	92.19
385.562	84.19
385.787	76.19
386.013	96.19
386.238	85.19
386.463	94.19
386.688	82.19
386.913	79.19
387.138	85.19
387.363	87.19
387.588	86.19
387.813	79.19
388.038	83.19
388.263	86.19
388.488	75.19
388.713	91.19
388.938	90.19
389.163	85.19
389.387	74.19
389.612	80.19
389.837	97.19
390.062	97.19
390.287	100.19
390.512	86.19
390.736	77.19
390.961	89.19
391.186	72.19
391.411	88.19
391.636	81.19
391.86	83.19
392.085	88.19
392.31	81.19
392.534	79.19
392.759	100.19
392.984	81.19
393.208	72.19
393.433	89.19
393.658	76.19
393.882	83.19
394.107	68.19
394.331	79.19
394.556	81.19
394.78	97.19
395.005	73.19
395.229	65.19
395.454	86.19
395.678	86.19
395.903	86.19
396.127	95.19
396.352	77.19
396.576	65.19
396.801	81.19
397.025	89.19
397.249	86.19
397.474	94.19
397.698	83.19
397.922	81.19
398.147	86.19
398.371	77.19
398.595	86.19
398.82	82.19
399.044	71.19
399.268	77.19
399.492	92.19
399.717	85.19
399.941	80.19
400.165	80.19
400.389	87.19
400.613	82.19
400.837	93.19
401.062	93.19
401.286	87.19
401.51	92.19
401.734	80.19
401.958	73.19
402.182	78.19
402.406	83.19
402.63	82.19
402.854	82.19
403.078	88.19
403.302	81.19
403.526	95.19
403.75	93.19
403.974	76.19
404.198	80.19
404.422	103.19
404.645	83.19
404.869	83.19
405.093	76.19
405.317	71.19
405.541	95.19
405.765	87.19
405.988	70.19
406.212	91.19
406.436	83.19
406.66	87.19
406.883	89.19
407.107	97.19
407.331	89.19
407.555	86.19
407.778	86.19
408.002	78.19
408.226	78.19
408.449	89.19
408.673	77.19
408.896	86.19
409.12	77.19
409.344	98.19
409.567	91.19
409.791	77.19
410.014	72.19
410.238	74.19
410.461	78.19
410.685	100.19
410.908	82.19
411.132	100.19
411.355	83.19
411.578	80.19
411.802	84.19
412.025	73.19
412.249	80.19
412.472	86.19
412.695	75.19
412.919	82.19
413.142	74.19
413.365	80.19
413.589	79.19
413.812	84.19
414.035	79.19
414.258	80.19
414.482	74.19
414.705	79.19
414.928	66.19
415.151	90.19
415.374	86.19
415.597	87.19
415.821	68.19
416.044	66.19
416.267	77.19
416.49	59.19
416.713	90.19
416.936	112.19
417.159	90.19
417.382	68.19
417.605	87.19
417.828	77.19
418.051	92.19
418.274	83.19
418.497	81.19
418.72	81.19
418.943	90.19
419.166	89.19
419.389	87.19
419.611	91.19
419.834	93.19
420.057	79.19
420.28	80.19
420.503	80.19
420.726	78.19
420.948	68.19
421.171	70.19
421.394	92.19
421.617	95.19
421.839	85.19
422.062	84.19
422.285	78.19
422.507	79.19
422.73	90.19
422.953	95.19
423.175	81.19
423.398	86.19
423.621	77.19
423.843	82.19
424.066	83.19
424.288	86.19
424.511	87.19
424.733	74.19
424.956	88.19
425.178	70.19
425.401	81.19
425.623	91.19
425.846	76.19
426.068	84.19
426.291	88.19
426.513	79.19
426.735	91.19
426.958	70.19
427.18	77.19
427.402	89.19
427.625	75.19
427.847	95.19
428.069	89.19
428.292	85.19
428.514	87.19
428.736	90.19
428.958	85.19
429.181	70.19
429.403	83.19
429.625	87.19
429.847	83.19
430.069	81.19
430.292	79.19
430.514	97.19
430.736	77.19
430.958	85.19
431.18	86.19
431.402	68.19
431.624	91.19
431.846	82.19
432.068	71.19
432.29	70.19
432.512	71.19
432.734	85.19
432.956	86.19
433.178	82.19
433.4	85.19
433.622	80.19
433.844	83.19
434.066	81.19
434.287	67.19
434.509	83.19
434.731	74.19
434.953	72.19
435.175	86.19
435.397	85.19
435.618	77.19
435.84	80.19
436.062	78.19
436.284	85.19
436.505	82.19
436.727	98.19
436.949	82.19
437.17	72.19
437.392	83.19
437.614	84.19
437.835	77.19
438.057	77.19
438.278	77.19
438.5	78.19
438.721	83.19
438.943	89.19
439.165	91.19
439.386	82.19
439.608	88.19
439.829	98.19
440.05	90.19
440.272	79.19
440.493	75.19
440.715	69.19
440.936	77.19
441.158	86.19
441.379	72.19
441.6	78.19
441.822	71.19
442.043	94.19
442.264	91.19
442.486	68.19
442.707	80.19
442.928	80.19
443.149	71.19
443.371	90.19
443.592	94.19
443.813	71.19
444.034	72.19
444.255	72.19
444.476	67.19
444.698	83.19
444.919	76.19
445.14	151.19
445.361	110.19
445.582	103.19
445.803	81.19
446.024	77.19
446.245	87.19
446.466	68.19
446.687	81.19
446.908	89.19
447.129	94.19
447.35	71.19
447.571	83.19
447.792	86.19
448.013	79.19
448.234	85.19
448.455	83.19
448.675	93.19
448.896	87.19
449.117	82.19
449.338	95.19
449.559	81.19
449.779	88.19
450	67.19
450.221	78.19
450.442	79.19
450.662	79.19
450.883	65.19
451.104	69.19
451.324	79.19
451.545	91.19
451.766	77.19
451.986	66.19
452.207	70.19
452.428	73.19
452.648	87.19
452.869	73.19
453.089	87.19
453.31	81.19
453.53	83.19
453.751	99.19
453.971	83.19
454.192	69.19
454.412	73.19
454.633	81.19
454.853	74.19
455.073	82.19
455.294	82.19
455.514	74.19
455.734	79.19
455.955	81.19
456.175	74.19
456.395	83.19
456.616	75.19
456.836	84.19
457.056	67.19
457.276	81.19
457.497	85.19
457.717	72.19
457.937	88.19
458.157	89.19
458.377	84.19
458.598	87.19
458.818	68.19
459.038	77.19
459.258	77.19
459.478	80.19
459.698	73.19
459.918	82.19
460.138	77.19
460.358	77.19
460.578	91.19
460.798	79.19
461.018	86.19
461.238	71.19
461.458	77.19
461.678	74.19
461.898	79.19
462.118	71.19
462.338	69.19
462.558	88.19
462.777	84.19
462.997	86.19
463.217	85.19
463.437	100.19
463.657	82.19
463.876	90.19
464.096	89.19
464.316	69.19
464.536	87.19
464.755	92.19
464.975	77.19
465.195	93.19
465.414	80.19
465.634	87.19
465.854	91.19
466.073	93.19
466.293	59.19
466.512	82.19
466.732	75.19
466.951	80.19
467.171	77.19
467.391	79.19
467.61	79.19
467.829	86.19
468.049	90.19
468.268	77.19
468.488	85.19
468.707	67.19
468.927	68.19
469.146	81.19
469.365	81.19
469.585	74.19
469.804	87.19
470.023	89.19
470.243	89.19
470.462	75.19
470.681	73.19
470.901	89.19
471.12	77.19
471.339	84.19
471.558	77.19
471.777	85.19
471.997	91.19
472.216	78.19
472.435	94.19
472.654	83.19
472.873	91.19
473.092	86.19
473.311	97.19
473.53	79.19
473.749	91.19
473.968	86.19
474.187	79.19
474.406	77.19
474.625	71.19
474.844	91.19
475.063	70.19
475.282	81.19
475.501	74.19
475.72	86.19
475.939	86.19
476.158	71.19
476.377	90.19
476.596	76.19
476.814	73.19
477.033	71.19
477.252	72.19
477.471	69.19
477.69	90.19
477.908	78.19
478.127	88.19
478.346	78.19
478.564	75.19
478.783	74.19
479.002	62.19
479.22	88.19
479.439	93.19
479.658	84.19
479.876	75.19
480.095	78.19
480.313	83.19
480.532	77.19
480.751	83.19
480.969	82.19
481.188	90.19
481.406	93.19
481.624	83.19
481.843	79.19
482.061	79.19
482.28	76.19
482.498	79.19
482.717	85.19
482.935	83.19
483.153	86.19
483.372	77.19
483.59	77.19
483.808	81.19
484.027	71.19
484.245	81.19
484.463	82.19
484.681	84.19
484.9	74.19
485.118	78.19
485.336	81.19
485.554	94.19
485.772	77.19
485.99	81.19
486.209	84.19
486.427	77.19
486.645	67.19
486.863	53.19
487.081	82.19
487.299	94.19
487.517	77.19
487.735	84.19
487.953	57.19
488.171	73.19
488.389	85.19
488.607	99.19
488.825	89.19
489.043	85.19
489.261	91.19
489.479	88.19
489.696	86.19
489.914	76.19
490.132	81.19
490.35	92.19
490.568	78.19
490.786	86.19
491.003	86.19
491.221	78.19
491.439	74.19
491.657	101.19
491.874	75.19
492.092	75.19
492.31	78.19
492.527	73.19
492.745	81.19
492.963	85.19
493.18	85.19
493.398	87.19
493.615	74.19
493.833	83.19
494.05	81.19
494.268	77.19
494.485	85.19
494.703	83.19
494.92	90.19
495.138	89.19
495.355	90.19
495.573	84.19
495.79	68.19
496.008	85.19
496.225	72.19
496.442	76.19
496.66	72.19
496.877	66.19
497.094	74.19
497.312	72.19
497.529	82.19
497.746	89.19
497.963	89.19
498.181	87.19
498.398	69.19
498.615	85.19
498.832	81.19
499.049	78.19
499.267	74.19
499.484	80.19
499.701	74.19
499.918	77.19
500.135	72.19
500.352	77.19
500.569	71.19
500.786	89.19
501.003	97.19
501.22	83.19
501.437	78.19
501.654	81.19
501.871	75.19
502.088	79.19
502.305	87.19
502.522	66.19
502.739	78.19
502.956	89.19
503.172	89.19
503.389	78.19
503.606	77.19
503.823	78.19
504.04	77.19
504.256	63.19
504.473	73.19
504.69	85.19
504.907	96.19
505.123	75.19
505.34	79.19
505.557	82.19
505.773	87.19
505.99	78.19
506.207	69.19
506.423	77.19
506.64	94.19
506.856	82.19
507.073	84.19
507.289	81.19
507.506	61.19
507.722	75.19
507.939	85.19
508.155	74.19
508.372	77.19
508.588	79.19
508.805	81.19
509.021	86.19
509.238	82.19
509.454	79.19
509.67	77.19
509.887	75.19
510.103	85.19
510.319	77.19
510.536	87.19
510.752	93.19
510.968	75.19
511.184	78.19
511.401	75.19
511.617	77.19
511.833	78.19
512.049	85.19
512.265	86.19
512.481	83.19
512.698	100.19
512.914	77.19
513.13	87.19
513.346	81.19
513.562	79.19
513.778	80.19
513.994	81.19
514.21	75.19
514.426	85.19
514.642	84.19
514.858	87.19
515.074	74.19
515.29	77.19
515.506	84.19
515.721	77.19
515.937	81.19
516.153	74.19
516.369	86.19
516.585	89.19
516.801	86.19
517.016	73.19
517.232	86.19
517.448	92.19
517.664	83.19
517.879	82.19
518.095	76.19
518.311	81.19
518.527	66.19
518.742	75.19
518.958	89.19
519.173	78.19
519.389	83.19
519.605	88.19
519.82	81.19
