Data from Background_3_HRD10591_00091.txt Node
Date: Wed Nov 05 14:50:05 EST 2025
User: Yrep
Spectrometer: HR+D1059
Trigger mode: 1
Integration Time (sec): 1.000000E-1
Scans to average: 1
Electric dark correction enabled: true
Nonlinearity correction enabled: false
Boxcar width: 0
XAxis mode: Wavelengths
Number of Pixels in Spectrum: 2048
>>>>>Begin Spectral Data<<<<<
223.165	-11.62
223.4	-11.62
223.635	-11.62
223.869	-14.62
224.104	-13.62
224.338	-17.62
224.573	-26.62
224.808	-14.62
225.042	-8.62
225.277	-1.62
225.511	2.38
225.746	8.38
225.98	4.38
226.215	6.38
226.449	15.38
226.683	14.38
226.918	24.38
227.152	33.38
227.387	35.38
227.621	46.38
227.856	33.38
228.09	43.38
228.324	62.38
228.559	54.38
228.793	55.38
229.027	66.38
229.262	60.38
229.496	71.38
229.73	66.38
229.964	74.38
230.199	73.38
230.433	72.38
230.667	69.38
230.901	69.38
231.136	83.38
231.37	84.38
231.604	84.38
231.838	80.38
232.072	68.38
232.306	87.38
232.541	77.38
232.775	74.38
233.009	72.38
233.243	72.38
233.477	79.38
233.711	102.38
233.945	60.38
234.179	78.38
234.413	69.38
234.647	79.38
234.881	75.38
235.115	85.38
235.349	82.38
235.583	65.38
235.817	80.38
236.051	70.38
236.285	72.38
236.519	86.38
236.753	81.38
236.987	91.38
237.221	67.38
237.455	83.38
237.689	68.38
237.922	68.38
238.156	71.38
238.39	76.38
238.624	77.38
238.858	81.38
239.091	84.38
239.325	76.38
239.559	74.38
239.793	79.38
240.027	86.38
240.26	82.38
240.494	75.38
240.728	74.38
240.961	80.38
241.195	74.38
241.429	83.38
241.662	53.38
241.896	75.38
242.13	71.38
242.363	80.38
242.597	85.38
242.83	79.38
243.064	66.38
243.298	77.38
243.531	83.38
243.765	85.38
243.998	82.38
244.232	85.38
244.465	70.38
244.699	79.38
244.932	81.38
245.166	87.38
245.399	82.38
245.633	82.38
245.866	85.38
246.099	79.38
246.333	83.38
246.566	62.38
246.8	72.38
247.033	75.38
247.266	65.38
247.5	80.38
247.733	77.38
247.966	66.38
248.2	68.38
248.433	73.38
248.666	75.38
248.899	69.38
249.133	60.38
249.366	92.38
249.599	88.38
249.832	68.38
250.066	85.38
250.299	60.38
250.532	73.38
250.765	71.38
250.998	82.38
251.231	75.38
251.465	92.38
251.698	70.38
251.931	74.38
252.164	63.38
252.397	83.38
252.63	72.38
252.863	82.38
253.096	72.38
253.329	86.38
253.562	81.38
253.795	77.38
254.028	86.38
254.261	79.38
254.494	53.38
254.727	77.38
254.96	73.38
255.193	68.38
255.426	75.38
255.659	73.38
255.892	75.38
256.124	75.38
256.357	90.38
256.59	70.38
256.823	83.38
257.056	77.38
257.289	68.38
257.521	89.38
257.754	75.38
257.987	72.38
258.22	80.38
258.452	77.38
258.685	69.38
258.918	83.38
259.151	73.38
259.383	86.38
259.616	78.38
259.849	84.38
260.081	73.38
260.314	67.38
260.547	88.38
260.779	83.38
261.012	82.38
261.244	78.38
261.477	89.38
261.71	67.38
261.942	78.38
262.175	88.38
262.407	80.38
262.64	87.38
262.872	79.38
263.105	73.38
263.337	75.38
263.57	82.38
263.802	75.38
264.035	83.38
264.267	92.38
264.499	79.38
264.732	75.38
264.964	75.38
265.197	82.38
265.429	74.38
265.661	82.38
265.894	82.38
266.126	84.38
266.358	90.38
266.591	79.38
266.823	68.38
267.055	78.38
267.287	76.38
267.52	89.38
267.752	78.38
267.984	90.38
268.216	84.38
268.448	86.38
268.681	70.38
268.913	78.38
269.145	80.38
269.377	91.38
269.609	77.38
269.841	85.38
270.073	89.38
270.306	79.38
270.538	91.38
270.77	73.38
271.002	81.38
271.234	83.38
271.466	95.38
271.698	79.38
271.93	81.38
272.162	83.38
272.394	83.38
272.626	81.38
272.858	77.38
273.09	76.38
273.322	89.38
273.553	89.38
273.785	74.38
274.017	83.38
274.249	89.38
274.481	85.38
274.713	71.38
274.945	82.38
275.176	81.38
275.408	69.38
275.64	90.38
275.872	80.38
276.104	79.38
276.335	68.38
276.567	81.38
276.799	84.38
277.031	87.38
277.262	71.38
277.494	83.38
277.726	86.38
277.957	80.38
278.189	76.38
278.421	84.38
278.652	101.38
278.884	84.38
279.115	93.38
279.347	77.38
279.579	81.38
279.81	82.38
280.042	74.38
280.273	83.38
280.505	87.38
280.736	77.38
280.968	72.38
281.199	83.38
281.431	79.38
281.662	86.38
281.894	91.38
282.125	100.38
282.356	82.38
282.588	90.38
282.819	77.38
283.051	84.38
283.282	76.38
283.513	90.38
283.745	65.38
283.976	83.38
284.207	67.38
284.439	94.38
284.67	71.38
284.901	83.38
285.132	79.38
285.364	74.38
285.595	81.38
285.826	81.38
286.057	89.38
286.288	86.38
286.52	93.38
286.751	74.38
286.982	74.38
287.213	83.38
287.444	87.38
287.675	67.38
287.906	79.38
288.138	69.38
288.369	80.38
288.6	79.38
288.831	83.38
289.062	102.38
289.293	84.38
289.524	85.38
289.755	94.38
289.986	83.38
290.217	75.38
290.448	85.38
290.679	76.38
290.91	87.38
291.141	83.38
291.371	72.38
291.602	84.38
291.833	89.38
292.064	83.38
292.295	82.38
292.526	83.38
292.757	96.38
292.987	76.38
293.218	81.38
293.449	83.38
293.68	99.38
293.91	72.38
294.141	97.38
294.372	74.38
294.603	78.38
294.833	97.38
295.064	93.38
295.295	92.38
295.525	87.38
295.756	96.38
295.987	81.38
296.217	78.38
296.448	81.38
296.679	94.38
296.909	78.38
297.14	96.38
297.37	92.38
297.601	78.38
297.831	83.38
298.062	89.38
298.292	82.38
298.523	77.38
298.753	78.38
298.984	77.38
299.214	73.38
299.445	82.38
299.675	89.38
299.905	95.38
300.136	85.38
300.366	83.38
300.597	81.38
300.827	81.38
301.057	88.38
301.288	80.38
301.518	86.38
301.748	72.38
301.979	94.38
302.209	85.38
302.439	77.38
302.669	82.38
302.9	78.38
303.13	70.38
303.36	81.38
303.59	88.38
303.82	91.38
304.051	76.38
304.281	73.38
304.511	85.38
304.741	87.38
304.971	95.38
305.201	85.38
305.431	67.38
305.661	80.38
305.891	85.38
306.121	83.38
306.352	77.38
306.582	81.38
306.812	79.38
307.042	93.38
307.272	77.38
307.502	103.38
307.731	82.38
307.961	74.38
308.191	86.38
308.421	83.38
308.651	89.38
308.881	80.38
309.111	81.38
309.341	74.38
309.571	82.38
309.8	82.38
310.03	79.38
310.26	70.38
310.49	75.38
310.72	75.38
310.949	70.38
311.179	82.38
311.409	72.38
311.639	85.38
311.868	91.38
312.098	93.38
312.328	80.38
312.557	86.38
312.787	78.38
313.017	89.38
313.246	71.38
313.476	78.38
313.706	93.38
313.935	89.38
314.165	81.38
314.394	85.38
314.624	81.38
314.853	89.38
315.083	77.38
315.312	81.38
315.542	80.38
315.771	91.38
316.001	81.38
316.23	96.38
316.46	89.38
316.689	92.38
316.919	66.38
317.148	77.38
317.377	79.38
317.607	87.38
317.836	89.38
318.065	80.38
318.295	71.38
318.524	77.38
318.753	82.38
318.983	78.38
319.212	77.38
319.441	71.38
319.67	71.38
319.9	90.38
320.129	83.38
320.358	90.38
320.587	72.38
320.816	80.38
321.046	76.38
321.275	82.38
321.504	85.38
321.733	76.38
321.962	72.38
322.191	71.38
322.42	82.38
322.649	85.38
322.878	84.38
323.108	64.38
323.337	86.38
323.566	87.38
323.795	82.38
324.024	96.38
324.253	82.38
324.482	98.38
324.71	102.38
324.939	85.38
325.168	95.38
325.397	87.38
325.626	73.38
325.855	70.38
326.084	80.38
326.313	71.38
326.542	88.38
326.77	83.38
326.999	93.38
327.228	82.38
327.457	80.38
327.686	87.38
327.914	73.38
328.143	102.38
328.372	85.38
328.6	79.38
328.829	98.38
329.058	74.38
329.287	74.38
329.515	79.38
329.744	83.38
329.972	78.38
330.201	83.38
330.43	73.38
330.658	85.38
330.887	81.38
331.115	90.38
331.344	85.38
331.572	80.38
331.801	85.38
332.03	90.38
332.258	83.38
332.486	74.38
332.715	88.38
332.943	82.38
333.172	79.38
333.4	75.38
333.629	83.38
333.857	88.38
334.085	87.38
334.314	69.38
334.542	75.38
334.771	91.38
334.999	92.38
335.227	73.38
335.455	85.38
335.684	96.38
335.912	71.38
336.14	86.38
336.369	85.38
336.597	92.38
336.825	93.38
337.053	77.38
337.281	90.38
337.51	87.38
337.738	91.38
337.966	92.38
338.194	92.38
338.422	89.38
338.65	93.38
338.878	79.38
339.106	95.38
339.334	92.38
339.562	80.38
339.79	85.38
340.018	91.38
340.246	70.38
340.474	89.38
340.702	97.38
340.93	101.38
341.158	84.38
341.386	80.38
341.614	74.38
341.842	79.38
342.07	94.38
342.298	102.38
342.526	82.38
342.754	70.38
342.981	93.38
343.209	93.38
343.437	83.38
343.665	79.38
343.893	77.38
344.12	88.38
344.348	82.38
344.576	90.38
344.804	88.38
345.031	94.38
345.259	93.38
345.487	93.38
345.714	79.38
345.942	85.38
346.17	77.38
346.397	77.38
346.625	79.38
346.853	85.38
347.08	82.38
347.308	92.38
347.535	75.38
347.763	83.38
347.99	82.38
348.218	93.38
348.445	77.38
348.673	79.38
348.9	77.38
349.128	82.38
349.355	80.38
349.583	81.38
349.81	94.38
350.037	88.38
350.265	76.38
350.492	83.38
350.72	81.38
350.947	83.38
351.174	89.38
351.402	91.38
351.629	83.38
351.856	86.38
352.083	76.38
352.311	85.38
352.538	82.38
352.765	89.38
352.992	97.38
353.22	83.38
353.447	86.38
353.674	85.38
353.901	75.38
354.128	82.38
354.355	74.38
354.583	83.38
354.81	77.38
355.037	97.38
355.264	88.38
355.491	88.38
355.718	79.38
355.945	81.38
356.172	80.38
356.399	86.38
356.626	79.38
356.853	79.38
357.08	91.38
357.307	87.38
357.534	86.38
357.761	89.38
357.988	89.38
358.215	71.38
358.441	85.38
358.668	63.38
358.895	77.38
359.122	97.38
359.349	92.38
359.576	71.38
359.802	81.38
360.029	99.38
360.256	81.38
360.483	89.38
360.709	76.38
360.936	90.38
361.163	67.38
361.39	83.38
361.616	80.38
361.843	81.38
362.07	94.38
362.296	95.38
362.523	81.38
362.749	74.38
362.976	70.38
363.203	77.38
363.429	80.38
363.656	93.38
363.882	67.38
364.109	84.38
364.335	94.38
364.562	94.38
364.788	78.38
365.015	82.38
365.241	81.38
365.468	83.38
365.694	85.38
365.92	79.38
366.147	83.38
366.373	75.38
366.599	68.38
366.826	82.38
367.052	73.38
367.278	97.38
367.505	86.38
367.731	93.38
367.957	80.38
368.184	72.38
368.41	86.38
368.636	76.38
368.862	100.38
369.089	92.38
369.315	91.38
369.541	89.38
369.767	90.38
369.993	85.38
370.219	84.38
370.445	79.38
370.672	91.38
370.898	76.38
371.124	77.38
371.35	79.38
371.576	81.38
371.802	85.38
372.028	87.38
372.254	79.38
372.48	76.38
372.706	91.38
372.932	86.38
373.158	89.38
373.384	87.38
373.61	91.38
373.835	91.38
374.061	94.38
374.287	89.38
374.513	84.38
374.739	82.38
374.965	81.38
375.191	79.38
375.416	88.38
375.642	87.38
375.868	86.38
376.094	85.38
376.319	70.38
376.545	81.38
376.771	84.38
376.997	83.38
377.222	84.38
377.448	80.38
377.674	85.38
377.899	63.38
378.125	73.38
378.35	78.38
378.576	82.38
378.802	84.38
379.027	90.38
379.253	90.38
379.478	74.38
379.704	71.38
379.929	89.38
380.155	89.38
380.38	80.38
380.606	85.38
380.831	76.38
381.057	81.38
381.282	75.38
381.507	82.38
381.733	91.38
381.958	91.38
382.184	95.38
382.409	68.38
382.634	85.38
382.86	80.38
383.085	85.38
383.31	78.38
383.535	81.38
383.761	75.38
383.986	90.38
384.211	84.38
384.436	77.38
384.662	83.38
384.887	87.38
385.112	83.38
385.337	83.38
385.562	80.38
385.787	74.38
386.013	76.38
386.238	75.38
386.463	71.38
386.688	75.38
386.913	83.38
387.138	81.38
387.363	93.38
387.588	88.38
387.813	85.38
388.038	86.38
388.263	87.38
388.488	83.38
388.713	82.38
388.938	91.38
389.163	80.38
389.387	71.38
389.612	84.38
389.837	78.38
390.062	78.38
390.287	82.38
390.512	80.38
390.736	92.38
390.961	77.38
391.186	86.38
391.411	83.38
391.636	69.38
391.86	89.38
392.085	91.38
392.31	75.38
392.534	74.38
392.759	82.38
392.984	82.38
393.208	89.38
393.433	91.38
393.658	89.38
393.882	75.38
394.107	81.38
394.331	77.38
394.556	79.38
394.78	99.38
395.005	70.38
395.229	91.38
395.454	82.38
395.678	90.38
395.903	82.38
396.127	75.38
396.352	80.38
396.576	72.38
396.801	85.38
397.025	74.38
397.249	66.38
397.474	78.38
397.698	90.38
397.922	87.38
398.147	75.38
398.371	91.38
398.595	90.38
398.82	90.38
399.044	81.38
399.268	81.38
399.492	76.38
399.717	77.38
399.941	81.38
400.165	79.38
400.389	70.38
400.613	83.38
400.837	93.38
401.062	81.38
401.286	83.38
401.51	81.38
401.734	87.38
401.958	87.38
402.182	79.38
402.406	82.38
402.63	86.38
402.854	81.38
403.078	74.38
403.302	81.38
403.526	79.38
403.75	63.38
403.974	69.38
404.198	69.38
404.422	87.38
404.645	90.38
404.869	87.38
405.093	85.38
405.317	79.38
405.541	79.38
405.765	86.38
405.988	56.38
406.212	85.38
406.436	86.38
406.66	71.38
406.883	75.38
407.107	76.38
407.331	77.38
407.555	81.38
407.778	92.38
408.002	79.38
408.226	88.38
408.449	73.38
408.673	91.38
408.896	80.38
409.12	75.38
409.344	74.38
409.567	84.38
409.791	81.38
410.014	78.38
410.238	88.38
410.461	79.38
410.685	83.38
410.908	89.38
411.132	91.38
411.355	81.38
411.578	83.38
411.802	78.38
412.025	77.38
412.249	77.38
412.472	81.38
412.695	74.38
412.919	90.38
413.142	89.38
413.365	87.38
413.589	70.38
413.812	83.38
414.035	82.38
414.258	81.38
414.482	74.38
414.705	71.38
414.928	78.38
415.151	67.38
415.374	83.38
415.597	85.38
415.821	83.38
416.044	83.38
416.267	71.38
416.49	82.38
416.713	69.38
416.936	62.38
417.159	61.38
417.382	68.38
417.605	97.38
417.828	89.38
418.051	73.38
418.274	88.38
418.497	81.38
418.72	71.38
418.943	83.38
419.166	79.38
419.389	84.38
419.611	86.38
419.834	90.38
420.057	76.38
420.28	69.38
420.503	86.38
420.726	79.38
420.948	82.38
421.171	71.38
421.394	83.38
421.617	78.38
421.839	84.38
422.062	81.38
422.285	86.38
422.507	72.38
422.73	73.38
422.953	71.38
423.175	68.38
423.398	78.38
423.621	88.38
423.843	77.38
424.066	76.38
424.288	73.38
424.511	89.38
424.733	86.38
424.956	81.38
425.178	73.38
425.401	86.38
425.623	75.38
425.846	82.38
426.068	78.38
426.291	89.38
426.513	81.38
426.735	72.38
426.958	85.38
427.18	70.38
427.402	89.38
427.625	82.38
427.847	67.38
428.069	81.38
428.292	77.38
428.514	78.38
428.736	81.38
428.958	77.38
429.181	70.38
429.403	76.38
429.625	91.38
429.847	81.38
430.069	81.38
430.292	96.38
430.514	91.38
430.736	79.38
430.958	94.38
431.18	85.38
431.402	70.38
431.624	81.38
431.846	77.38
432.068	62.38
432.29	73.38
432.512	86.38
432.734	69.38
432.956	82.38
433.178	64.38
433.4	83.38
433.622	82.38
433.844	85.38
434.066	73.38
434.287	82.38
434.509	84.38
434.731	99.38
434.953	90.38
435.175	77.38
435.397	86.38
435.618	80.38
435.84	89.38
436.062	81.38
436.284	73.38
436.505	80.38
436.727	82.38
436.949	78.38
437.17	73.38
437.392	86.38
437.614	80.38
437.835	83.38
438.057	75.38
438.278	72.38
438.5	69.38
438.721	77.38
438.943	77.38
439.165	90.38
439.386	90.38
439.608	88.38
439.829	72.38
440.05	76.38
440.272	85.38
440.493	73.38
440.715	76.38
440.936	77.38
441.158	96.38
441.379	71.38
441.6	86.38
441.822	70.38
442.043	92.38
442.264	83.38
442.486	85.38
442.707	76.38
442.928	72.38
443.149	85.38
443.371	93.38
443.592	82.38
443.813	91.38
444.034	73.38
444.255	85.38
444.476	84.38
444.698	84.38
444.919	80.38
445.14	150.38
445.361	88.38
445.582	68.38
445.803	77.38
446.024	83.38
446.245	82.38
446.466	84.38
446.687	80.38
446.908	83.38
447.129	75.38
447.35	67.38
447.571	88.38
447.792	91.38
448.013	90.38
448.234	71.38
448.455	82.38
448.675	73.38
448.896	88.38
449.117	84.38
449.338	86.38
449.559	90.38
449.779	78.38
450	75.38
450.221	83.38
450.442	85.38
450.662	68.38
450.883	77.38
451.104	75.38
451.324	85.38
451.545	75.38
451.766	65.38
451.986	86.38
452.207	89.38
452.428	75.38
452.648	78.38
452.869	90.38
453.089	90.38
453.31	66.38
453.53	81.38
453.751	92.38
453.971	93.38
454.192	78.38
454.412	88.38
454.633	62.38
454.853	76.38
455.073	83.38
455.294	85.38
455.514	67.38
455.734	85.38
455.955	68.38
456.175	84.38
456.395	73.38
456.616	71.38
456.836	81.38
457.056	74.38
457.276	82.38
457.497	72.38
457.717	83.38
457.937	74.38
458.157	80.38
458.377	90.38
458.598	81.38
458.818	75.38
459.038	71.38
459.258	83.38
459.478	83.38
459.698	82.38
459.918	83.38
460.138	86.38
460.358	74.38
460.578	81.38
460.798	90.38
461.018	91.38
461.238	66.38
461.458	78.38
461.678	83.38
461.898	84.38
462.118	85.38
462.338	85.38
462.558	66.38
462.777	81.38
462.997	88.38
463.217	85.38
463.437	86.38
463.657	75.38
463.876	81.38
464.096	90.38
464.316	65.38
464.536	78.38
464.755	75.38
464.975	79.38
465.195	85.38
465.414	89.38
465.634	70.38
465.854	83.38
466.073	84.38
466.293	83.38
466.512	82.38
466.732	86.38
466.951	82.38
467.171	75.38
467.391	76.38
467.61	82.38
467.829	66.38
468.049	77.38
468.268	71.38
468.488	79.38
468.707	74.38
468.927	88.38
469.146	84.38
469.365	71.38
469.585	70.38
469.804	71.38
470.023	67.38
470.243	87.38
470.462	75.38
470.681	71.38
470.901	83.38
471.12	91.38
471.339	87.38
471.558	78.38
471.777	77.38
471.997	91.38
472.216	73.38
472.435	74.38
472.654	92.38
472.873	84.38
473.092	78.38
473.311	87.38
473.53	81.38
473.749	85.38
473.968	89.38
474.187	91.38
474.406	86.38
474.625	79.38
474.844	76.38
475.063	83.38
475.282	83.38
475.501	81.38
475.72	78.38
475.939	81.38
476.158	77.38
476.377	75.38
476.596	65.38
476.814	73.38
477.033	64.38
477.252	93.38
477.471	68.38
477.69	75.38
477.908	69.38
478.127	76.38
478.346	76.38
478.564	75.38
478.783	81.38
479.002	94.38
479.22	81.38
479.439	75.38
479.658	71.38
479.876	91.38
480.095	81.38
480.313	84.38
480.532	86.38
480.751	87.38
480.969	87.38
481.188	79.38
481.406	83.38
481.624	83.38
481.843	86.38
482.061	78.38
482.28	81.38
482.498	82.38
482.717	79.38
482.935	82.38
483.153	74.38
483.372	68.38
483.59	78.38
483.808	68.38
484.027	77.38
484.245	83.38
484.463	83.38
484.681	87.38
484.9	93.38
485.118	89.38
485.336	77.38
485.554	101.38
485.772	72.38
485.99	80.38
486.209	79.38
486.427	80.38
486.645	70.38
486.863	79.38
487.081	79.38
487.299	74.38
487.517	86.38
487.735	81.38
487.953	80.38
488.171	76.38
488.389	70.38
488.607	84.38
488.825	75.38
489.043	79.38
489.261	77.38
489.479	83.38
489.696	76.38
489.914	79.38
490.132	68.38
490.35	75.38
490.568	83.38
490.786	83.38
491.003	75.38
491.221	97.38
491.439	90.38
491.657	74.38
491.874	79.38
492.092	90.38
492.31	81.38
492.527	79.38
492.745	90.38
492.963	70.38
493.18	81.38
493.398	87.38
493.615	87.38
493.833	75.38
494.05	81.38
494.268	75.38
494.485	71.38
494.703	91.38
494.92	81.38
495.138	76.38
495.355	79.38
495.573	86.38
495.79	82.38
496.008	76.38
496.225	78.38
496.442	87.38
496.66	72.38
496.877	95.38
497.094	68.38
497.312	62.38
497.529	80.38
497.746	73.38
497.963	78.38
498.181	87.38
498.398	78.38
498.615	81.38
498.832	69.38
499.049	67.38
499.267	89.38
499.484	78.38
499.701	87.38
499.918	95.38
500.135	85.38
500.352	86.38
500.569	65.38
500.786	91.38
501.003	82.38
501.22	82.38
501.437	71.38
501.654	73.38
501.871	86.38
502.088	79.38
502.305	84.38
502.522	80.38
502.739	76.38
502.956	85.38
503.172	83.38
503.389	84.38
503.606	97.38
503.823	91.38
504.04	89.38
504.256	90.38
504.473	74.38
504.69	86.38
504.907	77.38
505.123	78.38
505.34	96.38
505.557	95.38
505.773	89.38
505.99	72.38
506.207	65.38
506.423	77.38
506.64	78.38
506.856	81.38
507.073	83.38
507.289	87.38
507.506	79.38
507.722	85.38
507.939	93.38
508.155	90.38
508.372	86.38
508.588	85.38
508.805	89.38
509.021	85.38
509.238	91.38
509.454	90.38
509.67	71.38
509.887	77.38
510.103	77.38
510.319	78.38
510.536	83.38
510.752	79.38
510.968	86.38
511.184	72.38
511.401	79.38
511.617	81.38
511.833	77.38
512.049	87.38
512.265	85.38
512.481	93.38
512.698	81.38
512.914	86.38
513.13	85.38
513.346	76.38
513.562	77.38
513.778	90.38
513.994	86.38
514.21	77.38
514.426	74.38
514.642	93.38
514.858	93.38
515.074	83.38
515.29	86.38
515.506	79.38
515.721	90.38
515.937	65.38
516.153	76.38
516.369	90.38
516.585	78.38
516.801	86.38
517.016	96.38
517.232	83.38
517.448	82.38
517.664	88.38
517.879	73.38
518.095	70.38
518.311	84.38
518.527	90.38
518.742	79.38
518.958	75.38
519.173	83.38
519.389	92.38
519.605	71.38
519.82	81.38
520.036	73.38
