Data from Background_3_HRD10591_00058.txt Node
Date: Wed Nov 05 14:49:48 EST 2025
User: Yrep
Spectrometer: HR+D1059
Trigger mode: 1
Integration Time (sec): 1.000000E-1
Scans to average: 1
Electric dark correction enabled: true
Nonlinearity correction enabled: false
Boxcar width: 0
XAxis mode: Wavelengths
Number of Pixels in Spectrum: 2048
>>>>>Begin Spectral Data<<<<<
223.165	-17.5
223.4	-17.5
223.635	-17.5
223.869	-22.5
224.104	-27.5
224.338	-28.5
224.573	-6.5
224.808	-5.5
225.042	-15.5
225.277	-0.5
225.511	-9.5
225.746	-2.5
225.98	15.5
226.215	16.5
226.449	20.5
226.683	21.5
226.918	25.5
227.152	36.5
227.387	48.5
227.621	45.5
227.856	49.5
228.09	41.5
228.324	48.5
228.559	58.5
228.793	73.5
229.027	57.5
229.262	61.5
229.496	61.5
229.73	71.5
229.964	83.5
230.199	70.5
230.433	70.5
230.667	78.5
230.901	84.5
231.136	59.5
231.37	85.5
231.604	74.5
231.838	77.5
232.072	94.5
232.306	78.5
232.541	81.5
232.775	79.5
233.009	80.5
233.243	94.5
233.477	90.5
233.711	82.5
233.945	80.5
234.179	91.5
234.413	70.5
234.647	86.5
234.881	85.5
235.115	86.5
235.349	56.5
235.583	74.5
235.817	75.5
236.051	85.5
236.285	68.5
236.519	85.5
236.753	90.5
236.987	83.5
237.221	80.5
237.455	78.5
237.689	88.5
237.922	89.5
238.156	66.5
238.39	76.5
238.624	87.5
238.858	79.5
239.091	75.5
239.325	87.5
239.559	69.5
239.793	90.5
240.027	88.5
240.26	68.5
240.494	83.5
240.728	74.5
240.961	69.5
241.195	84.5
241.429	86.5
241.662	72.5
241.896	79.5
242.13	72.5
242.363	72.5
242.597	59.5
242.83	75.5
243.064	70.5
243.298	80.5
243.531	81.5
243.765	60.5
243.998	78.5
244.232	76.5
244.465	79.5
244.699	70.5
244.932	82.5
245.166	74.5
245.399	68.5
245.633	78.5
245.866	92.5
246.099	80.5
246.333	77.5
246.566	69.5
246.8	72.5
247.033	81.5
247.266	73.5
247.5	79.5
247.733	65.5
247.966	60.5
248.2	76.5
248.433	88.5
248.666	69.5
248.899	68.5
249.133	86.5
249.366	87.5
249.599	76.5
249.832	74.5
250.066	80.5
250.299	77.5
250.532	83.5
250.765	76.5
250.998	78.5
251.231	77.5
251.465	75.5
251.698	77.5
251.931	70.5
252.164	57.5
252.397	65.5
252.63	71.5
252.863	84.5
253.096	79.5
253.329	74.5
253.562	74.5
253.795	81.5
254.028	77.5
254.261	90.5
254.494	85.5
254.727	78.5
254.96	73.5
255.193	91.5
255.426	87.5
255.659	76.5
255.892	93.5
256.124	77.5
256.357	70.5
256.59	80.5
256.823	80.5
257.056	63.5
257.289	77.5
257.521	93.5
257.754	81.5
257.987	85.5
258.22	81.5
258.452	70.5
258.685	81.5
258.918	90.5
259.151	69.5
259.383	79.5
259.616	69.5
259.849	76.5
260.081	76.5
260.314	76.5
260.547	62.5
260.779	87.5
261.012	78.5
261.244	58.5
261.477	92.5
261.71	76.5
261.942	83.5
262.175	67.5
262.407	94.5
262.64	76.5
262.872	69.5
263.105	86.5
263.337	81.5
263.57	88.5
263.802	86.5
264.035	92.5
264.267	72.5
264.499	70.5
264.732	62.5
264.964	90.5
265.197	69.5
265.429	96.5
265.661	74.5
265.894	76.5
266.126	82.5
266.358	78.5
266.591	81.5
266.823	81.5
267.055	93.5
267.287	90.5
267.52	85.5
267.752	81.5
267.984	85.5
268.216	93.5
268.448	88.5
268.681	83.5
268.913	98.5
269.145	89.5
269.377	83.5
269.609	81.5
269.841	82.5
270.073	86.5
270.306	86.5
270.538	80.5
270.77	91.5
271.002	81.5
271.234	89.5
271.466	78.5
271.698	70.5
271.93	76.5
272.162	81.5
272.394	76.5
272.626	90.5
272.858	78.5
273.09	93.5
273.322	89.5
273.553	74.5
273.785	90.5
274.017	81.5
274.249	73.5
274.481	69.5
274.713	76.5
274.945	74.5
275.176	81.5
275.408	84.5
275.64	84.5
275.872	84.5
276.104	77.5
276.335	79.5
276.567	82.5
276.799	88.5
277.031	81.5
277.262	60.5
277.494	89.5
277.726	88.5
277.957	84.5
278.189	75.5
278.421	64.5
278.652	77.5
278.884	67.5
279.115	82.5
279.347	91.5
279.579	90.5
279.81	86.5
280.042	80.5
280.273	82.5
280.505	87.5
280.736	80.5
280.968	90.5
281.199	74.5
281.431	69.5
281.662	75.5
281.894	75.5
282.125	65.5
282.356	76.5
282.588	75.5
282.819	81.5
283.051	83.5
283.282	87.5
283.513	76.5
283.745	82.5
283.976	92.5
284.207	85.5
284.439	86.5
284.67	83.5
284.901	80.5
285.132	80.5
285.364	97.5
285.595	65.5
285.826	90.5
286.057	74.5
286.288	96.5
286.52	94.5
286.751	77.5
286.982	85.5
287.213	70.5
287.444	80.5
287.675	83.5
287.906	94.5
288.138	87.5
288.369	78.5
288.6	80.5
288.831	83.5
289.062	83.5
289.293	85.5
289.524	89.5
289.755	66.5
289.986	86.5
290.217	84.5
290.448	83.5
290.679	88.5
290.91	92.5
291.141	86.5
291.371	89.5
291.602	83.5
291.833	78.5
292.064	80.5
292.295	75.5
292.526	88.5
292.757	91.5
292.987	74.5
293.218	88.5
293.449	97.5
293.68	83.5
293.91	84.5
294.141	84.5
294.372	77.5
294.603	76.5
294.833	78.5
295.064	83.5
295.295	72.5
295.525	81.5
295.756	81.5
295.987	82.5
296.217	82.5
296.448	81.5
296.679	85.5
296.909	91.5
297.14	93.5
297.37	75.5
297.601	88.5
297.831	78.5
298.062	68.5
298.292	98.5
298.523	92.5
298.753	66.5
298.984	78.5
299.214	85.5
299.445	82.5
299.675	84.5
299.905	80.5
300.136	76.5
300.366	89.5
300.597	69.5
300.827	72.5
301.057	104.5
301.288	88.5
301.518	85.5
301.748	80.5
301.979	104.5
302.209	81.5
302.439	76.5
302.669	79.5
302.9	90.5
303.13	75.5
303.36	80.5
303.59	77.5
303.82	90.5
304.051	85.5
304.281	74.5
304.511	80.5
304.741	68.5
304.971	81.5
305.201	94.5
305.431	84.5
305.661	72.5
305.891	91.5
306.121	82.5
306.352	74.5
306.582	96.5
306.812	82.5
307.042	79.5
307.272	82.5
307.502	84.5
307.731	68.5
307.961	83.5
308.191	84.5
308.421	89.5
308.651	84.5
308.881	88.5
309.111	89.5
309.341	88.5
309.571	77.5
309.8	89.5
310.03	80.5
310.26	85.5
310.49	84.5
310.72	76.5
310.949	77.5
311.179	87.5
311.409	86.5
311.639	83.5
311.868	90.5
312.098	88.5
312.328	86.5
312.557	94.5
312.787	75.5
313.017	96.5
313.246	88.5
313.476	95.5
313.706	82.5
313.935	78.5
314.165	104.5
314.394	70.5
314.624	77.5
314.853	92.5
315.083	75.5
315.312	85.5
315.542	85.5
315.771	70.5
316.001	74.5
316.23	86.5
316.46	67.5
316.689	78.5
316.919	75.5
317.148	76.5
317.377	77.5
317.607	90.5
317.836	88.5
318.065	94.5
318.295	83.5
318.524	64.5
318.753	93.5
318.983	76.5
319.212	80.5
319.441	78.5
319.67	88.5
319.9	90.5
320.129	92.5
320.358	90.5
320.587	82.5
320.816	85.5
321.046	81.5
321.275	76.5
321.504	84.5
321.733	76.5
321.962	69.5
322.191	81.5
322.42	62.5
322.649	85.5
322.878	94.5
323.108	82.5
323.337	80.5
323.566	74.5
323.795	87.5
324.024	91.5
324.253	80.5
324.482	82.5
324.71	87.5
324.939	89.5
325.168	79.5
325.397	78.5
325.626	82.5
325.855	89.5
326.084	88.5
326.313	79.5
326.542	86.5
326.77	75.5
326.999	79.5
327.228	82.5
327.457	64.5
327.686	68.5
327.914	92.5
328.143	88.5
328.372	76.5
328.6	86.5
328.829	80.5
329.058	96.5
329.287	78.5
329.515	80.5
329.744	74.5
329.972	99.5
330.201	80.5
330.43	88.5
330.658	78.5
330.887	76.5
331.115	73.5
331.344	88.5
331.572	79.5
331.801	84.5
332.03	80.5
332.258	78.5
332.486	82.5
332.715	86.5
332.943	79.5
333.172	76.5
333.4	91.5
333.629	75.5
333.857	82.5
334.085	86.5
334.314	90.5
334.542	83.5
334.771	85.5
334.999	72.5
335.227	80.5
335.455	92.5
335.684	83.5
335.912	74.5
336.14	83.5
336.369	86.5
336.597	83.5
336.825	77.5
337.053	71.5
337.281	81.5
337.51	90.5
337.738	82.5
337.966	75.5
338.194	81.5
338.422	90.5
338.65	91.5
338.878	73.5
339.106	76.5
339.334	78.5
339.562	78.5
339.79	75.5
340.018	76.5
340.246	77.5
340.474	90.5
340.702	87.5
340.93	76.5
341.158	86.5
341.386	90.5
341.614	74.5
341.842	85.5
342.07	80.5
342.298	76.5
342.526	88.5
342.754	99.5
342.981	91.5
343.209	72.5
343.437	83.5
343.665	82.5
343.893	66.5
344.12	96.5
344.348	76.5
344.576	73.5
344.804	75.5
345.031	65.5
345.259	86.5
345.487	82.5
345.714	88.5
345.942	84.5
346.17	81.5
346.397	76.5
346.625	73.5
346.853	67.5
347.08	80.5
347.308	81.5
347.535	80.5
347.763	87.5
347.99	69.5
348.218	80.5
348.445	84.5
348.673	61.5
348.9	83.5
349.128	99.5
349.355	94.5
349.583	90.5
349.81	78.5
350.037	93.5
350.265	77.5
350.492	79.5
350.72	91.5
350.947	92.5
351.174	80.5
351.402	75.5
351.629	77.5
351.856	85.5
352.083	66.5
352.311	88.5
352.538	73.5
352.765	76.5
352.992	96.5
353.22	80.5
353.447	80.5
353.674	75.5
353.901	84.5
354.128	104.5
354.355	79.5
354.583	77.5
354.81	96.5
355.037	77.5
355.264	87.5
355.491	83.5
355.718	82.5
355.945	74.5
356.172	82.5
356.399	76.5
356.626	86.5
356.853	71.5
357.08	92.5
357.307	97.5
357.534	98.5
357.761	90.5
357.988	94.5
358.215	85.5
358.441	81.5
358.668	96.5
358.895	96.5
359.122	85.5
359.349	93.5
359.576	85.5
359.802	83.5
360.029	73.5
360.256	66.5
360.483	74.5
360.709	88.5
360.936	83.5
361.163	77.5
361.39	80.5
361.616	83.5
361.843	88.5
362.07	85.5
362.296	90.5
362.523	74.5
362.749	71.5
362.976	80.5
363.203	100.5
363.429	91.5
363.656	80.5
363.882	82.5
364.109	82.5
364.335	89.5
364.562	82.5
364.788	80.5
365.015	88.5
365.241	82.5
365.468	75.5
365.694	91.5
365.92	75.5
366.147	86.5
366.373	80.5
366.599	98.5
366.826	96.5
367.052	88.5
367.278	86.5
367.505	84.5
367.731	89.5
367.957	84.5
368.184	70.5
368.41	88.5
368.636	84.5
368.862	86.5
369.089	97.5
369.315	82.5
369.541	90.5
369.767	89.5
369.993	81.5
370.219	91.5
370.445	84.5
370.672	87.5
370.898	89.5
371.124	80.5
371.35	67.5
371.576	94.5
371.802	84.5
372.028	82.5
372.254	78.5
372.48	83.5
372.706	73.5
372.932	93.5
373.158	66.5
373.384	63.5
373.61	85.5
373.835	84.5
374.061	79.5
374.287	82.5
374.513	73.5
374.739	90.5
374.965	86.5
375.191	85.5
375.416	94.5
375.642	76.5
375.868	89.5
376.094	73.5
376.319	80.5
376.545	81.5
376.771	97.5
376.997	86.5
377.222	74.5
377.448	83.5
377.674	98.5
377.899	76.5
378.125	90.5
378.35	76.5
378.576	86.5
378.802	83.5
379.027	83.5
379.253	89.5
379.478	85.5
379.704	113.5
379.929	84.5
380.155	76.5
380.38	80.5
380.606	79.5
380.831	94.5
381.057	91.5
381.282	89.5
381.507	77.5
381.733	83.5
381.958	79.5
382.184	85.5
382.409	92.5
382.634	77.5
382.86	88.5
383.085	93.5
383.31	79.5
383.535	90.5
383.761	93.5
383.986	71.5
384.211	69.5
384.436	76.5
384.662	77.5
384.887	69.5
385.112	87.5
385.337	77.5
385.562	78.5
385.787	89.5
386.013	90.5
386.238	89.5
386.463	74.5
386.688	86.5
386.913	82.5
387.138	79.5
387.363	78.5
387.588	92.5
387.813	97.5
388.038	75.5
388.263	85.5
388.488	84.5
388.713	85.5
388.938	68.5
389.163	80.5
389.387	64.5
389.612	68.5
389.837	69.5
390.062	85.5
390.287	88.5
390.512	95.5
390.736	70.5
390.961	84.5
391.186	77.5
391.411	78.5
391.636	88.5
391.86	77.5
392.085	78.5
392.31	75.5
392.534	81.5
392.759	82.5
392.984	96.5
393.208	88.5
393.433	74.5
393.658	89.5
393.882	88.5
394.107	80.5
394.331	90.5
394.556	79.5
394.78	70.5
395.005	81.5
395.229	80.5
395.454	79.5
395.678	88.5
395.903	90.5
396.127	79.5
396.352	84.5
396.576	77.5
396.801	70.5
397.025	79.5
397.249	81.5
397.474	84.5
397.698	82.5
397.922	77.5
398.147	86.5
398.371	79.5
398.595	81.5
398.82	79.5
399.044	85.5
399.268	86.5
399.492	77.5
399.717	73.5
399.941	81.5
400.165	70.5
400.389	82.5
400.613	95.5
400.837	82.5
401.062	67.5
401.286	64.5
401.51	68.5
401.734	76.5
401.958	80.5
402.182	79.5
402.406	79.5
402.63	87.5
402.854	78.5
403.078	64.5
403.302	90.5
403.526	80.5
403.75	73.5
403.974	82.5
404.198	85.5
404.422	69.5
404.645	80.5
404.869	89.5
405.093	78.5
405.317	69.5
405.541	67.5
405.765	100.5
405.988	81.5
406.212	83.5
406.436	85.5
406.66	80.5
406.883	73.5
407.107	74.5
407.331	71.5
407.555	81.5
407.778	78.5
408.002	72.5
408.226	73.5
408.449	83.5
408.673	76.5
408.896	84.5
409.12	84.5
409.344	88.5
409.567	80.5
409.791	76.5
410.014	84.5
410.238	79.5
410.461	79.5
410.685	83.5
410.908	85.5
411.132	70.5
411.355	81.5
411.578	70.5
411.802	85.5
412.025	78.5
412.249	61.5
412.472	85.5
412.695	71.5
412.919	84.5
413.142	68.5
413.365	81.5
413.589	81.5
413.812	79.5
414.035	94.5
414.258	81.5
414.482	83.5
414.705	78.5
414.928	88.5
415.151	84.5
415.374	72.5
415.597	88.5
415.821	76.5
416.044	102.5
416.267	88.5
416.49	87.5
416.713	79.5
416.936	71.5
417.159	68.5
417.382	84.5
417.605	75.5
417.828	69.5
418.051	90.5
418.274	87.5
418.497	70.5
418.72	79.5
418.943	76.5
419.166	81.5
419.389	83.5
419.611	73.5
419.834	71.5
420.057	90.5
420.28	57.5
420.503	80.5
420.726	67.5
420.948	59.5
421.171	81.5
421.394	88.5
421.617	76.5
421.839	69.5
422.062	89.5
422.285	73.5
422.507	76.5
422.73	81.5
422.953	76.5
423.175	75.5
423.398	82.5
423.621	86.5
423.843	91.5
424.066	78.5
424.288	67.5
424.511	78.5
424.733	80.5
424.956	76.5
425.178	77.5
425.401	76.5
425.623	86.5
425.846	81.5
426.068	92.5
426.291	84.5
426.513	80.5
426.735	78.5
426.958	86.5
427.18	77.5
427.402	82.5
427.625	76.5
427.847	96.5
428.069	83.5
428.292	83.5
428.514	85.5
428.736	67.5
428.958	68.5
429.181	93.5
429.403	78.5
429.625	85.5
429.847	84.5
430.069	90.5
430.292	83.5
430.514	78.5
430.736	73.5
430.958	78.5
431.18	90.5
431.402	72.5
431.624	70.5
431.846	77.5
432.068	80.5
432.29	79.5
432.512	77.5
432.734	84.5
432.956	82.5
433.178	84.5
433.4	82.5
433.622	72.5
433.844	78.5
434.066	76.5
434.287	92.5
434.509	70.5
434.731	73.5
434.953	76.5
435.175	80.5
435.397	84.5
435.618	81.5
435.84	84.5
436.062	89.5
436.284	70.5
436.505	68.5
436.727	85.5
436.949	74.5
437.17	70.5
437.392	81.5
437.614	74.5
437.835	73.5
438.057	76.5
438.278	85.5
438.5	92.5
438.721	89.5
438.943	77.5
439.165	80.5
439.386	74.5
439.608	74.5
439.829	65.5
440.05	84.5
440.272	78.5
440.493	87.5
440.715	88.5
440.936	88.5
441.158	76.5
441.379	75.5
441.6	80.5
441.822	70.5
442.043	84.5
442.264	78.5
442.486	73.5
442.707	90.5
442.928	82.5
443.149	85.5
443.371	70.5
443.592	83.5
443.813	83.5
444.034	69.5
444.255	76.5
444.476	80.5
444.698	87.5
444.919	84.5
445.14	154.5
445.361	122.5
445.582	81.5
445.803	67.5
446.024	76.5
446.245	80.5
446.466	80.5
446.687	78.5
446.908	87.5
447.129	77.5
447.35	77.5
447.571	88.5
447.792	78.5
448.013	72.5
448.234	76.5
448.455	83.5
448.675	79.5
448.896	63.5
449.117	90.5
449.338	78.5
449.559	80.5
449.779	80.5
450	99.5
450.221	75.5
450.442	62.5
450.662	91.5
450.883	83.5
451.104	74.5
451.324	57.5
451.545	82.5
451.766	77.5
451.986	80.5
452.207	70.5
452.428	89.5
452.648	77.5
452.869	76.5
453.089	74.5
453.31	95.5
453.53	88.5
453.751	79.5
453.971	80.5
454.192	86.5
454.412	71.5
454.633	92.5
454.853	66.5
455.073	75.5
455.294	68.5
455.514	80.5
455.734	80.5
455.955	77.5
456.175	83.5
456.395	78.5
456.616	86.5
456.836	78.5
457.056	79.5
457.276	84.5
457.497	69.5
457.717	82.5
457.937	88.5
458.157	77.5
458.377	70.5
458.598	77.5
458.818	73.5
459.038	84.5
459.258	71.5
459.478	76.5
459.698	82.5
459.918	83.5
460.138	83.5
460.358	83.5
460.578	87.5
460.798	79.5
461.018	73.5
461.238	82.5
461.458	75.5
461.678	74.5
461.898	74.5
462.118	105.5
462.338	80.5
462.558	60.5
462.777	77.5
462.997	76.5
463.217	71.5
463.437	83.5
463.657	71.5
463.876	89.5
464.096	85.5
464.316	72.5
464.536	75.5
464.755	80.5
464.975	82.5
465.195	91.5
465.414	81.5
465.634	74.5
465.854	62.5
466.073	78.5
466.293	82.5
466.512	91.5
466.732	76.5
466.951	78.5
467.171	80.5
467.391	89.5
467.61	74.5
467.829	84.5
468.049	82.5
468.268	84.5
468.488	71.5
468.707	80.5
468.927	87.5
469.146	81.5
469.365	83.5
469.585	82.5
469.804	94.5
470.023	81.5
470.243	79.5
470.462	78.5
470.681	60.5
470.901	75.5
471.12	70.5
471.339	78.5
471.558	66.5
471.777	86.5
471.997	84.5
472.216	86.5
472.435	77.5
472.654	86.5
472.873	83.5
473.092	97.5
473.311	93.5
473.53	69.5
473.749	88.5
473.968	83.5
474.187	82.5
474.406	77.5
474.625	55.5
474.844	79.5
475.063	70.5
475.282	76.5
475.501	87.5
475.72	84.5
475.939	82.5
476.158	82.5
476.377	65.5
476.596	81.5
476.814	77.5
477.033	85.5
477.252	71.5
477.471	71.5
477.69	84.5
477.908	77.5
478.127	70.5
478.346	78.5
478.564	64.5
478.783	85.5
479.002	74.5
479.22	86.5
479.439	84.5
479.658	79.5
479.876	86.5
480.095	78.5
480.313	79.5
480.532	77.5
480.751	83.5
480.969	84.5
481.188	76.5
481.406	82.5
481.624	96.5
481.843	95.5
482.061	93.5
482.28	80.5
482.498	69.5
482.717	78.5
482.935	63.5
483.153	77.5
483.372	83.5
483.59	94.5
483.808	82.5
484.027	88.5
484.245	95.5
484.463	81.5
484.681	78.5
484.9	81.5
485.118	65.5
485.336	78.5
485.554	80.5
485.772	76.5
485.99	93.5
486.209	79.5
486.427	68.5
486.645	73.5
486.863	68.5
487.081	77.5
487.299	71.5
487.517	89.5
487.735	77.5
487.953	81.5
488.171	72.5
488.389	74.5
488.607	72.5
488.825	73.5
489.043	83.5
489.261	89.5
489.479	90.5
489.696	93.5
489.914	97.5
490.132	76.5
490.35	68.5
490.568	78.5
490.786	88.5
491.003	84.5
491.221	87.5
491.439	91.5
491.657	89.5
491.874	84.5
492.092	88.5
492.31	69.5
492.527	72.5
492.745	85.5
492.963	81.5
493.18	79.5
493.398	75.5
493.615	87.5
493.833	86.5
494.05	74.5
494.268	74.5
494.485	95.5
494.703	84.5
494.92	86.5
495.138	85.5
495.355	73.5
495.573	76.5
495.79	77.5
496.008	76.5
496.225	73.5
496.442	77.5
496.66	78.5
496.877	81.5
497.094	85.5
497.312	64.5
497.529	82.5
497.746	84.5
497.963	71.5
498.181	85.5
498.398	90.5
498.615	93.5
498.832	69.5
499.049	82.5
499.267	80.5
499.484	80.5
499.701	76.5
499.918	90.5
500.135	65.5
500.352	83.5
500.569	80.5
500.786	95.5
501.003	91.5
501.22	78.5
501.437	75.5
501.654	77.5
501.871	93.5
502.088	79.5
502.305	98.5
502.522	89.5
502.739	90.5
502.956	78.5
503.172	77.5
503.389	90.5
503.606	82.5
503.823	74.5
504.04	70.5
504.256	72.5
504.473	81.5
504.69	78.5
504.907	80.5
505.123	84.5
505.34	60.5
505.557	78.5
505.773	88.5
505.99	81.5
506.207	89.5
506.423	81.5
506.64	92.5
506.856	70.5
507.073	80.5
507.289	76.5
507.506	66.5
507.722	85.5
507.939	85.5
508.155	80.5
508.372	82.5
508.588	77.5
508.805	84.5
509.021	90.5
509.238	85.5
509.454	81.5
509.67	89.5
509.887	63.5
510.103	80.5
510.319	64.5
510.536	85.5
510.752	77.5
510.968	89.5
511.184	95.5
511.401	84.5
511.617	90.5
511.833	72.5
512.049	75.5
512.265	93.5
512.481	82.5
512.698	85.5
512.914	94.5
513.13	78.5
513.346	82.5
513.562	97.5
513.778	83.5
513.994	70.5
514.21	86.5
514.426	77.5
514.642	89.5
514.858	74.5
515.074	82.5
515.29	90.5
515.506	91.5
515.721	85.5
515.937	89.5
516.153	81.5
516.369	91.5
516.585	80.5
516.801	96.5
517.016	75.5
517.232	72.5
517.448	81.5
517.664	69.5
517.879	78.5
518.095	88.5
518.311	77.5
518.527	73.5
518.742	87.5
518.958	84.5
519.173	83.5
519.389	72.5
519.605	72.5
519.82	73.5
520.036	74.5
520.251	75.5
520.467	80.5
520.682	77.5
520.898	88.5
521.113	76.5
521.329	85.5
521.544	71.5
521.76	74.5
521.975	75.5
522.19	78.5
522.406	85.5
522.621	82.5
522.836	93.5
523.052	82.5
523.267	72.5
523.482	87.5
523.698	79.5
523.913	82.5
524.128	83.5
524.343	83.5
524.559	76.5
524.774	84.5
524.989	95.5
525.204	88.5
525.419	61.5
525.634	74.5
525.849	83.5
526.064	77.5
526.28	86.5
526.495	104.5
526.71	74.5
526.925	77.5
527.14	88.5
527.355	84.5
527.57	73.5
527.785	90.5
527.999	87.5
528.214	80.5
528.429	85.5
528.644	76.5
528.859	84.5
529.074	82.5
529.289	81.5
529.503	87.5
529.718	88.5
529.933	77.5
530.148	84.5
530.363	72.5
530.577	79.5
530.792	80.5
531.007	83.5
531.221	77.5
531.436	75.5
531.651	63.5
531.865	72.5
532.08	84.5
532.295	88.5
532.509	86.5
532.724	87.5
532.938	77.5
533.153	62.5
533.367	80.5
533.582	71.5
533.796	73.5
534.011	74.5
534.225	84.5
534.44	92.5
534.654	85.5
534.868	92.5
535.083	96.5
535.297	85.5
535.511	86.5
535.726	81.5
535.94	85.5
536.154	92.5
536.369	89.5
536.583	74.5
536.797	88.5
537.011	85.5
537.225	81.5
537.44	72.5
537.654	89.5
537.868	90.5
538.082	82.5
538.296	67.5
538.51	74.5
538.724	78.5
538.938	71.5
539.153	92.5
539.367	71.5
539.581	86.5
539.795	68.5
540.009	78.5
540.222	99.5
540.436	94.5
