Data from Background_3_HRD10591_00032.txt Node
Date: Wed Nov 05 14:49:35 EST 2025
User: Yrep
Spectrometer: HR+D1059
Trigger mode: 1
Integration Time (sec): 1.000000E-1
Scans to average: 1
Electric dark correction enabled: true
Nonlinearity correction enabled: false
Boxcar width: 0
XAxis mode: Wavelengths
Number of Pixels in Spectrum: 2048
>>>>>Begin Spectral Data<<<<<
223.165	-3.38
223.4	-3.38
223.635	-3.38
223.869	-18.38
224.104	-19.38
224.338	-13.38
224.573	-20.38
224.808	-11.38
225.042	-12.38
225.277	-6.38
225.511	-7.38
225.746	12.62
225.98	7.62
226.215	-2.38
226.449	18.62
226.683	14.62
226.918	24.62
227.152	36.62
227.387	50.62
227.621	32.62
227.856	42.62
228.09	54.62
228.324	48.62
228.559	60.62
228.793	61.62
229.027	60.62
229.262	65.62
229.496	70.62
229.73	71.62
229.964	80.62
230.199	52.62
230.433	61.62
230.667	89.62
230.901	77.62
231.136	80.62
231.37	84.62
231.604	70.62
231.838	76.62
232.072	95.62
232.306	78.62
232.541	76.62
232.775	75.62
233.009	87.62
233.243	82.62
233.477	92.62
233.711	74.62
233.945	91.62
234.179	85.62
234.413	85.62
234.647	71.62
234.881	83.62
235.115	80.62
235.349	75.62
235.583	78.62
235.817	81.62
236.051	81.62
236.285	65.62
236.519	79.62
236.753	64.62
236.987	74.62
237.221	73.62
237.455	77.62
237.689	78.62
237.922	77.62
238.156	77.62
238.39	73.62
238.624	73.62
238.858	70.62
239.091	71.62
239.325	58.62
239.559	84.62
239.793	68.62
240.027	74.62
240.26	80.62
240.494	71.62
240.728	73.62
240.961	76.62
241.195	83.62
241.429	80.62
241.662	83.62
241.896	79.62
242.13	95.62
242.363	69.62
242.597	77.62
242.83	70.62
243.064	61.62
243.298	72.62
243.531	78.62
243.765	75.62
243.998	82.62
244.232	77.62
244.465	70.62
244.699	66.62
244.932	79.62
245.166	83.62
245.399	79.62
245.633	89.62
245.866	73.62
246.099	70.62
246.333	80.62
246.566	78.62
246.8	80.62
247.033	73.62
247.266	87.62
247.5	70.62
247.733	88.62
247.966	84.62
248.2	72.62
248.433	80.62
248.666	87.62
248.899	81.62
249.133	69.62
249.366	82.62
249.599	94.62
249.832	72.62
250.066	94.62
250.299	72.62
250.532	66.62
250.765	81.62
250.998	75.62
251.231	70.62
251.465	94.62
251.698	85.62
251.931	88.62
252.164	85.62
252.397	66.62
252.63	68.62
252.863	70.62
253.096	66.62
253.329	87.62
253.562	80.62
253.795	77.62
254.028	64.62
254.261	82.62
254.494	69.62
254.727	78.62
254.96	92.62
255.193	96.62
255.426	62.62
255.659	77.62
255.892	82.62
256.124	79.62
256.357	72.62
256.59	72.62
256.823	78.62
257.056	88.62
257.289	73.62
257.521	68.62
257.754	63.62
257.987	73.62
258.22	84.62
258.452	77.62
258.685	70.62
258.918	79.62
259.151	80.62
259.383	64.62
259.616	82.62
259.849	70.62
260.081	86.62
260.314	68.62
260.547	74.62
260.779	73.62
261.012	75.62
261.244	80.62
261.477	98.62
261.71	70.62
261.942	71.62
262.175	74.62
262.407	65.62
262.64	73.62
262.872	84.62
263.105	73.62
263.337	78.62
263.57	78.62
263.802	72.62
264.035	83.62
264.267	86.62
264.499	96.62
264.732	86.62
264.964	80.62
265.197	73.62
265.429	79.62
265.661	84.62
265.894	86.62
266.126	91.62
266.358	72.62
266.591	82.62
266.823	87.62
267.055	80.62
267.287	84.62
267.52	73.62
267.752	83.62
267.984	72.62
268.216	70.62
268.448	87.62
268.681	72.62
268.913	74.62
269.145	70.62
269.377	82.62
269.609	82.62
269.841	78.62
270.073	85.62
270.306	69.62
270.538	80.62
270.77	83.62
271.002	85.62
271.234	93.62
271.466	87.62
271.698	93.62
271.93	88.62
272.162	76.62
272.394	83.62
272.626	94.62
272.858	85.62
273.09	73.62
273.322	90.62
273.553	77.62
273.785	98.62
274.017	82.62
274.249	70.62
274.481	71.62
274.713	88.62
274.945	78.62
275.176	85.62
275.408	94.62
275.64	83.62
275.872	87.62
276.104	79.62
276.335	90.62
276.567	67.62
276.799	85.62
277.031	89.62
277.262	88.62
277.494	102.62
277.726	83.62
277.957	69.62
278.189	78.62
278.421	81.62
278.652	85.62
278.884	92.62
279.115	92.62
279.347	81.62
279.579	82.62
279.81	81.62
280.042	88.62
280.273	83.62
280.505	81.62
280.736	81.62
280.968	81.62
281.199	82.62
281.431	72.62
281.662	84.62
281.894	73.62
282.125	82.62
282.356	82.62
282.588	83.62
282.819	82.62
283.051	78.62
283.282	94.62
283.513	77.62
283.745	69.62
283.976	84.62
284.207	82.62
284.439	84.62
284.67	86.62
284.901	79.62
285.132	86.62
285.364	73.62
285.595	87.62
285.826	92.62
286.057	87.62
286.288	90.62
286.52	91.62
286.751	100.62
286.982	95.62
287.213	85.62
287.444	86.62
287.675	85.62
287.906	81.62
288.138	78.62
288.369	80.62
288.6	81.62
288.831	93.62
289.062	73.62
289.293	76.62
289.524	68.62
289.755	87.62
289.986	92.62
290.217	86.62
290.448	79.62
290.679	88.62
290.91	80.62
291.141	72.62
291.371	78.62
291.602	81.62
291.833	84.62
292.064	94.62
292.295	76.62
292.526	88.62
292.757	86.62
292.987	86.62
293.218	92.62
293.449	94.62
293.68	79.62
293.91	86.62
294.141	84.62
294.372	90.62
294.603	81.62
294.833	83.62
295.064	101.62
295.295	84.62
295.525	80.62
295.756	74.62
295.987	68.62
296.217	75.62
296.448	92.62
296.679	94.62
296.909	100.62
297.14	88.62
297.37	82.62
297.601	96.62
297.831	87.62
298.062	87.62
298.292	87.62
298.523	79.62
298.753	75.62
298.984	83.62
299.214	79.62
299.445	101.62
299.675	91.62
299.905	92.62
300.136	86.62
300.366	78.62
300.597	86.62
300.827	83.62
301.057	72.62
301.288	89.62
301.518	94.62
301.748	89.62
301.979	100.62
302.209	85.62
302.439	86.62
302.669	91.62
302.9	97.62
303.13	81.62
303.36	87.62
303.59	83.62
303.82	94.62
304.051	58.62
304.281	90.62
304.511	97.62
304.741	83.62
304.971	87.62
305.201	73.62
305.431	73.62
305.661	83.62
305.891	82.62
306.121	81.62
306.352	85.62
306.582	86.62
306.812	80.62
307.042	77.62
307.272	91.62
307.502	74.62
307.731	92.62
307.961	81.62
308.191	92.62
308.421	84.62
308.651	81.62
308.881	81.62
309.111	87.62
309.341	69.62
309.571	63.62
309.8	79.62
310.03	83.62
310.26	85.62
310.49	98.62
310.72	87.62
310.949	82.62
311.179	78.62
311.409	81.62
311.639	94.62
311.868	91.62
312.098	78.62
312.328	91.62
312.557	96.62
312.787	93.62
313.017	96.62
313.246	81.62
313.476	78.62
313.706	78.62
313.935	81.62
314.165	93.62
314.394	101.62
314.624	92.62
314.853	79.62
315.083	86.62
315.312	87.62
315.542	84.62
315.771	83.62
316.001	83.62
316.23	83.62
316.46	76.62
316.689	85.62
316.919	70.62
317.148	81.62
317.377	92.62
317.607	85.62
317.836	77.62
318.065	82.62
318.295	64.62
318.524	82.62
318.753	81.62
318.983	73.62
319.212	98.62
319.441	94.62
319.67	76.62
319.9	94.62
320.129	80.62
320.358	78.62
320.587	89.62
320.816	86.62
321.046	94.62
321.275	80.62
321.504	94.62
321.733	86.62
321.962	72.62
322.191	90.62
322.42	86.62
322.649	96.62
322.878	102.62
323.108	81.62
323.337	90.62
323.566	80.62
323.795	84.62
324.024	73.62
324.253	108.62
324.482	75.62
324.71	82.62
324.939	75.62
325.168	97.62
325.397	88.62
325.626	82.62
325.855	84.62
326.084	91.62
326.313	87.62
326.542	90.62
326.77	85.62
326.999	89.62
327.228	86.62
327.457	79.62
327.686	77.62
327.914	88.62
328.143	95.62
328.372	83.62
328.6	83.62
328.829	88.62
329.058	96.62
329.287	85.62
329.515	94.62
329.744	81.62
329.972	81.62
330.201	91.62
330.43	86.62
330.658	79.62
330.887	85.62
331.115	94.62
331.344	91.62
331.572	91.62
331.801	87.62
332.03	95.62
332.258	78.62
332.486	91.62
332.715	89.62
332.943	77.62
333.172	82.62
333.4	91.62
333.629	95.62
333.857	72.62
334.085	69.62
334.314	88.62
334.542	83.62
334.771	95.62
334.999	98.62
335.227	100.62
335.455	82.62
335.684	92.62
335.912	84.62
336.14	86.62
336.369	83.62
336.597	88.62
336.825	82.62
337.053	84.62
337.281	86.62
337.51	83.62
337.738	96.62
337.966	85.62
338.194	82.62
338.422	72.62
338.65	86.62
338.878	77.62
339.106	63.62
339.334	92.62
339.562	80.62
339.79	91.62
340.018	88.62
340.246	74.62
340.474	76.62
340.702	78.62
340.93	80.62
341.158	78.62
341.386	75.62
341.614	87.62
341.842	78.62
342.07	97.62
342.298	82.62
342.526	94.62
342.754	85.62
342.981	95.62
343.209	82.62
343.437	104.62
343.665	98.62
343.893	71.62
344.12	77.62
344.348	86.62
344.576	89.62
344.804	92.62
345.031	76.62
345.259	71.62
345.487	84.62
345.714	87.62
345.942	84.62
346.17	76.62
346.397	94.62
346.625	72.62
346.853	83.62
347.08	86.62
347.308	91.62
347.535	92.62
347.763	78.62
347.99	83.62
348.218	86.62
348.445	83.62
348.673	86.62
348.9	78.62
349.128	70.62
349.355	82.62
349.583	91.62
349.81	97.62
350.037	88.62
350.265	94.62
350.492	71.62
350.72	63.62
350.947	80.62
351.174	91.62
351.402	96.62
351.629	73.62
351.856	85.62
352.083	84.62
352.311	82.62
352.538	79.62
352.765	85.62
352.992	93.62
353.22	82.62
353.447	76.62
353.674	77.62
353.901	66.62
354.128	80.62
354.355	86.62
354.583	88.62
354.81	87.62
355.037	83.62
355.264	86.62
355.491	77.62
355.718	100.62
355.945	86.62
356.172	86.62
356.399	86.62
356.626	90.62
356.853	95.62
357.08	87.62
357.307	93.62
357.534	92.62
357.761	87.62
357.988	97.62
358.215	94.62
358.441	95.62
358.668	74.62
358.895	97.62
359.122	84.62
359.349	91.62
359.576	98.62
359.802	88.62
360.029	77.62
360.256	90.62
360.483	85.62
360.709	76.62
360.936	85.62
361.163	78.62
361.39	78.62
361.616	78.62
361.843	74.62
362.07	91.62
362.296	79.62
362.523	85.62
362.749	72.62
362.976	85.62
363.203	78.62
363.429	90.62
363.656	84.62
363.882	86.62
364.109	76.62
364.335	84.62
364.562	76.62
364.788	84.62
365.015	82.62
365.241	95.62
365.468	90.62
365.694	79.62
365.92	98.62
366.147	85.62
366.373	91.62
366.599	95.62
366.826	78.62
367.052	87.62
367.278	88.62
367.505	77.62
367.731	101.62
367.957	80.62
368.184	90.62
368.41	85.62
368.636	90.62
368.862	78.62
369.089	69.62
369.315	92.62
369.541	86.62
369.767	89.62
369.993	74.62
370.219	81.62
370.445	78.62
370.672	92.62
370.898	78.62
371.124	83.62
371.35	91.62
371.576	83.62
371.802	76.62
372.028	102.62
372.254	75.62
372.48	83.62
372.706	94.62
372.932	69.62
373.158	72.62
373.384	75.62
373.61	79.62
373.835	92.62
374.061	79.62
374.287	82.62
374.513	74.62
374.739	78.62
374.965	76.62
375.191	91.62
375.416	83.62
375.642	82.62
375.868	81.62
376.094	95.62
376.319	84.62
376.545	77.62
376.771	84.62
376.997	83.62
377.222	89.62
377.448	90.62
377.674	83.62
377.899	91.62
378.125	100.62
378.35	86.62
378.576	83.62
378.802	72.62
379.027	88.62
379.253	94.62
379.478	97.62
379.704	87.62
379.929	83.62
380.155	90.62
380.38	70.62
380.606	85.62
380.831	84.62
381.057	91.62
381.282	97.62
381.507	79.62
381.733	73.62
381.958	76.62
382.184	72.62
382.409	80.62
382.634	94.62
382.86	89.62
383.085	78.62
383.31	92.62
383.535	80.62
383.761	69.62
383.986	85.62
384.211	85.62
384.436	82.62
384.662	85.62
384.887	77.62
385.112	72.62
385.337	78.62
385.562	99.62
385.787	87.62
386.013	83.62
386.238	76.62
386.463	85.62
386.688	93.62
386.913	89.62
387.138	89.62
387.363	87.62
387.588	85.62
387.813	82.62
388.038	69.62
388.263	95.62
388.488	89.62
388.713	83.62
388.938	79.62
389.163	77.62
389.387	83.62
389.612	94.62
389.837	85.62
390.062	86.62
390.287	77.62
390.512	91.62
390.736	82.62
390.961	71.62
391.186	82.62
391.411	69.62
391.636	90.62
391.86	77.62
392.085	74.62
392.31	79.62
392.534	80.62
392.759	78.62
392.984	92.62
393.208	76.62
393.433	83.62
393.658	70.62
393.882	77.62
394.107	80.62
394.331	71.62
394.556	67.62
394.78	89.62
395.005	78.62
395.229	71.62
395.454	94.62
395.678	85.62
395.903	97.62
396.127	96.62
396.352	74.62
396.576	75.62
396.801	89.62
397.025	106.62
397.249	73.62
397.474	90.62
397.698	88.62
397.922	78.62
398.147	72.62
398.371	77.62
398.595	82.62
398.82	93.62
399.044	75.62
399.268	94.62
399.492	75.62
399.717	84.62
399.941	72.62
400.165	80.62
400.389	84.62
400.613	80.62
400.837	95.62
401.062	84.62
401.286	92.62
401.51	77.62
401.734	87.62
401.958	86.62
402.182	98.62
402.406	89.62
402.63	93.62
402.854	80.62
403.078	78.62
403.302	86.62
403.526	87.62
403.75	79.62
403.974	73.62
404.198	85.62
404.422	86.62
404.645	66.62
404.869	81.62
405.093	86.62
405.317	89.62
405.541	94.62
405.765	80.62
405.988	76.62
406.212	82.62
406.436	83.62
406.66	96.62
406.883	78.62
407.107	87.62
407.331	64.62
407.555	79.62
407.778	82.62
408.002	85.62
408.226	87.62
408.449	79.62
408.673	62.62
408.896	93.62
409.12	87.62
409.344	94.62
409.567	97.62
409.791	78.62
410.014	77.62
410.238	82.62
410.461	84.62
410.685	84.62
410.908	86.62
411.132	69.62
411.355	80.62
411.578	72.62
411.802	80.62
412.025	79.62
412.249	75.62
412.472	82.62
412.695	79.62
412.919	70.62
413.142	76.62
413.365	70.62
413.589	76.62
413.812	86.62
414.035	85.62
414.258	80.62
414.482	75.62
414.705	74.62
414.928	91.62
415.151	83.62
415.374	86.62
415.597	82.62
415.821	82.62
416.044	76.62
416.267	83.62
416.49	86.62
416.713	73.62
416.936	90.62
417.159	81.62
417.382	86.62
417.605	92.62
417.828	76.62
418.051	65.62
418.274	85.62
418.497	72.62
418.72	86.62
418.943	87.62
419.166	77.62
419.389	76.62
419.611	84.62
419.834	79.62
420.057	80.62
420.28	81.62
420.503	96.62
420.726	81.62
420.948	79.62
421.171	74.62
421.394	77.62
421.617	89.62
421.839	68.62
422.062	79.62
422.285	82.62
422.507	86.62
422.73	82.62
422.953	75.62
423.175	106.62
423.398	78.62
423.621	73.62
423.843	83.62
424.066	90.62
424.288	94.62
424.511	94.62
424.733	86.62
424.956	87.62
425.178	84.62
425.401	84.62
425.623	86.62
425.846	83.62
426.068	82.62
426.291	82.62
426.513	75.62
426.735	79.62
426.958	94.62
427.18	78.62
427.402	64.62
427.625	71.62
427.847	84.62
428.069	84.62
428.292	88.62
428.514	87.62
428.736	85.62
428.958	85.62
429.181	77.62
429.403	73.62
429.625	71.62
429.847	82.62
430.069	77.62
430.292	80.62
430.514	79.62
430.736	79.62
430.958	92.62
431.18	78.62
431.402	83.62
431.624	74.62
431.846	83.62
432.068	73.62
432.29	71.62
432.512	79.62
432.734	86.62
432.956	92.62
433.178	98.62
433.4	80.62
433.622	82.62
433.844	84.62
434.066	70.62
434.287	97.62
434.509	78.62
434.731	93.62
434.953	78.62
435.175	78.62
435.397	71.62
435.618	77.62
435.84	85.62
436.062	70.62
436.284	83.62
436.505	92.62
436.727	85.62
436.949	92.62
437.17	85.62
437.392	74.62
437.614	90.62
437.835	82.62
438.057	84.62
438.278	88.62
438.5	75.62
438.721	85.62
438.943	84.62
439.165	89.62
439.386	75.62
439.608	87.62
439.829	68.62
440.05	78.62
440.272	82.62
440.493	80.62
440.715	81.62
440.936	78.62
441.158	67.62
441.379	94.62
441.6	79.62
441.822	71.62
442.043	78.62
442.264	90.62
442.486	67.62
442.707	83.62
442.928	90.62
443.149	97.62
443.371	106.62
443.592	91.62
443.813	83.62
444.034	76.62
444.255	93.62
444.476	86.62
444.698	82.62
444.919	87.62
445.14	153.62
445.361	105.62
445.582	84.62
445.803	84.62
446.024	87.62
446.245	84.62
446.466	71.62
446.687	86.62
446.908	86.62
447.129	88.62
447.35	69.62
447.571	68.62
447.792	78.62
448.013	84.62
448.234	86.62
448.455	65.62
448.675	80.62
448.896	74.62
449.117	77.62
449.338	89.62
449.559	91.62
449.779	63.62
450	66.62
450.221	87.62
450.442	80.62
450.662	93.62
450.883	83.62
451.104	77.62
451.324	57.62
451.545	92.62
451.766	86.62
451.986	78.62
452.207	78.62
452.428	80.62
452.648	85.62
452.869	86.62
453.089	84.62
453.31	68.62
453.53	76.62
453.751	82.62
453.971	68.62
454.192	80.62
454.412	82.62
454.633	73.62
454.853	91.62
455.073	70.62
455.294	91.62
455.514	76.62
455.734	73.62
455.955	92.62
456.175	85.62
456.395	72.62
456.616	85.62
456.836	80.62
457.056	76.62
457.276	74.62
457.497	87.62
457.717	95.62
457.937	88.62
458.157	84.62
458.377	86.62
458.598	83.62
458.818	74.62
459.038	78.62
459.258	73.62
459.478	86.62
459.698	80.62
459.918	99.62
460.138	83.62
460.358	91.62
460.578	91.62
460.798	77.62
461.018	80.62
461.238	81.62
461.458	87.62
461.678	71.62
461.898	80.62
462.118	89.62
462.338	82.62
462.558	79.62
462.777	76.62
462.997	75.62
463.217	82.62
463.437	73.62
463.657	74.62
463.876	86.62
464.096	87.62
464.316	77.62
464.536	82.62
464.755	93.62
464.975	89.62
465.195	80.62
465.414	92.62
465.634	78.62
465.854	85.62
466.073	70.62
466.293	75.62
466.512	82.62
466.732	87.62
466.951	80.62
467.171	75.62
467.391	74.62
467.61	87.62
467.829	80.62
468.049	87.62
468.268	72.62
468.488	70.62
468.707	75.62
468.927	81.62
469.146	69.62
469.365	79.62
469.585	88.62
469.804	72.62
470.023	75.62
470.243	71.62
470.462	82.62
470.681	82.62
470.901	74.62
471.12	87.62
471.339	76.62
471.558	81.62
471.777	83.62
471.997	87.62
472.216	93.62
472.435	86.62
472.654	76.62
472.873	84.62
473.092	76.62
473.311	78.62
473.53	83.62
473.749	78.62
473.968	98.62
474.187	85.62
474.406	72.62
474.625	91.62
474.844	80.62
475.063	76.62
475.282	78.62
475.501	84.62
475.72	84.62
475.939	79.62
476.158	76.62
476.377	79.62
476.596	83.62
476.814	68.62
477.033	72.62
477.252	85.62
477.471	79.62
477.69	80.62
477.908	99.62
478.127	90.62
478.346	92.62
478.564	83.62
478.783	73.62
479.002	82.62
479.22	85.62
479.439	85.62
479.658	81.62
479.876	77.62
480.095	81.62
480.313	78.62
480.532	86.62
480.751	72.62
480.969	69.62
481.188	93.62
481.406	87.62
481.624	97.62
481.843	79.62
482.061	80.62
482.28	93.62
482.498	75.62
482.717	66.62
482.935	83.62
483.153	79.62
483.372	79.62
483.59	83.62
483.808	79.62
484.027	80.62
484.245	68.62
484.463	82.62
484.681	87.62
484.9	90.62
485.118	78.62
485.336	85.62
485.554	72.62
485.772	101.62
485.99	92.62
486.209	78.62
486.427	91.62
486.645	90.62
486.863	76.62
487.081	89.62
487.299	81.62
487.517	90.62
487.735	99.62
487.953	84.62
488.171	82.62
488.389	72.62
488.607	68.62
488.825	73.62
489.043	84.62
489.261	79.62
489.479	85.62
489.696	101.62
489.914	82.62
490.132	76.62
490.35	87.62
490.568	86.62
490.786	69.62
491.003	80.62
491.221	70.62
491.439	78.62
491.657	74.62
491.874	76.62
492.092	73.62
492.31	85.62
492.527	86.62
492.745	78.62
492.963	82.62
493.18	70.62
493.398	76.62
493.615	86.62
493.833	66.62
494.05	83.62
494.268	71.62
494.485	90.62
494.703	84.62
494.92	84.62
495.138	88.62
495.355	84.62
495.573	76.62
495.79	94.62
496.008	82.62
496.225	92.62
496.442	86.62
496.66	80.62
496.877	76.62
497.094	88.62
497.312	70.62
497.529	82.62
497.746	86.62
497.963	89.62
498.181	78.62
498.398	90.62
498.615	92.62
498.832	77.62
499.049	82.62
499.267	90.62
499.484	93.62
499.701	83.62
499.918	78.62
500.135	76.62
500.352	96.62
500.569	95.62
500.786	91.62
501.003	83.62
501.22	85.62
501.437	82.62
501.654	84.62
501.871	95.62
502.088	95.62
502.305	84.62
502.522	92.62
502.739	83.62
502.956	101.62
503.172	76.62
503.389	74.62
503.606	76.62
503.823	80.62
504.04	80.62
504.256	77.62
504.473	83.62
504.69	91.62
504.907	96.62
505.123	78.62
505.34	76.62
505.557	83.62
505.773	92.62
505.99	94.62
506.207	79.62
506.423	77.62
506.64	74.62
506.856	86.62
507.073	78.62
507.289	91.62
507.506	70.62
507.722	80.62
507.939	77.62
508.155	72.62
508.372	84.62
508.588	88.62
508.805	83.62
509.021	83.62
509.238	85.62
509.454	68.62
509.67	75.62
509.887	78.62
510.103	90.62
510.319	82.62
510.536	86.62
510.752	85.62
510.968	73.62
511.184	85.62
511.401	82.62
511.617	79.62
511.833	84.62
512.049	86.62
512.265	91.62
512.481	69.62
512.698	82.62
512.914	88.62
513.13	84.62
513.346	84.62
513.562	86.62
513.778	81.62
513.994	94.62
514.21	76.62
514.426	83.62
514.642	95.62
514.858	75.62
515.074	85.62
515.29	97.62
515.506	59.62
515.721	87.62
515.937	95.62
516.153	72.62
516.369	79.62
516.585	78.62
516.801	81.62
517.016	82.62
517.232	89.62
517.448	93.62
517.664	82.62
517.879	90.62
518.095	85.62
518.311	79.62
518.527	78.62
518.742	85.62
518.958	90.62
519.173	82.62
519.389	79.62
519.605	88.62
519.82	73.62
