Data from Background_3_HRD10591_00021.txt Node
Date: Wed Nov 05 14:49:30 EST 2025
User: Yrep
Spectrometer: HR+D1059
Trigger mode: 1
Integration Time (sec): 1.000000E-1
Scans to average: 1
Electric dark correction enabled: true
Nonlinearity correction enabled: false
Boxcar width: 0
XAxis mode: Wavelengths
Number of Pixels in Spectrum: 2048
>>>>>Begin Spectral Data<<<<<
223.165	-8.44
223.4	-8.44
223.635	-8.44
223.869	-25.44
224.104	-13.44
224.338	-9.44
224.573	-7.44
224.808	-12.44
225.042	-8.44
225.277	-7.44
225.511	-1.44
225.746	6.56
225.98	0.56
226.215	12.56
226.449	10.56
226.683	15.56
226.918	25.56
227.152	22.56
227.387	34.56
227.621	34.56
227.856	45.56
228.09	50.56
228.324	59.56
228.559	66.56
228.793	60.56
229.027	61.56
229.262	55.56
229.496	59.56
229.73	71.56
229.964	66.56
230.199	62.56
230.433	65.56
230.667	85.56
230.901	76.56
231.136	73.56
231.37	76.56
231.604	94.56
231.838	80.56
232.072	86.56
232.306	99.56
232.541	86.56
232.775	90.56
233.009	82.56
233.243	92.56
233.477	81.56
233.711	74.56
233.945	85.56
234.179	87.56
234.413	90.56
234.647	79.56
234.881	79.56
235.115	71.56
235.349	74.56
235.583	82.56
235.817	70.56
236.051	69.56
236.285	72.56
236.519	76.56
236.753	92.56
236.987	87.56
237.221	75.56
237.455	61.56
237.689	85.56
237.922	75.56
238.156	72.56
238.39	71.56
238.624	68.56
238.858	65.56
239.091	73.56
239.325	82.56
239.559	82.56
239.793	91.56
240.027	72.56
240.26	76.56
240.494	56.56
240.728	78.56
240.961	73.56
241.195	71.56
241.429	68.56
241.662	83.56
241.896	67.56
242.13	75.56
242.363	64.56
242.597	85.56
242.83	62.56
243.064	73.56
243.298	70.56
243.531	71.56
243.765	66.56
243.998	80.56
244.232	86.56
244.465	73.56
244.699	75.56
244.932	79.56
245.166	89.56
245.399	86.56
245.633	84.56
245.866	78.56
246.099	80.56
246.333	86.56
246.566	70.56
246.8	80.56
247.033	82.56
247.266	85.56
247.5	81.56
247.733	84.56
247.966	91.56
248.2	89.56
248.433	77.56
248.666	82.56
248.899	72.56
249.133	83.56
249.366	74.56
249.599	69.56
249.832	78.56
250.066	76.56
250.299	75.56
250.532	72.56
250.765	74.56
250.998	74.56
251.231	71.56
251.465	70.56
251.698	78.56
251.931	84.56
252.164	84.56
252.397	80.56
252.63	79.56
252.863	79.56
253.096	73.56
253.329	93.56
253.562	67.56
253.795	80.56
254.028	85.56
254.261	86.56
254.494	79.56
254.727	86.56
254.96	74.56
255.193	72.56
255.426	67.56
255.659	78.56
255.892	74.56
256.124	86.56
256.357	80.56
256.59	94.56
256.823	83.56
257.056	71.56
257.289	86.56
257.521	69.56
257.754	84.56
257.987	68.56
258.22	74.56
258.452	66.56
258.685	77.56
258.918	78.56
259.151	67.56
259.383	76.56
259.616	66.56
259.849	78.56
260.081	81.56
260.314	84.56
260.547	72.56
260.779	82.56
261.012	94.56
261.244	81.56
261.477	88.56
261.71	82.56
261.942	78.56
262.175	92.56
262.407	71.56
262.64	91.56
262.872	93.56
263.105	84.56
263.337	104.56
263.57	79.56
263.802	78.56
264.035	85.56
264.267	81.56
264.499	86.56
264.732	78.56
264.964	74.56
265.197	84.56
265.429	92.56
265.661	82.56
265.894	92.56
266.126	88.56
266.358	83.56
266.591	79.56
266.823	72.56
267.055	84.56
267.287	80.56
267.52	87.56
267.752	83.56
267.984	79.56
268.216	86.56
268.448	86.56
268.681	84.56
268.913	85.56
269.145	88.56
269.377	77.56
269.609	70.56
269.841	74.56
270.073	74.56
270.306	84.56
270.538	97.56
270.77	75.56
271.002	68.56
271.234	68.56
271.466	83.56
271.698	75.56
271.93	79.56
272.162	72.56
272.394	93.56
272.626	74.56
272.858	82.56
273.09	96.56
273.322	70.56
273.553	73.56
273.785	83.56
274.017	77.56
274.249	86.56
274.481	93.56
274.713	84.56
274.945	80.56
275.176	77.56
275.408	91.56
275.64	73.56
275.872	71.56
276.104	100.56
276.335	67.56
276.567	71.56
276.799	89.56
277.031	93.56
277.262	87.56
277.494	82.56
277.726	93.56
277.957	87.56
278.189	86.56
278.421	95.56
278.652	82.56
278.884	85.56
279.115	70.56
279.347	95.56
279.579	97.56
279.81	78.56
280.042	84.56
280.273	86.56
280.505	74.56
280.736	80.56
280.968	85.56
281.199	82.56
281.431	85.56
281.662	94.56
281.894	77.56
282.125	79.56
282.356	96.56
282.588	77.56
282.819	85.56
283.051	80.56
283.282	81.56
283.513	82.56
283.745	90.56
283.976	82.56
284.207	93.56
284.439	87.56
284.67	68.56
284.901	79.56
285.132	91.56
285.364	78.56
285.595	79.56
285.826	86.56
286.057	88.56
286.288	84.56
286.52	85.56
286.751	86.56
286.982	81.56
287.213	82.56
287.444	84.56
287.675	75.56
287.906	78.56
288.138	83.56
288.369	80.56
288.6	80.56
288.831	71.56
289.062	74.56
289.293	78.56
289.524	74.56
289.755	74.56
289.986	93.56
290.217	83.56
290.448	88.56
290.679	99.56
290.91	79.56
291.141	79.56
291.371	80.56
291.602	84.56
291.833	73.56
292.064	90.56
292.295	88.56
292.526	90.56
292.757	82.56
292.987	77.56
293.218	83.56
293.449	80.56
293.68	76.56
293.91	89.56
294.141	92.56
294.372	75.56
294.603	81.56
294.833	78.56
295.064	74.56
295.295	82.56
295.525	79.56
295.756	84.56
295.987	79.56
296.217	85.56
296.448	93.56
296.679	80.56
296.909	83.56
297.14	82.56
297.37	88.56
297.601	88.56
297.831	86.56
298.062	87.56
298.292	80.56
298.523	94.56
298.753	80.56
298.984	82.56
299.214	87.56
299.445	96.56
299.675	86.56
299.905	98.56
300.136	81.56
300.366	90.56
300.597	81.56
300.827	86.56
301.057	82.56
301.288	70.56
301.518	79.56
301.748	78.56
301.979	96.56
302.209	82.56
302.439	89.56
302.669	64.56
302.9	84.56
303.13	82.56
303.36	69.56
303.59	80.56
303.82	92.56
304.051	97.56
304.281	80.56
304.511	96.56
304.741	81.56
304.971	81.56
305.201	84.56
305.431	80.56
305.661	87.56
305.891	87.56
306.121	88.56
306.352	99.56
306.582	80.56
306.812	70.56
307.042	86.56
307.272	90.56
307.502	97.56
307.731	94.56
307.961	98.56
308.191	78.56
308.421	78.56
308.651	79.56
308.881	87.56
309.111	82.56
309.341	90.56
309.571	70.56
309.8	79.56
310.03	84.56
310.26	79.56
310.49	84.56
310.72	76.56
310.949	76.56
311.179	88.56
311.409	85.56
311.639	84.56
311.868	81.56
312.098	86.56
312.328	86.56
312.557	87.56
312.787	83.56
313.017	86.56
313.246	86.56
313.476	98.56
313.706	89.56
313.935	80.56
314.165	80.56
314.394	94.56
314.624	90.56
314.853	95.56
315.083	90.56
315.312	90.56
315.542	91.56
315.771	71.56
316.001	62.56
316.23	99.56
316.46	103.56
316.689	92.56
316.919	86.56
317.148	88.56
317.377	85.56
317.607	66.56
317.836	78.56
318.065	84.56
318.295	77.56
318.524	95.56
318.753	83.56
318.983	84.56
319.212	89.56
319.441	93.56
319.67	82.56
319.9	76.56
320.129	78.56
320.358	80.56
320.587	82.56
320.816	84.56
321.046	100.56
321.275	78.56
321.504	76.56
321.733	80.56
321.962	68.56
322.191	102.56
322.42	80.56
322.649	70.56
322.878	85.56
323.108	80.56
323.337	70.56
323.566	71.56
323.795	84.56
324.024	78.56
324.253	86.56
324.482	91.56
324.71	79.56
324.939	93.56
325.168	79.56
325.397	90.56
325.626	86.56
325.855	87.56
326.084	69.56
326.313	66.56
326.542	92.56
326.77	82.56
326.999	86.56
327.228	87.56
327.457	75.56
327.686	86.56
327.914	82.56
328.143	91.56
328.372	89.56
328.6	66.56
328.829	71.56
329.058	82.56
329.287	82.56
329.515	85.56
329.744	88.56
329.972	87.56
330.201	94.56
330.43	87.56
330.658	87.56
330.887	79.56
331.115	91.56
331.344	92.56
331.572	82.56
331.801	79.56
332.03	69.56
332.258	78.56
332.486	83.56
332.715	82.56
332.943	91.56
333.172	87.56
333.4	90.56
333.629	79.56
333.857	78.56
334.085	78.56
334.314	73.56
334.542	77.56
334.771	81.56
334.999	86.56
335.227	75.56
335.455	91.56
335.684	85.56
335.912	91.56
336.14	78.56
336.369	95.56
336.597	87.56
336.825	79.56
337.053	82.56
337.281	80.56
337.51	81.56
337.738	96.56
337.966	94.56
338.194	87.56
338.422	76.56
338.65	84.56
338.878	68.56
339.106	86.56
339.334	97.56
339.562	83.56
339.79	87.56
340.018	86.56
340.246	70.56
340.474	80.56
340.702	80.56
340.93	83.56
341.158	87.56
341.386	81.56
341.614	88.56
341.842	84.56
342.07	84.56
342.298	91.56
342.526	61.56
342.754	101.56
342.981	78.56
343.209	98.56
343.437	81.56
343.665	82.56
343.893	82.56
344.12	90.56
344.348	101.56
344.576	92.56
344.804	86.56
345.031	79.56
345.259	99.56
345.487	93.56
345.714	94.56
345.942	89.56
346.17	82.56
346.397	91.56
346.625	66.56
346.853	67.56
347.08	78.56
347.308	83.56
347.535	84.56
347.763	101.56
347.99	78.56
348.218	84.56
348.445	82.56
348.673	77.56
348.9	80.56
349.128	75.56
349.355	82.56
349.583	72.56
349.81	80.56
350.037	100.56
350.265	81.56
350.492	75.56
350.72	87.56
350.947	67.56
351.174	82.56
351.402	80.56
351.629	90.56
351.856	95.56
352.083	78.56
352.311	81.56
352.538	72.56
352.765	82.56
352.992	84.56
353.22	78.56
353.447	81.56
353.674	86.56
353.901	71.56
354.128	80.56
354.355	80.56
354.583	79.56
354.81	84.56
355.037	93.56
355.264	82.56
355.491	90.56
355.718	80.56
355.945	80.56
356.172	79.56
356.399	80.56
356.626	87.56
356.853	85.56
357.08	87.56
357.307	87.56
357.534	78.56
357.761	86.56
357.988	90.56
358.215	87.56
358.441	81.56
358.668	79.56
358.895	86.56
359.122	77.56
359.349	100.56
359.576	73.56
359.802	71.56
360.029	96.56
360.256	85.56
360.483	86.56
360.709	75.56
360.936	83.56
361.163	82.56
361.39	95.56
361.616	86.56
361.843	79.56
362.07	79.56
362.296	87.56
362.523	91.56
362.749	72.56
362.976	63.56
363.203	80.56
363.429	72.56
363.656	99.56
363.882	75.56
364.109	72.56
364.335	80.56
364.562	82.56
364.788	75.56
365.015	86.56
365.241	75.56
365.468	67.56
365.694	69.56
365.92	87.56
366.147	75.56
366.373	74.56
366.599	98.56
366.826	74.56
367.052	59.56
367.278	88.56
367.505	82.56
367.731	93.56
367.957	84.56
368.184	86.56
368.41	80.56
368.636	91.56
368.862	82.56
369.089	80.56
369.315	103.56
369.541	100.56
369.767	99.56
369.993	77.56
370.219	90.56
370.445	94.56
370.672	82.56
370.898	75.56
371.124	72.56
371.35	87.56
371.576	88.56
371.802	85.56
372.028	86.56
372.254	71.56
372.48	91.56
372.706	83.56
372.932	84.56
373.158	85.56
373.384	73.56
373.61	83.56
373.835	73.56
374.061	80.56
374.287	78.56
374.513	85.56
374.739	88.56
374.965	92.56
375.191	85.56
375.416	78.56
375.642	84.56
375.868	81.56
376.094	87.56
376.319	81.56
376.545	83.56
376.771	84.56
376.997	87.56
377.222	72.56
377.448	88.56
377.674	80.56
377.899	79.56
378.125	79.56
378.35	83.56
378.576	77.56
378.802	88.56
379.027	94.56
379.253	71.56
379.478	82.56
379.704	75.56
379.929	86.56
380.155	81.56
380.38	76.56
380.606	79.56
380.831	88.56
381.057	88.56
381.282	87.56
381.507	87.56
381.733	81.56
381.958	94.56
382.184	95.56
382.409	76.56
382.634	87.56
382.86	88.56
383.085	80.56
383.31	90.56
383.535	65.56
383.761	95.56
383.986	92.56
384.211	82.56
384.436	93.56
384.662	83.56
384.887	94.56
385.112	85.56
385.337	73.56
385.562	78.56
385.787	87.56
386.013	71.56
386.238	84.56
386.463	85.56
386.688	88.56
386.913	79.56
387.138	86.56
387.363	77.56
387.588	71.56
387.813	83.56
388.038	81.56
388.263	81.56
388.488	77.56
388.713	77.56
388.938	84.56
389.163	89.56
389.387	82.56
389.612	88.56
389.837	78.56
390.062	79.56
390.287	77.56
390.512	88.56
390.736	82.56
390.961	88.56
391.186	82.56
391.411	92.56
391.636	79.56
391.86	87.56
392.085	95.56
392.31	76.56
392.534	91.56
392.759	70.56
392.984	85.56
393.208	82.56
393.433	84.56
393.658	79.56
393.882	83.56
394.107	80.56
394.331	92.56
394.556	76.56
394.78	99.56
395.005	71.56
395.229	67.56
395.454	88.56
395.678	84.56
395.903	90.56
396.127	94.56
396.352	75.56
396.576	76.56
396.801	78.56
397.025	69.56
397.249	82.56
397.474	76.56
397.698	82.56
397.922	79.56
398.147	84.56
398.371	78.56
398.595	91.56
398.82	73.56
399.044	84.56
399.268	77.56
399.492	95.56
399.717	92.56
399.941	77.56
400.165	82.56
400.389	70.56
400.613	91.56
400.837	84.56
401.062	68.56
401.286	90.56
401.51	72.56
401.734	66.56
401.958	96.56
402.182	85.56
402.406	92.56
402.63	83.56
402.854	84.56
403.078	101.56
403.302	87.56
403.526	66.56
403.75	78.56
403.974	86.56
404.198	77.56
404.422	72.56
404.645	85.56
404.869	81.56
405.093	77.56
405.317	94.56
405.541	76.56
405.765	97.56
405.988	86.56
406.212	88.56
406.436	92.56
406.66	87.56
406.883	93.56
407.107	85.56
407.331	67.56
407.555	106.56
407.778	78.56
408.002	65.56
408.226	96.56
408.449	87.56
408.673	85.56
408.896	88.56
409.12	79.56
409.344	80.56
409.567	90.56
409.791	72.56
410.014	74.56
410.238	85.56
410.461	87.56
410.685	74.56
410.908	84.56
411.132	87.56
411.355	86.56
411.578	79.56
411.802	64.56
412.025	76.56
412.249	80.56
412.472	72.56
412.695	77.56
412.919	88.56
413.142	78.56
413.365	57.56
413.589	78.56
413.812	80.56
414.035	75.56
414.258	86.56
414.482	86.56
414.705	77.56
414.928	81.56
415.151	79.56
415.374	73.56
415.597	88.56
415.821	83.56
416.044	80.56
416.267	93.56
416.49	89.56
416.713	80.56
416.936	79.56
417.159	84.56
417.382	76.56
417.605	82.56
417.828	83.56
418.051	73.56
418.274	81.56
418.497	89.56
418.72	79.56
418.943	87.56
419.166	84.56
419.389	78.56
419.611	78.56
419.834	70.56
420.057	75.56
420.28	92.56
420.503	71.56
420.726	90.56
420.948	76.56
421.171	91.56
421.394	80.56
421.617	81.56
421.839	71.56
422.062	88.56
422.285	83.56
422.507	72.56
422.73	86.56
422.953	78.56
423.175	83.56
423.398	73.56
423.621	82.56
423.843	71.56
424.066	68.56
424.288	86.56
424.511	86.56
424.733	85.56
424.956	96.56
425.178	100.56
425.401	76.56
425.623	85.56
425.846	76.56
426.068	79.56
426.291	76.56
426.513	86.56
426.735	94.56
426.958	77.56
427.18	73.56
427.402	77.56
427.625	84.56
427.847	75.56
428.069	76.56
428.292	88.56
428.514	82.56
428.736	75.56
428.958	76.56
429.181	79.56
429.403	78.56
429.625	80.56
429.847	91.56
430.069	79.56
430.292	65.56
430.514	100.56
430.736	91.56
430.958	83.56
431.18	85.56
431.402	87.56
431.624	79.56
431.846	96.56
432.068	78.56
432.29	71.56
432.512	108.56
432.734	95.56
432.956	85.56
433.178	84.56
433.4	81.56
433.622	82.56
433.844	89.56
434.066	90.56
434.287	84.56
434.509	82.56
434.731	78.56
434.953	91.56
435.175	90.56
435.397	92.56
435.618	72.56
435.84	84.56
436.062	84.56
436.284	74.56
436.505	80.56
436.727	73.56
436.949	81.56
437.17	77.56
437.392	69.56
437.614	77.56
437.835	79.56
438.057	75.56
438.278	82.56
438.5	91.56
438.721	99.56
438.943	83.56
439.165	74.56
439.386	83.56
439.608	88.56
439.829	78.56
440.05	91.56
440.272	79.56
440.493	88.56
440.715	88.56
440.936	71.56
441.158	86.56
441.379	87.56
441.6	91.56
441.822	83.56
442.043	84.56
442.264	93.56
442.486	87.56
442.707	79.56
442.928	77.56
443.149	87.56
443.371	78.56
443.592	100.56
443.813	98.56
444.034	73.56
444.255	86.56
444.476	82.56
444.698	81.56
444.919	82.56
445.14	164.56
445.361	134.56
445.582	76.56
445.803	78.56
446.024	74.56
446.245	85.56
446.466	70.56
446.687	74.56
446.908	79.56
447.129	98.56
447.35	72.56
447.571	69.56
447.792	88.56
448.013	77.56
448.234	82.56
448.455	91.56
448.675	87.56
448.896	66.56
449.117	82.56
449.338	87.56
449.559	86.56
449.779	81.56
450	79.56
450.221	78.56
450.442	81.56
450.662	86.56
450.883	86.56
451.104	81.56
451.324	78.56
451.545	90.56
451.766	91.56
451.986	89.56
452.207	85.56
452.428	80.56
452.648	96.56
452.869	81.56
453.089	87.56
453.31	84.56
453.53	83.56
453.751	82.56
453.971	90.56
454.192	67.56
454.412	88.56
454.633	78.56
454.853	92.56
455.073	71.56
455.294	82.56
455.514	72.56
455.734	78.56
455.955	76.56
456.175	93.56
456.395	79.56
456.616	60.56
456.836	67.56
457.056	82.56
457.276	80.56
457.497	91.56
457.717	86.56
457.937	82.56
458.157	82.56
458.377	85.56
458.598	73.56
458.818	76.56
459.038	87.56
459.258	88.56
459.478	89.56
459.698	89.56
459.918	86.56
460.138	83.56
460.358	82.56
460.578	74.56
460.798	85.56
461.018	68.56
461.238	73.56
461.458	78.56
461.678	86.56
461.898	91.56
462.118	72.56
462.338	87.56
462.558	93.56
462.777	73.56
462.997	77.56
463.217	90.56
463.437	66.56
463.657	80.56
463.876	78.56
464.096	85.56
464.316	79.56
464.536	87.56
464.755	90.56
464.975	83.56
465.195	87.56
465.414	85.56
465.634	80.56
465.854	97.56
466.073	79.56
466.293	84.56
466.512	87.56
466.732	87.56
466.951	98.56
467.171	71.56
467.391	66.56
467.61	79.56
467.829	84.56
468.049	85.56
468.268	82.56
468.488	70.56
468.707	81.56
468.927	73.56
469.146	79.56
469.365	83.56
469.585	76.56
469.804	81.56
470.023	80.56
470.243	98.56
470.462	89.56
470.681	90.56
470.901	95.56
471.12	76.56
471.339	69.56
471.558	67.56
471.777	83.56
471.997	74.56
472.216	84.56
472.435	82.56
472.654	86.56
472.873	80.56
473.092	85.56
473.311	76.56
473.53	82.56
473.749	82.56
473.968	101.56
474.187	103.56
474.406	82.56
474.625	76.56
474.844	96.56
475.063	90.56
475.282	83.56
475.501	70.56
475.72	81.56
475.939	93.56
476.158	87.56
476.377	82.56
476.596	85.56
476.814	72.56
477.033	76.56
477.252	76.56
477.471	85.56
477.69	72.56
477.908	84.56
478.127	94.56
478.346	82.56
478.564	91.56
478.783	94.56
479.002	81.56
479.22	78.56
479.439	93.56
479.658	70.56
479.876	80.56
480.095	71.56
480.313	70.56
480.532	82.56
480.751	79.56
480.969	77.56
481.188	67.56
481.406	87.56
481.624	86.56
481.843	86.56
482.061	85.56
482.28	90.56
482.498	100.56
482.717	91.56
482.935	87.56
483.153	88.56
483.372	76.56
483.59	88.56
483.808	78.56
484.027	81.56
484.245	90.56
484.463	83.56
484.681	100.56
484.9	96.56
485.118	82.56
485.336	87.56
485.554	93.56
485.772	80.56
485.99	92.56
486.209	82.56
486.427	83.56
486.645	84.56
486.863	85.56
487.081	73.56
487.299	94.56
487.517	97.56
487.735	73.56
487.953	61.56
488.171	97.56
488.389	71.56
488.607	88.56
488.825	73.56
489.043	90.56
489.261	106.56
489.479	89.56
489.696	94.56
489.914	92.56
490.132	66.56
490.35	88.56
490.568	91.56
490.786	76.56
491.003	78.56
491.221	73.56
491.439	92.56
491.657	71.56
491.874	85.56
492.092	97.56
492.31	76.56
492.527	95.56
492.745	78.56
492.963	69.56
493.18	88.56
493.398	94.56
493.615	78.56
493.833	86.56
494.05	87.56
494.268	83.56
494.485	87.56
494.703	82.56
494.92	71.56
495.138	81.56
495.355	82.56
495.573	90.56
495.79	90.56
496.008	79.56
496.225	84.56
496.442	80.56
496.66	87.56
496.877	75.56
497.094	69.56
497.312	75.56
497.529	87.56
497.746	99.56
497.963	78.56
498.181	74.56
498.398	92.56
498.615	83.56
498.832	84.56
499.049	78.56
499.267	85.56
499.484	87.56
499.701	85.56
499.918	87.56
500.135	76.56
500.352	72.56
500.569	79.56
500.786	83.56
501.003	72.56
501.22	83.56
501.437	81.56
501.654	79.56
501.871	90.56
502.088	78.56
502.305	86.56
502.522	92.56
502.739	87.56
502.956	76.56
503.172	90.56
503.389	74.56
503.606	76.56
503.823	92.56
504.04	69.56
504.256	98.56
504.473	83.56
504.69	78.56
504.907	102.56
505.123	97.56
505.34	90.56
505.557	88.56
505.773	82.56
505.99	73.56
506.207	79.56
506.423	84.56
506.64	79.56
506.856	83.56
507.073	79.56
507.289	90.56
507.506	92.56
507.722	96.56
507.939	93.56
508.155	78.56
508.372	90.56
508.588	85.56
508.805	84.56
509.021	83.56
509.238	79.56
509.454	78.56
509.67	84.56
509.887	85.56
510.103	82.56
510.319	73.56
510.536	53.56
510.752	77.56
510.968	85.56
511.184	66.56
511.401	72.56
511.617	96.56
511.833	84.56
512.049	91.56
512.265	78.56
512.481	76.56
512.698	93.56
512.914	96.56
513.13	82.56
513.346	87.56
513.562	83.56
513.778	96.56
513.994	88.56
514.21	83.56
514.426	79.56
514.642	87.56
514.858	86.56
515.074	83.56
515.29	76.56
515.506	71.56
515.721	77.56
515.937	78.56
516.153	70.56
516.369	80.56
516.585	82.56
516.801	86.56
517.016	70.56
517.232	92.56
517.448	83.56
517.664	95.56
517.879	83.56
518.095	86.56
518.311	93.56
518.527	74.56
518.742	86.56
518.958	75.56
519.173	81.56
519.389	84.56
519.605	83.56
519.82	89.56
520.036	95.56
