Data from Background_3_HRD10591_00013.txt Node
Date: Wed Nov 05 14:49:26 EST 2025
User: Yrep
Spectrometer: HR+D1059
Trigger mode: 1
Integration Time (sec): 1.000000E-1
Scans to average: 1
Electric dark correction enabled: true
Nonlinearity correction enabled: false
Boxcar width: 0
XAxis mode: Wavelengths
Number of Pixels in Spectrum: 2048
>>>>>Begin Spectral Data<<<<<
223.165	-12.81
223.4	-12.81
223.635	-12.81
223.869	-17.81
224.104	-15.81
224.338	-17.81
224.573	-24.81
224.808	-17.81
225.042	0.19
225.277	-5.81
225.511	-10.81
225.746	6.19
225.98	9.19
226.215	5.19
226.449	17.19
226.683	19.19
226.918	36.19
227.152	30.19
227.387	28.19
227.621	42.19
227.856	43.19
228.09	55.19
228.324	47.19
228.559	53.19
228.793	54.19
229.027	55.19
229.262	52.19
229.496	72.19
229.73	68.19
229.964	58.19
230.199	75.19
230.433	72.19
230.667	84.19
230.901	84.19
231.136	82.19
231.37	65.19
231.604	83.19
231.838	77.19
232.072	69.19
232.306	82.19
232.541	80.19
232.775	71.19
233.009	66.19
233.243	84.19
233.477	65.19
233.711	72.19
233.945	76.19
234.179	77.19
234.413	73.19
234.647	88.19
234.881	68.19
235.115	78.19
235.349	87.19
235.583	91.19
235.817	89.19
236.051	83.19
236.285	81.19
236.519	65.19
236.753	72.19
236.987	77.19
237.221	78.19
237.455	65.19
237.689	62.19
237.922	58.19
238.156	65.19
238.39	75.19
238.624	66.19
238.858	74.19
239.091	79.19
239.325	83.19
239.559	83.19
239.793	82.19
240.027	70.19
240.26	73.19
240.494	87.19
240.728	67.19
240.961	75.19
241.195	62.19
241.429	67.19
241.662	78.19
241.896	78.19
242.13	62.19
242.363	82.19
242.597	72.19
242.83	78.19
243.064	78.19
243.298	71.19
243.531	70.19
243.765	83.19
243.998	87.19
244.232	80.19
244.465	63.19
244.699	70.19
244.932	80.19
245.166	68.19
245.399	81.19
245.633	80.19
245.866	89.19
246.099	64.19
246.333	88.19
246.566	87.19
246.8	59.19
247.033	67.19
247.266	68.19
247.5	70.19
247.733	75.19
247.966	80.19
248.2	60.19
248.433	81.19
248.666	74.19
248.899	75.19
249.133	74.19
249.366	81.19
249.599	80.19
249.832	80.19
250.066	83.19
250.299	63.19
250.532	78.19
250.765	80.19
250.998	86.19
251.231	80.19
251.465	83.19
251.698	82.19
251.931	81.19
252.164	80.19
252.397	84.19
252.63	81.19
252.863	82.19
253.096	76.19
253.329	66.19
253.562	72.19
253.795	74.19
254.028	78.19
254.261	74.19
254.494	78.19
254.727	77.19
254.96	96.19
255.193	77.19
255.426	77.19
255.659	81.19
255.892	78.19
256.124	75.19
256.357	81.19
256.59	90.19
256.823	86.19
257.056	79.19
257.289	79.19
257.521	79.19
257.754	79.19
257.987	74.19
258.22	78.19
258.452	75.19
258.685	88.19
258.918	78.19
259.151	80.19
259.383	80.19
259.616	82.19
259.849	73.19
260.081	81.19
260.314	83.19
260.547	75.19
260.779	86.19
261.012	85.19
261.244	84.19
261.477	77.19
261.71	82.19
261.942	79.19
262.175	68.19
262.407	72.19
262.64	81.19
262.872	86.19
263.105	67.19
263.337	89.19
263.57	87.19
263.802	90.19
264.035	85.19
264.267	79.19
264.499	78.19
264.732	82.19
264.964	80.19
265.197	77.19
265.429	70.19
265.661	84.19
265.894	73.19
266.126	87.19
266.358	93.19
266.591	88.19
266.823	86.19
267.055	59.19
267.287	74.19
267.52	79.19
267.752	88.19
267.984	82.19
268.216	90.19
268.448	79.19
268.681	87.19
268.913	86.19
269.145	79.19
269.377	76.19
269.609	79.19
269.841	64.19
270.073	89.19
270.306	94.19
270.538	82.19
270.77	102.19
271.002	80.19
271.234	84.19
271.466	83.19
271.698	83.19
271.93	69.19
272.162	91.19
272.394	90.19
272.626	80.19
272.858	74.19
273.09	81.19
273.322	87.19
273.553	83.19
273.785	75.19
274.017	80.19
274.249	88.19
274.481	78.19
274.713	69.19
274.945	88.19
275.176	66.19
275.408	88.19
275.64	79.19
275.872	83.19
276.104	88.19
276.335	87.19
276.567	82.19
276.799	62.19
277.031	68.19
277.262	76.19
277.494	69.19
277.726	93.19
277.957	85.19
278.189	77.19
278.421	63.19
278.652	81.19
278.884	80.19
279.115	80.19
279.347	82.19
279.579	77.19
279.81	74.19
280.042	80.19
280.273	72.19
280.505	82.19
280.736	86.19
280.968	78.19
281.199	78.19
281.431	79.19
281.662	91.19
281.894	93.19
282.125	76.19
282.356	74.19
282.588	79.19
282.819	79.19
283.051	74.19
283.282	78.19
283.513	72.19
283.745	82.19
283.976	93.19
284.207	96.19
284.439	89.19
284.67	92.19
284.901	82.19
285.132	79.19
285.364	81.19
285.595	81.19
285.826	92.19
286.057	84.19
286.288	88.19
286.52	81.19
286.751	82.19
286.982	92.19
287.213	83.19
287.444	89.19
287.675	87.19
287.906	88.19
288.138	75.19
288.369	85.19
288.6	86.19
288.831	64.19
289.062	92.19
289.293	75.19
289.524	90.19
289.755	91.19
289.986	81.19
290.217	78.19
290.448	91.19
290.679	99.19
290.91	74.19
291.141	84.19
291.371	75.19
291.602	66.19
291.833	78.19
292.064	80.19
292.295	73.19
292.526	88.19
292.757	74.19
292.987	78.19
293.218	81.19
293.449	74.19
293.68	81.19
293.91	82.19
294.141	69.19
294.372	86.19
294.603	80.19
294.833	89.19
295.064	74.19
295.295	86.19
295.525	79.19
295.756	77.19
295.987	95.19
296.217	86.19
296.448	86.19
296.679	80.19
296.909	83.19
297.14	79.19
297.37	86.19
297.601	84.19
297.831	87.19
298.062	74.19
298.292	92.19
298.523	89.19
298.753	70.19
298.984	86.19
299.214	73.19
299.445	82.19
299.675	78.19
299.905	78.19
300.136	80.19
300.366	91.19
300.597	87.19
300.827	75.19
301.057	82.19
301.288	81.19
301.518	89.19
301.748	75.19
301.979	88.19
302.209	87.19
302.439	86.19
302.669	98.19
302.9	80.19
303.13	85.19
303.36	76.19
303.59	70.19
303.82	75.19
304.051	72.19
304.281	95.19
304.511	98.19
304.741	93.19
304.971	61.19
305.201	92.19
305.431	77.19
305.661	86.19
305.891	70.19
306.121	81.19
306.352	91.19
306.582	88.19
306.812	78.19
307.042	86.19
307.272	86.19
307.502	75.19
307.731	94.19
307.961	88.19
308.191	95.19
308.421	91.19
308.651	76.19
308.881	87.19
309.111	95.19
309.341	79.19
309.571	67.19
309.8	74.19
310.03	97.19
310.26	82.19
310.49	91.19
310.72	90.19
310.949	81.19
311.179	83.19
311.409	90.19
311.639	88.19
311.868	83.19
312.098	90.19
312.328	85.19
312.557	88.19
312.787	72.19
313.017	68.19
313.246	74.19
313.476	82.19
313.706	91.19
313.935	70.19
314.165	86.19
314.394	83.19
314.624	83.19
314.853	71.19
315.083	82.19
315.312	90.19
315.542	74.19
315.771	65.19
316.001	93.19
316.23	83.19
316.46	96.19
316.689	86.19
316.919	80.19
317.148	92.19
317.377	96.19
317.607	85.19
317.836	76.19
318.065	69.19
318.295	97.19
318.524	75.19
318.753	79.19
318.983	68.19
319.212	85.19
319.441	106.19
319.67	82.19
319.9	77.19
320.129	78.19
320.358	78.19
320.587	68.19
320.816	76.19
321.046	67.19
321.275	84.19
321.504	88.19
321.733	74.19
321.962	86.19
322.191	90.19
322.42	85.19
322.649	75.19
322.878	80.19
323.108	81.19
323.337	91.19
323.566	84.19
323.795	91.19
324.024	75.19
324.253	82.19
324.482	84.19
324.71	77.19
324.939	80.19
325.168	81.19
325.397	77.19
325.626	82.19
325.855	84.19
326.084	79.19
326.313	84.19
326.542	88.19
326.77	82.19
326.999	87.19
327.228	80.19
327.457	86.19
327.686	77.19
327.914	83.19
328.143	88.19
328.372	78.19
328.6	78.19
328.829	89.19
329.058	83.19
329.287	79.19
329.515	74.19
329.744	81.19
329.972	82.19
330.201	76.19
330.43	74.19
330.658	78.19
330.887	76.19
331.115	74.19
331.344	88.19
331.572	88.19
331.801	96.19
332.03	78.19
332.258	74.19
332.486	83.19
332.715	79.19
332.943	79.19
333.172	94.19
333.4	87.19
333.629	102.19
333.857	71.19
334.085	91.19
334.314	87.19
334.542	77.19
334.771	83.19
334.999	81.19
335.227	90.19
335.455	80.19
335.684	85.19
335.912	82.19
336.14	84.19
336.369	79.19
336.597	83.19
336.825	78.19
337.053	86.19
337.281	70.19
337.51	82.19
337.738	77.19
337.966	83.19
338.194	98.19
338.422	79.19
338.65	79.19
338.878	74.19
339.106	83.19
339.334	77.19
339.562	66.19
339.79	93.19
340.018	90.19
340.246	80.19
340.474	75.19
340.702	84.19
340.93	91.19
341.158	67.19
341.386	87.19
341.614	66.19
341.842	82.19
342.07	84.19
342.298	78.19
342.526	76.19
342.754	76.19
342.981	91.19
343.209	75.19
343.437	99.19
343.665	82.19
343.893	83.19
344.12	74.19
344.348	85.19
344.576	80.19
344.804	91.19
345.031	87.19
345.259	76.19
345.487	87.19
345.714	82.19
345.942	74.19
346.17	77.19
346.397	73.19
346.625	88.19
346.853	76.19
347.08	66.19
347.308	74.19
347.535	66.19
347.763	89.19
347.99	72.19
348.218	91.19
348.445	90.19
348.673	82.19
348.9	70.19
349.128	76.19
349.355	90.19
349.583	85.19
349.81	87.19
350.037	83.19
350.265	90.19
350.492	83.19
350.72	79.19
350.947	72.19
351.174	76.19
351.402	87.19
351.629	85.19
351.856	86.19
352.083	80.19
352.311	76.19
352.538	85.19
352.765	76.19
352.992	93.19
353.22	76.19
353.447	82.19
353.674	90.19
353.901	90.19
354.128	83.19
354.355	90.19
354.583	87.19
354.81	94.19
355.037	86.19
355.264	75.19
355.491	78.19
355.718	83.19
355.945	86.19
356.172	80.19
356.399	82.19
356.626	74.19
356.853	77.19
357.08	80.19
357.307	87.19
357.534	63.19
357.761	83.19
357.988	75.19
358.215	91.19
358.441	67.19
358.668	77.19
358.895	78.19
359.122	84.19
359.349	67.19
359.576	64.19
359.802	78.19
360.029	84.19
360.256	74.19
360.483	76.19
360.709	77.19
360.936	84.19
361.163	78.19
361.39	90.19
361.616	83.19
361.843	78.19
362.07	72.19
362.296	82.19
362.523	70.19
362.749	78.19
362.976	83.19
363.203	87.19
363.429	94.19
363.656	91.19
363.882	76.19
364.109	84.19
364.335	86.19
364.562	85.19
364.788	78.19
365.015	73.19
365.241	70.19
365.468	76.19
365.694	91.19
365.92	73.19
366.147	74.19
366.373	80.19
366.599	82.19
366.826	79.19
367.052	77.19
367.278	83.19
367.505	86.19
367.731	86.19
367.957	86.19
368.184	79.19
368.41	80.19
368.636	85.19
368.862	80.19
369.089	80.19
369.315	88.19
369.541	89.19
369.767	84.19
369.993	92.19
370.219	77.19
370.445	84.19
370.672	83.19
370.898	82.19
371.124	81.19
371.35	85.19
371.576	81.19
371.802	72.19
372.028	80.19
372.254	83.19
372.48	82.19
372.706	84.19
372.932	78.19
373.158	89.19
373.384	76.19
373.61	73.19
373.835	76.19
374.061	74.19
374.287	79.19
374.513	74.19
374.739	80.19
374.965	91.19
375.191	83.19
375.416	86.19
375.642	72.19
375.868	88.19
376.094	79.19
376.319	81.19
376.545	76.19
376.771	78.19
376.997	79.19
377.222	82.19
377.448	81.19
377.674	82.19
377.899	90.19
378.125	73.19
378.35	81.19
378.576	74.19
378.802	90.19
379.027	72.19
379.253	76.19
379.478	66.19
379.704	70.19
379.929	78.19
380.155	77.19
380.38	76.19
380.606	69.19
380.831	82.19
381.057	66.19
381.282	65.19
381.507	73.19
381.733	90.19
381.958	79.19
382.184	64.19
382.409	83.19
382.634	74.19
382.86	75.19
383.085	83.19
383.31	75.19
383.535	70.19
383.761	72.19
383.986	80.19
384.211	76.19
384.436	83.19
384.662	86.19
384.887	72.19
385.112	94.19
385.337	81.19
385.562	74.19
385.787	64.19
386.013	96.19
386.238	93.19
386.463	86.19
386.688	89.19
386.913	74.19
387.138	77.19
387.363	58.19
387.588	91.19
387.813	85.19
388.038	80.19
388.263	72.19
388.488	78.19
388.713	73.19
388.938	73.19
389.163	87.19
389.387	70.19
389.612	72.19
389.837	66.19
390.062	77.19
390.287	74.19
390.512	78.19
390.736	86.19
390.961	91.19
391.186	76.19
391.411	78.19
391.636	83.19
391.86	74.19
392.085	79.19
392.31	88.19
392.534	77.19
392.759	72.19
392.984	78.19
393.208	78.19
393.433	75.19
393.658	76.19
393.882	74.19
394.107	82.19
394.331	69.19
394.556	74.19
394.78	84.19
395.005	84.19
395.229	67.19
395.454	88.19
395.678	76.19
395.903	75.19
396.127	77.19
396.352	87.19
396.576	71.19
396.801	87.19
397.025	60.19
397.249	76.19
397.474	63.19
397.698	64.19
397.922	70.19
398.147	81.19
398.371	63.19
398.595	75.19
398.82	66.19
399.044	79.19
399.268	79.19
399.492	83.19
399.717	75.19
399.941	87.19
400.165	86.19
400.389	79.19
400.613	79.19
400.837	94.19
401.062	84.19
401.286	80.19
401.51	77.19
401.734	67.19
401.958	74.19
402.182	76.19
402.406	75.19
402.63	74.19
402.854	73.19
403.078	72.19
403.302	84.19
403.526	86.19
403.75	77.19
403.974	70.19
404.198	82.19
404.422	75.19
404.645	76.19
404.869	79.19
405.093	66.19
405.317	65.19
405.541	76.19
405.765	78.19
405.988	74.19
406.212	91.19
406.436	81.19
406.66	90.19
406.883	80.19
407.107	81.19
407.331	82.19
407.555	63.19
407.778	80.19
408.002	89.19
408.226	79.19
408.449	82.19
408.673	71.19
408.896	94.19
409.12	74.19
409.344	69.19
409.567	84.19
409.791	75.19
410.014	86.19
410.238	73.19
410.461	80.19
410.685	82.19
410.908	81.19
411.132	69.19
411.355	79.19
411.578	76.19
411.802	80.19
412.025	88.19
412.249	72.19
412.472	71.19
412.695	84.19
412.919	85.19
413.142	72.19
413.365	74.19
413.589	84.19
413.812	88.19
414.035	75.19
414.258	78.19
414.482	72.19
414.705	79.19
414.928	80.19
415.151	86.19
415.374	65.19
415.597	87.19
415.821	79.19
416.044	78.19
416.267	67.19
416.49	82.19
416.713	75.19
416.936	78.19
417.159	60.19
417.382	78.19
417.605	80.19
417.828	82.19
418.051	68.19
418.274	65.19
418.497	84.19
418.72	91.19
418.943	89.19
419.166	84.19
419.389	79.19
419.611	76.19
419.834	90.19
420.057	59.19
420.28	81.19
420.503	85.19
420.726	85.19
420.948	81.19
421.171	69.19
421.394	76.19
421.617	70.19
421.839	70.19
422.062	82.19
422.285	82.19
422.507	69.19
422.73	83.19
422.953	73.19
423.175	78.19
423.398	85.19
423.621	91.19
423.843	63.19
424.066	82.19
424.288	82.19
424.511	76.19
424.733	79.19
424.956	68.19
425.178	80.19
425.401	74.19
425.623	69.19
425.846	79.19
426.068	80.19
426.291	83.19
426.513	88.19
426.735	82.19
426.958	74.19
427.18	77.19
427.402	76.19
427.625	82.19
427.847	74.19
428.069	72.19
428.292	75.19
428.514	82.19
428.736	81.19
428.958	74.19
429.181	68.19
429.403	82.19
429.625	80.19
429.847	81.19
430.069	76.19
430.292	75.19
430.514	74.19
430.736	76.19
430.958	70.19
431.18	74.19
431.402	89.19
431.624	70.19
431.846	80.19
432.068	88.19
432.29	86.19
432.512	93.19
432.734	83.19
432.956	96.19
433.178	91.19
433.4	75.19
433.622	84.19
433.844	91.19
434.066	82.19
434.287	86.19
434.509	87.19
434.731	81.19
434.953	90.19
435.175	74.19
435.397	72.19
435.618	94.19
435.84	82.19
436.062	83.19
436.284	76.19
436.505	67.19
436.727	88.19
436.949	84.19
437.17	69.19
437.392	83.19
437.614	88.19
437.835	72.19
438.057	74.19
438.278	82.19
438.5	89.19
438.721	89.19
438.943	80.19
439.165	78.19
439.386	92.19
439.608	81.19
439.829	70.19
440.05	63.19
440.272	74.19
440.493	78.19
440.715	82.19
440.936	87.19
441.158	74.19
441.379	71.19
441.6	85.19
441.822	83.19
442.043	77.19
442.264	67.19
442.486	85.19
442.707	90.19
442.928	92.19
443.149	79.19
443.371	78.19
443.592	73.19
443.813	83.19
444.034	70.19
444.255	82.19
444.476	66.19
444.698	71.19
444.919	74.19
445.14	159.19
445.361	103.19
445.582	79.19
445.803	71.19
446.024	75.19
446.245	91.19
446.466	77.19
446.687	73.19
446.908	88.19
447.129	72.19
447.35	79.19
447.571	76.19
447.792	73.19
448.013	70.19
448.234	87.19
448.455	79.19
448.675	73.19
448.896	83.19
449.117	76.19
449.338	78.19
449.559	84.19
449.779	68.19
450	66.19
450.221	72.19
450.442	74.19
450.662	74.19
450.883	73.19
451.104	75.19
451.324	76.19
451.545	82.19
451.766	89.19
451.986	77.19
452.207	77.19
452.428	78.19
452.648	83.19
452.869	78.19
453.089	67.19
453.31	80.19
453.53	72.19
453.751	80.19
453.971	71.19
454.192	81.19
454.412	79.19
454.633	76.19
454.853	69.19
455.073	66.19
455.294	77.19
455.514	94.19
455.734	82.19
455.955	82.19
456.175	74.19
456.395	74.19
456.616	91.19
456.836	78.19
457.056	69.19
457.276	69.19
457.497	73.19
457.717	74.19
457.937	69.19
458.157	67.19
458.377	83.19
458.598	78.19
458.818	85.19
459.038	82.19
459.258	104.19
459.478	70.19
459.698	84.19
459.918	75.19
460.138	68.19
460.358	86.19
460.578	87.19
460.798	92.19
461.018	84.19
461.238	84.19
461.458	87.19
461.678	84.19
461.898	74.19
462.118	75.19
462.338	71.19
462.558	89.19
462.777	84.19
462.997	78.19
463.217	76.19
463.437	73.19
463.657	76.19
463.876	81.19
464.096	82.19
464.316	85.19
464.536	91.19
464.755	79.19
464.975	92.19
465.195	69.19
465.414	68.19
465.634	72.19
465.854	72.19
466.073	82.19
466.293	81.19
466.512	74.19
466.732	71.19
466.951	74.19
467.171	74.19
467.391	91.19
467.61	77.19
467.829	72.19
468.049	72.19
468.268	72.19
468.488	72.19
468.707	83.19
468.927	78.19
469.146	87.19
469.365	84.19
469.585	87.19
469.804	87.19
470.023	78.19
470.243	75.19
470.462	82.19
470.681	83.19
470.901	90.19
471.12	82.19
471.339	90.19
471.558	89.19
471.777	102.19
471.997	97.19
472.216	87.19
472.435	72.19
472.654	71.19
472.873	90.19
473.092	86.19
473.311	91.19
473.53	86.19
473.749	89.19
473.968	98.19
474.187	93.19
474.406	82.19
474.625	87.19
474.844	81.19
475.063	79.19
475.282	87.19
475.501	83.19
475.72	75.19
475.939	86.19
476.158	68.19
476.377	77.19
476.596	81.19
476.814	78.19
477.033	82.19
477.252	75.19
477.471	82.19
477.69	78.19
477.908	73.19
478.127	78.19
478.346	86.19
478.564	75.19
478.783	76.19
479.002	66.19
479.22	78.19
479.439	76.19
479.658	72.19
479.876	60.19
480.095	74.19
480.313	88.19
480.532	96.19
480.751	86.19
480.969	70.19
481.188	91.19
481.406	75.19
481.624	79.19
481.843	89.19
482.061	81.19
482.28	73.19
482.498	81.19
482.717	80.19
482.935	89.19
483.153	80.19
483.372	70.19
483.59	76.19
483.808	82.19
484.027	93.19
484.245	93.19
484.463	88.19
484.681	84.19
484.9	75.19
485.118	84.19
485.336	83.19
485.554	82.19
485.772	70.19
485.99	89.19
486.209	74.19
486.427	75.19
486.645	88.19
486.863	91.19
487.081	79.19
487.299	86.19
487.517	106.19
487.735	73.19
487.953	72.19
488.171	90.19
488.389	78.19
488.607	76.19
488.825	79.19
489.043	84.19
489.261	90.19
489.479	82.19
489.696	85.19
489.914	78.19
490.132	88.19
490.35	79.19
490.568	82.19
490.786	71.19
491.003	67.19
491.221	93.19
491.439	56.19
491.657	74.19
491.874	78.19
492.092	83.19
492.31	76.19
492.527	88.19
492.745	83.19
492.963	81.19
493.18	89.19
493.398	68.19
493.615	81.19
493.833	84.19
494.05	94.19
494.268	82.19
494.485	82.19
494.703	93.19
494.92	81.19
495.138	79.19
495.355	77.19
495.573	86.19
495.79	74.19
496.008	80.19
496.225	72.19
496.442	75.19
496.66	86.19
496.877	91.19
497.094	67.19
497.312	65.19
497.529	80.19
497.746	86.19
497.963	93.19
498.181	65.19
498.398	79.19
498.615	88.19
498.832	72.19
499.049	98.19
499.267	91.19
499.484	94.19
499.701	80.19
499.918	84.19
500.135	90.19
500.352	82.19
500.569	93.19
500.786	79.19
501.003	93.19
501.22	66.19
501.437	74.19
501.654	86.19
501.871	82.19
502.088	83.19
502.305	76.19
502.522	94.19
502.739	65.19
502.956	94.19
503.172	68.19
503.389	72.19
503.606	69.19
503.823	75.19
504.04	83.19
504.256	86.19
504.473	78.19
504.69	87.19
504.907	95.19
505.123	69.19
505.34	89.19
505.557	71.19
505.773	88.19
505.99	88.19
506.207	78.19
506.423	77.19
506.64	76.19
506.856	74.19
507.073	72.19
507.289	81.19
507.506	75.19
507.722	72.19
507.939	81.19
508.155	95.19
508.372	83.19
508.588	88.19
508.805	77.19
509.021	81.19
509.238	75.19
509.454	74.19
509.67	82.19
509.887	71.19
510.103	63.19
510.319	79.19
510.536	88.19
510.752	86.19
510.968	75.19
511.184	82.19
511.401	81.19
511.617	87.19
511.833	81.19
512.049	86.19
512.265	75.19
512.481	63.19
512.698	87.19
512.914	96.19
513.13	88.19
513.346	81.19
513.562	86.19
513.778	83.19
513.994	94.19
514.21	81.19
514.426	79.19
514.642	96.19
514.858	67.19
515.074	81.19
515.29	73.19
515.506	65.19
515.721	75.19
515.937	88.19
516.153	69.19
516.369	80.19
516.585	99.19
516.801	77.19
517.016	88.19
517.232	94.19
517.448	75.19
517.664	73.19
517.879	79.19
518.095	78.19
518.311	71.19
518.527	74.19
518.742	67.19
518.958	67.19
519.173	95.19
519.389	88.19
519.605	99.19
519.82	93.19
520.036	97.19
