Data from Background_3_HRD10591_00070.txt Node
Date: Wed Nov 05 14:49:54 EST 2025
User: Yrep
Spectrometer: HR+D1059
Trigger mode: 1
Integration Time (sec): 1.000000E-1
Scans to average: 1
Electric dark correction enabled: true
Nonlinearity correction enabled: false
Boxcar width: 0
XAxis mode: Wavelengths
Number of Pixels in Spectrum: 2048
>>>>>Begin Spectral Data<<<<<
223.165	-8.75
223.4	-8.75
223.635	-8.75
223.869	-27.75
224.104	-24.75
224.338	-29.75
224.573	-14.75
224.808	-18.75
225.042	5.25
225.277	-12.75
225.511	5.25
225.746	1.25
225.98	13.25
226.215	18.25
226.449	7.25
226.683	25.25
226.918	20.25
227.152	41.25
227.387	45.25
227.621	54.25
227.856	48.25
228.09	55.25
228.324	47.25
228.559	53.25
228.793	50.25
229.027	56.25
229.262	61.25
229.496	71.25
229.73	82.25
229.964	72.25
230.199	71.25
230.433	88.25
230.667	77.25
230.901	57.25
231.136	83.25
231.37	78.25
231.604	85.25
231.838	95.25
232.072	75.25
232.306	91.25
232.541	73.25
232.775	87.25
233.009	89.25
233.243	96.25
233.477	87.25
233.711	96.25
233.945	95.25
234.179	80.25
234.413	73.25
234.647	105.25
234.881	88.25
235.115	89.25
235.349	89.25
235.583	91.25
235.817	74.25
236.051	78.25
236.285	86.25
236.519	77.25
236.753	81.25
236.987	91.25
237.221	93.25
237.455	78.25
237.689	81.25
237.922	75.25
238.156	74.25
238.39	81.25
238.624	81.25
238.858	91.25
239.091	70.25
239.325	57.25
239.559	83.25
239.793	109.25
240.027	100.25
240.26	75.25
240.494	80.25
240.728	82.25
240.961	73.25
241.195	81.25
241.429	85.25
241.662	80.25
241.896	68.25
242.13	76.25
242.363	80.25
242.597	76.25
242.83	85.25
243.064	91.25
243.298	80.25
243.531	78.25
243.765	88.25
243.998	81.25
244.232	88.25
244.465	89.25
244.699	81.25
244.932	79.25
245.166	75.25
245.399	69.25
245.633	87.25
245.866	73.25
246.099	81.25
246.333	87.25
246.566	82.25
246.8	87.25
247.033	79.25
247.266	78.25
247.5	67.25
247.733	80.25
247.966	95.25
248.2	72.25
248.433	71.25
248.666	76.25
248.899	87.25
249.133	85.25
249.366	84.25
249.599	84.25
249.832	84.25
250.066	98.25
250.299	87.25
250.532	84.25
250.765	87.25
250.998	87.25
251.231	74.25
251.465	83.25
251.698	84.25
251.931	91.25
252.164	70.25
252.397	80.25
252.63	77.25
252.863	85.25
253.096	98.25
253.329	71.25
253.562	94.25
253.795	80.25
254.028	85.25
254.261	75.25
254.494	71.25
254.727	85.25
254.96	80.25
255.193	84.25
255.426	83.25
255.659	73.25
255.892	89.25
256.124	85.25
256.357	79.25
256.59	86.25
256.823	89.25
257.056	85.25
257.289	79.25
257.521	82.25
257.754	73.25
257.987	89.25
258.22	88.25
258.452	84.25
258.685	75.25
258.918	79.25
259.151	88.25
259.383	84.25
259.616	83.25
259.849	87.25
260.081	78.25
260.314	70.25
260.547	87.25
260.779	87.25
261.012	74.25
261.244	90.25
261.477	88.25
261.71	87.25
261.942	92.25
262.175	74.25
262.407	86.25
262.64	89.25
262.872	89.25
263.105	86.25
263.337	86.25
263.57	91.25
263.802	99.25
264.035	93.25
264.267	82.25
264.499	99.25
264.732	84.25
264.964	85.25
265.197	93.25
265.429	93.25
265.661	97.25
265.894	87.25
266.126	76.25
266.358	89.25
266.591	93.25
266.823	94.25
267.055	94.25
267.287	79.25
267.52	87.25
267.752	99.25
267.984	81.25
268.216	82.25
268.448	79.25
268.681	92.25
268.913	83.25
269.145	82.25
269.377	69.25
269.609	87.25
269.841	82.25
270.073	92.25
270.306	83.25
270.538	80.25
270.77	89.25
271.002	88.25
271.234	88.25
271.466	97.25
271.698	92.25
271.93	91.25
272.162	74.25
272.394	93.25
272.626	90.25
272.858	90.25
273.09	82.25
273.322	96.25
273.553	91.25
273.785	81.25
274.017	83.25
274.249	89.25
274.481	90.25
274.713	77.25
274.945	99.25
275.176	87.25
275.408	88.25
275.64	96.25
275.872	95.25
276.104	100.25
276.335	87.25
276.567	99.25
276.799	72.25
277.031	84.25
277.262	86.25
277.494	83.25
277.726	96.25
277.957	94.25
278.189	95.25
278.421	81.25
278.652	59.25
278.884	92.25
279.115	95.25
279.347	88.25
279.579	78.25
279.81	91.25
280.042	89.25
280.273	79.25
280.505	85.25
280.736	81.25
280.968	77.25
281.199	77.25
281.431	76.25
281.662	84.25
281.894	83.25
282.125	76.25
282.356	83.25
282.588	81.25
282.819	94.25
283.051	99.25
283.282	95.25
283.513	86.25
283.745	82.25
283.976	78.25
284.207	95.25
284.439	91.25
284.67	80.25
284.901	87.25
285.132	86.25
285.364	82.25
285.595	87.25
285.826	88.25
286.057	73.25
286.288	79.25
286.52	82.25
286.751	77.25
286.982	85.25
287.213	75.25
287.444	96.25
287.675	85.25
287.906	87.25
288.138	86.25
288.369	90.25
288.6	95.25
288.831	78.25
289.062	84.25
289.293	88.25
289.524	89.25
289.755	77.25
289.986	104.25
290.217	93.25
290.448	87.25
290.679	87.25
290.91	87.25
291.141	84.25
291.371	77.25
291.602	81.25
291.833	86.25
292.064	83.25
292.295	91.25
292.526	87.25
292.757	93.25
292.987	79.25
293.218	86.25
293.449	83.25
293.68	84.25
293.91	82.25
294.141	95.25
294.372	99.25
294.603	84.25
294.833	88.25
295.064	94.25
295.295	92.25
295.525	84.25
295.756	80.25
295.987	93.25
296.217	92.25
296.448	83.25
296.679	91.25
296.909	94.25
297.14	90.25
297.37	96.25
297.601	78.25
297.831	87.25
298.062	79.25
298.292	75.25
298.523	89.25
298.753	83.25
298.984	92.25
299.214	98.25
299.445	88.25
299.675	85.25
299.905	97.25
300.136	83.25
300.366	86.25
300.597	92.25
300.827	102.25
301.057	85.25
301.288	83.25
301.518	93.25
301.748	84.25
301.979	88.25
302.209	82.25
302.439	91.25
302.669	91.25
302.9	89.25
303.13	87.25
303.36	81.25
303.59	99.25
303.82	91.25
304.051	79.25
304.281	88.25
304.511	92.25
304.741	83.25
304.971	95.25
305.201	77.25
305.431	96.25
305.661	90.25
305.891	72.25
306.121	90.25
306.352	76.25
306.582	84.25
306.812	81.25
307.042	89.25
307.272	83.25
307.502	88.25
307.731	95.25
307.961	79.25
308.191	95.25
308.421	92.25
308.651	87.25
308.881	81.25
309.111	69.25
309.341	103.25
309.571	91.25
309.8	91.25
310.03	68.25
310.26	85.25
310.49	84.25
310.72	95.25
310.949	82.25
311.179	88.25
311.409	81.25
311.639	81.25
311.868	87.25
312.098	89.25
312.328	97.25
312.557	83.25
312.787	104.25
313.017	80.25
313.246	95.25
313.476	94.25
313.706	87.25
313.935	95.25
314.165	72.25
314.394	82.25
314.624	91.25
314.853	83.25
315.083	82.25
315.312	73.25
315.542	87.25
315.771	99.25
316.001	81.25
316.23	93.25
316.46	89.25
316.689	95.25
316.919	87.25
317.148	92.25
317.377	107.25
317.607	87.25
317.836	91.25
318.065	89.25
318.295	79.25
318.524	79.25
318.753	85.25
318.983	93.25
319.212	91.25
319.441	74.25
319.67	99.25
319.9	95.25
320.129	92.25
320.358	85.25
320.587	93.25
320.816	88.25
321.046	87.25
321.275	82.25
321.504	94.25
321.733	100.25
321.962	100.25
322.191	89.25
322.42	67.25
322.649	79.25
322.878	105.25
323.108	88.25
323.337	95.25
323.566	89.25
323.795	87.25
324.024	70.25
324.253	97.25
324.482	79.25
324.71	97.25
324.939	93.25
325.168	90.25
325.397	70.25
325.626	79.25
325.855	99.25
326.084	91.25
326.313	94.25
326.542	87.25
326.77	75.25
326.999	100.25
327.228	91.25
327.457	95.25
327.686	90.25
327.914	88.25
328.143	93.25
328.372	89.25
328.6	76.25
328.829	83.25
329.058	91.25
329.287	103.25
329.515	90.25
329.744	71.25
329.972	93.25
330.201	86.25
330.43	83.25
330.658	87.25
330.887	73.25
331.115	73.25
331.344	84.25
331.572	93.25
331.801	87.25
332.03	75.25
332.258	84.25
332.486	85.25
332.715	72.25
332.943	65.25
333.172	93.25
333.4	82.25
333.629	81.25
333.857	78.25
334.085	99.25
334.314	84.25
334.542	91.25
334.771	97.25
334.999	81.25
335.227	81.25
335.455	88.25
335.684	88.25
335.912	73.25
336.14	75.25
336.369	79.25
336.597	86.25
336.825	91.25
337.053	85.25
337.281	86.25
337.51	79.25
337.738	88.25
337.966	71.25
338.194	85.25
338.422	83.25
338.65	79.25
338.878	90.25
339.106	96.25
339.334	84.25
339.562	70.25
339.79	75.25
340.018	92.25
340.246	93.25
340.474	85.25
340.702	88.25
340.93	79.25
341.158	99.25
341.386	87.25
341.614	104.25
341.842	99.25
342.07	85.25
342.298	68.25
342.526	90.25
342.754	90.25
342.981	62.25
343.209	82.25
343.437	104.25
343.665	85.25
343.893	73.25
344.12	84.25
344.348	79.25
344.576	93.25
344.804	81.25
345.031	79.25
345.259	84.25
345.487	97.25
345.714	75.25
345.942	92.25
346.17	79.25
346.397	86.25
346.625	93.25
346.853	73.25
347.08	72.25
347.308	89.25
347.535	86.25
347.763	93.25
347.99	81.25
348.218	97.25
348.445	89.25
348.673	95.25
348.9	92.25
349.128	87.25
349.355	74.25
349.583	103.25
349.81	94.25
350.037	77.25
350.265	100.25
350.492	85.25
350.72	88.25
350.947	93.25
351.174	74.25
351.402	93.25
351.629	102.25
351.856	89.25
352.083	93.25
352.311	86.25
352.538	67.25
352.765	96.25
352.992	85.25
353.22	79.25
353.447	96.25
353.674	93.25
353.901	76.25
354.128	103.25
354.355	100.25
354.583	81.25
354.81	91.25
355.037	77.25
355.264	103.25
355.491	84.25
355.718	89.25
355.945	95.25
356.172	87.25
356.399	89.25
356.626	88.25
356.853	83.25
357.08	87.25
357.307	81.25
357.534	86.25
357.761	86.25
357.988	81.25
358.215	91.25
358.441	87.25
358.668	70.25
358.895	82.25
359.122	85.25
359.349	98.25
359.576	97.25
359.802	77.25
360.029	78.25
360.256	86.25
360.483	90.25
360.709	83.25
360.936	97.25
361.163	92.25
361.39	97.25
361.616	91.25
361.843	78.25
362.07	84.25
362.296	97.25
362.523	94.25
362.749	78.25
362.976	102.25
363.203	85.25
363.429	89.25
363.656	93.25
363.882	86.25
364.109	94.25
364.335	96.25
364.562	82.25
364.788	88.25
365.015	90.25
365.241	85.25
365.468	88.25
365.694	99.25
365.92	92.25
366.147	93.25
366.373	98.25
366.599	80.25
366.826	99.25
367.052	88.25
367.278	77.25
367.505	61.25
367.731	102.25
367.957	84.25
368.184	69.25
368.41	97.25
368.636	91.25
368.862	81.25
369.089	86.25
369.315	85.25
369.541	73.25
369.767	98.25
369.993	79.25
370.219	76.25
370.445	83.25
370.672	89.25
370.898	86.25
371.124	91.25
371.35	83.25
371.576	97.25
371.802	88.25
372.028	91.25
372.254	96.25
372.48	87.25
372.706	75.25
372.932	85.25
373.158	87.25
373.384	76.25
373.61	89.25
373.835	82.25
374.061	78.25
374.287	77.25
374.513	98.25
374.739	93.25
374.965	80.25
375.191	79.25
375.416	88.25
375.642	69.25
375.868	88.25
376.094	73.25
376.319	92.25
376.545	79.25
376.771	87.25
376.997	88.25
377.222	89.25
377.448	81.25
377.674	84.25
377.899	84.25
378.125	93.25
378.35	74.25
378.576	98.25
378.802	86.25
379.027	85.25
379.253	86.25
379.478	81.25
379.704	84.25
379.929	92.25
380.155	86.25
380.38	86.25
380.606	93.25
380.831	87.25
381.057	74.25
381.282	102.25
381.507	89.25
381.733	87.25
381.958	86.25
382.184	78.25
382.409	91.25
382.634	101.25
382.86	83.25
383.085	81.25
383.31	86.25
383.535	79.25
383.761	81.25
383.986	75.25
384.211	85.25
384.436	85.25
384.662	90.25
384.887	83.25
385.112	87.25
385.337	78.25
385.562	78.25
385.787	76.25
386.013	83.25
386.238	80.25
386.463	81.25
386.688	100.25
386.913	89.25
387.138	80.25
387.363	78.25
387.588	76.25
387.813	77.25
388.038	86.25
388.263	81.25
388.488	82.25
388.713	86.25
388.938	77.25
389.163	67.25
389.387	79.25
389.612	85.25
389.837	88.25
390.062	86.25
390.287	95.25
390.512	82.25
390.736	95.25
390.961	74.25
391.186	80.25
391.411	78.25
391.636	93.25
391.86	59.25
392.085	69.25
392.31	92.25
392.534	67.25
392.759	87.25
392.984	83.25
393.208	74.25
393.433	96.25
393.658	83.25
393.882	80.25
394.107	99.25
394.331	75.25
394.556	73.25
394.78	88.25
395.005	92.25
395.229	95.25
395.454	87.25
395.678	90.25
395.903	96.25
396.127	95.25
396.352	85.25
396.576	74.25
396.801	83.25
397.025	108.25
397.249	74.25
397.474	88.25
397.698	86.25
397.922	79.25
398.147	89.25
398.371	81.25
398.595	87.25
398.82	92.25
399.044	80.25
399.268	78.25
399.492	95.25
399.717	78.25
399.941	73.25
400.165	88.25
400.389	73.25
400.613	89.25
400.837	98.25
401.062	69.25
401.286	94.25
401.51	82.25
401.734	93.25
401.958	77.25
402.182	91.25
402.406	81.25
402.63	90.25
402.854	92.25
403.078	102.25
403.302	93.25
403.526	95.25
403.75	96.25
403.974	87.25
404.198	89.25
404.422	88.25
404.645	89.25
404.869	80.25
405.093	76.25
405.317	90.25
405.541	80.25
405.765	80.25
405.988	91.25
406.212	78.25
406.436	77.25
406.66	89.25
406.883	98.25
407.107	95.25
407.331	80.25
407.555	79.25
407.778	92.25
408.002	82.25
408.226	80.25
408.449	85.25
408.673	73.25
408.896	92.25
409.12	87.25
409.344	82.25
409.567	84.25
409.791	81.25
410.014	88.25
410.238	89.25
410.461	86.25
410.685	82.25
410.908	94.25
411.132	95.25
411.355	88.25
411.578	74.25
411.802	72.25
412.025	80.25
412.249	85.25
412.472	84.25
412.695	80.25
412.919	80.25
413.142	87.25
413.365	75.25
413.589	81.25
413.812	71.25
414.035	89.25
414.258	91.25
414.482	93.25
414.705	89.25
414.928	80.25
415.151	78.25
415.374	83.25
415.597	99.25
415.821	80.25
416.044	83.25
416.267	97.25
416.49	83.25
416.713	86.25
416.936	97.25
417.159	89.25
417.382	74.25
417.605	83.25
417.828	66.25
418.051	101.25
418.274	88.25
418.497	86.25
418.72	84.25
418.943	87.25
419.166	89.25
419.389	85.25
419.611	82.25
419.834	94.25
420.057	84.25
420.28	95.25
420.503	77.25
420.726	77.25
420.948	87.25
421.171	82.25
421.394	71.25
421.617	86.25
421.839	83.25
422.062	85.25
422.285	83.25
422.507	86.25
422.73	70.25
422.953	86.25
423.175	83.25
423.398	93.25
423.621	83.25
423.843	80.25
424.066	75.25
424.288	88.25
424.511	80.25
424.733	76.25
424.956	81.25
425.178	66.25
425.401	87.25
425.623	96.25
425.846	77.25
426.068	95.25
426.291	92.25
426.513	82.25
426.735	83.25
426.958	78.25
427.18	85.25
427.402	77.25
427.625	89.25
427.847	64.25
428.069	81.25
428.292	86.25
428.514	79.25
428.736	82.25
428.958	75.25
429.181	89.25
429.403	89.25
429.625	91.25
429.847	84.25
430.069	79.25
430.292	84.25
430.514	76.25
430.736	85.25
430.958	80.25
431.18	90.25
431.402	64.25
431.624	86.25
431.846	70.25
432.068	77.25
432.29	91.25
432.512	75.25
432.734	73.25
432.956	75.25
433.178	87.25
433.4	75.25
433.622	88.25
433.844	60.25
434.066	75.25
434.287	85.25
434.509	67.25
434.731	71.25
434.953	79.25
435.175	76.25
435.397	95.25
435.618	92.25
435.84	83.25
436.062	83.25
436.284	81.25
436.505	81.25
436.727	79.25
436.949	77.25
437.17	85.25
437.392	89.25
437.614	72.25
437.835	88.25
438.057	80.25
438.278	69.25
438.5	96.25
438.721	80.25
438.943	101.25
439.165	89.25
439.386	87.25
439.608	89.25
439.829	100.25
440.05	62.25
440.272	77.25
440.493	77.25
440.715	83.25
440.936	96.25
441.158	89.25
441.379	99.25
441.6	92.25
441.822	79.25
442.043	95.25
442.264	74.25
442.486	73.25
442.707	77.25
442.928	80.25
443.149	84.25
443.371	85.25
443.592	80.25
443.813	89.25
444.034	85.25
444.255	82.25
444.476	81.25
444.698	81.25
444.919	88.25
445.14	158.25
445.361	105.25
445.582	95.25
445.803	91.25
446.024	84.25
446.245	79.25
446.466	77.25
446.687	87.25
446.908	77.25
447.129	75.25
447.35	71.25
447.571	88.25
447.792	80.25
448.013	84.25
448.234	84.25
448.455	82.25
448.675	73.25
448.896	85.25
449.117	94.25
449.338	103.25
449.559	72.25
449.779	73.25
450	82.25
450.221	74.25
450.442	83.25
450.662	89.25
450.883	78.25
451.104	77.25
451.324	78.25
451.545	80.25
451.766	96.25
451.986	80.25
452.207	79.25
452.428	69.25
452.648	73.25
452.869	91.25
453.089	87.25
453.31	65.25
453.53	94.25
453.751	89.25
453.971	81.25
454.192	80.25
454.412	89.25
454.633	83.25
454.853	85.25
455.073	77.25
455.294	76.25
455.514	89.25
455.734	80.25
455.955	72.25
456.175	79.25
456.395	91.25
456.616	87.25
456.836	82.25
457.056	79.25
457.276	81.25
457.497	96.25
457.717	93.25
457.937	89.25
458.157	91.25
458.377	69.25
458.598	73.25
458.818	87.25
459.038	84.25
459.258	79.25
459.478	87.25
459.698	79.25
459.918	79.25
460.138	69.25
460.358	81.25
460.578	81.25
460.798	81.25
461.018	80.25
461.238	84.25
461.458	77.25
461.678	85.25
461.898	87.25
462.118	100.25
462.338	84.25
462.558	96.25
462.777	75.25
462.997	79.25
463.217	85.25
463.437	71.25
463.657	91.25
463.876	85.25
464.096	91.25
464.316	77.25
464.536	96.25
464.755	83.25
464.975	87.25
465.195	95.25
465.414	98.25
465.634	83.25
465.854	92.25
466.073	90.25
466.293	78.25
466.512	83.25
466.732	79.25
466.951	87.25
467.171	99.25
467.391	92.25
467.61	88.25
467.829	70.25
468.049	72.25
468.268	79.25
468.488	76.25
468.707	76.25
468.927	84.25
469.146	91.25
469.365	88.25
469.585	82.25
469.804	79.25
470.023	91.25
470.243	91.25
470.462	83.25
470.681	82.25
470.901	96.25
471.12	83.25
471.339	87.25
471.558	77.25
471.777	91.25
471.997	85.25
472.216	89.25
472.435	86.25
472.654	85.25
472.873	85.25
473.092	76.25
473.311	74.25
473.53	84.25
473.749	92.25
473.968	75.25
474.187	81.25
474.406	66.25
474.625	86.25
474.844	89.25
475.063	96.25
475.282	82.25
475.501	105.25
475.72	88.25
475.939	95.25
476.158	100.25
476.377	86.25
476.596	81.25
476.814	81.25
477.033	89.25
477.252	83.25
477.471	77.25
477.69	82.25
477.908	94.25
478.127	90.25
478.346	83.25
478.564	89.25
478.783	80.25
479.002	81.25
479.22	95.25
479.439	82.25
479.658	88.25
479.876	77.25
480.095	84.25
480.313	86.25
480.532	88.25
480.751	88.25
480.969	68.25
481.188	70.25
481.406	77.25
481.624	69.25
481.843	90.25
482.061	91.25
482.28	84.25
482.498	85.25
482.717	79.25
482.935	86.25
483.153	92.25
483.372	90.25
483.59	83.25
483.808	89.25
484.027	87.25
484.245	82.25
484.463	92.25
484.681	87.25
484.9	100.25
485.118	96.25
485.336	82.25
485.554	76.25
485.772	81.25
485.99	79.25
486.209	85.25
486.427	94.25
486.645	77.25
486.863	95.25
487.081	88.25
487.299	97.25
487.517	87.25
487.735	81.25
487.953	87.25
488.171	83.25
488.389	88.25
488.607	82.25
488.825	86.25
489.043	87.25
489.261	84.25
489.479	80.25
489.696	82.25
489.914	82.25
490.132	82.25
490.35	77.25
490.568	78.25
490.786	84.25
491.003	101.25
491.221	80.25
491.439	92.25
491.657	88.25
491.874	78.25
492.092	78.25
492.31	92.25
492.527	76.25
492.745	65.25
492.963	99.25
493.18	84.25
493.398	83.25
493.615	86.25
493.833	80.25
494.05	85.25
494.268	68.25
494.485	84.25
494.703	93.25
494.92	87.25
495.138	75.25
495.355	82.25
495.573	87.25
495.79	89.25
496.008	93.25
496.225	103.25
496.442	99.25
496.66	88.25
496.877	81.25
497.094	92.25
497.312	79.25
497.529	98.25
497.746	100.25
497.963	74.25
498.181	92.25
498.398	82.25
498.615	87.25
498.832	91.25
499.049	90.25
499.267	94.25
499.484	97.25
499.701	69.25
499.918	86.25
500.135	81.25
500.352	99.25
500.569	84.25
500.786	82.25
501.003	76.25
501.22	66.25
501.437	82.25
501.654	64.25
501.871	89.25
502.088	90.25
502.305	91.25
502.522	80.25
502.739	100.25
502.956	91.25
503.172	81.25
503.389	98.25
503.606	108.25
503.823	84.25
504.04	85.25
504.256	85.25
504.473	86.25
504.69	80.25
504.907	82.25
505.123	84.25
505.34	81.25
505.557	75.25
505.773	89.25
505.99	87.25
506.207	72.25
506.423	84.25
506.64	79.25
506.856	88.25
507.073	90.25
507.289	91.25
507.506	81.25
507.722	100.25
507.939	77.25
508.155	87.25
508.372	84.25
508.588	90.25
508.805	96.25
509.021	88.25
509.238	99.25
509.454	86.25
509.67	77.25
509.887	74.25
510.103	86.25
510.319	85.25
510.536	91.25
510.752	70.25
510.968	80.25
511.184	83.25
511.401	97.25
511.617	89.25
511.833	87.25
512.049	88.25
512.265	88.25
512.481	76.25
512.698	85.25
512.914	72.25
513.13	87.25
513.346	89.25
513.562	102.25
513.778	87.25
513.994	89.25
514.21	73.25
514.426	87.25
514.642	84.25
514.858	95.25
515.074	75.25
515.29	85.25
515.506	84.25
515.721	88.25
515.937	84.25
516.153	86.25
516.369	88.25
516.585	71.25
516.801	74.25
517.016	83.25
517.232	74.25
517.448	79.25
517.664	81.25
517.879	87.25
518.095	93.25
518.311	96.25
518.527	83.25
518.742	80.25
518.958	80.25
519.173	95.25
519.389	87.25
519.605	78.25
