Data from Background_3_HRD10591_00028.txt Node
Date: Wed Nov 05 14:49:33 EST 2025
User: Yrep
Spectrometer: HR+D1059
Trigger mode: 1
Integration Time (sec): 1.000000E-1
Scans to average: 1
Electric dark correction enabled: true
Nonlinearity correction enabled: false
Boxcar width: 0
XAxis mode: Wavelengths
Number of Pixels in Spectrum: 2048
>>>>>Begin Spectral Data<<<<<
223.165	-22
223.4	-22
223.635	-22
223.869	-8
224.104	-8
224.338	-17
224.573	-12
224.808	-11
225.042	-8
225.277	-11
225.511	-13
225.746	13
225.98	0
226.215	2
226.449	31
226.683	10
226.918	24
227.152	30
227.387	37
227.621	33
227.856	52
228.09	53
228.324	55
228.559	62
228.793	61
229.027	56
229.262	61
229.496	72
229.73	62
229.964	76
230.199	74
230.433	66
230.667	83
230.901	73
231.136	78
231.37	90
231.604	91
231.838	85
232.072	90
232.306	71
232.541	77
232.775	83
233.009	77
233.243	69
233.477	88
233.711	88
233.945	84
234.179	85
234.413	72
234.647	86
234.881	83
235.115	85
235.349	67
235.583	74
235.817	75
236.051	78
236.285	81
236.519	69
236.753	71
236.987	75
237.221	75
237.455	79
237.689	74
237.922	85
238.156	91
238.39	83
238.624	74
238.858	95
239.091	89
239.325	92
239.559	67
239.793	80
240.027	84
240.26	69
240.494	85
240.728	64
240.961	70
241.195	77
241.429	85
241.662	73
241.896	85
242.13	79
242.363	97
242.597	67
242.83	70
243.064	72
243.298	84
243.531	83
243.765	84
243.998	83
244.232	82
244.465	75
244.699	75
244.932	89
245.166	94
245.399	83
245.633	77
245.866	81
246.099	75
246.333	73
246.566	64
246.8	79
247.033	74
247.266	69
247.5	81
247.733	60
247.966	98
248.2	90
248.433	78
248.666	71
248.899	83
249.133	92
249.366	82
249.599	83
249.832	73
250.066	96
250.299	84
250.532	78
250.765	85
250.998	81
251.231	71
251.465	84
251.698	69
251.931	90
252.164	91
252.397	83
252.63	98
252.863	74
253.096	84
253.329	79
253.562	94
253.795	90
254.028	73
254.261	93
254.494	83
254.727	93
254.96	89
255.193	81
255.426	81
255.659	85
255.892	80
256.124	83
256.357	73
256.59	92
256.823	80
257.056	78
257.289	86
257.521	90
257.754	92
257.987	84
258.22	75
258.452	75
258.685	86
258.918	88
259.151	77
259.383	102
259.616	75
259.849	71
260.081	85
260.314	73
260.547	68
260.779	72
261.012	87
261.244	90
261.477	87
261.71	88
261.942	77
262.175	77
262.407	78
262.64	96
262.872	98
263.105	80
263.337	87
263.57	93
263.802	67
264.035	79
264.267	84
264.499	100
264.732	96
264.964	86
265.197	78
265.429	87
265.661	85
265.894	91
266.126	91
266.358	86
266.591	81
266.823	85
267.055	90
267.287	86
267.52	84
267.752	81
267.984	91
268.216	88
268.448	80
268.681	95
268.913	80
269.145	95
269.377	67
269.609	96
269.841	87
270.073	88
270.306	70
270.538	89
270.77	64
271.002	93
271.234	93
271.466	92
271.698	94
271.93	88
272.162	76
272.394	70
272.626	90
272.858	91
273.09	84
273.322	83
273.553	82
273.785	74
274.017	94
274.249	98
274.481	84
274.713	80
274.945	67
275.176	82
275.408	87
275.64	87
275.872	72
276.104	82
276.335	78
276.567	68
276.799	85
277.031	93
277.262	80
277.494	66
277.726	74
277.957	87
278.189	83
278.421	82
278.652	91
278.884	79
279.115	84
279.347	83
279.579	68
279.81	80
280.042	87
280.273	79
280.505	79
280.736	97
280.968	92
281.199	101
281.431	77
281.662	91
281.894	81
282.125	75
282.356	74
282.588	89
282.819	90
283.051	80
283.282	73
283.513	71
283.745	85
283.976	96
284.207	72
284.439	78
284.67	80
284.901	82
285.132	76
285.364	89
285.595	97
285.826	83
286.057	65
286.288	81
286.52	75
286.751	88
286.982	83
287.213	80
287.444	96
287.675	80
287.906	90
288.138	81
288.369	88
288.6	86
288.831	90
289.062	96
289.293	81
289.524	91
289.755	89
289.986	86
290.217	88
290.448	88
290.679	81
290.91	70
291.141	86
291.371	100
291.602	99
291.833	91
292.064	83
292.295	82
292.526	87
292.757	87
292.987	75
293.218	88
293.449	79
293.68	107
293.91	80
294.141	91
294.372	87
294.603	91
294.833	80
295.064	81
295.295	87
295.525	95
295.756	81
295.987	87
296.217	76
296.448	83
296.679	94
296.909	91
297.14	71
297.37	78
297.601	86
297.831	94
298.062	79
298.292	90
298.523	83
298.753	88
298.984	92
299.214	84
299.445	102
299.675	91
299.905	86
300.136	86
300.366	78
300.597	99
300.827	86
301.057	83
301.288	79
301.518	85
301.748	82
301.979	107
302.209	80
302.439	94
302.669	84
302.9	90
303.13	78
303.36	83
303.59	83
303.82	96
304.051	75
304.281	87
304.511	95
304.741	86
304.971	86
305.201	101
305.431	83
305.661	96
305.891	110
306.121	85
306.352	80
306.582	97
306.812	76
307.042	103
307.272	87
307.502	93
307.731	83
307.961	82
308.191	88
308.421	78
308.651	87
308.881	87
309.111	81
309.341	86
309.571	77
309.8	88
310.03	95
310.26	87
310.49	83
310.72	87
310.949	86
311.179	96
311.409	104
311.639	88
311.868	91
312.098	99
312.328	85
312.557	96
312.787	92
313.017	87
313.246	78
313.476	89
313.706	79
313.935	81
314.165	86
314.394	73
314.624	85
314.853	87
315.083	79
315.312	78
315.542	84
315.771	99
316.001	90
316.23	85
316.46	83
316.689	83
316.919	85
317.148	86
317.377	84
317.607	84
317.836	94
318.065	85
318.295	89
318.524	96
318.753	76
318.983	90
319.212	96
319.441	87
319.67	74
319.9	91
320.129	83
320.358	99
320.587	76
320.816	79
321.046	90
321.275	97
321.504	89
321.733	84
321.962	86
322.191	83
322.42	90
322.649	97
322.878	78
323.108	91
323.337	93
323.566	82
323.795	79
324.024	80
324.253	83
324.482	88
324.71	72
324.939	85
325.168	95
325.397	86
325.626	72
325.855	87
326.084	71
326.313	95
326.542	80
326.77	91
326.999	97
327.228	92
327.457	96
327.686	77
327.914	84
328.143	87
328.372	80
328.6	81
328.829	93
329.058	91
329.287	88
329.515	92
329.744	88
329.972	93
330.201	83
330.43	85
330.658	78
330.887	93
331.115	85
331.344	84
331.572	78
331.801	91
332.03	98
332.258	73
332.486	92
332.715	89
332.943	95
333.172	87
333.4	104
333.629	96
333.857	99
334.085	85
334.314	67
334.542	77
334.771	84
334.999	92
335.227	102
335.455	90
335.684	71
335.912	96
336.14	100
336.369	77
336.597	87
336.825	92
337.053	84
337.281	76
337.51	93
337.738	108
337.966	92
338.194	76
338.422	90
338.65	83
338.878	84
339.106	99
339.334	89
339.562	92
339.79	84
340.018	89
340.246	99
340.474	90
340.702	99
340.93	91
341.158	86
341.386	83
341.614	88
341.842	86
342.07	91
342.298	72
342.526	87
342.754	77
342.981	85
343.209	79
343.437	97
343.665	96
343.893	86
344.12	85
344.348	80
344.576	77
344.804	77
345.031	85
345.259	85
345.487	79
345.714	101
345.942	80
346.17	89
346.397	91
346.625	79
346.853	88
347.08	94
347.308	86
347.535	68
347.763	84
347.99	88
348.218	84
348.445	76
348.673	82
348.9	76
349.128	95
349.355	97
349.583	89
349.81	88
350.037	89
350.265	93
350.492	92
350.72	82
350.947	85
351.174	84
351.402	82
351.629	101
351.856	94
352.083	81
352.311	77
352.538	82
352.765	89
352.992	62
353.22	95
353.447	77
353.674	93
353.901	80
354.128	103
354.355	82
354.583	86
354.81	82
355.037	79
355.264	84
355.491	91
355.718	98
355.945	85
356.172	81
356.399	94
356.626	93
356.853	95
357.08	100
357.307	88
357.534	77
357.761	91
357.988	84
358.215	94
358.441	80
358.668	73
358.895	77
359.122	87
359.349	94
359.576	91
359.802	97
360.029	87
360.256	81
360.483	84
360.709	87
360.936	87
361.163	79
361.39	83
361.616	92
361.843	78
362.07	84
362.296	97
362.523	83
362.749	76
362.976	74
363.203	92
363.429	84
363.656	87
363.882	93
364.109	83
364.335	89
364.562	84
364.788	91
365.015	98
365.241	87
365.468	91
365.694	83
365.92	85
366.147	95
366.373	78
366.599	88
366.826	87
367.052	76
367.278	86
367.505	81
367.731	94
367.957	99
368.184	79
368.41	94
368.636	88
368.862	95
369.089	79
369.315	93
369.541	88
369.767	83
369.993	77
370.219	90
370.445	89
370.672	92
370.898	88
371.124	73
371.35	63
371.576	82
371.802	83
372.028	83
372.254	84
372.48	70
372.706	81
372.932	75
373.158	79
373.384	80
373.61	87
373.835	93
374.061	89
374.287	95
374.513	95
374.739	95
374.965	87
375.191	87
375.416	84
375.642	87
375.868	80
376.094	85
376.319	89
376.545	87
376.771	82
376.997	79
377.222	80
377.448	99
377.674	89
377.899	82
378.125	81
378.35	81
378.576	76
378.802	84
379.027	91
379.253	69
379.478	72
379.704	89
379.929	93
380.155	97
380.38	88
380.606	60
380.831	96
381.057	100
381.282	83
381.507	79
381.733	106
381.958	95
382.184	74
382.409	79
382.634	81
382.86	101
383.085	97
383.31	88
383.535	83
383.761	85
383.986	92
384.211	93
384.436	90
384.662	94
384.887	93
385.112	94
385.337	88
385.562	101
385.787	94
386.013	96
386.238	83
386.463	93
386.688	101
386.913	79
387.138	83
387.363	68
387.588	86
387.813	93
388.038	76
388.263	87
388.488	87
388.713	88
388.938	85
389.163	89
389.387	91
389.612	74
389.837	69
390.062	91
390.287	73
390.512	83
390.736	93
390.961	73
391.186	76
391.411	91
391.636	93
391.86	89
392.085	96
392.31	94
392.534	86
392.759	85
392.984	83
393.208	91
393.433	81
393.658	98
393.882	95
394.107	105
394.331	92
394.556	91
394.78	88
395.005	86
395.229	93
395.454	83
395.678	75
395.903	79
396.127	91
396.352	94
396.576	109
396.801	80
397.025	80
397.249	92
397.474	91
397.698	83
397.922	91
398.147	79
398.371	67
398.595	71
398.82	99
399.044	87
399.268	77
399.492	80
399.717	88
399.941	86
400.165	88
400.389	91
400.613	87
400.837	75
401.062	86
401.286	73
401.51	95
401.734	82
401.958	85
402.182	72
402.406	76
402.63	85
402.854	91
403.078	87
403.302	71
403.526	70
403.75	78
403.974	80
404.198	76
404.422	84
404.645	86
404.869	81
405.093	72
405.317	94
405.541	88
405.765	82
405.988	92
406.212	93
406.436	93
406.66	92
406.883	80
407.107	85
407.331	92
407.555	91
407.778	95
408.002	79
408.226	94
408.449	99
408.673	91
408.896	81
409.12	56
409.344	88
409.567	79
409.791	92
410.014	80
410.238	85
410.461	85
410.685	79
410.908	90
411.132	74
411.355	83
411.578	85
411.802	85
412.025	87
412.249	97
412.472	85
412.695	85
412.919	92
413.142	83
413.365	81
413.589	83
413.812	82
414.035	76
414.258	89
414.482	81
414.705	79
414.928	93
415.151	83
415.374	75
415.597	71
415.821	79
416.044	90
416.267	94
416.49	88
416.713	86
416.936	92
417.159	77
417.382	100
417.605	80
417.828	83
418.051	92
418.274	86
418.497	70
418.72	88
418.943	88
419.166	90
419.389	77
419.611	92
419.834	90
420.057	74
420.28	81
420.503	87
420.726	60
420.948	91
421.171	83
421.394	83
421.617	72
421.839	92
422.062	98
422.285	89
422.507	93
422.73	88
422.953	82
423.175	80
423.398	89
423.621	87
423.843	96
424.066	70
424.288	71
424.511	83
424.733	82
424.956	85
425.178	81
425.401	72
425.623	80
425.846	72
426.068	80
426.291	76
426.513	78
426.735	87
426.958	87
427.18	66
427.402	101
427.625	52
427.847	80
428.069	86
428.292	80
428.514	95
428.736	87
428.958	95
429.181	93
429.403	88
429.625	73
429.847	85
430.069	80
430.292	92
430.514	103
430.736	88
430.958	91
431.18	83
431.402	85
431.624	79
431.846	87
432.068	79
432.29	76
432.512	97
432.734	85
432.956	80
433.178	85
433.4	89
433.622	72
433.844	87
434.066	81
434.287	92
434.509	81
434.731	73
434.953	87
435.175	84
435.397	88
435.618	84
435.84	84
436.062	94
436.284	77
436.505	77
436.727	84
436.949	76
437.17	71
437.392	77
437.614	80
437.835	80
438.057	81
438.278	88
438.5	100
438.721	91
438.943	91
439.165	85
439.386	71
439.608	102
439.829	89
440.05	90
440.272	87
440.493	94
440.715	81
440.936	95
441.158	92
441.379	87
441.6	76
441.822	92
442.043	93
442.264	81
442.486	93
442.707	92
442.928	87
443.149	81
443.371	81
443.592	93
443.813	65
444.034	71
444.255	96
444.476	75
444.698	85
444.919	85
445.14	137
445.361	119
445.582	87
445.803	84
446.024	85
446.245	74
446.466	78
446.687	86
446.908	83
447.129	88
447.35	68
447.571	81
447.792	94
448.013	78
448.234	89
448.455	71
448.675	84
448.896	78
449.117	87
449.338	101
449.559	99
449.779	93
450	89
450.221	92
450.442	88
450.662	89
450.883	88
451.104	85
451.324	90
451.545	78
451.766	84
451.986	73
452.207	73
452.428	104
452.648	73
452.869	96
453.089	77
453.31	73
453.53	85
453.751	92
453.971	93
454.192	91
454.412	85
454.633	82
454.853	85
455.073	95
455.294	89
455.514	71
455.734	98
455.955	84
456.175	81
456.395	73
456.616	79
456.836	69
457.056	92
457.276	79
457.497	99
457.717	87
457.937	85
458.157	88
458.377	96
458.598	86
458.818	90
459.038	82
459.258	73
459.478	83
459.698	82
459.918	78
460.138	79
460.358	87
460.578	82
460.798	93
461.018	84
461.238	89
461.458	88
461.678	75
461.898	86
462.118	83
462.338	86
462.558	85
462.777	86
462.997	94
463.217	86
463.437	69
463.657	79
463.876	85
464.096	91
464.316	79
464.536	83
464.755	85
464.975	80
465.195	73
465.414	77
465.634	71
465.854	98
466.073	85
466.293	81
466.512	79
466.732	97
466.951	85
467.171	92
467.391	83
467.61	81
467.829	81
468.049	83
468.268	81
468.488	83
468.707	83
468.927	86
469.146	86
469.365	88
469.585	71
469.804	85
470.023	79
470.243	87
470.462	86
470.681	91
470.901	89
471.12	88
471.339	82
471.558	79
471.777	85
471.997	102
472.216	87
472.435	93
472.654	95
472.873	89
473.092	88
473.311	80
473.53	92
473.749	82
473.968	76
474.187	88
474.406	85
474.625	88
474.844	96
475.063	80
475.282	79
475.501	93
475.72	80
475.939	88
476.158	85
476.377	75
476.596	85
476.814	82
477.033	103
477.252	87
477.471	86
477.69	77
477.908	89
478.127	100
478.346	99
478.564	95
478.783	92
479.002	84
479.22	82
479.439	90
479.658	82
479.876	77
480.095	82
480.313	83
480.532	83
480.751	79
480.969	77
481.188	85
481.406	89
481.624	91
481.843	87
482.061	78
482.28	100
482.498	87
482.717	91
482.935	90
483.153	80
483.372	76
483.59	85
483.808	91
484.027	78
484.245	75
484.463	88
484.681	93
484.9	89
485.118	93
485.336	97
485.554	76
485.772	87
485.99	93
486.209	78
486.427	76
486.645	92
486.863	80
487.081	66
487.299	77
487.517	87
487.735	87
487.953	81
488.171	87
488.389	75
488.607	94
488.825	85
489.043	85
489.261	91
489.479	92
489.696	87
489.914	85
490.132	68
490.35	86
490.568	107
490.786	82
491.003	88
491.221	79
491.439	81
491.657	88
491.874	79
492.092	87
492.31	101
492.527	84
492.745	88
492.963	86
493.18	86
493.398	86
493.615	76
493.833	91
494.05	83
494.268	91
494.485	79
494.703	95
494.92	76
495.138	87
495.355	80
495.573	97
495.79	88
496.008	105
496.225	90
496.442	83
496.66	81
496.877	80
497.094	86
497.312	77
497.529	93
497.746	102
497.963	79
498.181	77
498.398	80
498.615	96
498.832	87
499.049	93
499.267	85
499.484	85
499.701	94
499.918	91
500.135	92
500.352	73
500.569	87
500.786	83
501.003	82
501.22	80
501.437	67
501.654	95
501.871	81
502.088	74
502.305	84
502.522	74
502.739	81
502.956	89
503.172	96
503.389	86
503.606	100
503.823	77
504.04	96
504.256	91
504.473	92
504.69	87
504.907	97
505.123	91
505.34	92
505.557	84
505.773	94
505.99	89
506.207	77
506.423	88
506.64	87
506.856	77
507.073	91
507.289	91
507.506	88
507.722	80
507.939	79
508.155	91
508.372	76
508.588	77
508.805	101
509.021	77
509.238	103
509.454	90
509.67	91
509.887	81
510.103	99
510.319	87
510.536	90
510.752	66
510.968	86
511.184	88
511.401	91
511.617	77
511.833	86
512.049	96
512.265	88
512.481	84
512.698	83
512.914	84
513.13	85
513.346	96
513.562	83
513.778	88
513.994	89
514.21	91
514.426	84
514.642	98
514.858	93
515.074	76
515.29	83
515.506	96
515.721	85
515.937	91
516.153	79
516.369	77
516.585	85
516.801	82
517.016	91
517.232	84
517.448	92
517.664	86
517.879	95
518.095	103
518.311	88
518.527	79
518.742	85
518.958	87
519.173	79
519.389	72
519.605	81
519.82	90
520.036	86
520.251	74
520.467	78
520.682	90
520.898	76
521.113	67
521.329	79
521.544	83
521.76	79
521.975	77
522.19	89
522.406	84
522.621	82
522.836	87
523.052	89
523.267	96
523.482	88
523.698	93
523.913	73
524.128	84
524.343	85
524.559	83
524.774	81
524.989	97
525.204	76
525.419	72
525.634	89
525.849	88
526.064	83
526.28	90
526.495	88
526.71	76
526.925	87
527.14	104
527.355	85
527.57	85
527.785	88
527.999	95
528.214	78
528.429	86
528.644	78
528.859	78
529.074	84
529.289	86
529.503	100
529.718	93
529.933	85
530.148	80
530.363	75
530.577	79
530.792	93
531.007	85
531.221	85
531.436	84
531.651	75
531.865	87
532.08	83
532.295	89
532.509	87
532.724	68
532.938	84
533.153	90
533.367	96
533.582	99
533.796	91
534.011	84
534.225	88
534.44	83
534.654	93
534.868	83
535.083	88
535.297	94
535.511	95
535.726	88
535.94	95
536.154	93
536.369	72
536.583	82
536.797	98
537.011	79
537.225	87
537.44	85
537.654	85
537.868	83
538.082	83
538.296	90
538.51	78
538.724	91
538.938	80
539.153	87
539.367	99
539.581	80
539.795	104
540.009	91
540.222	91
540.436	92
540.65	75
540.864	76
541.078	95
541.292	77
541.506	82
541.72	87
541.934	78
542.147	76
542.361	100
542.575	79
542.789	75
543.002	87
543.216	92
543.43	81
543.644	83
543.857	77
544.071	95
544.285	95
544.498	83
544.712	98
544.925	82
545.139	91
545.352	79
545.566	81
545.779	86
545.993	76
546.206	70
546.42	90
546.633	93
546.847	105
547.06	92
547.274	87
547.487	100
547.7	85
547.914	73
548.127	96
548.34	85
548.554	93
548.767	91
548.98	80
549.193	79
549.407	85
549.62	95
549.833	84
550.046	81
550.259	94
550.473	84
550.686	75
550.899	76
551.112	83
551.325	84
551.538	81
551.751	95
551.964	86
552.177	80
552.39	85
552.603	73
552.816	99
553.029	96
553.242	90
553.455	89
553.667	97
553.88	97
554.093	74
554.306	87
554.519	79
554.732	92
554.944	87
555.157	94
555.37	72
555.583	83
555.795	98
556.008	86
556.221	91
556.433	96
556.646	87
556.859	95
557.071	87
557.284	88
557.496	87
557.709	78
557.921	83
558.134	79
558.346	96
558.559	87
558.771	96
558.984	75
559.196	87
559.409	84
559.621	99
559.833	89
560.046	92
560.258	81
560.47	81
560.683	94
560.895	95
561.107	101
561.32	80
561.532	85
561.744	87
561.956	85
562.168	95
562.381	88
562.593	77
562.805	93
563.017	86
563.229	80
563.441	95
563.653	96
563.865	81
564.077	84
564.289	95
564.501	79
564.713	84
564.925	86
565.137	97
565.349	91
565.561	95
565.773	100
565.985	99
566.197	97
566.408	83
566.62	87
566.832	79
567.044	80
567.255	87
567.467	92
567.679	99
567.891	86
568.102	87
568.314	71
568.526	95
568.737	95
568.949	79
569.161	89
569.372	75
569.584	83
569.795	89
570.007	85
570.218	86
570.43	75
570.641	89
570.853	86
571.064	86
571.276	91
571.487	74
571.698	86
571.91	84
572.121	82
572.333	88
572.544	83
572.755	89
572.966	79
573.178	91
573.389	85
573.6	79
573.811	81
574.023	72
574.234	88
574.445	99
574.656	93
574.867	87
575.078	92
575.289	79
575.501	88
575.712	95
575.923	68
576.134	91
576.345	79
576.556	93
576.767	87
576.978	88
577.188	99
577.399	98
577.61	94
577.821	86
578.032	99
578.243	82
578.454	91
578.665	98
578.875	92
579.086	76
579.297	80
579.508	94
579.718	83
579.929	73
580.14	83
580.35	84
580.561	94
580.772	97
580.982	92
581.193	101
581.403	88
581.614	86
581.825	95
582.035	89
582.246	91
582.456	87
582.667	91
582.877	85
583.087	85
583.298	77
583.508	84
583.719	88
583.929	82
584.139	97
584.35	92
584.56	91
584.77	73
584.981	87
585.191	91
585.401	95
585.611	100
585.821	93
586.032	92
586.242	92
586.452	87
586.662	98
586.872	85
587.082	78
587.292	81
587.502	92
587.713	88
587.923	75
588.133	83
588.343	92
588.553	85
588.762	84
588.972	94
589.182	77
589.392	87
589.602	84
589.812	94
590.022	86
