Data from Background_3_HRD10591_00029.txt Node
Date: Wed Nov 05 14:49:34 EST 2025
User: Yrep
Spectrometer: HR+D1059
Trigger mode: 1
Integration Time (sec): 1.000000E-1
Scans to average: 1
Electric dark correction enabled: true
Nonlinearity correction enabled: false
Boxcar width: 0
XAxis mode: Wavelengths
Number of Pixels in Spectrum: 2048
>>>>>Begin Spectral Data<<<<<
223.165	-4.75
223.4	-4.75
223.635	-4.75
223.869	-19.75
224.104	-18.75
224.338	-19.75
224.573	-27.75
224.808	-17.75
225.042	-2.75
225.277	-8.75
225.511	-5.75
225.746	5.25
225.98	6.25
226.215	2.25
226.449	12.25
226.683	27.25
226.918	35.25
227.152	37.25
227.387	35.25
227.621	34.25
227.856	59.25
228.09	55.25
228.324	53.25
228.559	53.25
228.793	62.25
229.027	53.25
229.262	52.25
229.496	75.25
229.73	76.25
229.964	77.25
230.199	70.25
230.433	81.25
230.667	61.25
230.901	77.25
231.136	74.25
231.37	73.25
231.604	85.25
231.838	86.25
232.072	96.25
232.306	87.25
232.541	91.25
232.775	93.25
233.009	81.25
233.243	84.25
233.477	75.25
233.711	77.25
233.945	74.25
234.179	73.25
234.413	69.25
234.647	81.25
234.881	83.25
235.115	73.25
235.349	54.25
235.583	81.25
235.817	84.25
236.051	81.25
236.285	92.25
236.519	90.25
236.753	78.25
236.987	79.25
237.221	79.25
237.455	74.25
237.689	66.25
237.922	76.25
238.156	75.25
238.39	83.25
238.624	81.25
238.858	76.25
239.091	88.25
239.325	79.25
239.559	87.25
239.793	75.25
240.027	71.25
240.26	79.25
240.494	67.25
240.728	71.25
240.961	79.25
241.195	70.25
241.429	81.25
241.662	74.25
241.896	59.25
242.13	55.25
242.363	71.25
242.597	64.25
242.83	68.25
243.064	79.25
243.298	79.25
243.531	72.25
243.765	78.25
243.998	69.25
244.232	75.25
244.465	77.25
244.699	83.25
244.932	93.25
245.166	86.25
245.399	78.25
245.633	87.25
245.866	73.25
246.099	71.25
246.333	73.25
246.566	85.25
246.8	71.25
247.033	88.25
247.266	70.25
247.5	85.25
247.733	81.25
247.966	71.25
248.2	86.25
248.433	85.25
248.666	73.25
248.899	76.25
249.133	61.25
249.366	90.25
249.599	81.25
249.832	71.25
250.066	82.25
250.299	87.25
250.532	76.25
250.765	87.25
250.998	77.25
251.231	76.25
251.465	87.25
251.698	70.25
251.931	84.25
252.164	76.25
252.397	93.25
252.63	90.25
252.863	75.25
253.096	73.25
253.329	66.25
253.562	81.25
253.795	81.25
254.028	71.25
254.261	68.25
254.494	77.25
254.727	84.25
254.96	85.25
255.193	72.25
255.426	76.25
255.659	74.25
255.892	81.25
256.124	77.25
256.357	92.25
256.59	86.25
256.823	79.25
257.056	81.25
257.289	88.25
257.521	69.25
257.754	84.25
257.987	77.25
258.22	77.25
258.452	77.25
258.685	78.25
258.918	69.25
259.151	83.25
259.383	90.25
259.616	79.25
259.849	78.25
260.081	86.25
260.314	70.25
260.547	82.25
260.779	80.25
261.012	79.25
261.244	85.25
261.477	97.25
261.71	81.25
261.942	78.25
262.175	75.25
262.407	73.25
262.64	66.25
262.872	69.25
263.105	61.25
263.337	92.25
263.57	76.25
263.802	92.25
264.035	77.25
264.267	91.25
264.499	86.25
264.732	79.25
264.964	82.25
265.197	85.25
265.429	95.25
265.661	89.25
265.894	81.25
266.126	89.25
266.358	82.25
266.591	93.25
266.823	71.25
267.055	79.25
267.287	78.25
267.52	80.25
267.752	81.25
267.984	74.25
268.216	69.25
268.448	66.25
268.681	79.25
268.913	78.25
269.145	94.25
269.377	81.25
269.609	78.25
269.841	75.25
270.073	75.25
270.306	76.25
270.538	80.25
270.77	78.25
271.002	86.25
271.234	87.25
271.466	69.25
271.698	84.25
271.93	71.25
272.162	79.25
272.394	95.25
272.626	85.25
272.858	87.25
273.09	79.25
273.322	95.25
273.553	77.25
273.785	81.25
274.017	81.25
274.249	71.25
274.481	83.25
274.713	85.25
274.945	88.25
275.176	84.25
275.408	87.25
275.64	86.25
275.872	95.25
276.104	89.25
276.335	87.25
276.567	71.25
276.799	95.25
277.031	84.25
277.262	76.25
277.494	72.25
277.726	87.25
277.957	92.25
278.189	93.25
278.421	92.25
278.652	78.25
278.884	85.25
279.115	94.25
279.347	74.25
279.579	73.25
279.81	91.25
280.042	89.25
280.273	80.25
280.505	81.25
280.736	83.25
280.968	76.25
281.199	87.25
281.431	70.25
281.662	83.25
281.894	82.25
282.125	81.25
282.356	83.25
282.588	75.25
282.819	85.25
283.051	83.25
283.282	81.25
283.513	89.25
283.745	98.25
283.976	70.25
284.207	84.25
284.439	86.25
284.67	84.25
284.901	83.25
285.132	95.25
285.364	88.25
285.595	88.25
285.826	88.25
286.057	77.25
286.288	85.25
286.52	81.25
286.751	82.25
286.982	77.25
287.213	72.25
287.444	82.25
287.675	77.25
287.906	81.25
288.138	61.25
288.369	81.25
288.6	91.25
288.831	80.25
289.062	86.25
289.293	82.25
289.524	65.25
289.755	78.25
289.986	77.25
290.217	77.25
290.448	73.25
290.679	90.25
290.91	96.25
291.141	86.25
291.371	82.25
291.602	85.25
291.833	74.25
292.064	81.25
292.295	77.25
292.526	84.25
292.757	88.25
292.987	88.25
293.218	99.25
293.449	89.25
293.68	71.25
293.91	82.25
294.141	77.25
294.372	84.25
294.603	93.25
294.833	87.25
295.064	73.25
295.295	71.25
295.525	92.25
295.756	81.25
295.987	68.25
296.217	89.25
296.448	87.25
296.679	79.25
296.909	89.25
297.14	88.25
297.37	83.25
297.601	67.25
297.831	79.25
298.062	72.25
298.292	75.25
298.523	83.25
298.753	91.25
298.984	93.25
299.214	82.25
299.445	95.25
299.675	92.25
299.905	82.25
300.136	79.25
300.366	74.25
300.597	71.25
300.827	91.25
301.057	92.25
301.288	90.25
301.518	77.25
301.748	95.25
301.979	93.25
302.209	85.25
302.439	81.25
302.669	99.25
302.9	91.25
303.13	92.25
303.36	82.25
303.59	89.25
303.82	98.25
304.051	92.25
304.281	86.25
304.511	89.25
304.741	63.25
304.971	87.25
305.201	72.25
305.431	85.25
305.661	77.25
305.891	86.25
306.121	74.25
306.352	85.25
306.582	102.25
306.812	81.25
307.042	91.25
307.272	85.25
307.502	87.25
307.731	71.25
307.961	98.25
308.191	89.25
308.421	83.25
308.651	88.25
308.881	98.25
309.111	71.25
309.341	77.25
309.571	94.25
309.8	80.25
310.03	82.25
310.26	87.25
310.49	78.25
310.72	93.25
310.949	69.25
311.179	69.25
311.409	93.25
311.639	81.25
311.868	95.25
312.098	83.25
312.328	91.25
312.557	79.25
312.787	95.25
313.017	90.25
313.246	82.25
313.476	83.25
313.706	93.25
313.935	84.25
314.165	85.25
314.394	90.25
314.624	83.25
314.853	88.25
315.083	74.25
315.312	80.25
315.542	90.25
315.771	96.25
316.001	85.25
316.23	95.25
316.46	99.25
316.689	79.25
316.919	95.25
317.148	82.25
317.377	91.25
317.607	90.25
317.836	89.25
318.065	79.25
318.295	82.25
318.524	90.25
318.753	89.25
318.983	81.25
319.212	87.25
319.441	81.25
319.67	82.25
319.9	85.25
320.129	82.25
320.358	91.25
320.587	79.25
320.816	84.25
321.046	89.25
321.275	86.25
321.504	92.25
321.733	86.25
321.962	75.25
322.191	79.25
322.42	73.25
322.649	84.25
322.878	84.25
323.108	71.25
323.337	82.25
323.566	98.25
323.795	79.25
324.024	85.25
324.253	86.25
324.482	89.25
324.71	93.25
324.939	80.25
325.168	73.25
325.397	79.25
325.626	81.25
325.855	92.25
326.084	84.25
326.313	70.25
326.542	96.25
326.77	86.25
326.999	84.25
327.228	77.25
327.457	89.25
327.686	76.25
327.914	85.25
328.143	76.25
328.372	78.25
328.6	85.25
328.829	89.25
329.058	79.25
329.287	95.25
329.515	71.25
329.744	82.25
329.972	86.25
330.201	75.25
330.43	82.25
330.658	89.25
330.887	78.25
331.115	68.25
331.344	97.25
331.572	96.25
331.801	94.25
332.03	83.25
332.258	89.25
332.486	94.25
332.715	91.25
332.943	99.25
333.172	82.25
333.4	83.25
333.629	75.25
333.857	80.25
334.085	84.25
334.314	89.25
334.542	76.25
334.771	87.25
334.999	91.25
335.227	68.25
335.455	75.25
335.684	86.25
335.912	66.25
336.14	80.25
336.369	93.25
336.597	83.25
336.825	82.25
337.053	91.25
337.281	87.25
337.51	95.25
337.738	82.25
337.966	82.25
338.194	84.25
338.422	78.25
338.65	93.25
338.878	78.25
339.106	79.25
339.334	88.25
339.562	81.25
339.79	86.25
340.018	89.25
340.246	82.25
340.474	78.25
340.702	85.25
340.93	90.25
341.158	75.25
341.386	83.25
341.614	86.25
341.842	83.25
342.07	74.25
342.298	74.25
342.526	81.25
342.754	75.25
342.981	83.25
343.209	83.25
343.437	100.25
343.665	81.25
343.893	80.25
344.12	86.25
344.348	65.25
344.576	83.25
344.804	100.25
345.031	75.25
345.259	77.25
345.487	88.25
345.714	77.25
345.942	78.25
346.17	77.25
346.397	81.25
346.625	91.25
346.853	77.25
347.08	75.25
347.308	74.25
347.535	76.25
347.763	79.25
347.99	86.25
348.218	84.25
348.445	89.25
348.673	69.25
348.9	81.25
349.128	80.25
349.355	91.25
349.583	86.25
349.81	83.25
350.037	76.25
350.265	79.25
350.492	73.25
350.72	66.25
350.947	83.25
351.174	86.25
351.402	93.25
351.629	74.25
351.856	78.25
352.083	71.25
352.311	81.25
352.538	77.25
352.765	85.25
352.992	82.25
353.22	79.25
353.447	78.25
353.674	63.25
353.901	80.25
354.128	79.25
354.355	83.25
354.583	82.25
354.81	84.25
355.037	85.25
355.264	74.25
355.491	80.25
355.718	77.25
355.945	80.25
356.172	86.25
356.399	79.25
356.626	83.25
356.853	81.25
357.08	89.25
357.307	98.25
357.534	96.25
357.761	83.25
357.988	87.25
358.215	95.25
358.441	83.25
358.668	99.25
358.895	91.25
359.122	88.25
359.349	93.25
359.576	74.25
359.802	92.25
360.029	92.25
360.256	67.25
360.483	84.25
360.709	85.25
360.936	88.25
361.163	86.25
361.39	88.25
361.616	98.25
361.843	87.25
362.07	88.25
362.296	89.25
362.523	76.25
362.749	82.25
362.976	77.25
363.203	97.25
363.429	85.25
363.656	92.25
363.882	89.25
364.109	87.25
364.335	86.25
364.562	86.25
364.788	102.25
365.015	92.25
365.241	76.25
365.468	91.25
365.694	94.25
365.92	77.25
366.147	73.25
366.373	90.25
366.599	88.25
366.826	87.25
367.052	89.25
367.278	79.25
367.505	82.25
367.731	93.25
367.957	81.25
368.184	87.25
368.41	72.25
368.636	75.25
368.862	92.25
369.089	89.25
369.315	85.25
369.541	82.25
369.767	75.25
369.993	94.25
370.219	91.25
370.445	87.25
370.672	66.25
370.898	86.25
371.124	79.25
371.35	85.25
371.576	90.25
371.802	88.25
372.028	86.25
372.254	86.25
372.48	84.25
372.706	72.25
372.932	83.25
373.158	82.25
373.384	69.25
373.61	80.25
373.835	83.25
374.061	87.25
374.287	71.25
374.513	97.25
374.739	74.25
374.965	67.25
375.191	107.25
375.416	89.25
375.642	81.25
375.868	80.25
376.094	94.25
376.319	90.25
376.545	84.25
376.771	91.25
376.997	81.25
377.222	89.25
377.448	95.25
377.674	87.25
377.899	69.25
378.125	84.25
378.35	99.25
378.576	83.25
378.802	84.25
379.027	83.25
379.253	84.25
379.478	75.25
379.704	80.25
379.929	87.25
380.155	79.25
380.38	82.25
380.606	86.25
380.831	81.25
381.057	82.25
381.282	85.25
381.507	73.25
381.733	86.25
381.958	86.25
382.184	79.25
382.409	81.25
382.634	82.25
382.86	77.25
383.085	89.25
383.31	82.25
383.535	98.25
383.761	83.25
383.986	62.25
384.211	71.25
384.436	94.25
384.662	82.25
384.887	73.25
385.112	99.25
385.337	90.25
385.562	74.25
385.787	92.25
386.013	88.25
386.238	94.25
386.463	72.25
386.688	80.25
386.913	73.25
387.138	73.25
387.363	75.25
387.588	70.25
387.813	80.25
388.038	83.25
388.263	81.25
388.488	84.25
388.713	71.25
388.938	87.25
389.163	91.25
389.387	92.25
389.612	81.25
389.837	85.25
390.062	80.25
390.287	74.25
390.512	99.25
390.736	81.25
390.961	71.25
391.186	81.25
391.411	81.25
391.636	81.25
391.86	71.25
392.085	75.25
392.31	75.25
392.534	77.25
392.759	81.25
392.984	74.25
393.208	84.25
393.433	91.25
393.658	80.25
393.882	68.25
394.107	68.25
394.331	82.25
394.556	86.25
394.78	65.25
395.005	75.25
395.229	85.25
395.454	72.25
395.678	83.25
395.903	90.25
396.127	83.25
396.352	73.25
396.576	81.25
396.801	66.25
397.025	87.25
397.249	89.25
397.474	93.25
397.698	98.25
397.922	77.25
398.147	79.25
398.371	76.25
398.595	72.25
398.82	82.25
399.044	86.25
399.268	87.25
399.492	77.25
399.717	84.25
399.941	85.25
400.165	101.25
400.389	89.25
400.613	85.25
400.837	91.25
401.062	87.25
401.286	82.25
401.51	83.25
401.734	78.25
401.958	74.25
402.182	67.25
402.406	86.25
402.63	83.25
402.854	78.25
403.078	70.25
403.302	84.25
403.526	81.25
403.75	89.25
403.974	85.25
404.198	78.25
404.422	71.25
404.645	84.25
404.869	90.25
405.093	70.25
405.317	72.25
405.541	82.25
405.765	88.25
405.988	70.25
406.212	65.25
406.436	71.25
406.66	83.25
406.883	85.25
407.107	84.25
407.331	88.25
407.555	86.25
407.778	92.25
408.002	97.25
408.226	79.25
408.449	81.25
408.673	82.25
408.896	87.25
409.12	80.25
409.344	78.25
409.567	84.25
409.791	99.25
410.014	89.25
410.238	72.25
410.461	82.25
410.685	69.25
410.908	73.25
411.132	89.25
411.355	89.25
411.578	79.25
411.802	68.25
412.025	75.25
412.249	102.25
412.472	84.25
412.695	71.25
412.919	90.25
413.142	83.25
413.365	89.25
413.589	86.25
413.812	89.25
414.035	95.25
414.258	75.25
414.482	82.25
414.705	76.25
414.928	91.25
415.151	78.25
415.374	75.25
415.597	88.25
415.821	62.25
416.044	79.25
416.267	78.25
416.49	82.25
416.713	99.25
416.936	79.25
417.159	81.25
417.382	71.25
417.605	64.25
417.828	74.25
418.051	81.25
418.274	91.25
418.497	77.25
418.72	86.25
418.943	69.25
419.166	75.25
419.389	72.25
419.611	84.25
419.834	75.25
420.057	81.25
420.28	85.25
420.503	83.25
420.726	91.25
420.948	81.25
421.171	86.25
421.394	69.25
421.617	71.25
421.839	77.25
422.062	94.25
422.285	88.25
422.507	86.25
422.73	95.25
422.953	70.25
423.175	77.25
423.398	81.25
423.621	81.25
423.843	70.25
424.066	79.25
424.288	78.25
424.511	73.25
424.733	78.25
424.956	98.25
425.178	95.25
425.401	69.25
425.623	75.25
425.846	82.25
426.068	94.25
426.291	79.25
426.513	79.25
426.735	94.25
426.958	79.25
427.18	93.25
427.402	82.25
427.625	83.25
427.847	78.25
428.069	78.25
428.292	72.25
428.514	77.25
428.736	86.25
428.958	92.25
429.181	69.25
429.403	81.25
429.625	69.25
429.847	89.25
430.069	90.25
430.292	99.25
430.514	88.25
430.736	83.25
430.958	81.25
431.18	75.25
431.402	84.25
431.624	83.25
431.846	70.25
432.068	94.25
432.29	88.25
432.512	78.25
432.734	71.25
432.956	82.25
433.178	87.25
433.4	87.25
433.622	86.25
433.844	78.25
434.066	76.25
434.287	63.25
434.509	79.25
434.731	88.25
434.953	75.25
435.175	84.25
435.397	85.25
435.618	85.25
435.84	93.25
436.062	81.25
436.284	86.25
436.505	69.25
436.727	85.25
436.949	75.25
437.17	78.25
437.392	66.25
437.614	84.25
437.835	78.25
438.057	92.25
438.278	83.25
438.5	69.25
438.721	69.25
438.943	85.25
439.165	97.25
439.386	82.25
439.608	83.25
439.829	86.25
440.05	77.25
440.272	80.25
440.493	97.25
440.715	89.25
440.936	87.25
441.158	62.25
441.379	73.25
441.6	70.25
441.822	79.25
442.043	83.25
442.264	72.25
442.486	65.25
442.707	69.25
442.928	76.25
443.149	77.25
443.371	84.25
443.592	79.25
443.813	81.25
444.034	94.25
444.255	84.25
444.476	75.25
444.698	77.25
444.919	79.25
445.14	134.25
445.361	91.25
445.582	80.25
445.803	81.25
446.024	84.25
446.245	82.25
446.466	75.25
446.687	83.25
446.908	81.25
447.129	96.25
447.35	87.25
447.571	72.25
447.792	81.25
448.013	90.25
448.234	79.25
448.455	79.25
448.675	69.25
448.896	92.25
449.117	68.25
449.338	81.25
449.559	82.25
449.779	88.25
450	99.25
450.221	74.25
450.442	81.25
450.662	85.25
450.883	88.25
451.104	88.25
451.324	89.25
451.545	89.25
451.766	73.25
451.986	77.25
452.207	81.25
452.428	66.25
452.648	88.25
452.869	78.25
453.089	100.25
453.31	85.25
453.53	76.25
453.751	70.25
453.971	90.25
454.192	78.25
454.412	70.25
454.633	86.25
454.853	76.25
455.073	86.25
455.294	72.25
455.514	90.25
455.734	85.25
455.955	80.25
456.175	76.25
456.395	75.25
456.616	66.25
456.836	77.25
457.056	88.25
457.276	77.25
457.497	71.25
457.717	82.25
457.937	83.25
458.157	84.25
458.377	95.25
458.598	73.25
458.818	78.25
459.038	76.25
459.258	71.25
459.478	80.25
459.698	83.25
459.918	81.25
460.138	86.25
460.358	77.25
460.578	89.25
460.798	68.25
461.018	82.25
461.238	87.25
461.458	80.25
461.678	82.25
461.898	85.25
462.118	80.25
462.338	78.25
462.558	86.25
462.777	75.25
462.997	77.25
463.217	78.25
463.437	83.25
463.657	80.25
463.876	81.25
464.096	87.25
464.316	73.25
464.536	65.25
464.755	84.25
464.975	83.25
465.195	77.25
465.414	86.25
465.634	91.25
465.854	89.25
466.073	83.25
466.293	77.25
466.512	70.25
466.732	85.25
466.951	87.25
467.171	86.25
467.391	74.25
467.61	87.25
467.829	84.25
468.049	91.25
468.268	84.25
468.488	68.25
468.707	69.25
468.927	71.25
469.146	85.25
469.365	77.25
469.585	90.25
469.804	79.25
470.023	74.25
470.243	83.25
470.462	83.25
470.681	66.25
470.901	74.25
471.12	82.25
471.339	75.25
471.558	93.25
471.777	70.25
471.997	83.25
472.216	78.25
472.435	81.25
472.654	77.25
472.873	84.25
473.092	77.25
473.311	80.25
473.53	71.25
473.749	68.25
473.968	75.25
474.187	75.25
474.406	85.25
474.625	84.25
474.844	93.25
475.063	105.25
475.282	84.25
475.501	92.25
475.72	77.25
475.939	76.25
476.158	71.25
476.377	96.25
476.596	77.25
476.814	88.25
477.033	81.25
477.252	81.25
477.471	84.25
477.69	86.25
477.908	84.25
478.127	94.25
478.346	80.25
478.564	75.25
478.783	76.25
479.002	92.25
479.22	81.25
479.439	79.25
479.658	78.25
479.876	95.25
480.095	83.25
480.313	80.25
480.532	73.25
480.751	70.25
480.969	80.25
481.188	86.25
481.406	82.25
481.624	81.25
481.843	82.25
482.061	88.25
482.28	90.25
482.498	69.25
482.717	81.25
482.935	78.25
483.153	73.25
483.372	84.25
483.59	81.25
483.808	80.25
484.027	88.25
484.245	78.25
484.463	70.25
484.681	71.25
484.9	66.25
485.118	77.25
485.336	77.25
485.554	77.25
485.772	83.25
485.99	89.25
486.209	70.25
486.427	77.25
486.645	95.25
486.863	83.25
487.081	80.25
487.299	86.25
487.517	84.25
487.735	79.25
487.953	92.25
488.171	79.25
488.389	71.25
488.607	66.25
488.825	93.25
489.043	79.25
489.261	82.25
489.479	89.25
489.696	73.25
489.914	85.25
490.132	81.25
490.35	82.25
490.568	77.25
490.786	86.25
491.003	75.25
491.221	89.25
491.439	83.25
491.657	85.25
491.874	71.25
492.092	67.25
492.31	69.25
492.527	59.25
492.745	86.25
492.963	79.25
493.18	85.25
493.398	80.25
493.615	69.25
493.833	87.25
494.05	82.25
494.268	80.25
494.485	72.25
494.703	81.25
494.92	85.25
495.138	79.25
495.355	85.25
495.573	79.25
495.79	72.25
496.008	79.25
496.225	75.25
496.442	92.25
496.66	79.25
496.877	69.25
497.094	86.25
497.312	86.25
497.529	78.25
497.746	79.25
497.963	86.25
498.181	72.25
498.398	83.25
498.615	81.25
498.832	90.25
499.049	86.25
499.267	76.25
499.484	84.25
499.701	78.25
499.918	85.25
500.135	61.25
500.352	83.25
500.569	80.25
500.786	74.25
501.003	86.25
501.22	87.25
501.437	87.25
501.654	74.25
501.871	89.25
502.088	75.25
502.305	85.25
502.522	90.25
502.739	72.25
502.956	81.25
503.172	92.25
503.389	77.25
503.606	79.25
503.823	84.25
504.04	77.25
504.256	81.25
504.473	75.25
504.69	88.25
504.907	93.25
505.123	94.25
505.34	74.25
505.557	90.25
505.773	81.25
505.99	75.25
506.207	81.25
506.423	93.25
506.64	92.25
506.856	84.25
507.073	80.25
507.289	100.25
507.506	81.25
507.722	84.25
507.939	77.25
508.155	73.25
508.372	79.25
508.588	91.25
508.805	90.25
509.021	78.25
509.238	76.25
509.454	69.25
509.67	83.25
509.887	78.25
510.103	75.25
510.319	82.25
510.536	89.25
510.752	87.25
510.968	78.25
511.184	84.25
511.401	79.25
511.617	89.25
511.833	65.25
512.049	90.25
512.265	70.25
512.481	75.25
512.698	81.25
512.914	89.25
513.13	85.25
513.346	77.25
513.562	78.25
513.778	75.25
513.994	85.25
514.21	92.25
514.426	75.25
514.642	80.25
514.858	82.25
515.074	84.25
515.29	88.25
515.506	98.25
515.721	78.25
515.937	98.25
516.153	82.25
516.369	84.25
516.585	87.25
516.801	85.25
517.016	83.25
517.232	89.25
517.448	81.25
517.664	91.25
517.879	83.25
518.095	80.25
518.311	83.25
518.527	94.25
518.742	86.25
518.958	84.25
519.173	84.25
519.389	83.25
519.605	61.25
519.82	81.25
520.036	85.25
