Data from Dirtnoheat3_HRD10591_00014.txt Node
Date: Fri Dec 27 15:21:27 EST 2024
User: Yrep
Spectrometer: HR+D1059
Trigger mode: 1
Integration Time (sec): 1.000000E-1
Scans to average: 1
Electric dark correction enabled: true
Nonlinearity correction enabled: false
Boxcar width: 0
XAxis mode: Wavelengths
Number of Pixels in Spectrum: 2048
>>>>>Begin Spectral Data<<<<<
223.165	-19.12
223.4	-19.12
223.635	-19.12
223.869	-19.12
224.104	-19.12
224.338	-1.12
224.573	-17.12
224.808	-22.12
225.042	-15.12
225.277	-6.12
225.511	0.88
225.746	-7.12
225.98	21.88
226.215	1.88
226.449	18.88
226.683	26.88
226.918	20.88
227.152	34.88
227.387	46.88
227.621	44.88
227.856	38.88
228.09	37.88
228.324	36.88
228.559	53.88
228.793	48.88
229.027	60.88
229.262	75.88
229.496	56.88
229.73	67.88
229.964	68.88
230.199	75.88
230.433	71.88
230.667	79.88
230.901	64.88
231.136	94.88
231.37	82.88
231.604	70.88
231.838	66.88
232.072	71.88
232.306	84.88
232.541	78.88
232.775	90.88
233.009	81.88
233.243	74.88
233.477	72.88
233.711	90.88
233.945	75.88
234.179	73.88
234.413	82.88
234.647	69.88
234.881	84.88
235.115	76.88
235.349	76.88
235.583	74.88
235.817	70.88
236.051	80.88
236.285	65.88
236.519	76.88
236.753	51.88
236.987	83.88
237.221	79.88
237.455	62.88
237.689	76.88
237.922	65.88
238.156	76.88
238.39	80.88
238.624	82.88
238.858	79.88
239.091	63.88
239.325	76.88
239.559	78.88
239.793	76.88
240.027	88.88
240.26	74.88
240.494	67.88
240.728	58.88
240.961	69.88
241.195	71.88
241.429	76.88
241.662	61.88
241.896	90.88
242.13	74.88
242.363	65.88
242.597	78.88
242.83	89.88
243.064	69.88
243.298	78.88
243.531	76.88
243.765	89.88
243.998	69.88
244.232	82.88
244.465	71.88
244.699	67.88
244.932	79.88
245.166	77.88
245.399	78.88
245.633	86.88
245.866	67.88
246.099	69.88
246.333	74.88
246.566	77.88
246.8	55.88
247.033	86.88
247.266	80.88
247.5	70.88
247.733	67.88
247.966	78.88
248.2	62.88
248.433	65.88
248.666	72.88
248.899	75.88
249.133	62.88
249.366	70.88
249.599	87.88
249.832	77.88
250.066	86.88
250.299	87.88
250.532	93.88
250.765	71.88
250.998	75.88
251.231	75.88
251.465	90.88
251.698	75.88
251.931	82.88
252.164	71.88
252.397	80.88
252.63	71.88
252.863	80.88
253.096	91.88
253.329	76.88
253.562	85.88
253.795	75.88
254.028	73.88
254.261	73.88
254.494	86.88
254.727	80.88
254.96	69.88
255.193	70.88
255.426	74.88
255.659	63.88
255.892	89.88
256.124	84.88
256.357	94.88
256.59	64.88
256.823	66.88
257.056	93.88
257.289	76.88
257.521	78.88
257.754	74.88
257.987	86.88
258.22	81.88
258.452	82.88
258.685	81.88
258.918	92.88
259.151	85.88
259.383	73.88
259.616	75.88
259.849	67.88
260.081	89.88
260.314	85.88
260.547	81.88
260.779	84.88
261.012	78.88
261.244	67.88
261.477	83.88
261.71	80.88
261.942	80.88
262.175	70.88
262.407	82.88
262.64	75.88
262.872	92.88
263.105	82.88
263.337	78.88
263.57	71.88
263.802	87.88
264.035	86.88
264.267	76.88
264.499	82.88
264.732	82.88
264.964	81.88
265.197	81.88
265.429	89.88
265.661	85.88
265.894	82.88
266.126	93.88
266.358	77.88
266.591	89.88
266.823	79.88
267.055	74.88
267.287	83.88
267.52	73.88
267.752	81.88
267.984	80.88
268.216	92.88
268.448	74.88
268.681	84.88
268.913	85.88
269.145	82.88
269.377	86.88
269.609	84.88
269.841	83.88
270.073	76.88
270.306	86.88
270.538	81.88
270.77	74.88
271.002	74.88
271.234	89.88
271.466	68.88
271.698	61.88
271.93	77.88
272.162	85.88
272.394	84.88
272.626	76.88
272.858	70.88
273.09	90.88
273.322	88.88
273.553	76.88
273.785	90.88
274.017	75.88
274.249	81.88
274.481	73.88
274.713	96.88
274.945	67.88
275.176	83.88
275.408	86.88
275.64	79.88
275.872	84.88
276.104	80.88
276.335	85.88
276.567	77.88
276.799	69.88
277.031	67.88
277.262	77.88
277.494	96.88
277.726	82.88
277.957	103.88
278.189	95.88
278.421	80.88
278.652	66.88
278.884	100.88
279.115	87.88
279.347	82.88
279.579	83.88
279.81	76.88
280.042	69.88
280.273	90.88
280.505	79.88
280.736	78.88
280.968	73.88
281.199	79.88
281.431	89.88
281.662	83.88
281.894	78.88
282.125	87.88
282.356	67.88
282.588	86.88
282.819	96.88
283.051	90.88
283.282	82.88
283.513	92.88
283.745	86.88
283.976	86.88
284.207	80.88
284.439	97.88
284.67	94.88
284.901	75.88
285.132	87.88
285.364	87.88
285.595	87.88
285.826	68.88
286.057	77.88
286.288	59.88
286.52	70.88
286.751	91.88
286.982	83.88
287.213	73.88
287.444	75.88
287.675	84.88
287.906	84.88
288.138	83.88
288.369	85.88
288.6	70.88
288.831	83.88
289.062	82.88
289.293	73.88
289.524	82.88
289.755	64.88
289.986	84.88
290.217	85.88
290.448	92.88
290.679	88.88
290.91	88.88
291.141	64.88
291.371	82.88
291.602	86.88
291.833	88.88
292.064	76.88
292.295	87.88
292.526	78.88
292.757	67.88
292.987	83.88
293.218	85.88
293.449	82.88
293.68	85.88
293.91	84.88
294.141	90.88
294.372	96.88
294.603	96.88
294.833	90.88
295.064	89.88
295.295	82.88
295.525	73.88
295.756	75.88
295.987	71.88
296.217	89.88
296.448	88.88
296.679	88.88
296.909	94.88
297.14	83.88
297.37	95.88
297.601	78.88
297.831	75.88
298.062	86.88
298.292	88.88
298.523	87.88
298.753	73.88
298.984	75.88
299.214	91.88
299.445	91.88
299.675	94.88
299.905	90.88
300.136	63.88
300.366	87.88
300.597	71.88
300.827	82.88
301.057	82.88
301.288	81.88
301.518	86.88
301.748	79.88
301.979	95.88
302.209	79.88
302.439	76.88
302.669	71.88
302.9	75.88
303.13	81.88
303.36	86.88
303.59	73.88
303.82	96.88
304.051	78.88
304.281	78.88
304.511	73.88
304.741	90.88
304.971	69.88
305.201	78.88
305.431	83.88
305.661	82.88
305.891	77.88
306.121	76.88
306.352	81.88
306.582	82.88
306.812	81.88
307.042	86.88
307.272	72.88
307.502	86.88
307.731	83.88
307.961	83.88
308.191	78.88
308.421	80.88
308.651	75.88
308.881	84.88
309.111	86.88
309.341	83.88
309.571	76.88
309.8	96.88
310.03	82.88
310.26	90.88
310.49	78.88
310.72	71.88
310.949	83.88
311.179	73.88
311.409	84.88
311.639	86.88
311.868	94.88
312.098	94.88
312.328	65.88
312.557	69.88
312.787	82.88
313.017	76.88
313.246	85.88
313.476	87.88
313.706	78.88
313.935	88.88
314.165	85.88
314.394	88.88
314.624	99.88
314.853	83.88
315.083	86.88
315.312	81.88
315.542	92.88
315.771	75.88
316.001	83.88
316.23	75.88
316.46	77.88
316.689	92.88
316.919	91.88
317.148	92.88
317.377	95.88
317.607	84.88
317.836	79.88
318.065	73.88
318.295	94.88
318.524	80.88
318.753	84.88
318.983	76.88
319.212	80.88
319.441	78.88
319.67	86.88
319.9	87.88
320.129	84.88
320.358	94.88
320.587	79.88
320.816	68.88
321.046	80.88
321.275	84.88
321.504	87.88
321.733	76.88
321.962	95.88
322.191	84.88
322.42	92.88
322.649	86.88
322.878	85.88
323.108	82.88
323.337	73.88
323.566	78.88
323.795	81.88
324.024	72.88
324.253	83.88
324.482	87.88
324.71	82.88
324.939	82.88
325.168	78.88
325.397	76.88
325.626	82.88
325.855	78.88
326.084	84.88
326.313	74.88
326.542	73.88
326.77	95.88
326.999	101.88
327.228	97.88
327.457	96.88
327.686	84.88
327.914	79.88
328.143	89.88
328.372	87.88
328.6	79.88
328.829	62.88
329.058	78.88
329.287	90.88
329.515	85.88
329.744	95.88
329.972	82.88
330.201	68.88
330.43	79.88
330.658	87.88
330.887	85.88
331.115	79.88
331.344	91.88
331.572	87.88
331.801	84.88
332.03	80.88
332.258	78.88
332.486	75.88
332.715	76.88
332.943	82.88
333.172	92.88
333.4	77.88
333.629	72.88
333.857	83.88
334.085	95.88
334.314	84.88
334.542	90.88
334.771	78.88
334.999	84.88
335.227	90.88
335.455	87.88
335.684	92.88
335.912	103.88
336.14	88.88
336.369	81.88
336.597	92.88
336.825	90.88
337.053	65.88
337.281	69.88
337.51	79.88
337.738	82.88
337.966	74.88
338.194	75.88
338.422	85.88
338.65	94.88
338.878	81.88
339.106	73.88
339.334	91.88
339.562	80.88
339.79	79.88
340.018	94.88
340.246	76.88
340.474	92.88
340.702	87.88
340.93	94.88
341.158	73.88
341.386	74.88
341.614	84.88
341.842	80.88
342.07	80.88
342.298	96.88
342.526	74.88
342.754	84.88
342.981	98.88
343.209	74.88
343.437	84.88
343.665	90.88
343.893	76.88
344.12	83.88
344.348	83.88
344.576	79.88
344.804	83.88
345.031	73.88
345.259	82.88
345.487	81.88
345.714	84.88
345.942	90.88
346.17	88.88
346.397	89.88
346.625	90.88
346.853	79.88
347.08	74.88
347.308	84.88
347.535	76.88
347.763	91.88
347.99	87.88
348.218	87.88
348.445	77.88
348.673	78.88
348.9	94.88
349.128	96.88
349.355	79.88
349.583	78.88
349.81	86.88
350.037	79.88
350.265	80.88
350.492	72.88
350.72	76.88
350.947	83.88
351.174	87.88
351.402	95.88
351.629	80.88
351.856	88.88
352.083	81.88
352.311	79.88
352.538	74.88
352.765	73.88
352.992	83.88
353.22	80.88
353.447	84.88
353.674	106.88
353.901	87.88
354.128	76.88
354.355	80.88
354.583	71.88
354.81	86.88
355.037	67.88
355.264	74.88
355.491	85.88
355.718	86.88
355.945	86.88
356.172	87.88
356.399	90.88
356.626	81.88
356.853	88.88
357.08	91.88
357.307	80.88
357.534	89.88
357.761	80.88
357.988	79.88
358.215	77.88
358.441	70.88
358.668	57.88
358.895	76.88
359.122	77.88
359.349	79.88
359.576	68.88
359.802	79.88
360.029	89.88
360.256	86.88
360.483	88.88
360.709	79.88
360.936	90.88
361.163	93.88
361.39	79.88
361.616	98.88
361.843	85.88
362.07	82.88
362.296	81.88
362.523	82.88
362.749	79.88
362.976	76.88
363.203	94.88
363.429	83.88
363.656	68.88
363.882	78.88
364.109	89.88
364.335	87.88
364.562	86.88
364.788	87.88
365.015	93.88
365.241	83.88
365.468	88.88
365.694	89.88
365.92	84.88
366.147	73.88
366.373	88.88
366.599	69.88
366.826	82.88
367.052	82.88
367.278	81.88
367.505	82.88
367.731	74.88
367.957	77.88
368.184	83.88
368.41	77.88
368.636	77.88
368.862	76.88
369.089	88.88
369.315	76.88
369.541	92.88
369.767	82.88
369.993	68.88
370.219	78.88
370.445	73.88
370.672	86.88
370.898	91.88
371.124	96.88
371.35	85.88
371.576	81.88
371.802	72.88
372.028	84.88
372.254	89.88
372.48	71.88
372.706	92.88
372.932	73.88
373.158	82.88
373.384	87.88
373.61	77.88
373.835	81.88
374.061	85.88
374.287	82.88
374.513	68.88
374.739	86.88
374.965	76.88
375.191	88.88
375.416	84.88
375.642	76.88
375.868	93.88
376.094	79.88
376.319	74.88
376.545	87.88
376.771	81.88
376.997	75.88
377.222	76.88
377.448	82.88
377.674	78.88
377.899	80.88
378.125	76.88
378.35	82.88
378.576	79.88
378.802	83.88
379.027	75.88
379.253	92.88
379.478	85.88
379.704	80.88
379.929	82.88
380.155	79.88
380.38	86.88
380.606	81.88
380.831	77.88
381.057	80.88
381.282	97.88
381.507	93.88
381.733	74.88
381.958	91.88
382.184	94.88
382.409	80.88
382.634	74.88
382.86	74.88
383.085	82.88
383.31	74.88
383.535	78.88
383.761	97.88
383.986	86.88
384.211	74.88
384.436	85.88
384.662	77.88
384.887	74.88
385.112	77.88
385.337	80.88
385.562	81.88
385.787	81.88
386.013	86.88
386.238	66.88
386.463	72.88
386.688	92.88
386.913	80.88
387.138	64.88
387.363	85.88
387.588	88.88
387.813	79.88
388.038	96.88
388.263	88.88
388.488	83.88
388.713	84.88
388.938	81.88
389.163	63.88
389.387	89.88
389.612	89.88
389.837	76.88
390.062	90.88
390.287	75.88
390.512	83.88
390.736	82.88
390.961	82.88
391.186	81.88
391.411	65.88
391.636	90.88
391.86	83.88
392.085	99.88
392.31	84.88
392.534	78.88
392.759	92.88
392.984	80.88
393.208	92.88
393.433	105.88
393.658	90.88
393.882	94.88
394.107	87.88
394.331	73.88
394.556	90.88
394.78	87.88
395.005	75.88
395.229	87.88
395.454	76.88
395.678	87.88
395.903	81.88
396.127	78.88
396.352	95.88
396.576	88.88
396.801	91.88
397.025	87.88
397.249	78.88
397.474	88.88
397.698	84.88
397.922	64.88
398.147	79.88
398.371	80.88
398.595	89.88
398.82	104.88
399.044	82.88
399.268	70.88
399.492	68.88
399.717	83.88
399.941	76.88
400.165	90.88
400.389	77.88
400.613	94.88
400.837	91.88
401.062	88.88
401.286	97.88
401.51	83.88
401.734	83.88
401.958	67.88
402.182	69.88
402.406	78.88
402.63	81.88
402.854	71.88
403.078	89.88
403.302	80.88
403.526	96.88
403.75	78.88
403.974	82.88
404.198	81.88
404.422	84.88
404.645	81.88
404.869	83.88
405.093	85.88
405.317	87.88
405.541	75.88
405.765	64.88
405.988	84.88
406.212	87.88
406.436	80.88
406.66	75.88
406.883	86.88
407.107	77.88
407.331	72.88
407.555	86.88
407.778	86.88
408.002	91.88
408.226	83.88
408.449	86.88
408.673	84.88
408.896	66.88
409.12	77.88
409.344	102.88
409.567	94.88
409.791	75.88
410.014	84.88
410.238	81.88
410.461	79.88
410.685	92.88
410.908	100.88
411.132	81.88
411.355	79.88
411.578	80.88
411.802	90.88
412.025	77.88
412.249	80.88
412.472	88.88
412.695	83.88
412.919	68.88
413.142	77.88
413.365	97.88
413.589	84.88
413.812	67.88
414.035	91.88
414.258	92.88
414.482	85.88
414.705	89.88
414.928	88.88
415.151	80.88
415.374	81.88
415.597	81.88
415.821	88.88
416.044	76.88
416.267	79.88
416.49	100.88
416.713	91.88
416.936	80.88
417.159	79.88
417.382	80.88
417.605	75.88
417.828	88.88
418.051	95.88
418.274	67.88
418.497	66.88
418.72	80.88
418.943	83.88
419.166	62.88
419.389	74.88
419.611	70.88
419.834	75.88
420.057	90.88
420.28	71.88
420.503	82.88
420.726	78.88
420.948	86.88
421.171	86.88
421.394	80.88
421.617	88.88
421.839	68.88
422.062	87.88
422.285	75.88
422.507	90.88
422.73	89.88
422.953	92.88
423.175	73.88
423.398	68.88
423.621	83.88
423.843	81.88
424.066	75.88
424.288	85.88
424.511	81.88
424.733	89.88
424.956	95.88
425.178	63.88
425.401	75.88
425.623	81.88
425.846	73.88
426.068	80.88
426.291	82.88
426.513	93.88
426.735	93.88
426.958	84.88
427.18	81.88
427.402	76.88
427.625	82.88
427.847	67.88
428.069	88.88
428.292	74.88
428.514	80.88
428.736	79.88
428.958	79.88
429.181	78.88
429.403	80.88
429.625	85.88
429.847	83.88
430.069	89.88
430.292	85.88
430.514	71.88
430.736	73.88
430.958	90.88
431.18	76.88
431.402	73.88
431.624	88.88
431.846	84.88
432.068	85.88
432.29	73.88
432.512	77.88
432.734	72.88
432.956	89.88
433.178	74.88
433.4	88.88
433.622	76.88
433.844	73.88
434.066	83.88
434.287	83.88
434.509	84.88
434.731	94.88
434.953	82.88
435.175	79.88
435.397	95.88
435.618	98.88
435.84	83.88
436.062	84.88
436.284	79.88
436.505	70.88
436.727	65.88
436.949	84.88
437.17	74.88
437.392	80.88
437.614	92.88
437.835	79.88
438.057	83.88
438.278	75.88
438.5	85.88
438.721	82.88
438.943	80.88
439.165	80.88
439.386	82.88
439.608	103.88
439.829	90.88
440.05	72.88
440.272	64.88
440.493	74.88
440.715	81.88
440.936	102.88
441.158	79.88
441.379	92.88
441.6	73.88
441.822	93.88
442.043	67.88
442.264	69.88
442.486	79.88
442.707	88.88
442.928	89.88
443.149	78.88
443.371	94.88
443.592	87.88
443.813	72.88
444.034	83.88
444.255	77.88
444.476	79.88
444.698	76.88
444.919	77.88
445.14	133.88
445.361	117.88
445.582	97.88
445.803	88.88
446.024	77.88
446.245	96.88
446.466	89.88
446.687	72.88
446.908	73.88
447.129	83.88
447.35	90.88
447.571	78.88
447.792	96.88
448.013	89.88
448.234	80.88
448.455	76.88
448.675	85.88
448.896	77.88
449.117	90.88
449.338	80.88
449.559	87.88
449.779	83.88
450	73.88
450.221	79.88
450.442	74.88
450.662	88.88
450.883	78.88
451.104	77.88
451.324	87.88
451.545	90.88
451.766	77.88
451.986	73.88
452.207	101.88
452.428	85.88
452.648	75.88
452.869	93.88
453.089	72.88
453.31	87.88
453.53	76.88
453.751	81.88
453.971	77.88
454.192	80.88
454.412	76.88
454.633	72.88
454.853	91.88
455.073	74.88
455.294	78.88
455.514	75.88
455.734	95.88
455.955	71.88
456.175	70.88
456.395	77.88
456.616	73.88
456.836	94.88
457.056	82.88
457.276	76.88
457.497	82.88
457.717	78.88
457.937	73.88
458.157	95.88
458.377	99.88
458.598	83.88
458.818	74.88
459.038	76.88
459.258	69.88
459.478	68.88
459.698	72.88
459.918	76.88
460.138	81.88
460.358	74.88
460.578	97.88
460.798	79.88
461.018	98.88
461.238	79.88
461.458	68.88
461.678	80.88
461.898	75.88
462.118	77.88
462.338	84.88
462.558	74.88
462.777	68.88
462.997	74.88
463.217	87.88
463.437	64.88
463.657	58.88
463.876	68.88
464.096	80.88
464.316	80.88
464.536	76.88
464.755	78.88
464.975	93.88
465.195	78.88
465.414	86.88
465.634	71.88
465.854	73.88
466.073	80.88
466.293	90.88
466.512	80.88
466.732	77.88
466.951	68.88
467.171	83.88
467.391	75.88
467.61	72.88
467.829	76.88
468.049	92.88
468.268	73.88
468.488	80.88
468.707	85.88
468.927	89.88
469.146	78.88
469.365	86.88
469.585	87.88
469.804	81.88
470.023	82.88
470.243	82.88
470.462	100.88
470.681	90.88
470.901	88.88
471.12	82.88
471.339	95.88
471.558	74.88
471.777	85.88
471.997	98.88
472.216	84.88
472.435	79.88
472.654	82.88
472.873	72.88
473.092	74.88
473.311	85.88
473.53	74.88
473.749	92.88
473.968	90.88
474.187	82.88
474.406	78.88
474.625	79.88
474.844	89.88
475.063	88.88
475.282	86.88
475.501	93.88
475.72	78.88
475.939	77.88
476.158	88.88
476.377	78.88
476.596	75.88
476.814	81.88
477.033	83.88
477.252	83.88
477.471	83.88
477.69	92.88
477.908	84.88
478.127	89.88
478.346	77.88
478.564	93.88
478.783	80.88
479.002	78.88
479.22	90.88
479.439	72.88
479.658	78.88
479.876	92.88
480.095	79.88
480.313	81.88
480.532	83.88
480.751	97.88
480.969	89.88
481.188	85.88
481.406	90.88
481.624	84.88
481.843	70.88
482.061	83.88
482.28	84.88
482.498	79.88
482.717	84.88
482.935	82.88
483.153	100.88
483.372	79.88
483.59	87.88
483.808	93.88
484.027	104.88
484.245	90.88
484.463	83.88
484.681	88.88
484.9	92.88
485.118	88.88
485.336	78.88
485.554	90.88
485.772	74.88
485.99	88.88
486.209	75.88
486.427	84.88
486.645	98.88
486.863	80.88
487.081	78.88
487.299	81.88
487.517	93.88
487.735	78.88
487.953	90.88
488.171	85.88
488.389	82.88
488.607	84.88
488.825	79.88
489.043	69.88
489.261	88.88
489.479	81.88
489.696	75.88
489.914	87.88
490.132	92.88
490.35	79.88
490.568	92.88
490.786	88.88
491.003	81.88
491.221	80.88
491.439	81.88
491.657	86.88
491.874	90.88
492.092	93.88
492.31	97.88
492.527	72.88
492.745	88.88
492.963	85.88
493.18	90.88
493.398	68.88
493.615	73.88
493.833	88.88
494.05	91.88
494.268	74.88
494.485	79.88
494.703	72.88
494.92	68.88
495.138	84.88
495.355	81.88
495.573	90.88
495.79	78.88
496.008	82.88
496.225	82.88
496.442	75.88
496.66	89.88
496.877	87.88
497.094	92.88
497.312	85.88
497.529	71.88
497.746	73.88
497.963	74.88
498.181	91.88
498.398	91.88
498.615	83.88
498.832	84.88
499.049	67.88
499.267	82.88
499.484	80.88
499.701	87.88
499.918	98.88
500.135	82.88
500.352	80.88
500.569	77.88
500.786	87.88
501.003	78.88
501.22	85.88
501.437	79.88
501.654	89.88
501.871	84.88
502.088	72.88
502.305	78.88
502.522	70.88
502.739	91.88
502.956	87.88
503.172	91.88
503.389	81.88
503.606	77.88
503.823	85.88
504.04	101.88
504.256	88.88
504.473	85.88
504.69	80.88
504.907	82.88
505.123	85.88
505.34	73.88
505.557	77.88
505.773	101.88
505.99	63.88
506.207	80.88
506.423	84.88
506.64	100.88
506.856	87.88
507.073	85.88
507.289	65.88
507.506	73.88
507.722	66.88
507.939	91.88
508.155	73.88
508.372	72.88
508.588	67.88
508.805	84.88
509.021	80.88
509.238	80.88
509.454	82.88
509.67	83.88
509.887	79.88
510.103	83.88
510.319	90.88
510.536	86.88
510.752	102.88
510.968	78.88
511.184	79.88
511.401	82.88
511.617	79.88
511.833	88.88
512.049	87.88
512.265	75.88
512.481	83.88
512.698	76.88
512.914	83.88
513.13	87.88
513.346	84.88
513.562	86.88
513.778	85.88
513.994	90.88
514.21	91.88
514.426	74.88
514.642	78.88
514.858	87.88
515.074	89.88
515.29	82.88
515.506	89.88
515.721	92.88
515.937	74.88
516.153	81.88
516.369	91.88
516.585	82.88
516.801	86.88
517.016	87.88
517.232	82.88
517.448	83.88
517.664	87.88
517.879	82.88
518.095	72.88
518.311	86.88
518.527	78.88
518.742	89.88
518.958	96.88
519.173	92.88
519.389	79.88
519.605	76.88
519.82	97.88
520.036	69.88
