Data from Dirtnoheat3_HRD10591_00001.txt Node
Date: Fri Dec 27 15:21:14 EST 2024
User: Yrep
Spectrometer: HR+D1059
Trigger mode: 1
Integration Time (sec): 1.000000E-1
Scans to average: 1
Electric dark correction enabled: true
Nonlinearity correction enabled: false
Boxcar width: 0
XAxis mode: Wavelengths
Number of Pixels in Spectrum: 2048
>>>>>Begin Spectral Data<<<<<
223.165	-22.25
223.4	-22.25
223.635	-22.25
223.869	-26.25
224.104	-30.25
224.338	-8.25
224.573	-19.25
224.808	-14.25
225.042	1.75
225.277	-0.25
225.511	-1.25
225.746	5.75
225.98	17.75
226.215	12.75
226.449	15.75
226.683	13.75
226.918	31.75
227.152	22.75
227.387	32.75
227.621	27.75
227.856	48.75
228.09	41.75
228.324	53.75
228.559	54.75
228.793	64.75
229.027	72.75
229.262	72.75
229.496	71.75
229.73	57.75
229.964	63.75
230.199	72.75
230.433	67.75
230.667	80.75
230.901	86.75
231.136	67.75
231.37	67.75
231.604	89.75
231.838	76.75
232.072	96.75
232.306	72.75
232.541	79.75
232.775	87.75
233.009	84.75
233.243	75.75
233.477	79.75
233.711	90.75
233.945	81.75
234.179	84.75
234.413	89.75
234.647	75.75
234.881	76.75
235.115	72.75
235.349	73.75
235.583	88.75
235.817	73.75
236.051	61.75
236.285	81.75
236.519	83.75
236.753	76.75
236.987	89.75
237.221	66.75
237.455	74.75
237.689	65.75
237.922	81.75
238.156	65.75
238.39	76.75
238.624	81.75
238.858	77.75
239.091	75.75
239.325	70.75
239.559	69.75
239.793	70.75
240.027	89.75
240.26	73.75
240.494	81.75
240.728	72.75
240.961	71.75
241.195	66.75
241.429	75.75
241.662	85.75
241.896	60.75
242.13	68.75
242.363	66.75
242.597	74.75
242.83	79.75
243.064	75.75
243.298	73.75
243.531	71.75
243.765	89.75
243.998	90.75
244.232	75.75
244.465	77.75
244.699	83.75
244.932	81.75
245.166	73.75
245.399	83.75
245.633	75.75
245.866	82.75
246.099	81.75
246.333	72.75
246.566	85.75
246.8	83.75
247.033	79.75
247.266	81.75
247.5	79.75
247.733	78.75
247.966	74.75
248.2	52.75
248.433	79.75
248.666	79.75
248.899	81.75
249.133	92.75
249.366	80.75
249.599	78.75
249.832	80.75
250.066	85.75
250.299	95.75
250.532	81.75
250.765	71.75
250.998	76.75
251.231	71.75
251.465	72.75
251.698	69.75
251.931	79.75
252.164	68.75
252.397	61.75
252.63	66.75
252.863	71.75
253.096	78.75
253.329	81.75
253.562	65.75
253.795	71.75
254.028	77.75
254.261	74.75
254.494	86.75
254.727	80.75
254.96	77.75
255.193	76.75
255.426	69.75
255.659	94.75
255.892	93.75
256.124	85.75
256.357	63.75
256.59	70.75
256.823	75.75
257.056	76.75
257.289	90.75
257.521	70.75
257.754	83.75
257.987	70.75
258.22	84.75
258.452	82.75
258.685	80.75
258.918	85.75
259.151	62.75
259.383	70.75
259.616	71.75
259.849	89.75
260.081	83.75
260.314	76.75
260.547	85.75
260.779	80.75
261.012	84.75
261.244	70.75
261.477	89.75
261.71	78.75
261.942	73.75
262.175	79.75
262.407	83.75
262.64	77.75
262.872	77.75
263.105	72.75
263.337	86.75
263.57	86.75
263.802	72.75
264.035	84.75
264.267	72.75
264.499	70.75
264.732	84.75
264.964	66.75
265.197	88.75
265.429	92.75
265.661	70.75
265.894	68.75
266.126	73.75
266.358	73.75
266.591	84.75
266.823	95.75
267.055	92.75
267.287	67.75
267.52	74.75
267.752	69.75
267.984	84.75
268.216	83.75
268.448	80.75
268.681	90.75
268.913	81.75
269.145	79.75
269.377	64.75
269.609	83.75
269.841	75.75
270.073	86.75
270.306	79.75
270.538	85.75
270.77	85.75
271.002	84.75
271.234	85.75
271.466	84.75
271.698	75.75
271.93	80.75
272.162	87.75
272.394	86.75
272.626	71.75
272.858	71.75
273.09	83.75
273.322	85.75
273.553	87.75
273.785	89.75
274.017	74.75
274.249	87.75
274.481	83.75
274.713	83.75
274.945	91.75
275.176	95.75
275.408	76.75
275.64	87.75
275.872	78.75
276.104	79.75
276.335	71.75
276.567	80.75
276.799	87.75
277.031	75.75
277.262	74.75
277.494	74.75
277.726	93.75
277.957	77.75
278.189	83.75
278.421	77.75
278.652	75.75
278.884	80.75
279.115	78.75
279.347	71.75
279.579	80.75
279.81	69.75
280.042	80.75
280.273	94.75
280.505	80.75
280.736	72.75
280.968	76.75
281.199	68.75
281.431	77.75
281.662	71.75
281.894	96.75
282.125	86.75
282.356	82.75
282.588	74.75
282.819	84.75
283.051	82.75
283.282	91.75
283.513	88.75
283.745	81.75
283.976	73.75
284.207	84.75
284.439	77.75
284.67	65.75
284.901	83.75
285.132	84.75
285.364	79.75
285.595	77.75
285.826	79.75
286.057	81.75
286.288	81.75
286.52	81.75
286.751	80.75
286.982	83.75
287.213	83.75
287.444	85.75
287.675	90.75
287.906	94.75
288.138	89.75
288.369	75.75
288.6	86.75
288.831	81.75
289.062	94.75
289.293	91.75
289.524	85.75
289.755	92.75
289.986	85.75
290.217	71.75
290.448	81.75
290.679	91.75
290.91	79.75
291.141	66.75
291.371	91.75
291.602	71.75
291.833	79.75
292.064	63.75
292.295	81.75
292.526	81.75
292.757	76.75
292.987	92.75
293.218	92.75
293.449	71.75
293.68	87.75
293.91	83.75
294.141	94.75
294.372	81.75
294.603	83.75
294.833	86.75
295.064	82.75
295.295	79.75
295.525	74.75
295.756	79.75
295.987	80.75
296.217	69.75
296.448	79.75
296.679	75.75
296.909	80.75
297.14	73.75
297.37	86.75
297.601	85.75
297.831	80.75
298.062	90.75
298.292	83.75
298.523	86.75
298.753	87.75
298.984	81.75
299.214	84.75
299.445	89.75
299.675	88.75
299.905	85.75
300.136	82.75
300.366	77.75
300.597	103.75
300.827	86.75
301.057	81.75
301.288	92.75
301.518	80.75
301.748	71.75
301.979	91.75
302.209	99.75
302.439	82.75
302.669	85.75
302.9	98.75
303.13	99.75
303.36	77.75
303.59	63.75
303.82	77.75
304.051	89.75
304.281	85.75
304.511	92.75
304.741	77.75
304.971	74.75
305.201	77.75
305.431	78.75
305.661	95.75
305.891	66.75
306.121	79.75
306.352	80.75
306.582	71.75
306.812	87.75
307.042	72.75
307.272	83.75
307.502	71.75
307.731	73.75
307.961	93.75
308.191	90.75
308.421	79.75
308.651	89.75
308.881	95.75
309.111	72.75
309.341	82.75
309.571	86.75
309.8	75.75
310.03	88.75
310.26	79.75
310.49	85.75
310.72	71.75
310.949	90.75
311.179	77.75
311.409	60.75
311.639	78.75
311.868	92.75
312.098	68.75
312.328	77.75
312.557	89.75
312.787	85.75
313.017	87.75
313.246	89.75
313.476	103.75
313.706	85.75
313.935	97.75
314.165	75.75
314.394	82.75
314.624	88.75
314.853	87.75
315.083	76.75
315.312	81.75
315.542	86.75
315.771	72.75
316.001	97.75
316.23	94.75
316.46	95.75
316.689	76.75
316.919	85.75
317.148	102.75
317.377	79.75
317.607	80.75
317.836	87.75
318.065	73.75
318.295	72.75
318.524	73.75
318.753	79.75
318.983	74.75
319.212	88.75
319.441	86.75
319.67	75.75
319.9	86.75
320.129	89.75
320.358	93.75
320.587	87.75
320.816	88.75
321.046	85.75
321.275	85.75
321.504	71.75
321.733	86.75
321.962	93.75
322.191	86.75
322.42	70.75
322.649	85.75
322.878	72.75
323.108	90.75
323.337	91.75
323.566	88.75
323.795	83.75
324.024	102.75
324.253	85.75
324.482	73.75
324.71	83.75
324.939	73.75
325.168	70.75
325.397	85.75
325.626	81.75
325.855	86.75
326.084	67.75
326.313	79.75
326.542	92.75
326.77	85.75
326.999	86.75
327.228	88.75
327.457	68.75
327.686	80.75
327.914	81.75
328.143	85.75
328.372	89.75
328.6	84.75
328.829	92.75
329.058	79.75
329.287	83.75
329.515	79.75
329.744	91.75
329.972	81.75
330.201	92.75
330.43	89.75
330.658	78.75
330.887	79.75
331.115	96.75
331.344	79.75
331.572	91.75
331.801	77.75
332.03	77.75
332.258	81.75
332.486	83.75
332.715	89.75
332.943	64.75
333.172	70.75
333.4	69.75
333.629	87.75
333.857	86.75
334.085	73.75
334.314	83.75
334.542	72.75
334.771	80.75
334.999	73.75
335.227	87.75
335.455	85.75
335.684	88.75
335.912	76.75
336.14	83.75
336.369	77.75
336.597	80.75
336.825	65.75
337.053	75.75
337.281	75.75
337.51	71.75
337.738	87.75
337.966	73.75
338.194	78.75
338.422	69.75
338.65	91.75
338.878	85.75
339.106	87.75
339.334	88.75
339.562	84.75
339.79	80.75
340.018	84.75
340.246	85.75
340.474	84.75
340.702	75.75
340.93	70.75
341.158	84.75
341.386	85.75
341.614	74.75
341.842	85.75
342.07	89.75
342.298	86.75
342.526	83.75
342.754	80.75
342.981	80.75
343.209	83.75
343.437	103.75
343.665	84.75
343.893	91.75
344.12	96.75
344.348	91.75
344.576	93.75
344.804	89.75
345.031	102.75
345.259	74.75
345.487	78.75
345.714	92.75
345.942	74.75
346.17	78.75
346.397	71.75
346.625	81.75
346.853	84.75
347.08	75.75
347.308	81.75
347.535	79.75
347.763	84.75
347.99	89.75
348.218	70.75
348.445	83.75
348.673	84.75
348.9	84.75
349.128	80.75
349.355	79.75
349.583	87.75
349.81	87.75
350.037	92.75
350.265	71.75
350.492	92.75
350.72	88.75
350.947	101.75
351.174	99.75
351.402	70.75
351.629	73.75
351.856	81.75
352.083	74.75
352.311	74.75
352.538	84.75
352.765	85.75
352.992	82.75
353.22	83.75
353.447	81.75
353.674	86.75
353.901	86.75
354.128	85.75
354.355	77.75
354.583	81.75
354.81	81.75
355.037	95.75
355.264	79.75
355.491	75.75
355.718	83.75
355.945	88.75
356.172	88.75
356.399	81.75
356.626	69.75
356.853	84.75
357.08	84.75
357.307	82.75
357.534	88.75
357.761	67.75
357.988	87.75
358.215	76.75
358.441	80.75
358.668	75.75
358.895	82.75
359.122	95.75
359.349	84.75
359.576	84.75
359.802	86.75
360.029	93.75
360.256	84.75
360.483	72.75
360.709	74.75
360.936	79.75
361.163	85.75
361.39	81.75
361.616	89.75
361.843	82.75
362.07	91.75
362.296	71.75
362.523	75.75
362.749	85.75
362.976	85.75
363.203	85.75
363.429	84.75
363.656	82.75
363.882	84.75
364.109	77.75
364.335	101.75
364.562	81.75
364.788	68.75
365.015	87.75
365.241	95.75
365.468	94.75
365.694	74.75
365.92	81.75
366.147	87.75
366.373	81.75
366.599	74.75
366.826	85.75
367.052	71.75
367.278	82.75
367.505	92.75
367.731	103.75
367.957	87.75
368.184	80.75
368.41	84.75
368.636	77.75
368.862	88.75
369.089	76.75
369.315	83.75
369.541	80.75
369.767	80.75
369.993	88.75
370.219	80.75
370.445	85.75
370.672	79.75
370.898	90.75
371.124	84.75
371.35	76.75
371.576	86.75
371.802	73.75
372.028	73.75
372.254	90.75
372.48	64.75
372.706	74.75
372.932	76.75
373.158	83.75
373.384	76.75
373.61	81.75
373.835	81.75
374.061	93.75
374.287	75.75
374.513	78.75
374.739	78.75
374.965	66.75
375.191	81.75
375.416	73.75
375.642	80.75
375.868	83.75
376.094	79.75
376.319	69.75
376.545	64.75
376.771	71.75
376.997	92.75
377.222	81.75
377.448	88.75
377.674	76.75
377.899	73.75
378.125	84.75
378.35	85.75
378.576	88.75
378.802	76.75
379.027	72.75
379.253	75.75
379.478	84.75
379.704	78.75
379.929	81.75
380.155	87.75
380.38	83.75
380.606	74.75
380.831	81.75
381.057	89.75
381.282	79.75
381.507	79.75
381.733	91.75
381.958	65.75
382.184	92.75
382.409	74.75
382.634	68.75
382.86	81.75
383.085	82.75
383.31	87.75
383.535	82.75
383.761	92.75
383.986	80.75
384.211	82.75
384.436	77.75
384.662	89.75
384.887	76.75
385.112	82.75
385.337	86.75
385.562	68.75
385.787	81.75
386.013	78.75
386.238	83.75
386.463	75.75
386.688	88.75
386.913	83.75
387.138	70.75
387.363	75.75
387.588	82.75
387.813	83.75
388.038	81.75
388.263	92.75
388.488	61.75
388.713	87.75
388.938	71.75
389.163	79.75
389.387	82.75
389.612	68.75
389.837	74.75
390.062	95.75
390.287	81.75
390.512	77.75
390.736	77.75
390.961	79.75
391.186	80.75
391.411	80.75
391.636	82.75
391.86	94.75
392.085	87.75
392.31	77.75
392.534	70.75
392.759	81.75
392.984	89.75
393.208	105.75
393.433	107.75
393.658	93.75
393.882	85.75
394.107	83.75
394.331	81.75
394.556	84.75
394.78	76.75
395.005	61.75
395.229	73.75
395.454	82.75
395.678	70.75
395.903	104.75
396.127	88.75
396.352	82.75
396.576	83.75
396.801	90.75
397.025	96.75
397.249	68.75
397.474	85.75
397.698	72.75
397.922	81.75
398.147	95.75
398.371	76.75
398.595	76.75
398.82	74.75
399.044	88.75
399.268	88.75
399.492	79.75
399.717	80.75
399.941	78.75
400.165	88.75
400.389	81.75
400.613	78.75
400.837	84.75
401.062	78.75
401.286	79.75
401.51	69.75
401.734	81.75
401.958	80.75
402.182	85.75
402.406	81.75
402.63	81.75
402.854	83.75
403.078	77.75
403.302	82.75
403.526	71.75
403.75	66.75
403.974	77.75
404.198	79.75
404.422	91.75
404.645	93.75
404.869	85.75
405.093	75.75
405.317	86.75
405.541	64.75
405.765	81.75
405.988	91.75
406.212	78.75
406.436	85.75
406.66	84.75
406.883	79.75
407.107	81.75
407.331	81.75
407.555	88.75
407.778	71.75
408.002	71.75
408.226	91.75
408.449	75.75
408.673	83.75
408.896	79.75
409.12	76.75
409.344	80.75
409.567	74.75
409.791	73.75
410.014	82.75
410.238	64.75
410.461	81.75
410.685	67.75
410.908	78.75
411.132	101.75
411.355	74.75
411.578	78.75
411.802	77.75
412.025	84.75
412.249	67.75
412.472	75.75
412.695	70.75
412.919	86.75
413.142	89.75
413.365	76.75
413.589	76.75
413.812	74.75
414.035	78.75
414.258	73.75
414.482	83.75
414.705	82.75
414.928	66.75
415.151	71.75
415.374	73.75
415.597	84.75
415.821	79.75
416.044	85.75
416.267	84.75
416.49	81.75
416.713	79.75
416.936	85.75
417.159	83.75
417.382	80.75
417.605	87.75
417.828	90.75
418.051	80.75
418.274	88.75
418.497	67.75
418.72	68.75
418.943	70.75
419.166	88.75
419.389	66.75
419.611	89.75
419.834	81.75
420.057	91.75
420.28	78.75
420.503	68.75
420.726	76.75
420.948	78.75
421.171	77.75
421.394	78.75
421.617	90.75
421.839	85.75
422.062	89.75
422.285	97.75
422.507	84.75
422.73	92.75
422.953	98.75
423.175	89.75
423.398	89.75
423.621	100.75
423.843	79.75
424.066	83.75
424.288	76.75
424.511	81.75
424.733	71.75
424.956	67.75
425.178	73.75
425.401	66.75
425.623	85.75
425.846	93.75
426.068	80.75
426.291	86.75
426.513	88.75
426.735	77.75
426.958	81.75
427.18	80.75
427.402	90.75
427.625	75.75
427.847	88.75
428.069	93.75
428.292	80.75
428.514	78.75
428.736	78.75
428.958	80.75
429.181	80.75
429.403	84.75
429.625	72.75
429.847	90.75
430.069	77.75
430.292	75.75
430.514	91.75
430.736	76.75
430.958	87.75
431.18	83.75
431.402	72.75
431.624	84.75
431.846	78.75
432.068	90.75
432.29	75.75
432.512	77.75
432.734	65.75
432.956	76.75
433.178	75.75
433.4	71.75
433.622	74.75
433.844	79.75
434.066	89.75
434.287	93.75
434.509	87.75
434.731	75.75
434.953	77.75
435.175	73.75
435.397	56.75
435.618	77.75
435.84	72.75
436.062	72.75
436.284	84.75
436.505	75.75
436.727	86.75
436.949	88.75
437.17	85.75
437.392	73.75
437.614	101.75
437.835	58.75
438.057	75.75
438.278	81.75
438.5	92.75
438.721	91.75
438.943	82.75
439.165	90.75
439.386	81.75
439.608	67.75
439.829	68.75
440.05	75.75
440.272	89.75
440.493	98.75
440.715	91.75
440.936	87.75
441.158	81.75
441.379	92.75
441.6	63.75
441.822	77.75
442.043	85.75
442.264	71.75
442.486	101.75
442.707	83.75
442.928	77.75
443.149	80.75
443.371	92.75
443.592	99.75
443.813	100.75
444.034	81.75
444.255	77.75
444.476	82.75
444.698	79.75
444.919	77.75
445.14	160.75
445.361	122.75
445.582	97.75
445.803	102.75
446.024	90.75
446.245	86.75
446.466	71.75
446.687	79.75
446.908	71.75
447.129	80.75
447.35	90.75
447.571	83.75
447.792	72.75
448.013	78.75
448.234	85.75
448.455	72.75
448.675	66.75
448.896	67.75
449.117	79.75
449.338	77.75
449.559	81.75
449.779	76.75
450	76.75
450.221	87.75
450.442	89.75
450.662	80.75
450.883	83.75
451.104	86.75
451.324	83.75
451.545	91.75
451.766	66.75
451.986	59.75
452.207	55.75
452.428	69.75
452.648	99.75
452.869	97.75
453.089	83.75
453.31	75.75
453.53	73.75
453.751	74.75
453.971	77.75
454.192	80.75
454.412	79.75
454.633	69.75
454.853	88.75
455.073	83.75
455.294	81.75
455.514	87.75
455.734	90.75
455.955	78.75
456.175	67.75
456.395	78.75
456.616	95.75
456.836	81.75
457.056	74.75
457.276	95.75
457.497	81.75
457.717	74.75
457.937	83.75
458.157	77.75
458.377	85.75
458.598	78.75
458.818	86.75
459.038	88.75
459.258	75.75
459.478	84.75
459.698	79.75
459.918	83.75
460.138	95.75
460.358	92.75
460.578	84.75
460.798	81.75
461.018	86.75
461.238	75.75
461.458	79.75
461.678	73.75
461.898	86.75
462.118	82.75
462.338	77.75
462.558	89.75
462.777	70.75
462.997	71.75
463.217	87.75
463.437	80.75
463.657	92.75
463.876	81.75
464.096	95.75
464.316	91.75
464.536	79.75
464.755	85.75
464.975	61.75
465.195	83.75
465.414	77.75
465.634	76.75
465.854	78.75
466.073	74.75
466.293	69.75
466.512	84.75
466.732	87.75
466.951	71.75
467.171	79.75
467.391	81.75
467.61	82.75
467.829	81.75
468.049	78.75
468.268	64.75
468.488	72.75
468.707	86.75
468.927	103.75
469.146	79.75
469.365	83.75
469.585	76.75
469.804	91.75
470.023	92.75
470.243	65.75
470.462	66.75
470.681	80.75
470.901	69.75
471.12	79.75
471.339	80.75
471.558	65.75
471.777	85.75
471.997	90.75
472.216	89.75
472.435	78.75
472.654	81.75
472.873	88.75
473.092	77.75
473.311	85.75
473.53	75.75
473.749	79.75
473.968	86.75
474.187	78.75
474.406	77.75
474.625	76.75
474.844	83.75
475.063	90.75
475.282	74.75
475.501	79.75
475.72	90.75
475.939	85.75
476.158	73.75
476.377	89.75
476.596	77.75
476.814	63.75
477.033	87.75
477.252	69.75
477.471	82.75
477.69	75.75
477.908	85.75
478.127	87.75
478.346	83.75
478.564	81.75
478.783	76.75
479.002	75.75
479.22	73.75
479.439	83.75
479.658	83.75
479.876	73.75
480.095	77.75
480.313	74.75
480.532	80.75
480.751	87.75
480.969	88.75
481.188	86.75
481.406	73.75
481.624	75.75
481.843	78.75
482.061	86.75
482.28	69.75
482.498	69.75
482.717	84.75
482.935	61.75
483.153	87.75
483.372	91.75
483.59	95.75
483.808	92.75
484.027	83.75
484.245	89.75
484.463	67.75
484.681	81.75
484.9	84.75
485.118	83.75
485.336	80.75
485.554	74.75
485.772	85.75
485.99	88.75
486.209	76.75
486.427	82.75
486.645	84.75
486.863	88.75
487.081	85.75
487.299	97.75
487.517	81.75
487.735	78.75
487.953	92.75
488.171	78.75
488.389	77.75
488.607	84.75
488.825	75.75
489.043	81.75
489.261	89.75
489.479	80.75
489.696	83.75
489.914	85.75
490.132	87.75
490.35	75.75
490.568	84.75
490.786	91.75
491.003	90.75
491.221	99.75
491.439	90.75
491.657	67.75
491.874	79.75
492.092	76.75
492.31	80.75
492.527	93.75
492.745	80.75
492.963	77.75
493.18	97.75
493.398	86.75
493.615	94.75
493.833	76.75
494.05	85.75
494.268	75.75
494.485	77.75
494.703	76.75
494.92	76.75
495.138	87.75
495.355	84.75
495.573	81.75
495.79	84.75
496.008	94.75
496.225	71.75
496.442	82.75
496.66	89.75
496.877	74.75
497.094	91.75
497.312	80.75
497.529	83.75
497.746	90.75
497.963	71.75
498.181	93.75
498.398	77.75
498.615	73.75
498.832	62.75
499.049	73.75
499.267	77.75
499.484	83.75
499.701	69.75
499.918	76.75
500.135	78.75
500.352	91.75
500.569	82.75
500.786	85.75
501.003	80.75
501.22	100.75
501.437	77.75
501.654	78.75
501.871	79.75
502.088	86.75
502.305	78.75
502.522	71.75
502.739	81.75
502.956	68.75
503.172	94.75
503.389	87.75
503.606	86.75
503.823	91.75
504.04	73.75
504.256	91.75
504.473	74.75
504.69	85.75
504.907	87.75
505.123	78.75
505.34	91.75
505.557	76.75
505.773	74.75
505.99	65.75
506.207	76.75
506.423	76.75
506.64	89.75
506.856	74.75
507.073	71.75
507.289	85.75
507.506	80.75
507.722	81.75
507.939	89.75
508.155	78.75
508.372	79.75
508.588	79.75
508.805	88.75
509.021	81.75
509.238	90.75
509.454	90.75
509.67	92.75
509.887	88.75
510.103	89.75
510.319	77.75
510.536	74.75
510.752	73.75
510.968	77.75
511.184	84.75
511.401	90.75
511.617	81.75
511.833	79.75
512.049	80.75
512.265	71.75
512.481	86.75
512.698	90.75
512.914	71.75
513.13	77.75
513.346	83.75
513.562	86.75
513.778	77.75
513.994	85.75
514.21	81.75
514.426	84.75
514.642	81.75
514.858	91.75
515.074	72.75
515.29	69.75
515.506	78.75
515.721	84.75
515.937	97.75
516.153	73.75
516.369	73.75
516.585	81.75
516.801	81.75
517.016	73.75
517.232	90.75
517.448	68.75
517.664	94.75
517.879	75.75
518.095	89.75
518.311	70.75
518.527	87.75
518.742	82.75
518.958	85.75
519.173	86.75
519.389	85.75
519.605	85.75
519.82	86.75
520.036	78.75
