Data from Dirtnoheat3_HRD10591_00012.txt Node
Date: Fri Dec 27 15:21:25 EST 2024
User: Yrep
Spectrometer: HR+D1059
Trigger mode: 1
Integration Time (sec): 1.000000E-1
Scans to average: 1
Electric dark correction enabled: true
Nonlinearity correction enabled: false
Boxcar width: 0
XAxis mode: Wavelengths
Number of Pixels in Spectrum: 2048
>>>>>Begin Spectral Data<<<<<
223.165	-11.94
223.4	-11.94
223.635	-11.94
223.869	-33.94
224.104	-11.94
224.338	-9.94
224.573	-11.94
224.808	-14.94
225.042	6.06
225.277	-13.94
225.511	-5.94
225.746	19.06
225.98	8.06
226.215	2.06
226.449	12.06
226.683	20.06
226.918	26.06
227.152	21.06
227.387	34.06
227.621	32.06
227.856	41.06
228.09	53.06
228.324	53.06
228.559	57.06
228.793	54.06
229.027	55.06
229.262	78.06
229.496	68.06
229.73	78.06
229.964	85.06
230.199	76.06
230.433	81.06
230.667	78.06
230.901	89.06
231.136	82.06
231.37	84.06
231.604	82.06
231.838	80.06
232.072	76.06
232.306	77.06
232.541	73.06
232.775	78.06
233.009	83.06
233.243	87.06
233.477	76.06
233.711	81.06
233.945	74.06
234.179	78.06
234.413	89.06
234.647	82.06
234.881	82.06
235.115	76.06
235.349	82.06
235.583	84.06
235.817	88.06
236.051	82.06
236.285	90.06
236.519	92.06
236.753	79.06
236.987	79.06
237.221	81.06
237.455	67.06
237.689	78.06
237.922	73.06
238.156	77.06
238.39	77.06
238.624	74.06
238.858	81.06
239.091	87.06
239.325	84.06
239.559	80.06
239.793	83.06
240.027	80.06
240.26	68.06
240.494	78.06
240.728	62.06
240.961	80.06
241.195	81.06
241.429	65.06
241.662	76.06
241.896	72.06
242.13	76.06
242.363	74.06
242.597	66.06
242.83	77.06
243.064	69.06
243.298	70.06
243.531	64.06
243.765	97.06
243.998	78.06
244.232	99.06
244.465	81.06
244.699	66.06
244.932	68.06
245.166	56.06
245.399	70.06
245.633	84.06
245.866	77.06
246.099	76.06
246.333	77.06
246.566	88.06
246.8	75.06
247.033	76.06
247.266	70.06
247.5	80.06
247.733	66.06
247.966	93.06
248.2	89.06
248.433	90.06
248.666	78.06
248.899	73.06
249.133	77.06
249.366	87.06
249.599	72.06
249.832	76.06
250.066	84.06
250.299	87.06
250.532	95.06
250.765	93.06
250.998	86.06
251.231	80.06
251.465	82.06
251.698	80.06
251.931	85.06
252.164	72.06
252.397	92.06
252.63	92.06
252.863	89.06
253.096	85.06
253.329	78.06
253.562	92.06
253.795	82.06
254.028	80.06
254.261	86.06
254.494	89.06
254.727	74.06
254.96	88.06
255.193	79.06
255.426	80.06
255.659	80.06
255.892	89.06
256.124	67.06
256.357	60.06
256.59	64.06
256.823	79.06
257.056	77.06
257.289	60.06
257.521	74.06
257.754	93.06
257.987	80.06
258.22	75.06
258.452	82.06
258.685	88.06
258.918	98.06
259.151	81.06
259.383	90.06
259.616	83.06
259.849	65.06
260.081	82.06
260.314	91.06
260.547	95.06
260.779	92.06
261.012	82.06
261.244	84.06
261.477	86.06
261.71	75.06
261.942	81.06
262.175	87.06
262.407	80.06
262.64	62.06
262.872	79.06
263.105	80.06
263.337	81.06
263.57	81.06
263.802	73.06
264.035	74.06
264.267	89.06
264.499	88.06
264.732	90.06
264.964	77.06
265.197	80.06
265.429	85.06
265.661	82.06
265.894	73.06
266.126	84.06
266.358	85.06
266.591	84.06
266.823	80.06
267.055	58.06
267.287	77.06
267.52	82.06
267.752	83.06
267.984	108.06
268.216	84.06
268.448	91.06
268.681	93.06
268.913	83.06
269.145	86.06
269.377	85.06
269.609	88.06
269.841	77.06
270.073	81.06
270.306	85.06
270.538	91.06
270.77	81.06
271.002	75.06
271.234	90.06
271.466	92.06
271.698	85.06
271.93	84.06
272.162	76.06
272.394	84.06
272.626	77.06
272.858	77.06
273.09	81.06
273.322	88.06
273.553	80.06
273.785	88.06
274.017	73.06
274.249	76.06
274.481	94.06
274.713	74.06
274.945	86.06
275.176	83.06
275.408	73.06
275.64	82.06
275.872	65.06
276.104	78.06
276.335	86.06
276.567	86.06
276.799	78.06
277.031	82.06
277.262	84.06
277.494	94.06
277.726	92.06
277.957	84.06
278.189	93.06
278.421	96.06
278.652	82.06
278.884	96.06
279.115	81.06
279.347	77.06
279.579	85.06
279.81	80.06
280.042	77.06
280.273	76.06
280.505	88.06
280.736	84.06
280.968	82.06
281.199	81.06
281.431	85.06
281.662	89.06
281.894	93.06
282.125	87.06
282.356	85.06
282.588	73.06
282.819	78.06
283.051	81.06
283.282	66.06
283.513	92.06
283.745	80.06
283.976	92.06
284.207	83.06
284.439	89.06
284.67	76.06
284.901	78.06
285.132	81.06
285.364	86.06
285.595	89.06
285.826	90.06
286.057	96.06
286.288	90.06
286.52	84.06
286.751	80.06
286.982	76.06
287.213	67.06
287.444	92.06
287.675	76.06
287.906	88.06
288.138	83.06
288.369	80.06
288.6	83.06
288.831	69.06
289.062	89.06
289.293	90.06
289.524	86.06
289.755	100.06
289.986	92.06
290.217	81.06
290.448	84.06
290.679	97.06
290.91	98.06
291.141	79.06
291.371	95.06
291.602	93.06
291.833	96.06
292.064	78.06
292.295	86.06
292.526	89.06
292.757	86.06
292.987	86.06
293.218	99.06
293.449	78.06
293.68	72.06
293.91	89.06
294.141	84.06
294.372	91.06
294.603	88.06
294.833	83.06
295.064	87.06
295.295	91.06
295.525	76.06
295.756	85.06
295.987	74.06
296.217	98.06
296.448	99.06
296.679	99.06
296.909	88.06
297.14	92.06
297.37	85.06
297.601	87.06
297.831	84.06
298.062	86.06
298.292	83.06
298.523	75.06
298.753	92.06
298.984	92.06
299.214	81.06
299.445	94.06
299.675	81.06
299.905	86.06
300.136	70.06
300.366	72.06
300.597	76.06
300.827	85.06
301.057	77.06
301.288	93.06
301.518	84.06
301.748	89.06
301.979	110.06
302.209	105.06
302.439	74.06
302.669	83.06
302.9	83.06
303.13	84.06
303.36	84.06
303.59	87.06
303.82	91.06
304.051	85.06
304.281	86.06
304.511	94.06
304.741	99.06
304.971	80.06
305.201	83.06
305.431	96.06
305.661	100.06
305.891	92.06
306.121	83.06
306.352	84.06
306.582	86.06
306.812	89.06
307.042	91.06
307.272	98.06
307.502	92.06
307.731	98.06
307.961	76.06
308.191	85.06
308.421	87.06
308.651	81.06
308.881	92.06
309.111	90.06
309.341	84.06
309.571	88.06
309.8	75.06
310.03	78.06
310.26	90.06
310.49	86.06
310.72	84.06
310.949	86.06
311.179	85.06
311.409	87.06
311.639	85.06
311.868	79.06
312.098	89.06
312.328	81.06
312.557	104.06
312.787	90.06
313.017	88.06
313.246	66.06
313.476	82.06
313.706	99.06
313.935	100.06
314.165	86.06
314.394	93.06
314.624	102.06
314.853	69.06
315.083	88.06
315.312	84.06
315.542	82.06
315.771	81.06
316.001	89.06
316.23	83.06
316.46	88.06
316.689	84.06
316.919	80.06
317.148	80.06
317.377	92.06
317.607	83.06
317.836	74.06
318.065	87.06
318.295	91.06
318.524	76.06
318.753	92.06
318.983	94.06
319.212	89.06
319.441	90.06
319.67	99.06
319.9	91.06
320.129	79.06
320.358	88.06
320.587	84.06
320.816	87.06
321.046	89.06
321.275	76.06
321.504	91.06
321.733	88.06
321.962	86.06
322.191	76.06
322.42	93.06
322.649	79.06
322.878	97.06
323.108	81.06
323.337	90.06
323.566	89.06
323.795	70.06
324.024	86.06
324.253	76.06
324.482	89.06
324.71	91.06
324.939	82.06
325.168	85.06
325.397	95.06
325.626	88.06
325.855	85.06
326.084	71.06
326.313	78.06
326.542	88.06
326.77	68.06
326.999	104.06
327.228	85.06
327.457	94.06
327.686	84.06
327.914	81.06
328.143	78.06
328.372	78.06
328.6	90.06
328.829	77.06
329.058	77.06
329.287	70.06
329.515	80.06
329.744	99.06
329.972	102.06
330.201	92.06
330.43	82.06
330.658	91.06
330.887	88.06
331.115	90.06
331.344	85.06
331.572	93.06
331.801	88.06
332.03	89.06
332.258	83.06
332.486	72.06
332.715	85.06
332.943	80.06
333.172	93.06
333.4	93.06
333.629	78.06
333.857	91.06
334.085	86.06
334.314	86.06
334.542	84.06
334.771	88.06
334.999	81.06
335.227	79.06
335.455	96.06
335.684	97.06
335.912	82.06
336.14	97.06
336.369	94.06
336.597	82.06
336.825	109.06
337.053	83.06
337.281	82.06
337.51	89.06
337.738	86.06
337.966	82.06
338.194	85.06
338.422	72.06
338.65	98.06
338.878	84.06
339.106	84.06
339.334	85.06
339.562	81.06
339.79	78.06
340.018	95.06
340.246	90.06
340.474	79.06
340.702	82.06
340.93	96.06
341.158	76.06
341.386	75.06
341.614	79.06
341.842	82.06
342.07	84.06
342.298	77.06
342.526	96.06
342.754	82.06
342.981	93.06
343.209	88.06
343.437	92.06
343.665	82.06
343.893	85.06
344.12	84.06
344.348	102.06
344.576	80.06
344.804	86.06
345.031	73.06
345.259	82.06
345.487	83.06
345.714	91.06
345.942	78.06
346.17	86.06
346.397	83.06
346.625	78.06
346.853	93.06
347.08	84.06
347.308	86.06
347.535	88.06
347.763	83.06
347.99	82.06
348.218	78.06
348.445	92.06
348.673	101.06
348.9	91.06
349.128	101.06
349.355	88.06
349.583	83.06
349.81	82.06
350.037	74.06
350.265	81.06
350.492	81.06
350.72	82.06
350.947	85.06
351.174	79.06
351.402	88.06
351.629	81.06
351.856	85.06
352.083	85.06
352.311	84.06
352.538	76.06
352.765	73.06
352.992	98.06
353.22	89.06
353.447	78.06
353.674	76.06
353.901	67.06
354.128	95.06
354.355	85.06
354.583	89.06
354.81	101.06
355.037	96.06
355.264	80.06
355.491	78.06
355.718	86.06
355.945	94.06
356.172	85.06
356.399	75.06
356.626	80.06
356.853	70.06
357.08	87.06
357.307	88.06
357.534	85.06
357.761	93.06
357.988	88.06
358.215	85.06
358.441	88.06
358.668	78.06
358.895	78.06
359.122	69.06
359.349	74.06
359.576	81.06
359.802	79.06
360.029	77.06
360.256	93.06
360.483	79.06
360.709	80.06
360.936	86.06
361.163	72.06
361.39	92.06
361.616	85.06
361.843	91.06
362.07	96.06
362.296	89.06
362.523	73.06
362.749	86.06
362.976	81.06
363.203	91.06
363.429	95.06
363.656	81.06
363.882	86.06
364.109	91.06
364.335	88.06
364.562	82.06
364.788	88.06
365.015	76.06
365.241	85.06
365.468	84.06
365.694	76.06
365.92	89.06
366.147	84.06
366.373	80.06
366.599	84.06
366.826	89.06
367.052	89.06
367.278	89.06
367.505	87.06
367.731	93.06
367.957	87.06
368.184	90.06
368.41	79.06
368.636	90.06
368.862	92.06
369.089	88.06
369.315	84.06
369.541	80.06
369.767	83.06
369.993	88.06
370.219	79.06
370.445	81.06
370.672	83.06
370.898	78.06
371.124	80.06
371.35	86.06
371.576	104.06
371.802	93.06
372.028	84.06
372.254	88.06
372.48	85.06
372.706	84.06
372.932	80.06
373.158	86.06
373.384	96.06
373.61	76.06
373.835	73.06
374.061	81.06
374.287	80.06
374.513	89.06
374.739	104.06
374.965	77.06
375.191	98.06
375.416	88.06
375.642	79.06
375.868	80.06
376.094	88.06
376.319	79.06
376.545	81.06
376.771	69.06
376.997	83.06
377.222	78.06
377.448	83.06
377.674	94.06
377.899	88.06
378.125	76.06
378.35	100.06
378.576	73.06
378.802	80.06
379.027	99.06
379.253	84.06
379.478	89.06
379.704	85.06
379.929	90.06
380.155	86.06
380.38	83.06
380.606	87.06
380.831	89.06
381.057	72.06
381.282	86.06
381.507	91.06
381.733	95.06
381.958	88.06
382.184	83.06
382.409	64.06
382.634	93.06
382.86	89.06
383.085	83.06
383.31	85.06
383.535	88.06
383.761	86.06
383.986	93.06
384.211	84.06
384.436	72.06
384.662	76.06
384.887	84.06
385.112	84.06
385.337	77.06
385.562	69.06
385.787	82.06
386.013	77.06
386.238	91.06
386.463	83.06
386.688	101.06
386.913	82.06
387.138	92.06
387.363	84.06
387.588	80.06
387.813	89.06
388.038	76.06
388.263	101.06
388.488	83.06
388.713	76.06
388.938	85.06
389.163	81.06
389.387	90.06
389.612	86.06
389.837	81.06
390.062	93.06
390.287	77.06
390.512	80.06
390.736	73.06
390.961	80.06
391.186	87.06
391.411	107.06
391.636	80.06
391.86	82.06
392.085	84.06
392.31	90.06
392.534	100.06
392.759	97.06
392.984	88.06
393.208	98.06
393.433	96.06
393.658	83.06
393.882	84.06
394.107	91.06
394.331	90.06
394.556	85.06
394.78	98.06
395.005	85.06
395.229	79.06
395.454	82.06
395.678	75.06
395.903	70.06
396.127	92.06
396.352	91.06
396.576	67.06
396.801	93.06
397.025	99.06
397.249	81.06
397.474	99.06
397.698	79.06
397.922	84.06
398.147	91.06
398.371	96.06
398.595	83.06
398.82	80.06
399.044	74.06
399.268	81.06
399.492	88.06
399.717	94.06
399.941	109.06
400.165	90.06
400.389	85.06
400.613	74.06
400.837	85.06
401.062	94.06
401.286	86.06
401.51	78.06
401.734	78.06
401.958	96.06
402.182	78.06
402.406	74.06
402.63	87.06
402.854	78.06
403.078	71.06
403.302	91.06
403.526	78.06
403.75	74.06
403.974	85.06
404.198	86.06
404.422	79.06
404.645	82.06
404.869	72.06
405.093	89.06
405.317	85.06
405.541	86.06
405.765	77.06
405.988	88.06
406.212	85.06
406.436	78.06
406.66	92.06
406.883	83.06
407.107	77.06
407.331	87.06
407.555	92.06
407.778	76.06
408.002	97.06
408.226	72.06
408.449	94.06
408.673	92.06
408.896	79.06
409.12	85.06
409.344	77.06
409.567	81.06
409.791	76.06
410.014	76.06
410.238	86.06
410.461	84.06
410.685	83.06
410.908	81.06
411.132	85.06
411.355	83.06
411.578	90.06
411.802	89.06
412.025	89.06
412.249	97.06
412.472	73.06
412.695	89.06
412.919	89.06
413.142	80.06
413.365	79.06
413.589	89.06
413.812	85.06
414.035	92.06
414.258	73.06
414.482	77.06
414.705	85.06
414.928	86.06
415.151	100.06
415.374	87.06
415.597	93.06
415.821	93.06
416.044	81.06
416.267	89.06
416.49	97.06
416.713	89.06
416.936	80.06
417.159	87.06
417.382	77.06
417.605	76.06
417.828	93.06
418.051	79.06
418.274	95.06
418.497	76.06
418.72	79.06
418.943	88.06
419.166	75.06
419.389	92.06
419.611	96.06
419.834	80.06
420.057	87.06
420.28	77.06
420.503	90.06
420.726	92.06
420.948	82.06
421.171	83.06
421.394	75.06
421.617	91.06
421.839	81.06
422.062	69.06
422.285	75.06
422.507	90.06
422.73	110.06
422.953	85.06
423.175	82.06
423.398	82.06
423.621	71.06
423.843	84.06
424.066	83.06
424.288	87.06
424.511	93.06
424.733	88.06
424.956	79.06
425.178	73.06
425.401	85.06
425.623	85.06
425.846	92.06
426.068	84.06
426.291	92.06
426.513	90.06
426.735	105.06
426.958	70.06
427.18	82.06
427.402	78.06
427.625	74.06
427.847	82.06
428.069	84.06
428.292	88.06
428.514	74.06
428.736	78.06
428.958	76.06
429.181	91.06
429.403	72.06
429.625	81.06
429.847	74.06
430.069	84.06
430.292	90.06
430.514	79.06
430.736	84.06
430.958	80.06
431.18	81.06
431.402	86.06
431.624	80.06
431.846	88.06
432.068	101.06
432.29	77.06
432.512	86.06
432.734	81.06
432.956	84.06
433.178	94.06
433.4	74.06
433.622	79.06
433.844	84.06
434.066	80.06
434.287	84.06
434.509	84.06
434.731	83.06
434.953	78.06
435.175	80.06
435.397	88.06
435.618	77.06
435.84	93.06
436.062	79.06
436.284	94.06
436.505	86.06
436.727	91.06
436.949	77.06
437.17	78.06
437.392	90.06
437.614	75.06
437.835	84.06
438.057	74.06
438.278	83.06
438.5	84.06
438.721	91.06
438.943	85.06
439.165	78.06
439.386	72.06
439.608	100.06
439.829	78.06
440.05	96.06
440.272	85.06
440.493	87.06
440.715	90.06
440.936	79.06
441.158	68.06
441.379	68.06
441.6	77.06
441.822	80.06
442.043	72.06
442.264	74.06
442.486	84.06
442.707	87.06
442.928	84.06
443.149	81.06
443.371	88.06
443.592	98.06
443.813	101.06
444.034	92.06
444.255	89.06
444.476	75.06
444.698	81.06
444.919	84.06
445.14	149.06
445.361	114.06
445.582	98.06
445.803	86.06
446.024	90.06
446.245	94.06
446.466	91.06
446.687	93.06
446.908	76.06
447.129	76.06
447.35	81.06
447.571	75.06
447.792	93.06
448.013	85.06
448.234	93.06
448.455	75.06
448.675	95.06
448.896	85.06
449.117	95.06
449.338	91.06
449.559	85.06
449.779	80.06
450	98.06
450.221	77.06
450.442	80.06
450.662	88.06
450.883	84.06
451.104	98.06
451.324	79.06
451.545	82.06
451.766	88.06
451.986	92.06
452.207	88.06
452.428	85.06
452.648	91.06
452.869	80.06
453.089	83.06
453.31	81.06
453.53	95.06
453.751	83.06
453.971	89.06
454.192	70.06
454.412	80.06
454.633	90.06
454.853	94.06
455.073	82.06
455.294	79.06
455.514	74.06
455.734	75.06
455.955	87.06
456.175	74.06
456.395	76.06
456.616	75.06
456.836	82.06
457.056	87.06
457.276	78.06
457.497	85.06
457.717	86.06
457.937	80.06
458.157	93.06
458.377	79.06
458.598	89.06
458.818	92.06
459.038	89.06
459.258	78.06
459.478	89.06
459.698	87.06
459.918	84.06
460.138	94.06
460.358	81.06
460.578	89.06
460.798	88.06
461.018	84.06
461.238	84.06
461.458	85.06
461.678	79.06
461.898	75.06
462.118	95.06
462.338	67.06
462.558	71.06
462.777	83.06
462.997	88.06
463.217	77.06
463.437	68.06
463.657	78.06
463.876	77.06
464.096	92.06
464.316	76.06
464.536	78.06
464.755	99.06
464.975	88.06
465.195	94.06
465.414	81.06
465.634	97.06
465.854	66.06
466.073	77.06
466.293	68.06
466.512	85.06
466.732	89.06
466.951	75.06
467.171	87.06
467.391	85.06
467.61	92.06
467.829	84.06
468.049	85.06
468.268	88.06
468.488	90.06
468.707	93.06
468.927	70.06
469.146	98.06
469.365	85.06
469.585	65.06
469.804	91.06
470.023	82.06
470.243	78.06
470.462	99.06
470.681	90.06
470.901	75.06
471.12	81.06
471.339	80.06
471.558	79.06
471.777	85.06
471.997	83.06
472.216	88.06
472.435	79.06
472.654	80.06
472.873	86.06
473.092	82.06
473.311	101.06
473.53	84.06
473.749	99.06
473.968	77.06
474.187	82.06
474.406	72.06
474.625	78.06
474.844	83.06
475.063	74.06
475.282	82.06
475.501	83.06
475.72	92.06
475.939	92.06
476.158	86.06
476.377	76.06
476.596	84.06
476.814	85.06
477.033	80.06
477.252	82.06
477.471	84.06
477.69	89.06
477.908	88.06
478.127	85.06
478.346	83.06
478.564	83.06
478.783	89.06
479.002	81.06
479.22	74.06
479.439	99.06
479.658	86.06
479.876	84.06
480.095	84.06
480.313	80.06
480.532	79.06
480.751	91.06
480.969	75.06
481.188	79.06
481.406	85.06
481.624	93.06
481.843	82.06
482.061	73.06
482.28	83.06
482.498	81.06
482.717	80.06
482.935	106.06
483.153	100.06
483.372	86.06
483.59	82.06
483.808	89.06
484.027	96.06
484.245	76.06
484.463	71.06
484.681	78.06
484.9	85.06
485.118	82.06
485.336	75.06
485.554	88.06
485.772	86.06
485.99	96.06
486.209	85.06
486.427	71.06
486.645	86.06
486.863	89.06
487.081	89.06
487.299	84.06
487.517	88.06
487.735	84.06
487.953	78.06
488.171	90.06
488.389	85.06
488.607	81.06
488.825	80.06
489.043	80.06
489.261	89.06
489.479	79.06
489.696	89.06
489.914	96.06
490.132	83.06
490.35	87.06
490.568	93.06
490.786	86.06
491.003	80.06
491.221	82.06
491.439	101.06
491.657	87.06
491.874	83.06
492.092	83.06
492.31	84.06
492.527	81.06
492.745	85.06
492.963	86.06
493.18	101.06
493.398	66.06
493.615	77.06
493.833	90.06
494.05	86.06
494.268	85.06
494.485	88.06
494.703	78.06
494.92	90.06
495.138	80.06
495.355	92.06
495.573	94.06
495.79	97.06
496.008	82.06
496.225	88.06
496.442	94.06
496.66	89.06
496.877	55.06
497.094	88.06
497.312	82.06
497.529	79.06
497.746	85.06
497.963	85.06
498.181	95.06
498.398	88.06
498.615	98.06
498.832	88.06
499.049	89.06
499.267	94.06
499.484	78.06
499.701	84.06
499.918	77.06
500.135	92.06
500.352	91.06
500.569	92.06
500.786	96.06
501.003	79.06
501.22	87.06
501.437	78.06
501.654	89.06
501.871	75.06
502.088	70.06
502.305	86.06
502.522	84.06
502.739	78.06
502.956	85.06
503.172	71.06
503.389	77.06
503.606	83.06
503.823	70.06
504.04	80.06
504.256	93.06
504.473	93.06
504.69	86.06
504.907	87.06
505.123	76.06
505.34	88.06
505.557	94.06
505.773	77.06
505.99	78.06
506.207	88.06
506.423	91.06
506.64	84.06
506.856	87.06
507.073	77.06
507.289	89.06
507.506	81.06
507.722	89.06
507.939	70.06
508.155	91.06
508.372	88.06
508.588	80.06
508.805	87.06
509.021	74.06
509.238	99.06
509.454	85.06
509.67	75.06
509.887	77.06
510.103	81.06
510.319	84.06
510.536	78.06
510.752	93.06
510.968	78.06
511.184	85.06
511.401	80.06
511.617	82.06
511.833	79.06
512.049	89.06
512.265	90.06
512.481	84.06
512.698	92.06
512.914	95.06
513.13	85.06
513.346	90.06
513.562	89.06
513.778	80.06
513.994	68.06
514.21	89.06
514.426	86.06
514.642	85.06
514.858	78.06
515.074	80.06
515.29	79.06
515.506	90.06
515.721	75.06
515.937	81.06
516.153	78.06
516.369	85.06
516.585	83.06
516.801	85.06
517.016	83.06
517.232	85.06
517.448	96.06
517.664	90.06
517.879	78.06
518.095	83.06
518.311	74.06
518.527	77.06
518.742	88.06
518.958	85.06
519.173	97.06
519.389	91.06
519.605	82.06
519.82	71.06
