Data from Dirtnoheat3_HRD10591_00006.txt Node
Date: Fri Dec 27 15:21:19 EST 2024
User: Yrep
Spectrometer: HR+D1059
Trigger mode: 1
Integration Time (sec): 1.000000E-1
Scans to average: 1
Electric dark correction enabled: true
Nonlinearity correction enabled: false
Boxcar width: 0
XAxis mode: Wavelengths
Number of Pixels in Spectrum: 2048
>>>>>Begin Spectral Data<<<<<
223.165	-26.5
223.4	-26.5
223.635	-26.5
223.869	-18.5
224.104	-21.5
224.338	-25.5
224.573	-26.5
224.808	-18.5
225.042	-13.5
225.277	-4.5
225.511	12.5
225.746	12.5
225.98	9.5
226.215	25.5
226.449	19.5
226.683	9.5
226.918	21.5
227.152	44.5
227.387	36.5
227.621	36.5
227.856	51.5
228.09	33.5
228.324	48.5
228.559	58.5
228.793	45.5
229.027	59.5
229.262	68.5
229.496	62.5
229.73	73.5
229.964	87.5
230.199	87.5
230.433	78.5
230.667	69.5
230.901	66.5
231.136	76.5
231.37	81.5
231.604	74.5
231.838	77.5
232.072	75.5
232.306	83.5
232.541	68.5
232.775	77.5
233.009	75.5
233.243	83.5
233.477	88.5
233.711	82.5
233.945	85.5
234.179	89.5
234.413	81.5
234.647	62.5
234.881	71.5
235.115	78.5
235.349	76.5
235.583	76.5
235.817	72.5
236.051	61.5
236.285	71.5
236.519	68.5
236.753	89.5
236.987	73.5
237.221	75.5
237.455	84.5
237.689	69.5
237.922	77.5
238.156	77.5
238.39	84.5
238.624	63.5
238.858	65.5
239.091	62.5
239.325	76.5
239.559	68.5
239.793	66.5
240.027	75.5
240.26	74.5
240.494	70.5
240.728	62.5
240.961	70.5
241.195	76.5
241.429	76.5
241.662	65.5
241.896	62.5
242.13	72.5
242.363	71.5
242.597	68.5
242.83	63.5
243.064	71.5
243.298	68.5
243.531	69.5
243.765	75.5
243.998	68.5
244.232	54.5
244.465	71.5
244.699	71.5
244.932	86.5
245.166	68.5
245.399	74.5
245.633	52.5
245.866	72.5
246.099	69.5
246.333	75.5
246.566	79.5
246.8	81.5
247.033	69.5
247.266	75.5
247.5	76.5
247.733	80.5
247.966	79.5
248.2	63.5
248.433	74.5
248.666	61.5
248.899	76.5
249.133	84.5
249.366	74.5
249.599	71.5
249.832	86.5
250.066	72.5
250.299	91.5
250.532	72.5
250.765	84.5
250.998	83.5
251.231	65.5
251.465	74.5
251.698	72.5
251.931	73.5
252.164	68.5
252.397	68.5
252.63	79.5
252.863	61.5
253.096	78.5
253.329	83.5
253.562	75.5
253.795	71.5
254.028	104.5
254.261	70.5
254.494	79.5
254.727	85.5
254.96	77.5
255.193	76.5
255.426	84.5
255.659	71.5
255.892	76.5
256.124	75.5
256.357	87.5
256.59	72.5
256.823	84.5
257.056	71.5
257.289	70.5
257.521	74.5
257.754	75.5
257.987	62.5
258.22	79.5
258.452	76.5
258.685	78.5
258.918	66.5
259.151	75.5
259.383	72.5
259.616	74.5
259.849	74.5
260.081	80.5
260.314	84.5
260.547	66.5
260.779	67.5
261.012	68.5
261.244	75.5
261.477	83.5
261.71	82.5
261.942	67.5
262.175	84.5
262.407	70.5
262.64	75.5
262.872	78.5
263.105	70.5
263.337	76.5
263.57	74.5
263.802	69.5
264.035	70.5
264.267	67.5
264.499	78.5
264.732	76.5
264.964	87.5
265.197	84.5
265.429	82.5
265.661	87.5
265.894	86.5
266.126	83.5
266.358	77.5
266.591	70.5
266.823	72.5
267.055	73.5
267.287	76.5
267.52	70.5
267.752	84.5
267.984	90.5
268.216	83.5
268.448	89.5
268.681	76.5
268.913	76.5
269.145	78.5
269.377	84.5
269.609	72.5
269.841	70.5
270.073	76.5
270.306	80.5
270.538	93.5
270.77	79.5
271.002	69.5
271.234	72.5
271.466	79.5
271.698	71.5
271.93	82.5
272.162	79.5
272.394	74.5
272.626	86.5
272.858	74.5
273.09	64.5
273.322	87.5
273.553	89.5
273.785	84.5
274.017	89.5
274.249	74.5
274.481	84.5
274.713	81.5
274.945	84.5
275.176	73.5
275.408	76.5
275.64	77.5
275.872	73.5
276.104	81.5
276.335	71.5
276.567	83.5
276.799	76.5
277.031	66.5
277.262	77.5
277.494	91.5
277.726	77.5
277.957	74.5
278.189	64.5
278.421	76.5
278.652	98.5
278.884	72.5
279.115	71.5
279.347	76.5
279.579	76.5
279.81	71.5
280.042	77.5
280.273	82.5
280.505	83.5
280.736	81.5
280.968	66.5
281.199	82.5
281.431	74.5
281.662	73.5
281.894	89.5
282.125	69.5
282.356	77.5
282.588	79.5
282.819	77.5
283.051	85.5
283.282	85.5
283.513	77.5
283.745	69.5
283.976	77.5
284.207	85.5
284.439	83.5
284.67	85.5
284.901	87.5
285.132	93.5
285.364	68.5
285.595	84.5
285.826	82.5
286.057	77.5
286.288	70.5
286.52	78.5
286.751	75.5
286.982	86.5
287.213	76.5
287.444	84.5
287.675	69.5
287.906	86.5
288.138	78.5
288.369	75.5
288.6	89.5
288.831	74.5
289.062	85.5
289.293	74.5
289.524	80.5
289.755	74.5
289.986	83.5
290.217	75.5
290.448	82.5
290.679	82.5
290.91	89.5
291.141	80.5
291.371	76.5
291.602	72.5
291.833	87.5
292.064	74.5
292.295	69.5
292.526	74.5
292.757	74.5
292.987	87.5
293.218	75.5
293.449	67.5
293.68	76.5
293.91	82.5
294.141	86.5
294.372	79.5
294.603	87.5
294.833	78.5
295.064	83.5
295.295	70.5
295.525	82.5
295.756	81.5
295.987	81.5
296.217	61.5
296.448	81.5
296.679	64.5
296.909	91.5
297.14	88.5
297.37	87.5
297.601	91.5
297.831	74.5
298.062	78.5
298.292	81.5
298.523	82.5
298.753	72.5
298.984	76.5
299.214	90.5
299.445	90.5
299.675	80.5
299.905	72.5
300.136	74.5
300.366	92.5
300.597	87.5
300.827	81.5
301.057	85.5
301.288	84.5
301.518	89.5
301.748	72.5
301.979	90.5
302.209	88.5
302.439	75.5
302.669	81.5
302.9	74.5
303.13	81.5
303.36	83.5
303.59	67.5
303.82	72.5
304.051	69.5
304.281	73.5
304.511	86.5
304.741	90.5
304.971	75.5
305.201	82.5
305.431	74.5
305.661	78.5
305.891	92.5
306.121	78.5
306.352	75.5
306.582	72.5
306.812	61.5
307.042	89.5
307.272	77.5
307.502	90.5
307.731	83.5
307.961	84.5
308.191	64.5
308.421	83.5
308.651	83.5
308.881	92.5
309.111	85.5
309.341	89.5
309.571	70.5
309.8	73.5
310.03	79.5
310.26	87.5
310.49	91.5
310.72	67.5
310.949	66.5
311.179	64.5
311.409	77.5
311.639	81.5
311.868	78.5
312.098	77.5
312.328	81.5
312.557	82.5
312.787	89.5
313.017	74.5
313.246	85.5
313.476	72.5
313.706	76.5
313.935	69.5
314.165	81.5
314.394	76.5
314.624	80.5
314.853	83.5
315.083	81.5
315.312	73.5
315.542	71.5
315.771	81.5
316.001	88.5
316.23	87.5
316.46	72.5
316.689	83.5
316.919	76.5
317.148	83.5
317.377	77.5
317.607	76.5
317.836	80.5
318.065	72.5
318.295	80.5
318.524	66.5
318.753	81.5
318.983	66.5
319.212	83.5
319.441	78.5
319.67	81.5
319.9	82.5
320.129	80.5
320.358	82.5
320.587	73.5
320.816	71.5
321.046	82.5
321.275	84.5
321.504	73.5
321.733	84.5
321.962	78.5
322.191	71.5
322.42	66.5
322.649	68.5
322.878	78.5
323.108	92.5
323.337	69.5
323.566	62.5
323.795	76.5
324.024	84.5
324.253	76.5
324.482	76.5
324.71	98.5
324.939	82.5
325.168	71.5
325.397	87.5
325.626	82.5
325.855	64.5
326.084	80.5
326.313	84.5
326.542	79.5
326.77	73.5
326.999	84.5
327.228	70.5
327.457	87.5
327.686	63.5
327.914	84.5
328.143	99.5
328.372	77.5
328.6	76.5
328.829	78.5
329.058	70.5
329.287	76.5
329.515	70.5
329.744	84.5
329.972	84.5
330.201	73.5
330.43	74.5
330.658	72.5
330.887	75.5
331.115	95.5
331.344	75.5
331.572	82.5
331.801	79.5
332.03	73.5
332.258	74.5
332.486	93.5
332.715	101.5
332.943	80.5
333.172	92.5
333.4	77.5
333.629	78.5
333.857	87.5
334.085	86.5
334.314	83.5
334.542	80.5
334.771	75.5
334.999	87.5
335.227	72.5
335.455	69.5
335.684	79.5
335.912	82.5
336.14	79.5
336.369	76.5
336.597	74.5
336.825	81.5
337.053	72.5
337.281	81.5
337.51	72.5
337.738	76.5
337.966	89.5
338.194	64.5
338.422	83.5
338.65	79.5
338.878	92.5
339.106	77.5
339.334	83.5
339.562	80.5
339.79	93.5
340.018	85.5
340.246	73.5
340.474	79.5
340.702	83.5
340.93	80.5
341.158	78.5
341.386	76.5
341.614	59.5
341.842	80.5
342.07	73.5
342.298	83.5
342.526	82.5
342.754	72.5
342.981	81.5
343.209	77.5
343.437	98.5
343.665	60.5
343.893	76.5
344.12	68.5
344.348	85.5
344.576	81.5
344.804	77.5
345.031	82.5
345.259	76.5
345.487	96.5
345.714	73.5
345.942	81.5
346.17	61.5
346.397	82.5
346.625	68.5
346.853	86.5
347.08	68.5
347.308	88.5
347.535	82.5
347.763	66.5
347.99	70.5
348.218	86.5
348.445	86.5
348.673	73.5
348.9	75.5
349.128	77.5
349.355	91.5
349.583	75.5
349.81	81.5
350.037	84.5
350.265	80.5
350.492	80.5
350.72	78.5
350.947	92.5
351.174	83.5
351.402	83.5
351.629	78.5
351.856	67.5
352.083	69.5
352.311	69.5
352.538	88.5
352.765	74.5
352.992	94.5
353.22	78.5
353.447	64.5
353.674	96.5
353.901	84.5
354.128	64.5
354.355	77.5
354.583	90.5
354.81	93.5
355.037	87.5
355.264	89.5
355.491	74.5
355.718	80.5
355.945	64.5
356.172	78.5
356.399	86.5
356.626	73.5
356.853	78.5
357.08	82.5
357.307	92.5
357.534	72.5
357.761	89.5
357.988	90.5
358.215	79.5
358.441	77.5
358.668	78.5
358.895	64.5
359.122	70.5
359.349	80.5
359.576	86.5
359.802	84.5
360.029	85.5
360.256	76.5
360.483	86.5
360.709	73.5
360.936	64.5
361.163	83.5
361.39	80.5
361.616	73.5
361.843	73.5
362.07	81.5
362.296	77.5
362.523	79.5
362.749	88.5
362.976	77.5
363.203	83.5
363.429	76.5
363.656	66.5
363.882	90.5
364.109	105.5
364.335	81.5
364.562	95.5
364.788	70.5
365.015	82.5
365.241	74.5
365.468	78.5
365.694	79.5
365.92	74.5
366.147	67.5
366.373	80.5
366.599	85.5
366.826	86.5
367.052	88.5
367.278	81.5
367.505	82.5
367.731	82.5
367.957	71.5
368.184	82.5
368.41	92.5
368.636	85.5
368.862	69.5
369.089	89.5
369.315	90.5
369.541	88.5
369.767	73.5
369.993	80.5
370.219	83.5
370.445	77.5
370.672	87.5
370.898	72.5
371.124	80.5
371.35	82.5
371.576	73.5
371.802	85.5
372.028	76.5
372.254	87.5
372.48	83.5
372.706	74.5
372.932	79.5
373.158	84.5
373.384	87.5
373.61	85.5
373.835	82.5
374.061	65.5
374.287	70.5
374.513	79.5
374.739	72.5
374.965	77.5
375.191	76.5
375.416	81.5
375.642	75.5
375.868	69.5
376.094	77.5
376.319	69.5
376.545	59.5
376.771	59.5
376.997	67.5
377.222	75.5
377.448	73.5
377.674	67.5
377.899	79.5
378.125	76.5
378.35	80.5
378.576	87.5
378.802	83.5
379.027	81.5
379.253	76.5
379.478	70.5
379.704	69.5
379.929	68.5
380.155	69.5
380.38	68.5
380.606	73.5
380.831	75.5
381.057	74.5
381.282	74.5
381.507	75.5
381.733	63.5
381.958	80.5
382.184	81.5
382.409	83.5
382.634	74.5
382.86	83.5
383.085	89.5
383.31	76.5
383.535	97.5
383.761	72.5
383.986	86.5
384.211	76.5
384.436	62.5
384.662	75.5
384.887	83.5
385.112	72.5
385.337	66.5
385.562	81.5
385.787	78.5
386.013	82.5
386.238	80.5
386.463	76.5
386.688	100.5
386.913	83.5
387.138	75.5
387.363	75.5
387.588	80.5
387.813	74.5
388.038	85.5
388.263	75.5
388.488	77.5
388.713	75.5
388.938	76.5
389.163	62.5
389.387	79.5
389.612	79.5
389.837	73.5
390.062	87.5
390.287	80.5
390.512	68.5
390.736	88.5
390.961	70.5
391.186	67.5
391.411	65.5
391.636	70.5
391.86	72.5
392.085	61.5
392.31	77.5
392.534	64.5
392.759	72.5
392.984	87.5
393.208	103.5
393.433	93.5
393.658	80.5
393.882	94.5
394.107	89.5
394.331	77.5
394.556	91.5
394.78	76.5
395.005	78.5
395.229	72.5
395.454	73.5
395.678	89.5
395.903	76.5
396.127	70.5
396.352	88.5
396.576	89.5
396.801	101.5
397.025	90.5
397.249	80.5
397.474	82.5
397.698	68.5
397.922	60.5
398.147	66.5
398.371	80.5
398.595	91.5
398.82	78.5
399.044	68.5
399.268	74.5
399.492	67.5
399.717	69.5
399.941	77.5
400.165	68.5
400.389	78.5
400.613	77.5
400.837	72.5
401.062	87.5
401.286	88.5
401.51	84.5
401.734	71.5
401.958	80.5
402.182	82.5
402.406	67.5
402.63	74.5
402.854	76.5
403.078	88.5
403.302	75.5
403.526	66.5
403.75	77.5
403.974	76.5
404.198	52.5
404.422	88.5
404.645	77.5
404.869	82.5
405.093	73.5
405.317	79.5
405.541	87.5
405.765	76.5
405.988	93.5
406.212	78.5
406.436	72.5
406.66	69.5
406.883	81.5
407.107	79.5
407.331	62.5
407.555	94.5
407.778	94.5
408.002	80.5
408.226	74.5
408.449	83.5
408.673	72.5
408.896	79.5
409.12	88.5
409.344	82.5
409.567	88.5
409.791	77.5
410.014	76.5
410.238	73.5
410.461	71.5
410.685	74.5
410.908	77.5
411.132	88.5
411.355	80.5
411.578	94.5
411.802	76.5
412.025	78.5
412.249	83.5
412.472	84.5
412.695	80.5
412.919	69.5
413.142	82.5
413.365	72.5
413.589	82.5
413.812	91.5
414.035	72.5
414.258	65.5
414.482	84.5
414.705	70.5
414.928	85.5
415.151	76.5
415.374	63.5
415.597	72.5
415.821	75.5
416.044	81.5
416.267	82.5
416.49	72.5
416.713	78.5
416.936	82.5
417.159	69.5
417.382	64.5
417.605	73.5
417.828	72.5
418.051	72.5
418.274	87.5
418.497	80.5
418.72	82.5
418.943	70.5
419.166	72.5
419.389	72.5
419.611	71.5
419.834	77.5
420.057	72.5
420.28	78.5
420.503	86.5
420.726	94.5
420.948	79.5
421.171	78.5
421.394	75.5
421.617	76.5
421.839	84.5
422.062	93.5
422.285	93.5
422.507	89.5
422.73	100.5
422.953	105.5
423.175	83.5
423.398	89.5
423.621	87.5
423.843	64.5
424.066	96.5
424.288	74.5
424.511	70.5
424.733	85.5
424.956	80.5
425.178	62.5
425.401	59.5
425.623	72.5
425.846	76.5
426.068	74.5
426.291	76.5
426.513	69.5
426.735	74.5
426.958	68.5
427.18	77.5
427.402	82.5
427.625	79.5
427.847	80.5
428.069	73.5
428.292	74.5
428.514	87.5
428.736	72.5
428.958	76.5
429.181	80.5
429.403	82.5
429.625	74.5
429.847	76.5
430.069	80.5
430.292	86.5
430.514	77.5
430.736	86.5
430.958	74.5
431.18	80.5
431.402	75.5
431.624	90.5
431.846	69.5
432.068	81.5
432.29	89.5
432.512	71.5
432.734	69.5
432.956	83.5
433.178	89.5
433.4	73.5
433.622	70.5
433.844	82.5
434.066	71.5
434.287	74.5
434.509	71.5
434.731	69.5
434.953	66.5
435.175	64.5
435.397	66.5
435.618	60.5
435.84	78.5
436.062	82.5
436.284	85.5
436.505	69.5
436.727	74.5
436.949	82.5
437.17	55.5
437.392	74.5
437.614	73.5
437.835	67.5
438.057	70.5
438.278	77.5
438.5	76.5
438.721	76.5
438.943	79.5
439.165	74.5
439.386	87.5
439.608	82.5
439.829	81.5
440.05	78.5
440.272	102.5
440.493	65.5
440.715	80.5
440.936	71.5
441.158	82.5
441.379	68.5
441.6	74.5
441.822	77.5
442.043	71.5
442.264	77.5
442.486	80.5
442.707	85.5
442.928	92.5
443.149	83.5
443.371	75.5
443.592	82.5
443.813	98.5
444.034	81.5
444.255	78.5
444.476	83.5
444.698	80.5
444.919	85.5
445.14	135.5
445.361	109.5
445.582	109.5
445.803	88.5
446.024	60.5
446.245	87.5
446.466	69.5
446.687	83.5
446.908	63.5
447.129	73.5
447.35	79.5
447.571	80.5
447.792	76.5
448.013	81.5
448.234	81.5
448.455	64.5
448.675	87.5
448.896	77.5
449.117	53.5
449.338	71.5
449.559	78.5
449.779	71.5
450	70.5
450.221	77.5
450.442	74.5
450.662	84.5
450.883	77.5
451.104	65.5
451.324	81.5
451.545	75.5
451.766	74.5
451.986	91.5
452.207	72.5
452.428	85.5
452.648	87.5
452.869	85.5
453.089	82.5
453.31	70.5
453.53	65.5
453.751	76.5
453.971	93.5
454.192	81.5
454.412	69.5
454.633	84.5
454.853	85.5
455.073	80.5
455.294	75.5
455.514	73.5
455.734	75.5
455.955	69.5
456.175	73.5
456.395	75.5
456.616	88.5
456.836	89.5
457.056	85.5
457.276	62.5
457.497	74.5
457.717	75.5
457.937	80.5
458.157	77.5
458.377	89.5
458.598	67.5
458.818	67.5
459.038	77.5
459.258	75.5
459.478	81.5
459.698	69.5
459.918	76.5
460.138	76.5
460.358	73.5
460.578	86.5
460.798	86.5
461.018	73.5
461.238	63.5
461.458	80.5
461.678	76.5
461.898	81.5
462.118	68.5
462.338	74.5
462.558	73.5
462.777	71.5
462.997	77.5
463.217	92.5
463.437	72.5
463.657	72.5
463.876	79.5
464.096	78.5
464.316	77.5
464.536	75.5
464.755	78.5
464.975	86.5
465.195	65.5
465.414	68.5
465.634	89.5
465.854	85.5
466.073	95.5
466.293	81.5
466.512	73.5
466.732	84.5
466.951	68.5
467.171	76.5
467.391	74.5
467.61	77.5
467.829	72.5
468.049	77.5
468.268	69.5
468.488	69.5
468.707	88.5
468.927	70.5
469.146	72.5
469.365	76.5
469.585	88.5
469.804	88.5
470.023	74.5
470.243	73.5
470.462	78.5
470.681	75.5
470.901	89.5
471.12	76.5
471.339	81.5
471.558	73.5
471.777	73.5
471.997	75.5
472.216	82.5
472.435	78.5
472.654	78.5
472.873	89.5
473.092	81.5
473.311	82.5
473.53	76.5
473.749	88.5
473.968	82.5
474.187	89.5
474.406	81.5
474.625	78.5
474.844	82.5
475.063	66.5
475.282	83.5
475.501	89.5
475.72	87.5
475.939	74.5
476.158	69.5
476.377	73.5
476.596	74.5
476.814	66.5
477.033	62.5
477.252	74.5
477.471	67.5
477.69	73.5
477.908	78.5
478.127	76.5
478.346	88.5
478.564	77.5
478.783	77.5
479.002	81.5
479.22	96.5
479.439	92.5
479.658	81.5
479.876	74.5
480.095	74.5
480.313	74.5
480.532	79.5
480.751	90.5
480.969	68.5
481.188	93.5
481.406	90.5
481.624	78.5
481.843	82.5
482.061	79.5
482.28	68.5
482.498	78.5
482.717	77.5
482.935	85.5
483.153	72.5
483.372	86.5
483.59	80.5
483.808	74.5
484.027	74.5
484.245	87.5
484.463	66.5
484.681	96.5
484.9	82.5
485.118	84.5
485.336	83.5
485.554	68.5
485.772	70.5
485.99	63.5
486.209	74.5
486.427	71.5
486.645	83.5
486.863	79.5
487.081	74.5
487.299	85.5
487.517	80.5
487.735	89.5
487.953	83.5
488.171	96.5
488.389	74.5
488.607	77.5
488.825	93.5
489.043	92.5
489.261	83.5
489.479	84.5
489.696	90.5
489.914	81.5
490.132	81.5
490.35	72.5
490.568	81.5
490.786	72.5
491.003	70.5
491.221	92.5
491.439	80.5
491.657	77.5
491.874	90.5
492.092	78.5
492.31	69.5
492.527	75.5
492.745	84.5
492.963	79.5
493.18	89.5
493.398	89.5
493.615	80.5
493.833	68.5
494.05	81.5
494.268	82.5
494.485	81.5
494.703	86.5
494.92	92.5
495.138	76.5
495.355	79.5
495.573	86.5
495.79	63.5
496.008	97.5
496.225	76.5
496.442	84.5
496.66	94.5
496.877	83.5
497.094	83.5
497.312	78.5
497.529	82.5
497.746	81.5
497.963	83.5
498.181	80.5
498.398	82.5
498.615	78.5
498.832	66.5
499.049	64.5
499.267	78.5
499.484	86.5
499.701	84.5
499.918	90.5
500.135	74.5
500.352	92.5
500.569	79.5
500.786	77.5
501.003	84.5
501.22	80.5
501.437	76.5
501.654	82.5
501.871	86.5
502.088	87.5
502.305	69.5
502.522	83.5
502.739	75.5
502.956	75.5
503.172	72.5
503.389	78.5
503.606	74.5
503.823	69.5
504.04	72.5
504.256	78.5
504.473	83.5
504.69	71.5
504.907	66.5
505.123	94.5
505.34	79.5
505.557	77.5
505.773	74.5
505.99	76.5
506.207	72.5
506.423	71.5
506.64	86.5
506.856	73.5
507.073	83.5
507.289	94.5
507.506	76.5
507.722	62.5
507.939	85.5
508.155	88.5
508.372	79.5
508.588	66.5
508.805	78.5
509.021	72.5
509.238	87.5
509.454	89.5
509.67	81.5
509.887	68.5
510.103	81.5
510.319	76.5
510.536	78.5
510.752	80.5
510.968	91.5
511.184	77.5
511.401	73.5
511.617	83.5
511.833	74.5
512.049	62.5
512.265	69.5
512.481	64.5
512.698	74.5
512.914	85.5
513.13	74.5
513.346	72.5
513.562	90.5
513.778	69.5
513.994	92.5
514.21	80.5
514.426	84.5
514.642	79.5
514.858	71.5
515.074	89.5
515.29	74.5
515.506	68.5
515.721	82.5
515.937	86.5
516.153	79.5
516.369	79.5
516.585	71.5
516.801	84.5
517.016	82.5
517.232	72.5
517.448	74.5
517.664	82.5
517.879	81.5
518.095	75.5
518.311	85.5
518.527	76.5
518.742	87.5
518.958	91.5
519.173	99.5
519.389	72.5
519.605	80.5
519.82	84.5
520.036	92.5
520.251	73.5
520.467	76.5
520.682	76.5
520.898	75.5
521.113	70.5
521.329	71.5
521.544	80.5
521.76	80.5
521.975	65.5
522.19	82.5
522.406	73.5
522.621	79.5
522.836	77.5
523.052	72.5
523.267	92.5
523.482	92.5
523.698	74.5
523.913	84.5
524.128	82.5
524.343	93.5
524.559	80.5
524.774	73.5
524.989	81.5
525.204	82.5
525.419	87.5
525.634	84.5
525.849	77.5
526.064	74.5
526.28	90.5
526.495	96.5
526.71	93.5
526.925	84.5
527.14	85.5
527.355	93.5
527.57	92.5
527.785	86.5
527.999	86.5
528.214	81.5
528.429	86.5
528.644	80.5
528.859	94.5
529.074	97.5
529.289	80.5
529.503	71.5
529.718	79.5
529.933	65.5
530.148	62.5
530.363	87.5
530.577	79.5
530.792	72.5
531.007	84.5
531.221	77.5
531.436	71.5
531.651	67.5
531.865	93.5
532.08	84.5
532.295	75.5
532.509	83.5
532.724	94.5
532.938	90.5
533.153	77.5
533.367	76.5
533.582	91.5
533.796	72.5
534.011	85.5
534.225	98.5
534.44	87.5
534.654	90.5
534.868	77.5
535.083	85.5
535.297	102.5
535.511	87.5
535.726	77.5
535.94	86.5
536.154	87.5
536.369	76.5
536.583	92.5
536.797	86.5
537.011	86.5
537.225	86.5
537.44	76.5
537.654	90.5
537.868	77.5
538.082	85.5
538.296	80.5
538.51	76.5
538.724	81.5
538.938	74.5
539.153	77.5
539.367	85.5
539.581	84.5
539.795	81.5
540.009	77.5
540.222	77.5
540.436	97.5
