Data from Dirtnoheat3_HRD10591_00009.txt Node
Date: Fri Dec 27 15:21:22 EST 2024
User: Yrep
Spectrometer: HR+D1059
Trigger mode: 1
Integration Time (sec): 1.000000E-1
Scans to average: 1
Electric dark correction enabled: true
Nonlinearity correction enabled: false
Boxcar width: 0
XAxis mode: Wavelengths
Number of Pixels in Spectrum: 2048
>>>>>Begin Spectral Data<<<<<
223.165	-11.94
223.4	-11.94
223.635	-11.94
223.869	-16.94
224.104	-11.94
224.338	-3.94
224.573	-28.94
224.808	-1.94
225.042	-9.94
225.277	-17.94
225.511	-5.94
225.746	-2.94
225.98	1.06
226.215	20.06
226.449	10.06
226.683	29.06
226.918	30.06
227.152	22.06
227.387	34.06
227.621	36.06
227.856	28.06
228.09	28.06
228.324	50.06
228.559	44.06
228.793	64.06
229.027	58.06
229.262	64.06
229.496	61.06
229.73	70.06
229.964	67.06
230.199	80.06
230.433	70.06
230.667	78.06
230.901	80.06
231.136	81.06
231.37	90.06
231.604	87.06
231.838	67.06
232.072	81.06
232.306	88.06
232.541	69.06
232.775	81.06
233.009	98.06
233.243	78.06
233.477	71.06
233.711	77.06
233.945	76.06
234.179	86.06
234.413	89.06
234.647	81.06
234.881	90.06
235.115	98.06
235.349	74.06
235.583	75.06
235.817	63.06
236.051	97.06
236.285	79.06
236.519	79.06
236.753	80.06
236.987	79.06
237.221	87.06
237.455	83.06
237.689	81.06
237.922	70.06
238.156	76.06
238.39	81.06
238.624	68.06
238.858	87.06
239.091	69.06
239.325	66.06
239.559	84.06
239.793	87.06
240.027	83.06
240.26	70.06
240.494	85.06
240.728	59.06
240.961	64.06
241.195	57.06
241.429	80.06
241.662	73.06
241.896	72.06
242.13	83.06
242.363	78.06
242.597	70.06
242.83	74.06
243.064	81.06
243.298	82.06
243.531	79.06
243.765	76.06
243.998	79.06
244.232	56.06
244.465	72.06
244.699	70.06
244.932	51.06
245.166	81.06
245.399	82.06
245.633	63.06
245.866	72.06
246.099	88.06
246.333	66.06
246.566	84.06
246.8	93.06
247.033	83.06
247.266	76.06
247.5	75.06
247.733	80.06
247.966	78.06
248.2	69.06
248.433	89.06
248.666	75.06
248.899	80.06
249.133	76.06
249.366	84.06
249.599	74.06
249.832	80.06
250.066	93.06
250.299	79.06
250.532	81.06
250.765	90.06
250.998	87.06
251.231	83.06
251.465	88.06
251.698	72.06
251.931	74.06
252.164	76.06
252.397	73.06
252.63	72.06
252.863	90.06
253.096	76.06
253.329	81.06
253.562	85.06
253.795	96.06
254.028	80.06
254.261	68.06
254.494	63.06
254.727	84.06
254.96	81.06
255.193	78.06
255.426	83.06
255.659	90.06
255.892	86.06
256.124	74.06
256.357	79.06
256.59	87.06
256.823	86.06
257.056	69.06
257.289	86.06
257.521	87.06
257.754	76.06
257.987	82.06
258.22	83.06
258.452	70.06
258.685	88.06
258.918	74.06
259.151	77.06
259.383	85.06
259.616	78.06
259.849	79.06
260.081	80.06
260.314	64.06
260.547	75.06
260.779	78.06
261.012	79.06
261.244	91.06
261.477	85.06
261.71	75.06
261.942	71.06
262.175	83.06
262.407	78.06
262.64	65.06
262.872	87.06
263.105	90.06
263.337	79.06
263.57	91.06
263.802	77.06
264.035	79.06
264.267	83.06
264.499	74.06
264.732	80.06
264.964	88.06
265.197	86.06
265.429	77.06
265.661	87.06
265.894	74.06
266.126	86.06
266.358	79.06
266.591	82.06
266.823	88.06
267.055	85.06
267.287	74.06
267.52	86.06
267.752	88.06
267.984	75.06
268.216	71.06
268.448	79.06
268.681	91.06
268.913	77.06
269.145	80.06
269.377	76.06
269.609	80.06
269.841	77.06
270.073	68.06
270.306	82.06
270.538	90.06
270.77	81.06
271.002	84.06
271.234	93.06
271.466	83.06
271.698	84.06
271.93	69.06
272.162	70.06
272.394	79.06
272.626	80.06
272.858	78.06
273.09	80.06
273.322	83.06
273.553	88.06
273.785	82.06
274.017	82.06
274.249	82.06
274.481	83.06
274.713	74.06
274.945	67.06
275.176	72.06
275.408	75.06
275.64	76.06
275.872	89.06
276.104	88.06
276.335	83.06
276.567	103.06
276.799	91.06
277.031	66.06
277.262	81.06
277.494	87.06
277.726	87.06
277.957	86.06
278.189	87.06
278.421	78.06
278.652	80.06
278.884	88.06
279.115	72.06
279.347	82.06
279.579	76.06
279.81	87.06
280.042	77.06
280.273	74.06
280.505	72.06
280.736	79.06
280.968	73.06
281.199	87.06
281.431	79.06
281.662	80.06
281.894	83.06
282.125	80.06
282.356	85.06
282.588	77.06
282.819	94.06
283.051	90.06
283.282	78.06
283.513	86.06
283.745	92.06
283.976	83.06
284.207	92.06
284.439	84.06
284.67	95.06
284.901	95.06
285.132	85.06
285.364	81.06
285.595	72.06
285.826	92.06
286.057	87.06
286.288	84.06
286.52	68.06
286.751	88.06
286.982	88.06
287.213	76.06
287.444	96.06
287.675	88.06
287.906	89.06
288.138	73.06
288.369	79.06
288.6	93.06
288.831	71.06
289.062	61.06
289.293	98.06
289.524	72.06
289.755	74.06
289.986	82.06
290.217	72.06
290.448	79.06
290.679	87.06
290.91	80.06
291.141	72.06
291.371	98.06
291.602	73.06
291.833	75.06
292.064	91.06
292.295	78.06
292.526	78.06
292.757	79.06
292.987	93.06
293.218	75.06
293.449	67.06
293.68	80.06
293.91	87.06
294.141	91.06
294.372	75.06
294.603	81.06
294.833	77.06
295.064	82.06
295.295	88.06
295.525	75.06
295.756	75.06
295.987	73.06
296.217	91.06
296.448	69.06
296.679	90.06
296.909	73.06
297.14	76.06
297.37	84.06
297.601	87.06
297.831	84.06
298.062	82.06
298.292	75.06
298.523	76.06
298.753	88.06
298.984	73.06
299.214	87.06
299.445	83.06
299.675	99.06
299.905	76.06
300.136	86.06
300.366	77.06
300.597	84.06
300.827	79.06
301.057	91.06
301.288	92.06
301.518	76.06
301.748	84.06
301.979	98.06
302.209	78.06
302.439	81.06
302.669	83.06
302.9	78.06
303.13	92.06
303.36	92.06
303.59	79.06
303.82	75.06
304.051	86.06
304.281	74.06
304.511	81.06
304.741	101.06
304.971	78.06
305.201	87.06
305.431	88.06
305.661	82.06
305.891	87.06
306.121	95.06
306.352	69.06
306.582	88.06
306.812	98.06
307.042	94.06
307.272	88.06
307.502	73.06
307.731	73.06
307.961	71.06
308.191	78.06
308.421	86.06
308.651	100.06
308.881	90.06
309.111	78.06
309.341	75.06
309.571	91.06
309.8	76.06
310.03	96.06
310.26	89.06
310.49	98.06
310.72	76.06
310.949	91.06
311.179	68.06
311.409	81.06
311.639	76.06
311.868	84.06
312.098	78.06
312.328	79.06
312.557	82.06
312.787	75.06
313.017	68.06
313.246	81.06
313.476	82.06
313.706	79.06
313.935	66.06
314.165	88.06
314.394	76.06
314.624	81.06
314.853	99.06
315.083	78.06
315.312	78.06
315.542	78.06
315.771	83.06
316.001	76.06
316.23	89.06
316.46	81.06
316.689	88.06
316.919	86.06
317.148	97.06
317.377	91.06
317.607	96.06
317.836	79.06
318.065	85.06
318.295	78.06
318.524	92.06
318.753	83.06
318.983	71.06
319.212	92.06
319.441	87.06
319.67	83.06
319.9	81.06
320.129	80.06
320.358	76.06
320.587	81.06
320.816	80.06
321.046	89.06
321.275	74.06
321.504	78.06
321.733	67.06
321.962	91.06
322.191	87.06
322.42	79.06
322.649	77.06
322.878	79.06
323.108	74.06
323.337	69.06
323.566	90.06
323.795	80.06
324.024	78.06
324.253	78.06
324.482	74.06
324.71	91.06
324.939	83.06
325.168	72.06
325.397	79.06
325.626	92.06
325.855	80.06
326.084	81.06
326.313	81.06
326.542	88.06
326.77	86.06
326.999	80.06
327.228	78.06
327.457	78.06
327.686	81.06
327.914	74.06
328.143	86.06
328.372	81.06
328.6	75.06
328.829	88.06
329.058	81.06
329.287	72.06
329.515	81.06
329.744	83.06
329.972	89.06
330.201	86.06
330.43	80.06
330.658	83.06
330.887	86.06
331.115	88.06
331.344	78.06
331.572	76.06
331.801	76.06
332.03	87.06
332.258	82.06
332.486	66.06
332.715	87.06
332.943	80.06
333.172	95.06
333.4	89.06
333.629	71.06
333.857	74.06
334.085	77.06
334.314	82.06
334.542	92.06
334.771	83.06
334.999	100.06
335.227	74.06
335.455	72.06
335.684	80.06
335.912	82.06
336.14	79.06
336.369	82.06
336.597	77.06
336.825	91.06
337.053	86.06
337.281	79.06
337.51	95.06
337.738	78.06
337.966	75.06
338.194	68.06
338.422	85.06
338.65	75.06
338.878	88.06
339.106	74.06
339.334	82.06
339.562	88.06
339.79	85.06
340.018	84.06
340.246	82.06
340.474	86.06
340.702	94.06
340.93	87.06
341.158	85.06
341.386	73.06
341.614	73.06
341.842	79.06
342.07	89.06
342.298	95.06
342.526	79.06
342.754	76.06
342.981	73.06
343.209	91.06
343.437	95.06
343.665	79.06
343.893	79.06
344.12	97.06
344.348	84.06
344.576	78.06
344.804	84.06
345.031	89.06
345.259	80.06
345.487	88.06
345.714	88.06
345.942	79.06
346.17	74.06
346.397	83.06
346.625	80.06
346.853	81.06
347.08	76.06
347.308	83.06
347.535	85.06
347.763	88.06
347.99	93.06
348.218	87.06
348.445	82.06
348.673	90.06
348.9	94.06
349.128	104.06
349.355	83.06
349.583	93.06
349.81	67.06
350.037	94.06
350.265	84.06
350.492	95.06
350.72	87.06
350.947	93.06
351.174	77.06
351.402	91.06
351.629	90.06
351.856	88.06
352.083	74.06
352.311	87.06
352.538	76.06
352.765	79.06
352.992	88.06
353.22	82.06
353.447	91.06
353.674	85.06
353.901	76.06
354.128	94.06
354.355	85.06
354.583	78.06
354.81	88.06
355.037	86.06
355.264	77.06
355.491	80.06
355.718	84.06
355.945	79.06
356.172	82.06
356.399	88.06
356.626	82.06
356.853	93.06
357.08	92.06
357.307	89.06
357.534	86.06
357.761	74.06
357.988	86.06
358.215	78.06
358.441	87.06
358.668	90.06
358.895	81.06
359.122	80.06
359.349	76.06
359.576	73.06
359.802	84.06
360.029	98.06
360.256	77.06
360.483	102.06
360.709	70.06
360.936	85.06
361.163	79.06
361.39	77.06
361.616	75.06
361.843	93.06
362.07	86.06
362.296	89.06
362.523	82.06
362.749	78.06
362.976	92.06
363.203	72.06
363.429	80.06
363.656	81.06
363.882	81.06
364.109	62.06
364.335	81.06
364.562	86.06
364.788	88.06
365.015	93.06
365.241	89.06
365.468	78.06
365.694	82.06
365.92	85.06
366.147	86.06
366.373	82.06
366.599	81.06
366.826	95.06
367.052	96.06
367.278	85.06
367.505	88.06
367.731	92.06
367.957	81.06
368.184	88.06
368.41	89.06
368.636	93.06
368.862	88.06
369.089	86.06
369.315	82.06
369.541	87.06
369.767	80.06
369.993	78.06
370.219	66.06
370.445	71.06
370.672	79.06
370.898	71.06
371.124	86.06
371.35	72.06
371.576	74.06
371.802	82.06
372.028	91.06
372.254	77.06
372.48	93.06
372.706	76.06
372.932	80.06
373.158	94.06
373.384	91.06
373.61	90.06
373.835	79.06
374.061	93.06
374.287	87.06
374.513	92.06
374.739	89.06
374.965	91.06
375.191	78.06
375.416	68.06
375.642	88.06
375.868	94.06
376.094	77.06
376.319	89.06
376.545	90.06
376.771	80.06
376.997	86.06
377.222	84.06
377.448	72.06
377.674	94.06
377.899	78.06
378.125	73.06
378.35	82.06
378.576	86.06
378.802	86.06
379.027	89.06
379.253	84.06
379.478	79.06
379.704	82.06
379.929	97.06
380.155	80.06
380.38	94.06
380.606	75.06
380.831	71.06
381.057	85.06
381.282	94.06
381.507	82.06
381.733	86.06
381.958	87.06
382.184	77.06
382.409	85.06
382.634	85.06
382.86	77.06
383.085	85.06
383.31	82.06
383.535	81.06
383.761	78.06
383.986	71.06
384.211	91.06
384.436	92.06
384.662	70.06
384.887	72.06
385.112	78.06
385.337	72.06
385.562	79.06
385.787	61.06
386.013	82.06
386.238	76.06
386.463	80.06
386.688	94.06
386.913	102.06
387.138	78.06
387.363	89.06
387.588	80.06
387.813	77.06
388.038	77.06
388.263	78.06
388.488	79.06
388.713	90.06
388.938	88.06
389.163	83.06
389.387	97.06
389.612	92.06
389.837	69.06
390.062	80.06
390.287	84.06
390.512	81.06
390.736	68.06
390.961	68.06
391.186	87.06
391.411	87.06
391.636	77.06
391.86	91.06
392.085	82.06
392.31	80.06
392.534	75.06
392.759	78.06
392.984	96.06
393.208	87.06
393.433	99.06
393.658	83.06
393.882	75.06
394.107	81.06
394.331	77.06
394.556	79.06
394.78	78.06
395.005	82.06
395.229	68.06
395.454	78.06
395.678	84.06
395.903	80.06
396.127	94.06
396.352	77.06
396.576	87.06
396.801	95.06
397.025	87.06
397.249	81.06
397.474	87.06
397.698	87.06
397.922	81.06
398.147	98.06
398.371	76.06
398.595	87.06
398.82	97.06
399.044	85.06
399.268	91.06
399.492	87.06
399.717	87.06
399.941	71.06
400.165	92.06
400.389	73.06
400.613	86.06
400.837	90.06
401.062	75.06
401.286	102.06
401.51	74.06
401.734	84.06
401.958	76.06
402.182	80.06
402.406	79.06
402.63	73.06
402.854	74.06
403.078	83.06
403.302	83.06
403.526	78.06
403.75	77.06
403.974	68.06
404.198	74.06
404.422	80.06
404.645	81.06
404.869	74.06
405.093	81.06
405.317	83.06
405.541	72.06
405.765	82.06
405.988	87.06
406.212	88.06
406.436	90.06
406.66	97.06
406.883	82.06
407.107	75.06
407.331	86.06
407.555	74.06
407.778	82.06
408.002	74.06
408.226	93.06
408.449	69.06
408.673	74.06
408.896	86.06
409.12	88.06
409.344	74.06
409.567	83.06
409.791	72.06
410.014	83.06
410.238	74.06
410.461	70.06
410.685	87.06
410.908	92.06
411.132	91.06
411.355	88.06
411.578	86.06
411.802	85.06
412.025	73.06
412.249	79.06
412.472	63.06
412.695	76.06
412.919	73.06
413.142	92.06
413.365	78.06
413.589	74.06
413.812	68.06
414.035	89.06
414.258	92.06
414.482	81.06
414.705	66.06
414.928	80.06
415.151	82.06
415.374	81.06
415.597	89.06
415.821	84.06
416.044	72.06
416.267	76.06
416.49	71.06
416.713	67.06
416.936	74.06
417.159	82.06
417.382	83.06
417.605	77.06
417.828	85.06
418.051	82.06
418.274	78.06
418.497	87.06
418.72	72.06
418.943	74.06
419.166	83.06
419.389	89.06
419.611	84.06
419.834	77.06
420.057	74.06
420.28	88.06
420.503	86.06
420.726	80.06
420.948	79.06
421.171	88.06
421.394	85.06
421.617	93.06
421.839	76.06
422.062	84.06
422.285	84.06
422.507	81.06
422.73	90.06
422.953	80.06
423.175	95.06
423.398	90.06
423.621	77.06
423.843	91.06
424.066	79.06
424.288	92.06
424.511	65.06
424.733	81.06
424.956	66.06
425.178	81.06
425.401	81.06
425.623	94.06
425.846	96.06
426.068	86.06
426.291	82.06
426.513	75.06
426.735	91.06
426.958	85.06
427.18	79.06
427.402	80.06
427.625	77.06
427.847	80.06
428.069	81.06
428.292	97.06
428.514	87.06
428.736	71.06
428.958	84.06
429.181	91.06
429.403	76.06
429.625	93.06
429.847	84.06
430.069	97.06
430.292	107.06
430.514	101.06
430.736	92.06
430.958	71.06
431.18	86.06
431.402	80.06
431.624	92.06
431.846	86.06
432.068	97.06
432.29	80.06
432.512	82.06
432.734	77.06
432.956	76.06
433.178	83.06
433.4	78.06
433.622	74.06
433.844	88.06
434.066	79.06
434.287	81.06
434.509	78.06
434.731	82.06
434.953	72.06
435.175	77.06
435.397	79.06
435.618	86.06
435.84	68.06
436.062	72.06
436.284	74.06
436.505	74.06
436.727	90.06
436.949	86.06
437.17	92.06
437.392	87.06
437.614	88.06
437.835	72.06
438.057	67.06
438.278	91.06
438.5	73.06
438.721	73.06
438.943	71.06
439.165	82.06
439.386	84.06
439.608	91.06
439.829	78.06
440.05	76.06
440.272	87.06
440.493	93.06
440.715	90.06
440.936	85.06
441.158	96.06
441.379	72.06
441.6	79.06
441.822	80.06
442.043	77.06
442.264	85.06
442.486	77.06
442.707	83.06
442.928	93.06
443.149	80.06
443.371	82.06
443.592	93.06
443.813	77.06
444.034	95.06
444.255	79.06
444.476	76.06
444.698	84.06
444.919	82.06
445.14	148.06
445.361	120.06
445.582	89.06
445.803	82.06
446.024	81.06
446.245	91.06
446.466	67.06
446.687	79.06
446.908	99.06
447.129	94.06
447.35	90.06
447.571	78.06
447.792	73.06
448.013	81.06
448.234	80.06
448.455	75.06
448.675	75.06
448.896	88.06
449.117	86.06
449.338	76.06
449.559	81.06
449.779	71.06
450	67.06
450.221	84.06
450.442	76.06
450.662	80.06
450.883	78.06
451.104	84.06
451.324	90.06
451.545	83.06
451.766	81.06
451.986	76.06
452.207	86.06
452.428	89.06
452.648	83.06
452.869	90.06
453.089	81.06
453.31	78.06
453.53	104.06
453.751	82.06
453.971	86.06
454.192	73.06
454.412	72.06
454.633	73.06
454.853	82.06
455.073	85.06
455.294	90.06
455.514	89.06
455.734	81.06
455.955	71.06
456.175	73.06
456.395	90.06
456.616	85.06
456.836	91.06
457.056	74.06
457.276	94.06
457.497	86.06
457.717	73.06
457.937	87.06
458.157	82.06
458.377	96.06
458.598	78.06
458.818	88.06
459.038	79.06
459.258	96.06
459.478	69.06
459.698	82.06
459.918	85.06
460.138	69.06
460.358	76.06
460.578	61.06
460.798	83.06
461.018	68.06
461.238	70.06
461.458	80.06
461.678	89.06
461.898	74.06
462.118	91.06
462.338	91.06
462.558	65.06
462.777	95.06
462.997	88.06
463.217	76.06
463.437	93.06
463.657	88.06
463.876	79.06
464.096	73.06
464.316	65.06
464.536	78.06
464.755	81.06
464.975	78.06
465.195	80.06
465.414	83.06
465.634	70.06
465.854	83.06
466.073	87.06
466.293	86.06
466.512	105.06
466.732	88.06
466.951	69.06
467.171	73.06
467.391	89.06
467.61	79.06
467.829	82.06
468.049	91.06
468.268	75.06
468.488	84.06
468.707	60.06
468.927	80.06
469.146	94.06
469.365	83.06
469.585	77.06
469.804	85.06
470.023	98.06
470.243	92.06
470.462	80.06
470.681	95.06
470.901	82.06
471.12	86.06
471.339	79.06
471.558	81.06
471.777	84.06
471.997	106.06
472.216	81.06
472.435	81.06
472.654	91.06
472.873	81.06
473.092	74.06
473.311	78.06
473.53	79.06
473.749	83.06
473.968	78.06
474.187	84.06
474.406	90.06
474.625	72.06
474.844	94.06
475.063	83.06
475.282	80.06
475.501	72.06
475.72	86.06
475.939	82.06
476.158	77.06
476.377	84.06
476.596	74.06
476.814	67.06
477.033	76.06
477.252	80.06
477.471	82.06
477.69	73.06
477.908	81.06
478.127	83.06
478.346	88.06
478.564	65.06
478.783	84.06
479.002	76.06
479.22	85.06
479.439	86.06
479.658	72.06
479.876	80.06
480.095	88.06
480.313	93.06
480.532	90.06
480.751	88.06
480.969	75.06
481.188	81.06
481.406	76.06
481.624	85.06
481.843	74.06
482.061	77.06
482.28	92.06
482.498	69.06
482.717	79.06
482.935	86.06
483.153	90.06
483.372	91.06
483.59	82.06
483.808	77.06
484.027	70.06
484.245	97.06
484.463	81.06
484.681	91.06
484.9	78.06
485.118	89.06
485.336	86.06
485.554	74.06
485.772	76.06
485.99	95.06
486.209	98.06
486.427	77.06
486.645	74.06
486.863	81.06
487.081	82.06
487.299	90.06
487.517	81.06
487.735	89.06
487.953	78.06
488.171	93.06
488.389	79.06
488.607	93.06
488.825	86.06
489.043	81.06
489.261	80.06
489.479	75.06
489.696	92.06
489.914	90.06
490.132	76.06
490.35	87.06
490.568	84.06
490.786	78.06
491.003	83.06
491.221	74.06
491.439	79.06
491.657	88.06
491.874	90.06
492.092	83.06
492.31	89.06
492.527	91.06
492.745	97.06
492.963	98.06
493.18	91.06
493.398	90.06
493.615	79.06
493.833	86.06
494.05	83.06
494.268	95.06
494.485	92.06
494.703	86.06
494.92	67.06
495.138	80.06
495.355	102.06
495.573	93.06
495.79	75.06
496.008	79.06
496.225	67.06
496.442	88.06
496.66	84.06
496.877	102.06
497.094	100.06
497.312	80.06
497.529	82.06
497.746	63.06
497.963	79.06
498.181	84.06
498.398	78.06
498.615	78.06
498.832	89.06
499.049	86.06
499.267	99.06
499.484	75.06
499.701	90.06
499.918	98.06
500.135	91.06
500.352	78.06
500.569	90.06
500.786	91.06
501.003	82.06
501.22	90.06
501.437	77.06
501.654	90.06
501.871	88.06
502.088	86.06
502.305	89.06
502.522	85.06
502.739	90.06
502.956	82.06
503.172	85.06
503.389	74.06
503.606	79.06
503.823	87.06
504.04	87.06
504.256	90.06
504.473	93.06
504.69	89.06
504.907	93.06
505.123	75.06
505.34	83.06
505.557	71.06
505.773	77.06
505.99	85.06
506.207	79.06
506.423	73.06
506.64	91.06
506.856	76.06
507.073	75.06
507.289	97.06
507.506	86.06
507.722	87.06
507.939	85.06
508.155	100.06
508.372	87.06
508.588	83.06
508.805	78.06
509.021	78.06
509.238	74.06
509.454	80.06
509.67	72.06
509.887	85.06
510.103	76.06
510.319	75.06
510.536	89.06
510.752	95.06
510.968	89.06
511.184	84.06
511.401	82.06
511.617	97.06
511.833	79.06
512.049	93.06
512.265	83.06
512.481	79.06
512.698	61.06
512.914	92.06
513.13	70.06
513.346	72.06
513.562	89.06
513.778	95.06
513.994	78.06
514.21	99.06
514.426	91.06
514.642	85.06
514.858	91.06
515.074	80.06
515.29	75.06
515.506	76.06
515.721	76.06
515.937	91.06
516.153	95.06
516.369	77.06
516.585	79.06
516.801	78.06
517.016	87.06
517.232	84.06
517.448	92.06
517.664	76.06
517.879	85.06
518.095	87.06
518.311	103.06
518.527	86.06
518.742	96.06
518.958	83.06
519.173	82.06
519.389	75.06
519.605	82.06
519.82	82.06
520.036	93.06
