Data from Dirtnoheat3_HRD10591_00016.txt Node
Date: Fri Dec 27 15:21:29 EST 2024
User: Yrep
Spectrometer: HR+D1059
Trigger mode: 1
Integration Time (sec): 1.000000E-1
Scans to average: 1
Electric dark correction enabled: true
Nonlinearity correction enabled: false
Boxcar width: 0
XAxis mode: Wavelengths
Number of Pixels in Spectrum: 2048
>>>>>Begin Spectral Data<<<<<
223.165	-30.06
223.4	-30.06
223.635	-30.06
223.869	-18.06
224.104	-22.06
224.338	-24.06
224.573	-29.06
224.808	-16.06
225.042	1.94
225.277	1.94
225.511	0.94
225.746	10.94
225.98	20.94
226.215	5.94
226.449	23.94
226.683	19.94
226.918	19.94
227.152	32.94
227.387	15.94
227.621	40.94
227.856	38.94
228.09	46.94
228.324	54.94
228.559	56.94
228.793	64.94
229.027	76.94
229.262	63.94
229.496	73.94
229.73	78.94
229.964	66.94
230.199	68.94
230.433	68.94
230.667	73.94
230.901	70.94
231.136	78.94
231.37	79.94
231.604	78.94
231.838	75.94
232.072	75.94
232.306	83.94
232.541	78.94
232.775	99.94
233.009	91.94
233.243	84.94
233.477	93.94
233.711	75.94
233.945	79.94
234.179	73.94
234.413	75.94
234.647	94.94
234.881	67.94
235.115	72.94
235.349	80.94
235.583	84.94
235.817	82.94
236.051	74.94
236.285	83.94
236.519	70.94
236.753	72.94
236.987	80.94
237.221	66.94
237.455	74.94
237.689	67.94
237.922	73.94
238.156	74.94
238.39	89.94
238.624	80.94
238.858	72.94
239.091	78.94
239.325	91.94
239.559	70.94
239.793	81.94
240.027	71.94
240.26	75.94
240.494	72.94
240.728	71.94
240.961	80.94
241.195	75.94
241.429	74.94
241.662	89.94
241.896	67.94
242.13	75.94
242.363	78.94
242.597	73.94
242.83	59.94
243.064	87.94
243.298	80.94
243.531	74.94
243.765	86.94
243.998	83.94
244.232	76.94
244.465	87.94
244.699	91.94
244.932	78.94
245.166	75.94
245.399	82.94
245.633	78.94
245.866	72.94
246.099	77.94
246.333	75.94
246.566	65.94
246.8	83.94
247.033	84.94
247.266	91.94
247.5	73.94
247.733	88.94
247.966	67.94
248.2	70.94
248.433	75.94
248.666	72.94
248.899	84.94
249.133	72.94
249.366	72.94
249.599	90.94
249.832	88.94
250.066	87.94
250.299	92.94
250.532	84.94
250.765	87.94
250.998	79.94
251.231	73.94
251.465	85.94
251.698	80.94
251.931	82.94
252.164	78.94
252.397	81.94
252.63	73.94
252.863	72.94
253.096	87.94
253.329	73.94
253.562	81.94
253.795	64.94
254.028	69.94
254.261	74.94
254.494	91.94
254.727	88.94
254.96	69.94
255.193	87.94
255.426	80.94
255.659	60.94
255.892	87.94
256.124	78.94
256.357	88.94
256.59	79.94
256.823	87.94
257.056	90.94
257.289	89.94
257.521	76.94
257.754	76.94
257.987	71.94
258.22	75.94
258.452	80.94
258.685	94.94
258.918	75.94
259.151	78.94
259.383	79.94
259.616	79.94
259.849	94.94
260.081	109.94
260.314	71.94
260.547	82.94
260.779	75.94
261.012	73.94
261.244	80.94
261.477	79.94
261.71	73.94
261.942	100.94
262.175	68.94
262.407	72.94
262.64	57.94
262.872	76.94
263.105	67.94
263.337	78.94
263.57	62.94
263.802	79.94
264.035	75.94
264.267	66.94
264.499	75.94
264.732	75.94
264.964	81.94
265.197	84.94
265.429	89.94
265.661	81.94
265.894	97.94
266.126	87.94
266.358	71.94
266.591	83.94
266.823	85.94
267.055	76.94
267.287	86.94
267.52	87.94
267.752	91.94
267.984	91.94
268.216	91.94
268.448	78.94
268.681	88.94
268.913	77.94
269.145	88.94
269.377	81.94
269.609	86.94
269.841	74.94
270.073	81.94
270.306	78.94
270.538	78.94
270.77	78.94
271.002	79.94
271.234	80.94
271.466	75.94
271.698	89.94
271.93	91.94
272.162	82.94
272.394	82.94
272.626	86.94
272.858	78.94
273.09	73.94
273.322	79.94
273.553	89.94
273.785	77.94
274.017	79.94
274.249	90.94
274.481	80.94
274.713	79.94
274.945	84.94
275.176	91.94
275.408	79.94
275.64	77.94
275.872	71.94
276.104	94.94
276.335	95.94
276.567	83.94
276.799	75.94
277.031	81.94
277.262	77.94
277.494	93.94
277.726	76.94
277.957	81.94
278.189	84.94
278.421	77.94
278.652	70.94
278.884	95.94
279.115	92.94
279.347	85.94
279.579	88.94
279.81	67.94
280.042	72.94
280.273	80.94
280.505	74.94
280.736	77.94
280.968	98.94
281.199	76.94
281.431	67.94
281.662	74.94
281.894	91.94
282.125	80.94
282.356	78.94
282.588	82.94
282.819	68.94
283.051	90.94
283.282	76.94
283.513	92.94
283.745	91.94
283.976	83.94
284.207	79.94
284.439	71.94
284.67	79.94
284.901	95.94
285.132	85.94
285.364	84.94
285.595	81.94
285.826	62.94
286.057	83.94
286.288	88.94
286.52	72.94
286.751	88.94
286.982	76.94
287.213	86.94
287.444	84.94
287.675	82.94
287.906	93.94
288.138	86.94
288.369	90.94
288.6	78.94
288.831	81.94
289.062	81.94
289.293	86.94
289.524	59.94
289.755	95.94
289.986	72.94
290.217	88.94
290.448	82.94
290.679	78.94
290.91	74.94
291.141	86.94
291.371	75.94
291.602	75.94
291.833	91.94
292.064	92.94
292.295	86.94
292.526	83.94
292.757	89.94
292.987	82.94
293.218	83.94
293.449	89.94
293.68	78.94
293.91	82.94
294.141	86.94
294.372	74.94
294.603	79.94
294.833	88.94
295.064	76.94
295.295	79.94
295.525	79.94
295.756	92.94
295.987	78.94
296.217	81.94
296.448	94.94
296.679	80.94
296.909	78.94
297.14	89.94
297.37	85.94
297.601	74.94
297.831	89.94
298.062	89.94
298.292	82.94
298.523	82.94
298.753	88.94
298.984	85.94
299.214	66.94
299.445	84.94
299.675	82.94
299.905	83.94
300.136	77.94
300.366	84.94
300.597	88.94
300.827	84.94
301.057	89.94
301.288	77.94
301.518	82.94
301.748	87.94
301.979	93.94
302.209	86.94
302.439	87.94
302.669	88.94
302.9	81.94
303.13	94.94
303.36	89.94
303.59	71.94
303.82	99.94
304.051	76.94
304.281	74.94
304.511	87.94
304.741	57.94
304.971	66.94
305.201	84.94
305.431	95.94
305.661	84.94
305.891	89.94
306.121	88.94
306.352	73.94
306.582	82.94
306.812	77.94
307.042	95.94
307.272	91.94
307.502	99.94
307.731	85.94
307.961	87.94
308.191	80.94
308.421	90.94
308.651	91.94
308.881	76.94
309.111	85.94
309.341	87.94
309.571	76.94
309.8	86.94
310.03	91.94
310.26	81.94
310.49	93.94
310.72	83.94
310.949	85.94
311.179	92.94
311.409	85.94
311.639	76.94
311.868	84.94
312.098	77.94
312.328	93.94
312.557	87.94
312.787	82.94
313.017	86.94
313.246	80.94
313.476	80.94
313.706	90.94
313.935	79.94
314.165	91.94
314.394	86.94
314.624	79.94
314.853	87.94
315.083	73.94
315.312	88.94
315.542	89.94
315.771	85.94
316.001	89.94
316.23	78.94
316.46	80.94
316.689	98.94
316.919	74.94
317.148	89.94
317.377	75.94
317.607	74.94
317.836	86.94
318.065	77.94
318.295	84.94
318.524	92.94
318.753	95.94
318.983	80.94
319.212	97.94
319.441	82.94
319.67	95.94
319.9	80.94
320.129	80.94
320.358	82.94
320.587	82.94
320.816	89.94
321.046	75.94
321.275	81.94
321.504	89.94
321.733	79.94
321.962	94.94
322.191	94.94
322.42	79.94
322.649	85.94
322.878	86.94
323.108	84.94
323.337	77.94
323.566	92.94
323.795	80.94
324.024	87.94
324.253	85.94
324.482	87.94
324.71	77.94
324.939	83.94
325.168	96.94
325.397	71.94
325.626	75.94
325.855	82.94
326.084	88.94
326.313	88.94
326.542	86.94
326.77	76.94
326.999	79.94
327.228	83.94
327.457	89.94
327.686	81.94
327.914	78.94
328.143	67.94
328.372	84.94
328.6	68.94
328.829	68.94
329.058	88.94
329.287	86.94
329.515	85.94
329.744	89.94
329.972	77.94
330.201	83.94
330.43	78.94
330.658	82.94
330.887	73.94
331.115	76.94
331.344	84.94
331.572	111.94
331.801	83.94
332.03	66.94
332.258	81.94
332.486	73.94
332.715	88.94
332.943	90.94
333.172	96.94
333.4	86.94
333.629	75.94
333.857	87.94
334.085	79.94
334.314	78.94
334.542	76.94
334.771	78.94
334.999	84.94
335.227	78.94
335.455	88.94
335.684	83.94
335.912	91.94
336.14	73.94
336.369	95.94
336.597	83.94
336.825	77.94
337.053	94.94
337.281	83.94
337.51	77.94
337.738	102.94
337.966	70.94
338.194	83.94
338.422	87.94
338.65	94.94
338.878	93.94
339.106	90.94
339.334	83.94
339.562	87.94
339.79	74.94
340.018	79.94
340.246	88.94
340.474	78.94
340.702	70.94
340.93	73.94
341.158	84.94
341.386	80.94
341.614	68.94
341.842	81.94
342.07	98.94
342.298	78.94
342.526	92.94
342.754	88.94
342.981	76.94
343.209	72.94
343.437	95.94
343.665	67.94
343.893	100.94
344.12	95.94
344.348	79.94
344.576	88.94
344.804	93.94
345.031	73.94
345.259	77.94
345.487	81.94
345.714	82.94
345.942	78.94
346.17	87.94
346.397	77.94
346.625	86.94
346.853	85.94
347.08	84.94
347.308	92.94
347.535	81.94
347.763	91.94
347.99	86.94
348.218	73.94
348.445	79.94
348.673	103.94
348.9	103.94
349.128	80.94
349.355	79.94
349.583	88.94
349.81	97.94
350.037	86.94
350.265	88.94
350.492	87.94
350.72	91.94
350.947	81.94
351.174	81.94
351.402	82.94
351.629	84.94
351.856	90.94
352.083	90.94
352.311	86.94
352.538	86.94
352.765	89.94
352.992	87.94
353.22	91.94
353.447	76.94
353.674	98.94
353.901	92.94
354.128	93.94
354.355	66.94
354.583	79.94
354.81	83.94
355.037	68.94
355.264	89.94
355.491	92.94
355.718	98.94
355.945	89.94
356.172	69.94
356.399	80.94
356.626	65.94
356.853	88.94
357.08	92.94
357.307	89.94
357.534	77.94
357.761	94.94
357.988	82.94
358.215	87.94
358.441	91.94
358.668	70.94
358.895	96.94
359.122	78.94
359.349	72.94
359.576	82.94
359.802	83.94
360.029	80.94
360.256	96.94
360.483	83.94
360.709	98.94
360.936	102.94
361.163	80.94
361.39	74.94
361.616	83.94
361.843	75.94
362.07	87.94
362.296	81.94
362.523	83.94
362.749	90.94
362.976	76.94
363.203	94.94
363.429	94.94
363.656	80.94
363.882	96.94
364.109	96.94
364.335	91.94
364.562	72.94
364.788	81.94
365.015	74.94
365.241	90.94
365.468	90.94
365.694	88.94
365.92	83.94
366.147	87.94
366.373	67.94
366.599	96.94
366.826	90.94
367.052	84.94
367.278	90.94
367.505	90.94
367.731	83.94
367.957	79.94
368.184	92.94
368.41	80.94
368.636	82.94
368.862	82.94
369.089	71.94
369.315	78.94
369.541	98.94
369.767	70.94
369.993	85.94
370.219	87.94
370.445	87.94
370.672	78.94
370.898	82.94
371.124	88.94
371.35	74.94
371.576	80.94
371.802	88.94
372.028	77.94
372.254	81.94
372.48	84.94
372.706	95.94
372.932	98.94
373.158	78.94
373.384	75.94
373.61	83.94
373.835	80.94
374.061	59.94
374.287	92.94
374.513	81.94
374.739	82.94
374.965	86.94
375.191	84.94
375.416	81.94
375.642	82.94
375.868	70.94
376.094	79.94
376.319	76.94
376.545	90.94
376.771	76.94
376.997	83.94
377.222	76.94
377.448	69.94
377.674	94.94
377.899	91.94
378.125	76.94
378.35	80.94
378.576	80.94
378.802	77.94
379.027	93.94
379.253	87.94
379.478	91.94
379.704	76.94
379.929	69.94
380.155	82.94
380.38	78.94
380.606	86.94
380.831	90.94
381.057	75.94
381.282	84.94
381.507	89.94
381.733	80.94
381.958	83.94
382.184	89.94
382.409	73.94
382.634	80.94
382.86	74.94
383.085	89.94
383.31	84.94
383.535	108.94
383.761	79.94
383.986	93.94
384.211	89.94
384.436	103.94
384.662	89.94
384.887	93.94
385.112	77.94
385.337	92.94
385.562	86.94
385.787	86.94
386.013	103.94
386.238	76.94
386.463	80.94
386.688	92.94
386.913	72.94
387.138	81.94
387.363	88.94
387.588	79.94
387.813	77.94
388.038	77.94
388.263	82.94
388.488	92.94
388.713	88.94
388.938	68.94
389.163	76.94
389.387	83.94
389.612	87.94
389.837	86.94
390.062	85.94
390.287	69.94
390.512	78.94
390.736	71.94
390.961	80.94
391.186	95.94
391.411	71.94
391.636	71.94
391.86	87.94
392.085	95.94
392.31	86.94
392.534	77.94
392.759	88.94
392.984	81.94
393.208	82.94
393.433	94.94
393.658	89.94
393.882	80.94
394.107	72.94
394.331	95.94
394.556	77.94
394.78	76.94
395.005	67.94
395.229	90.94
395.454	84.94
395.678	76.94
395.903	89.94
396.127	87.94
396.352	86.94
396.576	91.94
396.801	76.94
397.025	91.94
397.249	76.94
397.474	84.94
397.698	83.94
397.922	80.94
398.147	90.94
398.371	80.94
398.595	80.94
398.82	87.94
399.044	73.94
399.268	83.94
399.492	75.94
399.717	90.94
399.941	83.94
400.165	86.94
400.389	91.94
400.613	82.94
400.837	73.94
401.062	93.94
401.286	87.94
401.51	86.94
401.734	79.94
401.958	90.94
402.182	84.94
402.406	79.94
402.63	84.94
402.854	85.94
403.078	96.94
403.302	79.94
403.526	81.94
403.75	85.94
403.974	80.94
404.198	83.94
404.422	76.94
404.645	81.94
404.869	96.94
405.093	81.94
405.317	80.94
405.541	95.94
405.765	71.94
405.988	48.94
406.212	82.94
406.436	85.94
406.66	89.94
406.883	84.94
407.107	78.94
407.331	79.94
407.555	81.94
407.778	74.94
408.002	94.94
408.226	83.94
408.449	68.94
408.673	80.94
408.896	74.94
409.12	81.94
409.344	89.94
409.567	86.94
409.791	82.94
410.014	95.94
410.238	81.94
410.461	97.94
410.685	76.94
410.908	99.94
411.132	79.94
411.355	76.94
411.578	81.94
411.802	91.94
412.025	72.94
412.249	91.94
412.472	73.94
412.695	93.94
412.919	81.94
413.142	94.94
413.365	86.94
413.589	83.94
413.812	74.94
414.035	84.94
414.258	95.94
414.482	78.94
414.705	80.94
414.928	86.94
415.151	76.94
415.374	80.94
415.597	80.94
415.821	72.94
416.044	95.94
416.267	78.94
416.49	80.94
416.713	79.94
416.936	86.94
417.159	78.94
417.382	70.94
417.605	79.94
417.828	75.94
418.051	78.94
418.274	84.94
418.497	91.94
418.72	82.94
418.943	78.94
419.166	71.94
419.389	74.94
419.611	71.94
419.834	87.94
420.057	83.94
420.28	67.94
420.503	85.94
420.726	78.94
420.948	74.94
421.171	78.94
421.394	82.94
421.617	68.94
421.839	90.94
422.062	91.94
422.285	96.94
422.507	98.94
422.73	107.94
422.953	92.94
423.175	82.94
423.398	88.94
423.621	86.94
423.843	88.94
424.066	86.94
424.288	73.94
424.511	97.94
424.733	88.94
424.956	88.94
425.178	81.94
425.401	70.94
425.623	90.94
425.846	85.94
426.068	76.94
426.291	88.94
426.513	88.94
426.735	77.94
426.958	88.94
427.18	88.94
427.402	93.94
427.625	84.94
427.847	81.94
428.069	73.94
428.292	84.94
428.514	82.94
428.736	85.94
428.958	77.94
429.181	82.94
429.403	94.94
429.625	74.94
429.847	82.94
430.069	84.94
430.292	85.94
430.514	79.94
430.736	69.94
430.958	79.94
431.18	87.94
431.402	88.94
431.624	88.94
431.846	59.94
432.068	85.94
432.29	80.94
432.512	81.94
432.734	73.94
432.956	88.94
433.178	84.94
433.4	86.94
433.622	89.94
433.844	95.94
434.066	84.94
434.287	73.94
434.509	74.94
434.731	80.94
434.953	76.94
435.175	86.94
435.397	85.94
435.618	75.94
435.84	56.94
436.062	87.94
436.284	87.94
436.505	73.94
436.727	75.94
436.949	74.94
437.17	79.94
437.392	89.94
437.614	88.94
437.835	74.94
438.057	74.94
438.278	79.94
438.5	71.94
438.721	72.94
438.943	78.94
439.165	77.94
439.386	77.94
439.608	86.94
439.829	63.94
440.05	72.94
440.272	78.94
440.493	81.94
440.715	79.94
440.936	81.94
441.158	82.94
441.379	87.94
441.6	64.94
441.822	87.94
442.043	75.94
442.264	77.94
442.486	79.94
442.707	81.94
442.928	79.94
443.149	76.94
443.371	78.94
443.592	96.94
443.813	80.94
444.034	81.94
444.255	77.94
444.476	80.94
444.698	81.94
444.919	84.94
445.14	159.94
445.361	104.94
445.582	90.94
445.803	99.94
446.024	73.94
446.245	90.94
446.466	68.94
446.687	98.94
446.908	84.94
447.129	78.94
447.35	84.94
447.571	86.94
447.792	80.94
448.013	86.94
448.234	83.94
448.455	69.94
448.675	81.94
448.896	69.94
449.117	67.94
449.338	76.94
449.559	95.94
449.779	88.94
450	75.94
450.221	80.94
450.442	99.94
450.662	86.94
450.883	82.94
451.104	96.94
451.324	93.94
451.545	82.94
451.766	80.94
451.986	103.94
452.207	96.94
452.428	88.94
452.648	64.94
452.869	79.94
453.089	68.94
453.31	68.94
453.53	81.94
453.751	86.94
453.971	84.94
454.192	80.94
454.412	83.94
454.633	80.94
454.853	89.94
455.073	59.94
455.294	87.94
455.514	89.94
455.734	77.94
455.955	74.94
456.175	78.94
456.395	84.94
456.616	79.94
456.836	60.94
457.056	86.94
457.276	82.94
457.497	84.94
457.717	68.94
457.937	73.94
458.157	80.94
458.377	85.94
458.598	95.94
458.818	70.94
459.038	73.94
459.258	90.94
459.478	79.94
459.698	82.94
459.918	92.94
460.138	65.94
460.358	87.94
460.578	76.94
460.798	77.94
461.018	76.94
461.238	84.94
461.458	80.94
461.678	68.94
461.898	68.94
462.118	92.94
462.338	98.94
462.558	88.94
462.777	74.94
462.997	83.94
463.217	91.94
463.437	80.94
463.657	82.94
463.876	85.94
464.096	89.94
464.316	86.94
464.536	94.94
464.755	81.94
464.975	69.94
465.195	83.94
465.414	80.94
465.634	70.94
465.854	88.94
466.073	96.94
466.293	83.94
466.512	93.94
466.732	78.94
466.951	71.94
467.171	75.94
467.391	74.94
467.61	87.94
467.829	72.94
468.049	74.94
468.268	79.94
468.488	79.94
468.707	78.94
468.927	94.94
469.146	78.94
469.365	85.94
469.585	85.94
469.804	81.94
470.023	76.94
470.243	71.94
470.462	75.94
470.681	77.94
470.901	82.94
471.12	67.94
471.339	92.94
471.558	84.94
471.777	82.94
471.997	78.94
472.216	81.94
472.435	86.94
472.654	89.94
472.873	97.94
473.092	85.94
473.311	85.94
473.53	80.94
473.749	83.94
473.968	93.94
474.187	80.94
474.406	87.94
474.625	75.94
474.844	97.94
475.063	70.94
475.282	78.94
475.501	80.94
475.72	91.94
475.939	69.94
476.158	83.94
476.377	84.94
476.596	69.94
476.814	81.94
477.033	73.94
477.252	83.94
477.471	92.94
477.69	89.94
477.908	83.94
478.127	75.94
478.346	71.94
478.564	79.94
478.783	75.94
479.002	80.94
479.22	81.94
479.439	75.94
479.658	77.94
479.876	82.94
480.095	84.94
480.313	74.94
480.532	72.94
480.751	80.94
480.969	81.94
481.188	86.94
481.406	78.94
481.624	76.94
481.843	66.94
482.061	66.94
482.28	89.94
482.498	84.94
482.717	72.94
482.935	84.94
483.153	91.94
483.372	85.94
483.59	85.94
483.808	78.94
484.027	83.94
484.245	82.94
484.463	88.94
484.681	85.94
484.9	82.94
485.118	94.94
485.336	89.94
485.554	88.94
485.772	86.94
485.99	77.94
486.209	91.94
486.427	80.94
486.645	76.94
486.863	70.94
487.081	80.94
487.299	93.94
487.517	92.94
487.735	99.94
487.953	90.94
488.171	72.94
488.389	66.94
488.607	94.94
488.825	77.94
489.043	82.94
489.261	81.94
489.479	81.94
489.696	83.94
489.914	81.94
490.132	76.94
490.35	84.94
490.568	78.94
490.786	86.94
491.003	83.94
491.221	89.94
491.439	76.94
491.657	87.94
491.874	106.94
492.092	86.94
492.31	66.94
492.527	89.94
492.745	79.94
492.963	74.94
493.18	83.94
493.398	91.94
493.615	88.94
493.833	85.94
494.05	83.94
494.268	89.94
494.485	86.94
494.703	80.94
494.92	81.94
495.138	79.94
495.355	86.94
495.573	83.94
495.79	87.94
496.008	94.94
496.225	81.94
496.442	83.94
496.66	91.94
496.877	76.94
497.094	94.94
497.312	83.94
497.529	87.94
497.746	80.94
497.963	95.94
498.181	81.94
498.398	68.94
498.615	82.94
498.832	71.94
499.049	88.94
499.267	96.94
499.484	89.94
499.701	78.94
499.918	79.94
500.135	84.94
500.352	85.94
500.569	77.94
500.786	81.94
501.003	68.94
501.22	73.94
501.437	75.94
501.654	74.94
501.871	89.94
502.088	78.94
502.305	84.94
502.522	76.94
502.739	82.94
502.956	73.94
503.172	84.94
503.389	78.94
503.606	90.94
503.823	79.94
504.04	99.94
504.256	92.94
504.473	85.94
504.69	87.94
504.907	87.94
505.123	94.94
505.34	79.94
505.557	88.94
505.773	91.94
505.99	76.94
506.207	93.94
506.423	85.94
506.64	83.94
506.856	79.94
507.073	76.94
507.289	76.94
507.506	95.94
507.722	78.94
507.939	85.94
508.155	88.94
508.372	77.94
508.588	91.94
508.805	102.94
509.021	76.94
509.238	75.94
509.454	73.94
509.67	85.94
509.887	96.94
510.103	100.94
510.319	97.94
510.536	86.94
510.752	97.94
510.968	82.94
511.184	81.94
511.401	69.94
511.617	95.94
511.833	89.94
512.049	83.94
512.265	75.94
512.481	84.94
512.698	87.94
512.914	85.94
513.13	80.94
513.346	74.94
513.562	80.94
513.778	78.94
513.994	82.94
514.21	79.94
514.426	75.94
514.642	83.94
514.858	81.94
515.074	96.94
515.29	84.94
515.506	76.94
515.721	73.94
515.937	84.94
516.153	80.94
516.369	85.94
516.585	81.94
516.801	78.94
517.016	88.94
517.232	75.94
517.448	90.94
517.664	86.94
517.879	86.94
518.095	93.94
518.311	100.94
518.527	76.94
518.742	100.94
518.958	86.94
519.173	91.94
519.389	103.94
519.605	75.94
519.82	72.94
520.036	84.94
