Data from Dirtnoheat3_HRD10591_00018.txt Node
Date: Fri Dec 27 15:21:31 EST 2024
User: Yrep
Spectrometer: HR+D1059
Trigger mode: 1
Integration Time (sec): 1.000000E-1
Scans to average: 1
Electric dark correction enabled: true
Nonlinearity correction enabled: false
Boxcar width: 0
XAxis mode: Wavelengths
Number of Pixels in Spectrum: 2048
>>>>>Begin Spectral Data<<<<<
223.165	-16.56
223.4	-16.56
223.635	-16.56
223.869	-19.56
224.104	-10.56
224.338	-31.56
224.573	-10.56
224.808	-4.56
225.042	-13.56
225.277	-10.56
225.511	8.44
225.746	-5.56
225.98	6.44
226.215	16.44
226.449	25.44
226.683	28.44
226.918	19.44
227.152	18.44
227.387	29.44
227.621	35.44
227.856	46.44
228.09	50.44
228.324	46.44
228.559	58.44
228.793	55.44
229.027	69.44
229.262	72.44
229.496	68.44
229.73	65.44
229.964	81.44
230.199	72.44
230.433	66.44
230.667	73.44
230.901	90.44
231.136	71.44
231.37	71.44
231.604	82.44
231.838	78.44
232.072	80.44
232.306	89.44
232.541	76.44
232.775	74.44
233.009	76.44
233.243	98.44
233.477	79.44
233.711	80.44
233.945	84.44
234.179	80.44
234.413	79.44
234.647	82.44
234.881	87.44
235.115	82.44
235.349	65.44
235.583	67.44
235.817	83.44
236.051	84.44
236.285	88.44
236.519	82.44
236.753	81.44
236.987	74.44
237.221	90.44
237.455	64.44
237.689	73.44
237.922	77.44
238.156	58.44
238.39	68.44
238.624	81.44
238.858	71.44
239.091	85.44
239.325	80.44
239.559	72.44
239.793	65.44
240.027	90.44
240.26	81.44
240.494	69.44
240.728	84.44
240.961	79.44
241.195	87.44
241.429	70.44
241.662	69.44
241.896	70.44
242.13	75.44
242.363	81.44
242.597	77.44
242.83	80.44
243.064	83.44
243.298	70.44
243.531	70.44
243.765	69.44
243.998	81.44
244.232	81.44
244.465	79.44
244.699	78.44
244.932	85.44
245.166	85.44
245.399	68.44
245.633	90.44
245.866	90.44
246.099	63.44
246.333	93.44
246.566	81.44
246.8	81.44
247.033	68.44
247.266	70.44
247.5	91.44
247.733	75.44
247.966	72.44
248.2	84.44
248.433	91.44
248.666	84.44
248.899	77.44
249.133	84.44
249.366	75.44
249.599	96.44
249.832	75.44
250.066	83.44
250.299	75.44
250.532	75.44
250.765	86.44
250.998	72.44
251.231	73.44
251.465	81.44
251.698	74.44
251.931	76.44
252.164	75.44
252.397	80.44
252.63	76.44
252.863	85.44
253.096	86.44
253.329	76.44
253.562	80.44
253.795	75.44
254.028	96.44
254.261	71.44
254.494	67.44
254.727	82.44
254.96	80.44
255.193	76.44
255.426	73.44
255.659	69.44
255.892	82.44
256.124	82.44
256.357	77.44
256.59	84.44
256.823	73.44
257.056	93.44
257.289	82.44
257.521	69.44
257.754	81.44
257.987	73.44
258.22	75.44
258.452	68.44
258.685	75.44
258.918	79.44
259.151	90.44
259.383	80.44
259.616	87.44
259.849	91.44
260.081	85.44
260.314	92.44
260.547	79.44
260.779	75.44
261.012	78.44
261.244	78.44
261.477	90.44
261.71	70.44
261.942	95.44
262.175	79.44
262.407	87.44
262.64	89.44
262.872	87.44
263.105	75.44
263.337	82.44
263.57	73.44
263.802	78.44
264.035	87.44
264.267	91.44
264.499	96.44
264.732	63.44
264.964	87.44
265.197	76.44
265.429	94.44
265.661	86.44
265.894	74.44
266.126	89.44
266.358	86.44
266.591	89.44
266.823	85.44
267.055	83.44
267.287	76.44
267.52	79.44
267.752	83.44
267.984	80.44
268.216	76.44
268.448	90.44
268.681	87.44
268.913	77.44
269.145	89.44
269.377	79.44
269.609	80.44
269.841	78.44
270.073	92.44
270.306	86.44
270.538	82.44
270.77	81.44
271.002	91.44
271.234	88.44
271.466	87.44
271.698	80.44
271.93	87.44
272.162	74.44
272.394	78.44
272.626	75.44
272.858	80.44
273.09	88.44
273.322	82.44
273.553	78.44
273.785	66.44
274.017	89.44
274.249	93.44
274.481	88.44
274.713	89.44
274.945	90.44
275.176	97.44
275.408	91.44
275.64	74.44
275.872	80.44
276.104	65.44
276.335	73.44
276.567	92.44
276.799	85.44
277.031	82.44
277.262	85.44
277.494	88.44
277.726	80.44
277.957	85.44
278.189	85.44
278.421	73.44
278.652	85.44
278.884	87.44
279.115	87.44
279.347	97.44
279.579	79.44
279.81	72.44
280.042	86.44
280.273	81.44
280.505	87.44
280.736	82.44
280.968	72.44
281.199	82.44
281.431	82.44
281.662	78.44
281.894	66.44
282.125	92.44
282.356	90.44
282.588	80.44
282.819	63.44
283.051	82.44
283.282	87.44
283.513	95.44
283.745	73.44
283.976	75.44
284.207	68.44
284.439	87.44
284.67	84.44
284.901	69.44
285.132	66.44
285.364	88.44
285.595	91.44
285.826	87.44
286.057	84.44
286.288	80.44
286.52	76.44
286.751	73.44
286.982	79.44
287.213	78.44
287.444	80.44
287.675	97.44
287.906	93.44
288.138	91.44
288.369	88.44
288.6	90.44
288.831	87.44
289.062	91.44
289.293	89.44
289.524	77.44
289.755	88.44
289.986	73.44
290.217	90.44
290.448	75.44
290.679	85.44
290.91	77.44
291.141	85.44
291.371	92.44
291.602	83.44
291.833	82.44
292.064	77.44
292.295	88.44
292.526	105.44
292.757	81.44
292.987	87.44
293.218	86.44
293.449	95.44
293.68	73.44
293.91	85.44
294.141	78.44
294.372	79.44
294.603	91.44
294.833	84.44
295.064	72.44
295.295	91.44
295.525	81.44
295.756	73.44
295.987	88.44
296.217	72.44
296.448	80.44
296.679	84.44
296.909	87.44
297.14	96.44
297.37	86.44
297.601	88.44
297.831	83.44
298.062	92.44
298.292	84.44
298.523	92.44
298.753	87.44
298.984	80.44
299.214	94.44
299.445	86.44
299.675	75.44
299.905	73.44
300.136	86.44
300.366	78.44
300.597	79.44
300.827	74.44
301.057	75.44
301.288	83.44
301.518	72.44
301.748	82.44
301.979	91.44
302.209	84.44
302.439	73.44
302.669	78.44
302.9	83.44
303.13	100.44
303.36	98.44
303.59	96.44
303.82	81.44
304.051	91.44
304.281	92.44
304.511	88.44
304.741	89.44
304.971	83.44
305.201	73.44
305.431	95.44
305.661	95.44
305.891	92.44
306.121	91.44
306.352	92.44
306.582	88.44
306.812	78.44
307.042	85.44
307.272	82.44
307.502	80.44
307.731	98.44
307.961	85.44
308.191	76.44
308.421	70.44
308.651	78.44
308.881	79.44
309.111	81.44
309.341	83.44
309.571	87.44
309.8	83.44
310.03	94.44
310.26	88.44
310.49	78.44
310.72	79.44
310.949	90.44
311.179	97.44
311.409	89.44
311.639	81.44
311.868	91.44
312.098	77.44
312.328	82.44
312.557	87.44
312.787	91.44
313.017	91.44
313.246	86.44
313.476	72.44
313.706	76.44
313.935	92.44
314.165	108.44
314.394	88.44
314.624	79.44
314.853	89.44
315.083	77.44
315.312	86.44
315.542	82.44
315.771	93.44
316.001	82.44
316.23	79.44
316.46	77.44
316.689	87.44
316.919	71.44
317.148	85.44
317.377	102.44
317.607	89.44
317.836	88.44
318.065	89.44
318.295	81.44
318.524	88.44
318.753	96.44
318.983	81.44
319.212	92.44
319.441	91.44
319.67	85.44
319.9	72.44
320.129	81.44
320.358	69.44
320.587	93.44
320.816	87.44
321.046	74.44
321.275	88.44
321.504	81.44
321.733	91.44
321.962	72.44
322.191	91.44
322.42	97.44
322.649	85.44
322.878	84.44
323.108	70.44
323.337	94.44
323.566	94.44
323.795	95.44
324.024	91.44
324.253	93.44
324.482	87.44
324.71	81.44
324.939	88.44
325.168	87.44
325.397	90.44
325.626	88.44
325.855	92.44
326.084	84.44
326.313	76.44
326.542	89.44
326.77	82.44
326.999	71.44
327.228	70.44
327.457	76.44
327.686	87.44
327.914	81.44
328.143	85.44
328.372	73.44
328.6	82.44
328.829	92.44
329.058	79.44
329.287	82.44
329.515	87.44
329.744	94.44
329.972	85.44
330.201	77.44
330.43	94.44
330.658	90.44
330.887	75.44
331.115	75.44
331.344	76.44
331.572	95.44
331.801	85.44
332.03	85.44
332.258	95.44
332.486	90.44
332.715	82.44
332.943	91.44
333.172	80.44
333.4	86.44
333.629	99.44
333.857	77.44
334.085	90.44
334.314	83.44
334.542	96.44
334.771	91.44
334.999	95.44
335.227	76.44
335.455	69.44
335.684	82.44
335.912	84.44
336.14	82.44
336.369	97.44
336.597	82.44
336.825	89.44
337.053	83.44
337.281	81.44
337.51	77.44
337.738	78.44
337.966	82.44
338.194	79.44
338.422	90.44
338.65	88.44
338.878	88.44
339.106	79.44
339.334	92.44
339.562	79.44
339.79	91.44
340.018	83.44
340.246	77.44
340.474	86.44
340.702	85.44
340.93	92.44
341.158	86.44
341.386	86.44
341.614	76.44
341.842	83.44
342.07	76.44
342.298	92.44
342.526	95.44
342.754	75.44
342.981	93.44
343.209	72.44
343.437	98.44
343.665	80.44
343.893	78.44
344.12	85.44
344.348	66.44
344.576	88.44
344.804	82.44
345.031	74.44
345.259	74.44
345.487	88.44
345.714	101.44
345.942	83.44
346.17	83.44
346.397	87.44
346.625	95.44
346.853	91.44
347.08	97.44
347.308	88.44
347.535	92.44
347.763	79.44
347.99	81.44
348.218	92.44
348.445	91.44
348.673	80.44
348.9	67.44
349.128	85.44
349.355	75.44
349.583	81.44
349.81	92.44
350.037	96.44
350.265	89.44
350.492	69.44
350.72	77.44
350.947	87.44
351.174	79.44
351.402	90.44
351.629	88.44
351.856	93.44
352.083	81.44
352.311	82.44
352.538	81.44
352.765	88.44
352.992	86.44
353.22	92.44
353.447	77.44
353.674	95.44
353.901	92.44
354.128	96.44
354.355	92.44
354.583	91.44
354.81	90.44
355.037	93.44
355.264	94.44
355.491	94.44
355.718	86.44
355.945	97.44
356.172	90.44
356.399	80.44
356.626	88.44
356.853	95.44
357.08	87.44
357.307	100.44
357.534	78.44
357.761	81.44
357.988	94.44
358.215	85.44
358.441	91.44
358.668	95.44
358.895	84.44
359.122	88.44
359.349	80.44
359.576	74.44
359.802	79.44
360.029	87.44
360.256	92.44
360.483	92.44
360.709	80.44
360.936	89.44
361.163	72.44
361.39	83.44
361.616	91.44
361.843	80.44
362.07	79.44
362.296	84.44
362.523	104.44
362.749	90.44
362.976	87.44
363.203	89.44
363.429	81.44
363.656	69.44
363.882	83.44
364.109	97.44
364.335	88.44
364.562	96.44
364.788	87.44
365.015	86.44
365.241	80.44
365.468	86.44
365.694	75.44
365.92	88.44
366.147	85.44
366.373	88.44
366.599	76.44
366.826	79.44
367.052	86.44
367.278	78.44
367.505	100.44
367.731	106.44
367.957	92.44
368.184	72.44
368.41	84.44
368.636	68.44
368.862	66.44
369.089	84.44
369.315	75.44
369.541	72.44
369.767	79.44
369.993	99.44
370.219	73.44
370.445	79.44
370.672	83.44
370.898	76.44
371.124	81.44
371.35	81.44
371.576	80.44
371.802	83.44
372.028	94.44
372.254	86.44
372.48	89.44
372.706	80.44
372.932	89.44
373.158	89.44
373.384	81.44
373.61	88.44
373.835	75.44
374.061	77.44
374.287	77.44
374.513	73.44
374.739	69.44
374.965	75.44
375.191	78.44
375.416	93.44
375.642	81.44
375.868	92.44
376.094	89.44
376.319	89.44
376.545	87.44
376.771	81.44
376.997	87.44
377.222	83.44
377.448	90.44
377.674	84.44
377.899	83.44
378.125	86.44
378.35	81.44
378.576	92.44
378.802	70.44
379.027	95.44
379.253	90.44
379.478	89.44
379.704	90.44
379.929	79.44
380.155	81.44
380.38	91.44
380.606	60.44
380.831	77.44
381.057	90.44
381.282	69.44
381.507	87.44
381.733	84.44
381.958	80.44
382.184	93.44
382.409	84.44
382.634	83.44
382.86	101.44
383.085	92.44
383.31	82.44
383.535	83.44
383.761	83.44
383.986	74.44
384.211	80.44
384.436	81.44
384.662	85.44
384.887	83.44
385.112	92.44
385.337	85.44
385.562	76.44
385.787	82.44
386.013	87.44
386.238	70.44
386.463	89.44
386.688	95.44
386.913	89.44
387.138	97.44
387.363	75.44
387.588	75.44
387.813	82.44
388.038	91.44
388.263	86.44
388.488	96.44
388.713	81.44
388.938	85.44
389.163	91.44
389.387	79.44
389.612	72.44
389.837	70.44
390.062	90.44
390.287	95.44
390.512	86.44
390.736	88.44
390.961	79.44
391.186	80.44
391.411	91.44
391.636	82.44
391.86	81.44
392.085	99.44
392.31	82.44
392.534	77.44
392.759	88.44
392.984	85.44
393.208	99.44
393.433	103.44
393.658	76.44
393.882	79.44
394.107	87.44
394.331	89.44
394.556	76.44
394.78	75.44
395.005	83.44
395.229	89.44
395.454	82.44
395.678	70.44
395.903	87.44
396.127	88.44
396.352	79.44
396.576	83.44
396.801	76.44
397.025	82.44
397.249	89.44
397.474	89.44
397.698	93.44
397.922	84.44
398.147	80.44
398.371	75.44
398.595	82.44
398.82	82.44
399.044	69.44
399.268	92.44
399.492	88.44
399.717	82.44
399.941	69.44
400.165	76.44
400.389	93.44
400.613	80.44
400.837	79.44
401.062	78.44
401.286	71.44
401.51	75.44
401.734	82.44
401.958	77.44
402.182	84.44
402.406	85.44
402.63	73.44
402.854	73.44
403.078	87.44
403.302	62.44
403.526	74.44
403.75	88.44
403.974	81.44
404.198	84.44
404.422	76.44
404.645	84.44
404.869	69.44
405.093	83.44
405.317	88.44
405.541	76.44
405.765	73.44
405.988	83.44
406.212	81.44
406.436	85.44
406.66	92.44
406.883	86.44
407.107	73.44
407.331	85.44
407.555	89.44
407.778	95.44
408.002	84.44
408.226	87.44
408.449	73.44
408.673	79.44
408.896	77.44
409.12	74.44
409.344	87.44
409.567	81.44
409.791	71.44
410.014	97.44
410.238	91.44
410.461	91.44
410.685	82.44
410.908	87.44
411.132	78.44
411.355	90.44
411.578	89.44
411.802	81.44
412.025	87.44
412.249	87.44
412.472	94.44
412.695	82.44
412.919	80.44
413.142	90.44
413.365	84.44
413.589	86.44
413.812	78.44
414.035	88.44
414.258	87.44
414.482	78.44
414.705	71.44
414.928	87.44
415.151	83.44
415.374	79.44
415.597	73.44
415.821	87.44
416.044	72.44
416.267	91.44
416.49	84.44
416.713	78.44
416.936	82.44
417.159	70.44
417.382	79.44
417.605	89.44
417.828	79.44
418.051	76.44
418.274	81.44
418.497	76.44
418.72	97.44
418.943	96.44
419.166	84.44
419.389	90.44
419.611	87.44
419.834	94.44
420.057	90.44
420.28	83.44
420.503	73.44
420.726	81.44
420.948	72.44
421.171	88.44
421.394	71.44
421.617	77.44
421.839	88.44
422.062	83.44
422.285	80.44
422.507	88.44
422.73	108.44
422.953	89.44
423.175	89.44
423.398	76.44
423.621	84.44
423.843	80.44
424.066	78.44
424.288	85.44
424.511	83.44
424.733	83.44
424.956	92.44
425.178	75.44
425.401	83.44
425.623	85.44
425.846	81.44
426.068	77.44
426.291	78.44
426.513	84.44
426.735	79.44
426.958	88.44
427.18	86.44
427.402	85.44
427.625	78.44
427.847	80.44
428.069	83.44
428.292	70.44
428.514	73.44
428.736	85.44
428.958	81.44
429.181	91.44
429.403	81.44
429.625	83.44
429.847	87.44
430.069	76.44
430.292	78.44
430.514	93.44
430.736	79.44
430.958	100.44
431.18	87.44
431.402	91.44
431.624	91.44
431.846	93.44
432.068	83.44
432.29	90.44
432.512	96.44
432.734	92.44
432.956	87.44
433.178	82.44
433.4	75.44
433.622	81.44
433.844	80.44
434.066	85.44
434.287	69.44
434.509	72.44
434.731	77.44
434.953	78.44
435.175	81.44
435.397	95.44
435.618	99.44
435.84	75.44
436.062	94.44
436.284	83.44
436.505	88.44
436.727	77.44
436.949	82.44
437.17	83.44
437.392	81.44
437.614	87.44
437.835	91.44
438.057	79.44
438.278	84.44
438.5	91.44
438.721	76.44
438.943	75.44
439.165	89.44
439.386	74.44
439.608	83.44
439.829	85.44
440.05	83.44
440.272	82.44
440.493	71.44
440.715	83.44
440.936	82.44
441.158	82.44
441.379	71.44
441.6	83.44
441.822	85.44
442.043	93.44
442.264	79.44
442.486	92.44
442.707	87.44
442.928	78.44
443.149	79.44
443.371	102.44
443.592	97.44
443.813	84.44
444.034	96.44
444.255	84.44
444.476	92.44
444.698	88.44
444.919	89.44
445.14	149.44
445.361	111.44
445.582	97.44
445.803	84.44
446.024	91.44
446.245	79.44
446.466	85.44
446.687	89.44
446.908	69.44
447.129	80.44
447.35	96.44
447.571	83.44
447.792	78.44
448.013	81.44
448.234	76.44
448.455	83.44
448.675	92.44
448.896	89.44
449.117	87.44
449.338	74.44
449.559	75.44
449.779	93.44
450	96.44
450.221	82.44
450.442	84.44
450.662	78.44
450.883	68.44
451.104	84.44
451.324	83.44
451.545	79.44
451.766	90.44
451.986	73.44
452.207	78.44
452.428	90.44
452.648	84.44
452.869	80.44
453.089	73.44
453.31	102.44
453.53	89.44
453.751	82.44
453.971	84.44
454.192	75.44
454.412	67.44
454.633	75.44
454.853	91.44
455.073	78.44
455.294	88.44
455.514	82.44
455.734	97.44
455.955	94.44
456.175	84.44
456.395	81.44
456.616	81.44
456.836	96.44
457.056	98.44
457.276	89.44
457.497	76.44
457.717	75.44
457.937	83.44
458.157	82.44
458.377	67.44
458.598	87.44
458.818	83.44
459.038	94.44
459.258	92.44
459.478	86.44
459.698	93.44
459.918	79.44
460.138	85.44
460.358	96.44
460.578	80.44
460.798	76.44
461.018	73.44
461.238	83.44
461.458	83.44
461.678	87.44
461.898	80.44
462.118	81.44
462.338	70.44
462.558	89.44
462.777	94.44
462.997	78.44
463.217	75.44
463.437	94.44
463.657	90.44
463.876	74.44
464.096	91.44
464.316	69.44
464.536	88.44
464.755	79.44
464.975	93.44
465.195	80.44
465.414	91.44
465.634	80.44
465.854	72.44
466.073	82.44
466.293	94.44
466.512	83.44
466.732	82.44
466.951	74.44
467.171	88.44
467.391	86.44
467.61	79.44
467.829	88.44
468.049	99.44
468.268	75.44
468.488	84.44
468.707	77.44
468.927	86.44
469.146	88.44
469.365	82.44
469.585	84.44
469.804	79.44
470.023	74.44
470.243	80.44
470.462	85.44
470.681	73.44
470.901	87.44
471.12	64.44
471.339	81.44
471.558	71.44
471.777	90.44
471.997	84.44
472.216	90.44
472.435	89.44
472.654	77.44
472.873	88.44
473.092	76.44
473.311	63.44
473.53	77.44
473.749	83.44
473.968	108.44
474.187	80.44
474.406	94.44
474.625	75.44
474.844	86.44
475.063	84.44
475.282	89.44
475.501	86.44
475.72	94.44
475.939	63.44
476.158	76.44
476.377	80.44
476.596	81.44
476.814	82.44
477.033	89.44
477.252	85.44
477.471	71.44
477.69	89.44
477.908	87.44
478.127	84.44
478.346	88.44
478.564	88.44
478.783	83.44
479.002	76.44
479.22	92.44
479.439	87.44
479.658	78.44
479.876	95.44
480.095	65.44
480.313	81.44
480.532	70.44
480.751	85.44
480.969	68.44
481.188	79.44
481.406	82.44
481.624	89.44
481.843	90.44
482.061	76.44
482.28	87.44
482.498	75.44
482.717	71.44
482.935	84.44
483.153	79.44
483.372	71.44
483.59	94.44
483.808	83.44
484.027	82.44
484.245	85.44
484.463	93.44
484.681	79.44
484.9	91.44
485.118	83.44
485.336	78.44
485.554	88.44
485.772	86.44
485.99	88.44
486.209	88.44
486.427	83.44
486.645	81.44
486.863	87.44
487.081	81.44
487.299	89.44
487.517	78.44
487.735	83.44
487.953	86.44
488.171	81.44
488.389	91.44
488.607	81.44
488.825	88.44
489.043	75.44
489.261	86.44
489.479	68.44
489.696	82.44
489.914	89.44
490.132	70.44
490.35	82.44
490.568	91.44
490.786	87.44
491.003	78.44
491.221	87.44
491.439	86.44
491.657	85.44
491.874	85.44
492.092	87.44
492.31	85.44
492.527	83.44
492.745	103.44
492.963	84.44
493.18	83.44
493.398	79.44
493.615	76.44
493.833	88.44
494.05	90.44
494.268	94.44
494.485	87.44
494.703	91.44
494.92	93.44
495.138	87.44
495.355	88.44
495.573	84.44
495.79	86.44
496.008	89.44
496.225	75.44
496.442	87.44
496.66	100.44
496.877	91.44
497.094	89.44
497.312	91.44
497.529	84.44
497.746	95.44
497.963	73.44
498.181	79.44
498.398	81.44
498.615	70.44
498.832	103.44
499.049	78.44
499.267	89.44
499.484	95.44
499.701	79.44
499.918	80.44
500.135	83.44
500.352	91.44
500.569	84.44
500.786	79.44
501.003	99.44
501.22	67.44
501.437	95.44
501.654	93.44
501.871	97.44
502.088	78.44
502.305	87.44
502.522	79.44
502.739	92.44
502.956	92.44
503.172	92.44
503.389	92.44
503.606	70.44
503.823	80.44
504.04	84.44
504.256	87.44
504.473	86.44
504.69	93.44
504.907	88.44
505.123	90.44
505.34	87.44
505.557	96.44
505.773	76.44
505.99	84.44
506.207	75.44
506.423	91.44
506.64	85.44
506.856	79.44
507.073	90.44
507.289	95.44
507.506	84.44
507.722	91.44
507.939	99.44
508.155	87.44
508.372	84.44
508.588	88.44
508.805	83.44
509.021	87.44
509.238	72.44
509.454	91.44
509.67	64.44
509.887	100.44
510.103	91.44
510.319	89.44
510.536	81.44
510.752	82.44
510.968	79.44
511.184	93.44
511.401	83.44
511.617	80.44
511.833	67.44
512.049	83.44
512.265	92.44
512.481	87.44
512.698	88.44
512.914	99.44
513.13	83.44
513.346	86.44
513.562	100.44
513.778	83.44
513.994	84.44
514.21	85.44
514.426	84.44
514.642	81.44
514.858	88.44
515.074	78.44
515.29	93.44
515.506	85.44
515.721	72.44
515.937	90.44
516.153	78.44
516.369	75.44
516.585	83.44
516.801	80.44
517.016	80.44
517.232	80.44
517.448	83.44
517.664	93.44
517.879	92.44
518.095	95.44
518.311	88.44
518.527	97.44
518.742	85.44
518.958	71.44
519.173	85.44
519.389	97.44
519.605	84.44
519.82	80.44
