Data from Dirtnoheat3_HRD10591_00004.txt Node
Date: Fri Dec 27 15:21:17 EST 2024
User: Yrep
Spectrometer: HR+D1059
Trigger mode: 1
Integration Time (sec): 1.000000E-1
Scans to average: 1
Electric dark correction enabled: true
Nonlinearity correction enabled: false
Boxcar width: 0
XAxis mode: Wavelengths
Number of Pixels in Spectrum: 2048
>>>>>Begin Spectral Data<<<<<
223.165	-23.62
223.4	-23.62
223.635	-23.62
223.869	-16.62
224.104	-22.62
224.338	-11.62
224.573	-13.62
224.808	-11.62
225.042	-8.62
225.277	-6.62
225.511	2.38
225.746	8.38
225.98	13.38
226.215	16.38
226.449	3.38
226.683	27.38
226.918	25.38
227.152	18.38
227.387	31.38
227.621	44.38
227.856	53.38
228.09	53.38
228.324	45.38
228.559	53.38
228.793	65.38
229.027	66.38
229.262	71.38
229.496	75.38
229.73	62.38
229.964	66.38
230.199	88.38
230.433	60.38
230.667	76.38
230.901	85.38
231.136	76.38
231.37	74.38
231.604	85.38
231.838	78.38
232.072	90.38
232.306	76.38
232.541	78.38
232.775	91.38
233.009	81.38
233.243	84.38
233.477	81.38
233.711	79.38
233.945	83.38
234.179	84.38
234.413	79.38
234.647	90.38
234.881	87.38
235.115	88.38
235.349	84.38
235.583	91.38
235.817	70.38
236.051	79.38
236.285	79.38
236.519	78.38
236.753	82.38
236.987	82.38
237.221	77.38
237.455	72.38
237.689	69.38
237.922	75.38
238.156	72.38
238.39	81.38
238.624	82.38
238.858	94.38
239.091	92.38
239.325	76.38
239.559	88.38
239.793	54.38
240.027	77.38
240.26	81.38
240.494	65.38
240.728	72.38
240.961	75.38
241.195	80.38
241.429	72.38
241.662	73.38
241.896	87.38
242.13	77.38
242.363	75.38
242.597	65.38
242.83	78.38
243.064	71.38
243.298	84.38
243.531	89.38
243.765	84.38
243.998	82.38
244.232	78.38
244.465	79.38
244.699	76.38
244.932	75.38
245.166	87.38
245.399	71.38
245.633	68.38
245.866	79.38
246.099	77.38
246.333	74.38
246.566	77.38
246.8	66.38
247.033	80.38
247.266	88.38
247.5	70.38
247.733	77.38
247.966	80.38
248.2	85.38
248.433	89.38
248.666	84.38
248.899	76.38
249.133	78.38
249.366	87.38
249.599	79.38
249.832	79.38
250.066	72.38
250.299	90.38
250.532	71.38
250.765	81.38
250.998	75.38
251.231	67.38
251.465	83.38
251.698	86.38
251.931	91.38
252.164	92.38
252.397	82.38
252.63	76.38
252.863	82.38
253.096	80.38
253.329	89.38
253.562	81.38
253.795	103.38
254.028	86.38
254.261	90.38
254.494	84.38
254.727	100.38
254.96	85.38
255.193	96.38
255.426	79.38
255.659	75.38
255.892	87.38
256.124	64.38
256.357	80.38
256.59	90.38
256.823	91.38
257.056	83.38
257.289	88.38
257.521	86.38
257.754	72.38
257.987	89.38
258.22	71.38
258.452	79.38
258.685	80.38
258.918	68.38
259.151	91.38
259.383	82.38
259.616	79.38
259.849	74.38
260.081	72.38
260.314	70.38
260.547	85.38
260.779	67.38
261.012	84.38
261.244	86.38
261.477	75.38
261.71	85.38
261.942	80.38
262.175	81.38
262.407	84.38
262.64	63.38
262.872	79.38
263.105	95.38
263.337	92.38
263.57	81.38
263.802	69.38
264.035	79.38
264.267	87.38
264.499	81.38
264.732	87.38
264.964	96.38
265.197	69.38
265.429	69.38
265.661	93.38
265.894	93.38
266.126	88.38
266.358	90.38
266.591	74.38
266.823	77.38
267.055	66.38
267.287	80.38
267.52	87.38
267.752	83.38
267.984	77.38
268.216	70.38
268.448	103.38
268.681	96.38
268.913	83.38
269.145	81.38
269.377	62.38
269.609	91.38
269.841	87.38
270.073	88.38
270.306	73.38
270.538	79.38
270.77	89.38
271.002	93.38
271.234	90.38
271.466	83.38
271.698	85.38
271.93	72.38
272.162	84.38
272.394	81.38
272.626	69.38
272.858	94.38
273.09	90.38
273.322	90.38
273.553	79.38
273.785	84.38
274.017	77.38
274.249	87.38
274.481	87.38
274.713	87.38
274.945	84.38
275.176	81.38
275.408	96.38
275.64	94.38
275.872	90.38
276.104	90.38
276.335	80.38
276.567	67.38
276.799	103.38
277.031	88.38
277.262	81.38
277.494	85.38
277.726	87.38
277.957	92.38
278.189	86.38
278.421	92.38
278.652	83.38
278.884	83.38
279.115	88.38
279.347	81.38
279.579	92.38
279.81	89.38
280.042	91.38
280.273	83.38
280.505	73.38
280.736	69.38
280.968	80.38
281.199	83.38
281.431	88.38
281.662	85.38
281.894	96.38
282.125	85.38
282.356	82.38
282.588	90.38
282.819	91.38
283.051	90.38
283.282	83.38
283.513	89.38
283.745	92.38
283.976	85.38
284.207	82.38
284.439	88.38
284.67	67.38
284.901	73.38
285.132	74.38
285.364	79.38
285.595	80.38
285.826	94.38
286.057	90.38
286.288	89.38
286.52	92.38
286.751	82.38
286.982	104.38
287.213	77.38
287.444	85.38
287.675	81.38
287.906	95.38
288.138	94.38
288.369	73.38
288.6	87.38
288.831	88.38
289.062	80.38
289.293	71.38
289.524	95.38
289.755	86.38
289.986	83.38
290.217	71.38
290.448	91.38
290.679	96.38
290.91	99.38
291.141	84.38
291.371	81.38
291.602	86.38
291.833	95.38
292.064	93.38
292.295	76.38
292.526	83.38
292.757	77.38
292.987	75.38
293.218	95.38
293.449	71.38
293.68	89.38
293.91	87.38
294.141	76.38
294.372	92.38
294.603	99.38
294.833	91.38
295.064	88.38
295.295	85.38
295.525	84.38
295.756	95.38
295.987	73.38
296.217	78.38
296.448	93.38
296.679	95.38
296.909	79.38
297.14	89.38
297.37	78.38
297.601	92.38
297.831	85.38
298.062	67.38
298.292	84.38
298.523	75.38
298.753	93.38
298.984	97.38
299.214	90.38
299.445	99.38
299.675	85.38
299.905	85.38
300.136	89.38
300.366	88.38
300.597	86.38
300.827	87.38
301.057	90.38
301.288	96.38
301.518	90.38
301.748	84.38
301.979	91.38
302.209	73.38
302.439	72.38
302.669	81.38
302.9	83.38
303.13	90.38
303.36	82.38
303.59	76.38
303.82	83.38
304.051	79.38
304.281	83.38
304.511	88.38
304.741	82.38
304.971	81.38
305.201	80.38
305.431	82.38
305.661	91.38
305.891	73.38
306.121	83.38
306.352	82.38
306.582	86.38
306.812	81.38
307.042	88.38
307.272	90.38
307.502	94.38
307.731	91.38
307.961	83.38
308.191	100.38
308.421	85.38
308.651	87.38
308.881	82.38
309.111	91.38
309.341	83.38
309.571	90.38
309.8	89.38
310.03	92.38
310.26	93.38
310.49	89.38
310.72	89.38
310.949	75.38
311.179	90.38
311.409	85.38
311.639	85.38
311.868	81.38
312.098	88.38
312.328	87.38
312.557	92.38
312.787	78.38
313.017	101.38
313.246	95.38
313.476	89.38
313.706	85.38
313.935	87.38
314.165	83.38
314.394	87.38
314.624	80.38
314.853	98.38
315.083	89.38
315.312	100.38
315.542	90.38
315.771	89.38
316.001	88.38
316.23	85.38
316.46	82.38
316.689	99.38
316.919	85.38
317.148	84.38
317.377	107.38
317.607	85.38
317.836	95.38
318.065	88.38
318.295	80.38
318.524	80.38
318.753	83.38
318.983	85.38
319.212	85.38
319.441	84.38
319.67	96.38
319.9	86.38
320.129	85.38
320.358	93.38
320.587	93.38
320.816	89.38
321.046	77.38
321.275	82.38
321.504	75.38
321.733	82.38
321.962	90.38
322.191	71.38
322.42	80.38
322.649	90.38
322.878	92.38
323.108	88.38
323.337	88.38
323.566	88.38
323.795	79.38
324.024	83.38
324.253	86.38
324.482	73.38
324.71	68.38
324.939	67.38
325.168	82.38
325.397	78.38
325.626	79.38
325.855	85.38
326.084	87.38
326.313	94.38
326.542	83.38
326.77	90.38
326.999	92.38
327.228	83.38
327.457	86.38
327.686	73.38
327.914	88.38
328.143	94.38
328.372	84.38
328.6	80.38
328.829	75.38
329.058	80.38
329.287	99.38
329.515	101.38
329.744	84.38
329.972	80.38
330.201	88.38
330.43	82.38
330.658	93.38
330.887	84.38
331.115	84.38
331.344	86.38
331.572	93.38
331.801	85.38
332.03	93.38
332.258	79.38
332.486	99.38
332.715	81.38
332.943	85.38
333.172	89.38
333.4	77.38
333.629	89.38
333.857	86.38
334.085	75.38
334.314	88.38
334.542	74.38
334.771	81.38
334.999	70.38
335.227	83.38
335.455	82.38
335.684	84.38
335.912	81.38
336.14	83.38
336.369	87.38
336.597	85.38
336.825	78.38
337.053	91.38
337.281	84.38
337.51	88.38
337.738	89.38
337.966	94.38
338.194	87.38
338.422	90.38
338.65	95.38
338.878	82.38
339.106	81.38
339.334	88.38
339.562	82.38
339.79	86.38
340.018	87.38
340.246	96.38
340.474	87.38
340.702	84.38
340.93	87.38
341.158	85.38
341.386	87.38
341.614	88.38
341.842	92.38
342.07	92.38
342.298	94.38
342.526	79.38
342.754	75.38
342.981	81.38
343.209	86.38
343.437	114.38
343.665	89.38
343.893	76.38
344.12	87.38
344.348	77.38
344.576	96.38
344.804	88.38
345.031	87.38
345.259	85.38
345.487	89.38
345.714	84.38
345.942	85.38
346.17	82.38
346.397	65.38
346.625	70.38
346.853	79.38
347.08	84.38
347.308	83.38
347.535	77.38
347.763	78.38
347.99	90.38
348.218	92.38
348.445	90.38
348.673	90.38
348.9	97.38
349.128	95.38
349.355	83.38
349.583	95.38
349.81	81.38
350.037	87.38
350.265	91.38
350.492	81.38
350.72	71.38
350.947	94.38
351.174	92.38
351.402	79.38
351.629	89.38
351.856	103.38
352.083	70.38
352.311	81.38
352.538	76.38
352.765	75.38
352.992	85.38
353.22	91.38
353.447	78.38
353.674	90.38
353.901	82.38
354.128	87.38
354.355	85.38
354.583	89.38
354.81	96.38
355.037	69.38
355.264	77.38
355.491	91.38
355.718	91.38
355.945	79.38
356.172	84.38
356.399	79.38
356.626	85.38
356.853	93.38
357.08	88.38
357.307	79.38
357.534	85.38
357.761	80.38
357.988	92.38
358.215	79.38
358.441	94.38
358.668	89.38
358.895	85.38
359.122	85.38
359.349	75.38
359.576	73.38
359.802	91.38
360.029	97.38
360.256	85.38
360.483	68.38
360.709	81.38
360.936	94.38
361.163	84.38
361.39	84.38
361.616	97.38
361.843	84.38
362.07	80.38
362.296	83.38
362.523	79.38
362.749	79.38
362.976	87.38
363.203	86.38
363.429	76.38
363.656	85.38
363.882	88.38
364.109	97.38
364.335	92.38
364.562	85.38
364.788	80.38
365.015	90.38
365.241	81.38
365.468	87.38
365.694	87.38
365.92	83.38
366.147	90.38
366.373	81.38
366.599	88.38
366.826	91.38
367.052	85.38
367.278	68.38
367.505	91.38
367.731	99.38
367.957	75.38
368.184	84.38
368.41	77.38
368.636	81.38
368.862	87.38
369.089	92.38
369.315	96.38
369.541	86.38
369.767	78.38
369.993	66.38
370.219	77.38
370.445	86.38
370.672	78.38
370.898	89.38
371.124	88.38
371.35	96.38
371.576	74.38
371.802	76.38
372.028	88.38
372.254	93.38
372.48	82.38
372.706	84.38
372.932	76.38
373.158	94.38
373.384	83.38
373.61	87.38
373.835	102.38
374.061	84.38
374.287	61.38
374.513	73.38
374.739	83.38
374.965	77.38
375.191	79.38
375.416	93.38
375.642	92.38
375.868	91.38
376.094	89.38
376.319	88.38
376.545	82.38
376.771	89.38
376.997	79.38
377.222	91.38
377.448	92.38
377.674	90.38
377.899	80.38
378.125	87.38
378.35	94.38
378.576	83.38
378.802	91.38
379.027	87.38
379.253	80.38
379.478	86.38
379.704	82.38
379.929	93.38
380.155	92.38
380.38	84.38
380.606	87.38
380.831	89.38
381.057	86.38
381.282	85.38
381.507	81.38
381.733	91.38
381.958	82.38
382.184	94.38
382.409	79.38
382.634	93.38
382.86	71.38
383.085	93.38
383.31	76.38
383.535	88.38
383.761	97.38
383.986	93.38
384.211	85.38
384.436	91.38
384.662	103.38
384.887	77.38
385.112	85.38
385.337	67.38
385.562	93.38
385.787	79.38
386.013	88.38
386.238	71.38
386.463	79.38
386.688	99.38
386.913	79.38
387.138	90.38
387.363	79.38
387.588	77.38
387.813	92.38
388.038	105.38
388.263	89.38
388.488	87.38
388.713	86.38
388.938	83.38
389.163	103.38
389.387	79.38
389.612	87.38
389.837	87.38
390.062	85.38
390.287	77.38
390.512	80.38
390.736	81.38
390.961	80.38
391.186	93.38
391.411	80.38
391.636	87.38
391.86	87.38
392.085	91.38
392.31	79.38
392.534	88.38
392.759	85.38
392.984	70.38
393.208	93.38
393.433	81.38
393.658	80.38
393.882	83.38
394.107	75.38
394.331	85.38
394.556	98.38
394.78	87.38
395.005	81.38
395.229	80.38
395.454	78.38
395.678	84.38
395.903	87.38
396.127	74.38
396.352	86.38
396.576	90.38
396.801	83.38
397.025	96.38
397.249	96.38
397.474	85.38
397.698	82.38
397.922	90.38
398.147	79.38
398.371	73.38
398.595	83.38
398.82	92.38
399.044	81.38
399.268	88.38
399.492	69.38
399.717	87.38
399.941	87.38
400.165	87.38
400.389	86.38
400.613	76.38
400.837	90.38
401.062	87.38
401.286	69.38
401.51	90.38
401.734	82.38
401.958	99.38
402.182	87.38
402.406	85.38
402.63	89.38
402.854	80.38
403.078	86.38
403.302	89.38
403.526	94.38
403.75	94.38
403.974	71.38
404.198	88.38
404.422	83.38
404.645	107.38
404.869	91.38
405.093	81.38
405.317	69.38
405.541	88.38
405.765	92.38
405.988	111.38
406.212	92.38
406.436	74.38
406.66	69.38
406.883	78.38
407.107	73.38
407.331	66.38
407.555	85.38
407.778	82.38
408.002	89.38
408.226	97.38
408.449	84.38
408.673	92.38
408.896	71.38
409.12	93.38
409.344	84.38
409.567	76.38
409.791	77.38
410.014	94.38
410.238	80.38
410.461	80.38
410.685	89.38
410.908	82.38
411.132	89.38
411.355	77.38
411.578	87.38
411.802	80.38
412.025	85.38
412.249	89.38
412.472	86.38
412.695	87.38
412.919	88.38
413.142	66.38
413.365	90.38
413.589	88.38
413.812	97.38
414.035	92.38
414.258	95.38
414.482	82.38
414.705	73.38
414.928	96.38
415.151	81.38
415.374	83.38
415.597	78.38
415.821	79.38
416.044	73.38
416.267	83.38
416.49	95.38
416.713	92.38
416.936	76.38
417.159	84.38
417.382	81.38
417.605	78.38
417.828	93.38
418.051	91.38
418.274	72.38
418.497	88.38
418.72	70.38
418.943	76.38
419.166	84.38
419.389	85.38
419.611	66.38
419.834	57.38
420.057	81.38
420.28	70.38
420.503	86.38
420.726	74.38
420.948	100.38
421.171	91.38
421.394	82.38
421.617	81.38
421.839	81.38
422.062	77.38
422.285	83.38
422.507	86.38
422.73	109.38
422.953	96.38
423.175	80.38
423.398	86.38
423.621	86.38
423.843	75.38
424.066	75.38
424.288	78.38
424.511	96.38
424.733	91.38
424.956	74.38
425.178	83.38
425.401	97.38
425.623	84.38
425.846	93.38
426.068	67.38
426.291	72.38
426.513	83.38
426.735	93.38
426.958	83.38
427.18	88.38
427.402	88.38
427.625	80.38
427.847	73.38
428.069	85.38
428.292	82.38
428.514	104.38
428.736	87.38
428.958	80.38
429.181	78.38
429.403	86.38
429.625	89.38
429.847	81.38
430.069	88.38
430.292	94.38
430.514	78.38
430.736	78.38
430.958	87.38
431.18	80.38
431.402	89.38
431.624	85.38
431.846	104.38
432.068	103.38
432.29	91.38
432.512	84.38
432.734	79.38
432.956	72.38
433.178	91.38
433.4	75.38
433.622	79.38
433.844	71.38
434.066	87.38
434.287	85.38
434.509	80.38
434.731	90.38
434.953	86.38
435.175	87.38
435.397	98.38
435.618	87.38
435.84	100.38
436.062	87.38
436.284	89.38
436.505	82.38
436.727	82.38
436.949	83.38
437.17	91.38
437.392	79.38
437.614	69.38
437.835	80.38
438.057	103.38
438.278	80.38
438.5	85.38
438.721	78.38
438.943	87.38
439.165	89.38
439.386	85.38
439.608	91.38
439.829	74.38
440.05	85.38
440.272	70.38
440.493	78.38
440.715	84.38
440.936	87.38
441.158	92.38
441.379	94.38
441.6	84.38
441.822	81.38
442.043	69.38
442.264	77.38
442.486	88.38
442.707	95.38
442.928	80.38
443.149	77.38
443.371	75.38
443.592	92.38
443.813	75.38
444.034	79.38
444.255	82.38
444.476	67.38
444.698	77.38
444.919	79.38
445.14	146.38
445.361	114.38
445.582	81.38
445.803	92.38
446.024	70.38
446.245	80.38
446.466	80.38
446.687	72.38
446.908	78.38
447.129	80.38
447.35	87.38
447.571	81.38
447.792	85.38
448.013	82.38
448.234	76.38
448.455	76.38
448.675	89.38
448.896	87.38
449.117	75.38
449.338	76.38
449.559	80.38
449.779	74.38
450	93.38
450.221	81.38
450.442	87.38
450.662	75.38
450.883	90.38
451.104	87.38
451.324	79.38
451.545	78.38
451.766	71.38
451.986	80.38
452.207	73.38
452.428	66.38
452.648	95.38
452.869	84.38
453.089	89.38
453.31	76.38
453.53	83.38
453.751	97.38
453.971	80.38
454.192	82.38
454.412	73.38
454.633	84.38
454.853	85.38
455.073	91.38
455.294	67.38
455.514	95.38
455.734	69.38
455.955	85.38
456.175	80.38
456.395	75.38
456.616	78.38
456.836	76.38
457.056	91.38
457.276	86.38
457.497	80.38
457.717	72.38
457.937	92.38
458.157	83.38
458.377	84.38
458.598	73.38
458.818	96.38
459.038	85.38
459.258	94.38
459.478	85.38
459.698	103.38
459.918	87.38
460.138	89.38
460.358	82.38
460.578	68.38
460.798	91.38
461.018	81.38
461.238	85.38
461.458	83.38
461.678	88.38
461.898	87.38
462.118	91.38
462.338	81.38
462.558	80.38
462.777	77.38
462.997	77.38
463.217	90.38
463.437	78.38
463.657	90.38
463.876	79.38
464.096	78.38
464.316	84.38
464.536	91.38
464.755	76.38
464.975	79.38
465.195	88.38
465.414	94.38
465.634	82.38
465.854	82.38
466.073	70.38
466.293	99.38
466.512	72.38
466.732	77.38
466.951	80.38
467.171	73.38
467.391	76.38
467.61	84.38
467.829	84.38
468.049	82.38
468.268	87.38
468.488	82.38
468.707	79.38
468.927	75.38
469.146	89.38
469.365	79.38
469.585	85.38
469.804	84.38
470.023	73.38
470.243	85.38
470.462	77.38
470.681	91.38
470.901	96.38
471.12	68.38
471.339	91.38
471.558	74.38
471.777	90.38
471.997	90.38
472.216	78.38
472.435	76.38
472.654	78.38
472.873	79.38
473.092	83.38
473.311	101.38
473.53	81.38
473.749	86.38
473.968	84.38
474.187	99.38
474.406	84.38
474.625	101.38
474.844	100.38
475.063	73.38
475.282	90.38
475.501	79.38
475.72	94.38
475.939	90.38
476.158	86.38
476.377	94.38
476.596	89.38
476.814	79.38
477.033	77.38
477.252	77.38
477.471	92.38
477.69	77.38
477.908	72.38
478.127	79.38
478.346	83.38
478.564	75.38
478.783	64.38
479.002	75.38
479.22	92.38
479.439	73.38
479.658	86.38
479.876	84.38
480.095	75.38
480.313	90.38
480.532	90.38
480.751	99.38
480.969	89.38
481.188	82.38
481.406	81.38
481.624	91.38
481.843	78.38
482.061	91.38
482.28	83.38
482.498	76.38
482.717	71.38
482.935	79.38
483.153	77.38
483.372	78.38
483.59	83.38
483.808	88.38
484.027	85.38
484.245	95.38
484.463	75.38
484.681	92.38
484.9	86.38
485.118	79.38
485.336	77.38
485.554	96.38
485.772	82.38
485.99	91.38
486.209	95.38
486.427	77.38
486.645	83.38
486.863	88.38
487.081	86.38
487.299	90.38
487.517	94.38
487.735	94.38
487.953	84.38
488.171	99.38
488.389	85.38
488.607	87.38
488.825	81.38
489.043	76.38
489.261	75.38
489.479	87.38
489.696	71.38
489.914	93.38
490.132	91.38
490.35	89.38
490.568	82.38
490.786	78.38
491.003	86.38
491.221	83.38
491.439	74.38
491.657	66.38
491.874	87.38
492.092	92.38
492.31	84.38
492.527	86.38
492.745	87.38
492.963	84.38
493.18	93.38
493.398	87.38
493.615	98.38
493.833	75.38
494.05	77.38
494.268	93.38
494.485	81.38
494.703	85.38
494.92	80.38
495.138	80.38
495.355	81.38
495.573	77.38
495.79	85.38
496.008	90.38
496.225	82.38
496.442	79.38
496.66	81.38
496.877	80.38
497.094	95.38
497.312	77.38
497.529	88.38
497.746	93.38
497.963	88.38
498.181	88.38
498.398	84.38
498.615	76.38
498.832	83.38
499.049	69.38
499.267	92.38
499.484	81.38
499.701	84.38
499.918	89.38
500.135	80.38
500.352	73.38
500.569	85.38
500.786	90.38
501.003	89.38
501.22	85.38
501.437	79.38
501.654	80.38
501.871	85.38
502.088	84.38
502.305	90.38
502.522	70.38
502.739	96.38
502.956	83.38
503.172	81.38
503.389	87.38
503.606	81.38
503.823	81.38
504.04	87.38
504.256	79.38
504.473	83.38
504.69	90.38
504.907	94.38
505.123	86.38
505.34	76.38
505.557	80.38
505.773	78.38
505.99	96.38
506.207	88.38
506.423	82.38
506.64	84.38
506.856	92.38
507.073	85.38
507.289	92.38
507.506	82.38
507.722	61.38
507.939	67.38
508.155	83.38
508.372	85.38
508.588	88.38
508.805	96.38
509.021	84.38
509.238	83.38
509.454	81.38
509.67	78.38
509.887	90.38
510.103	88.38
510.319	84.38
510.536	80.38
510.752	71.38
510.968	87.38
511.184	91.38
511.401	95.38
511.617	98.38
511.833	84.38
512.049	79.38
512.265	79.38
512.481	87.38
512.698	92.38
512.914	115.38
513.13	89.38
513.346	79.38
513.562	90.38
513.778	95.38
513.994	83.38
514.21	73.38
514.426	84.38
514.642	89.38
514.858	90.38
515.074	89.38
515.29	89.38
515.506	89.38
515.721	95.38
515.937	93.38
516.153	81.38
516.369	85.38
516.585	100.38
516.801	78.38
517.016	94.38
517.232	76.38
517.448	88.38
517.664	76.38
517.879	86.38
518.095	83.38
518.311	88.38
518.527	89.38
518.742	82.38
518.958	91.38
519.173	79.38
519.389	86.38
519.605	97.38
519.82	86.38
