Data from Dirtnoheat3_HRD10591_00011.txt Node
Date: Fri Dec 27 15:21:24 EST 2024
User: Yrep
Spectrometer: HR+D1059
Trigger mode: 1
Integration Time (sec): 1.000000E-1
Scans to average: 1
Electric dark correction enabled: true
Nonlinearity correction enabled: false
Boxcar width: 0
XAxis mode: Wavelengths
Number of Pixels in Spectrum: 2048
>>>>>Begin Spectral Data<<<<<
223.165	-3.88
223.4	-3.88
223.635	-3.88
223.869	-28.88
224.104	-14.88
224.338	-12.88
224.573	-10.88
224.808	-12.88
225.042	11.12
225.277	-14.88
225.511	-10.88
225.746	3.12
225.98	11.12
226.215	19.12
226.449	11.12
226.683	17.12
226.918	10.12
227.152	27.12
227.387	37.12
227.621	35.12
227.856	47.12
228.09	33.12
228.324	59.12
228.559	63.12
228.793	58.12
229.027	60.12
229.262	74.12
229.496	61.12
229.73	68.12
229.964	74.12
230.199	82.12
230.433	79.12
230.667	82.12
230.901	66.12
231.136	90.12
231.37	83.12
231.604	83.12
231.838	80.12
232.072	88.12
232.306	95.12
232.541	82.12
232.775	79.12
233.009	81.12
233.243	71.12
233.477	59.12
233.711	73.12
233.945	93.12
234.179	90.12
234.413	80.12
234.647	74.12
234.881	73.12
235.115	80.12
235.349	87.12
235.583	75.12
235.817	82.12
236.051	90.12
236.285	69.12
236.519	87.12
236.753	74.12
236.987	77.12
237.221	83.12
237.455	73.12
237.689	59.12
237.922	77.12
238.156	78.12
238.39	73.12
238.624	87.12
238.858	69.12
239.091	75.12
239.325	88.12
239.559	83.12
239.793	78.12
240.027	78.12
240.26	71.12
240.494	74.12
240.728	69.12
240.961	77.12
241.195	72.12
241.429	82.12
241.662	76.12
241.896	67.12
242.13	82.12
242.363	73.12
242.597	73.12
242.83	70.12
243.064	70.12
243.298	86.12
243.531	81.12
243.765	72.12
243.998	81.12
244.232	71.12
244.465	69.12
244.699	77.12
244.932	77.12
245.166	76.12
245.399	87.12
245.633	80.12
245.866	67.12
246.099	72.12
246.333	83.12
246.566	88.12
246.8	79.12
247.033	80.12
247.266	73.12
247.5	83.12
247.733	71.12
247.966	74.12
248.2	86.12
248.433	61.12
248.666	78.12
248.899	80.12
249.133	83.12
249.366	84.12
249.599	79.12
249.832	78.12
250.066	72.12
250.299	80.12
250.532	84.12
250.765	85.12
250.998	82.12
251.231	78.12
251.465	92.12
251.698	89.12
251.931	79.12
252.164	89.12
252.397	85.12
252.63	86.12
252.863	82.12
253.096	75.12
253.329	82.12
253.562	77.12
253.795	77.12
254.028	80.12
254.261	80.12
254.494	86.12
254.727	76.12
254.96	75.12
255.193	72.12
255.426	87.12
255.659	79.12
255.892	85.12
256.124	85.12
256.357	80.12
256.59	77.12
256.823	86.12
257.056	72.12
257.289	86.12
257.521	82.12
257.754	72.12
257.987	60.12
258.22	83.12
258.452	75.12
258.685	69.12
258.918	85.12
259.151	73.12
259.383	76.12
259.616	66.12
259.849	85.12
260.081	78.12
260.314	96.12
260.547	87.12
260.779	80.12
261.012	85.12
261.244	65.12
261.477	82.12
261.71	70.12
261.942	77.12
262.175	68.12
262.407	75.12
262.64	83.12
262.872	81.12
263.105	76.12
263.337	82.12
263.57	75.12
263.802	69.12
264.035	86.12
264.267	78.12
264.499	86.12
264.732	79.12
264.964	69.12
265.197	71.12
265.429	74.12
265.661	75.12
265.894	77.12
266.126	77.12
266.358	86.12
266.591	71.12
266.823	75.12
267.055	74.12
267.287	83.12
267.52	76.12
267.752	92.12
267.984	71.12
268.216	70.12
268.448	95.12
268.681	91.12
268.913	80.12
269.145	92.12
269.377	79.12
269.609	76.12
269.841	88.12
270.073	77.12
270.306	80.12
270.538	86.12
270.77	81.12
271.002	79.12
271.234	81.12
271.466	78.12
271.698	74.12
271.93	84.12
272.162	86.12
272.394	88.12
272.626	78.12
272.858	85.12
273.09	87.12
273.322	78.12
273.553	96.12
273.785	85.12
274.017	83.12
274.249	96.12
274.481	92.12
274.713	81.12
274.945	83.12
275.176	81.12
275.408	91.12
275.64	74.12
275.872	74.12
276.104	83.12
276.335	80.12
276.567	83.12
276.799	82.12
277.031	81.12
277.262	88.12
277.494	77.12
277.726	81.12
277.957	86.12
278.189	65.12
278.421	79.12
278.652	93.12
278.884	85.12
279.115	75.12
279.347	84.12
279.579	79.12
279.81	65.12
280.042	84.12
280.273	70.12
280.505	82.12
280.736	87.12
280.968	87.12
281.199	82.12
281.431	86.12
281.662	100.12
281.894	95.12
282.125	89.12
282.356	85.12
282.588	81.12
282.819	90.12
283.051	89.12
283.282	85.12
283.513	84.12
283.745	82.12
283.976	85.12
284.207	81.12
284.439	78.12
284.67	97.12
284.901	93.12
285.132	80.12
285.364	86.12
285.595	91.12
285.826	93.12
286.057	81.12
286.288	88.12
286.52	78.12
286.751	82.12
286.982	78.12
287.213	75.12
287.444	93.12
287.675	108.12
287.906	99.12
288.138	80.12
288.369	81.12
288.6	87.12
288.831	81.12
289.062	85.12
289.293	83.12
289.524	85.12
289.755	90.12
289.986	84.12
290.217	100.12
290.448	79.12
290.679	80.12
290.91	82.12
291.141	86.12
291.371	97.12
291.602	92.12
291.833	89.12
292.064	89.12
292.295	74.12
292.526	75.12
292.757	86.12
292.987	81.12
293.218	87.12
293.449	95.12
293.68	80.12
293.91	98.12
294.141	84.12
294.372	82.12
294.603	89.12
294.833	80.12
295.064	84.12
295.295	94.12
295.525	83.12
295.756	80.12
295.987	84.12
296.217	78.12
296.448	104.12
296.679	81.12
296.909	86.12
297.14	77.12
297.37	101.12
297.601	94.12
297.831	88.12
298.062	97.12
298.292	76.12
298.523	80.12
298.753	70.12
298.984	79.12
299.214	92.12
299.445	75.12
299.675	91.12
299.905	73.12
300.136	96.12
300.366	81.12
300.597	68.12
300.827	86.12
301.057	85.12
301.288	78.12
301.518	87.12
301.748	79.12
301.979	110.12
302.209	76.12
302.439	86.12
302.669	88.12
302.9	84.12
303.13	86.12
303.36	104.12
303.59	97.12
303.82	65.12
304.051	84.12
304.281	94.12
304.511	75.12
304.741	90.12
304.971	83.12
305.201	75.12
305.431	90.12
305.661	67.12
305.891	86.12
306.121	87.12
306.352	88.12
306.582	86.12
306.812	81.12
307.042	85.12
307.272	75.12
307.502	88.12
307.731	91.12
307.961	85.12
308.191	88.12
308.421	86.12
308.651	90.12
308.881	86.12
309.111	91.12
309.341	85.12
309.571	90.12
309.8	89.12
310.03	97.12
310.26	82.12
310.49	73.12
310.72	78.12
310.949	80.12
311.179	81.12
311.409	103.12
311.639	89.12
311.868	72.12
312.098	92.12
312.328	79.12
312.557	93.12
312.787	90.12
313.017	82.12
313.246	77.12
313.476	89.12
313.706	91.12
313.935	87.12
314.165	86.12
314.394	102.12
314.624	80.12
314.853	84.12
315.083	79.12
315.312	57.12
315.542	86.12
315.771	89.12
316.001	88.12
316.23	85.12
316.46	73.12
316.689	81.12
316.919	83.12
317.148	80.12
317.377	93.12
317.607	103.12
317.836	73.12
318.065	88.12
318.295	82.12
318.524	89.12
318.753	88.12
318.983	84.12
319.212	90.12
319.441	86.12
319.67	89.12
319.9	87.12
320.129	86.12
320.358	81.12
320.587	95.12
320.816	75.12
321.046	81.12
321.275	77.12
321.504	72.12
321.733	82.12
321.962	88.12
322.191	97.12
322.42	87.12
322.649	94.12
322.878	88.12
323.108	82.12
323.337	96.12
323.566	81.12
323.795	77.12
324.024	73.12
324.253	77.12
324.482	81.12
324.71	88.12
324.939	91.12
325.168	71.12
325.397	87.12
325.626	78.12
325.855	79.12
326.084	83.12
326.313	76.12
326.542	84.12
326.77	95.12
326.999	80.12
327.228	86.12
327.457	89.12
327.686	95.12
327.914	81.12
328.143	86.12
328.372	81.12
328.6	88.12
328.829	92.12
329.058	89.12
329.287	85.12
329.515	79.12
329.744	86.12
329.972	95.12
330.201	91.12
330.43	78.12
330.658	78.12
330.887	80.12
331.115	102.12
331.344	80.12
331.572	80.12
331.801	89.12
332.03	88.12
332.258	77.12
332.486	84.12
332.715	79.12
332.943	90.12
333.172	68.12
333.4	78.12
333.629	89.12
333.857	81.12
334.085	74.12
334.314	82.12
334.542	86.12
334.771	87.12
334.999	93.12
335.227	81.12
335.455	85.12
335.684	79.12
335.912	88.12
336.14	72.12
336.369	87.12
336.597	93.12
336.825	86.12
337.053	81.12
337.281	75.12
337.51	83.12
337.738	92.12
337.966	84.12
338.194	81.12
338.422	93.12
338.65	86.12
338.878	82.12
339.106	87.12
339.334	87.12
339.562	92.12
339.79	78.12
340.018	84.12
340.246	77.12
340.474	90.12
340.702	102.12
340.93	89.12
341.158	80.12
341.386	63.12
341.614	93.12
341.842	84.12
342.07	88.12
342.298	82.12
342.526	87.12
342.754	93.12
342.981	98.12
343.209	75.12
343.437	102.12
343.665	85.12
343.893	73.12
344.12	71.12
344.348	101.12
344.576	85.12
344.804	71.12
345.031	76.12
345.259	86.12
345.487	84.12
345.714	77.12
345.942	93.12
346.17	93.12
346.397	77.12
346.625	76.12
346.853	79.12
347.08	92.12
347.308	87.12
347.535	83.12
347.763	74.12
347.99	92.12
348.218	97.12
348.445	94.12
348.673	71.12
348.9	90.12
349.128	82.12
349.355	81.12
349.583	84.12
349.81	87.12
350.037	74.12
350.265	85.12
350.492	66.12
350.72	69.12
350.947	88.12
351.174	88.12
351.402	67.12
351.629	83.12
351.856	81.12
352.083	101.12
352.311	94.12
352.538	77.12
352.765	79.12
352.992	77.12
353.22	87.12
353.447	102.12
353.674	85.12
353.901	75.12
354.128	86.12
354.355	80.12
354.583	79.12
354.81	83.12
355.037	75.12
355.264	93.12
355.491	89.12
355.718	69.12
355.945	85.12
356.172	94.12
356.399	95.12
356.626	74.12
356.853	78.12
357.08	80.12
357.307	88.12
357.534	85.12
357.761	89.12
357.988	81.12
358.215	74.12
358.441	83.12
358.668	98.12
358.895	87.12
359.122	88.12
359.349	80.12
359.576	71.12
359.802	85.12
360.029	76.12
360.256	65.12
360.483	85.12
360.709	80.12
360.936	78.12
361.163	87.12
361.39	85.12
361.616	75.12
361.843	94.12
362.07	84.12
362.296	85.12
362.523	77.12
362.749	81.12
362.976	92.12
363.203	89.12
363.429	79.12
363.656	83.12
363.882	79.12
364.109	88.12
364.335	83.12
364.562	96.12
364.788	82.12
365.015	86.12
365.241	91.12
365.468	83.12
365.694	86.12
365.92	85.12
366.147	78.12
366.373	83.12
366.599	74.12
366.826	76.12
367.052	86.12
367.278	87.12
367.505	87.12
367.731	99.12
367.957	80.12
368.184	74.12
368.41	91.12
368.636	91.12
368.862	95.12
369.089	67.12
369.315	81.12
369.541	77.12
369.767	89.12
369.993	79.12
370.219	81.12
370.445	89.12
370.672	101.12
370.898	75.12
371.124	73.12
371.35	99.12
371.576	91.12
371.802	81.12
372.028	81.12
372.254	73.12
372.48	73.12
372.706	89.12
372.932	83.12
373.158	89.12
373.384	88.12
373.61	89.12
373.835	90.12
374.061	81.12
374.287	67.12
374.513	82.12
374.739	79.12
374.965	83.12
375.191	79.12
375.416	91.12
375.642	92.12
375.868	89.12
376.094	96.12
376.319	87.12
376.545	82.12
376.771	88.12
376.997	95.12
377.222	70.12
377.448	73.12
377.674	80.12
377.899	86.12
378.125	74.12
378.35	67.12
378.576	88.12
378.802	85.12
379.027	82.12
379.253	86.12
379.478	64.12
379.704	87.12
379.929	80.12
380.155	68.12
380.38	86.12
380.606	81.12
380.831	77.12
381.057	84.12
381.282	72.12
381.507	77.12
381.733	83.12
381.958	92.12
382.184	88.12
382.409	80.12
382.634	85.12
382.86	69.12
383.085	79.12
383.31	83.12
383.535	80.12
383.761	77.12
383.986	89.12
384.211	74.12
384.436	87.12
384.662	81.12
384.887	73.12
385.112	88.12
385.337	91.12
385.562	90.12
385.787	75.12
386.013	91.12
386.238	74.12
386.463	80.12
386.688	92.12
386.913	71.12
387.138	81.12
387.363	81.12
387.588	81.12
387.813	79.12
388.038	94.12
388.263	76.12
388.488	84.12
388.713	83.12
388.938	86.12
389.163	88.12
389.387	85.12
389.612	85.12
389.837	81.12
390.062	65.12
390.287	107.12
390.512	75.12
390.736	79.12
390.961	85.12
391.186	82.12
391.411	83.12
391.636	68.12
391.86	80.12
392.085	74.12
392.31	87.12
392.534	87.12
392.759	79.12
392.984	101.12
393.208	84.12
393.433	82.12
393.658	79.12
393.882	67.12
394.107	89.12
394.331	90.12
394.556	86.12
394.78	88.12
395.005	82.12
395.229	67.12
395.454	89.12
395.678	90.12
395.903	81.12
396.127	86.12
396.352	86.12
396.576	91.12
396.801	88.12
397.025	89.12
397.249	85.12
397.474	83.12
397.698	83.12
397.922	94.12
398.147	74.12
398.371	88.12
398.595	73.12
398.82	83.12
399.044	74.12
399.268	71.12
399.492	78.12
399.717	76.12
399.941	81.12
400.165	76.12
400.389	70.12
400.613	79.12
400.837	76.12
401.062	75.12
401.286	80.12
401.51	85.12
401.734	85.12
401.958	82.12
402.182	76.12
402.406	85.12
402.63	72.12
402.854	76.12
403.078	73.12
403.302	70.12
403.526	89.12
403.75	76.12
403.974	72.12
404.198	92.12
404.422	81.12
404.645	79.12
404.869	79.12
405.093	95.12
405.317	85.12
405.541	75.12
405.765	78.12
405.988	68.12
406.212	73.12
406.436	75.12
406.66	81.12
406.883	78.12
407.107	59.12
407.331	81.12
407.555	98.12
407.778	90.12
408.002	90.12
408.226	74.12
408.449	74.12
408.673	73.12
408.896	74.12
409.12	80.12
409.344	87.12
409.567	71.12
409.791	71.12
410.014	81.12
410.238	95.12
410.461	76.12
410.685	85.12
410.908	61.12
411.132	85.12
411.355	80.12
411.578	91.12
411.802	86.12
412.025	90.12
412.249	72.12
412.472	77.12
412.695	86.12
412.919	76.12
413.142	73.12
413.365	89.12
413.589	80.12
413.812	97.12
414.035	95.12
414.258	90.12
414.482	83.12
414.705	94.12
414.928	79.12
415.151	65.12
415.374	86.12
415.597	74.12
415.821	88.12
416.044	76.12
416.267	82.12
416.49	89.12
416.713	82.12
416.936	70.12
417.159	91.12
417.382	69.12
417.605	76.12
417.828	87.12
418.051	76.12
418.274	81.12
418.497	83.12
418.72	86.12
418.943	80.12
419.166	85.12
419.389	72.12
419.611	84.12
419.834	81.12
420.057	83.12
420.28	89.12
420.503	92.12
420.726	85.12
420.948	76.12
421.171	75.12
421.394	81.12
421.617	90.12
421.839	75.12
422.062	73.12
422.285	85.12
422.507	94.12
422.73	93.12
422.953	92.12
423.175	105.12
423.398	65.12
423.621	90.12
423.843	80.12
424.066	81.12
424.288	102.12
424.511	89.12
424.733	84.12
424.956	78.12
425.178	79.12
425.401	67.12
425.623	84.12
425.846	86.12
426.068	80.12
426.291	81.12
426.513	79.12
426.735	74.12
426.958	86.12
427.18	77.12
427.402	80.12
427.625	82.12
427.847	72.12
428.069	84.12
428.292	78.12
428.514	89.12
428.736	80.12
428.958	92.12
429.181	82.12
429.403	73.12
429.625	69.12
429.847	76.12
430.069	90.12
430.292	91.12
430.514	73.12
430.736	97.12
430.958	91.12
431.18	89.12
431.402	83.12
431.624	87.12
431.846	89.12
432.068	89.12
432.29	78.12
432.512	76.12
432.734	90.12
432.956	93.12
433.178	79.12
433.4	89.12
433.622	88.12
433.844	82.12
434.066	85.12
434.287	81.12
434.509	74.12
434.731	85.12
434.953	82.12
435.175	81.12
435.397	80.12
435.618	79.12
435.84	94.12
436.062	78.12
436.284	88.12
436.505	73.12
436.727	66.12
436.949	75.12
437.17	78.12
437.392	69.12
437.614	90.12
437.835	83.12
438.057	82.12
438.278	83.12
438.5	89.12
438.721	76.12
438.943	83.12
439.165	72.12
439.386	69.12
439.608	86.12
439.829	79.12
440.05	77.12
440.272	88.12
440.493	93.12
440.715	76.12
440.936	89.12
441.158	75.12
441.379	69.12
441.6	95.12
441.822	75.12
442.043	83.12
442.264	92.12
442.486	101.12
442.707	72.12
442.928	79.12
443.149	80.12
443.371	71.12
443.592	94.12
443.813	81.12
444.034	89.12
444.255	86.12
444.476	83.12
444.698	82.12
444.919	89.12
445.14	149.12
445.361	121.12
445.582	97.12
445.803	94.12
446.024	83.12
446.245	84.12
446.466	78.12
446.687	89.12
446.908	84.12
447.129	75.12
447.35	86.12
447.571	79.12
447.792	94.12
448.013	92.12
448.234	90.12
448.455	67.12
448.675	80.12
448.896	77.12
449.117	84.12
449.338	74.12
449.559	86.12
449.779	77.12
450	88.12
450.221	84.12
450.442	81.12
450.662	87.12
450.883	88.12
451.104	90.12
451.324	90.12
451.545	84.12
451.766	73.12
451.986	71.12
452.207	85.12
452.428	78.12
452.648	87.12
452.869	84.12
453.089	72.12
453.31	81.12
453.53	86.12
453.751	85.12
453.971	94.12
454.192	85.12
454.412	75.12
454.633	72.12
454.853	79.12
455.073	95.12
455.294	93.12
455.514	79.12
455.734	85.12
455.955	78.12
456.175	83.12
456.395	71.12
456.616	79.12
456.836	81.12
457.056	81.12
457.276	66.12
457.497	77.12
457.717	78.12
457.937	79.12
458.157	85.12
458.377	65.12
458.598	77.12
458.818	81.12
459.038	92.12
459.258	76.12
459.478	77.12
459.698	79.12
459.918	77.12
460.138	87.12
460.358	75.12
460.578	74.12
460.798	88.12
461.018	86.12
461.238	101.12
461.458	77.12
461.678	79.12
461.898	84.12
462.118	88.12
462.338	88.12
462.558	99.12
462.777	80.12
462.997	87.12
463.217	85.12
463.437	74.12
463.657	77.12
463.876	86.12
464.096	74.12
464.316	79.12
464.536	85.12
464.755	81.12
464.975	90.12
465.195	82.12
465.414	88.12
465.634	93.12
465.854	77.12
466.073	75.12
466.293	79.12
466.512	84.12
466.732	80.12
466.951	71.12
467.171	89.12
467.391	77.12
467.61	70.12
467.829	79.12
468.049	89.12
468.268	73.12
468.488	64.12
468.707	87.12
468.927	98.12
469.146	79.12
469.365	78.12
469.585	78.12
469.804	76.12
470.023	90.12
470.243	71.12
470.462	86.12
470.681	68.12
470.901	87.12
471.12	87.12
471.339	102.12
471.558	79.12
471.777	81.12
471.997	69.12
472.216	80.12
472.435	96.12
472.654	93.12
472.873	88.12
473.092	93.12
473.311	72.12
473.53	74.12
473.749	88.12
473.968	93.12
474.187	87.12
474.406	79.12
474.625	72.12
474.844	83.12
475.063	94.12
475.282	85.12
475.501	81.12
475.72	89.12
475.939	77.12
476.158	87.12
476.377	93.12
476.596	78.12
476.814	76.12
477.033	80.12
477.252	88.12
477.471	91.12
477.69	91.12
477.908	94.12
478.127	83.12
478.346	82.12
478.564	77.12
478.783	67.12
479.002	74.12
479.22	81.12
479.439	90.12
479.658	85.12
479.876	102.12
480.095	81.12
480.313	89.12
480.532	86.12
480.751	89.12
480.969	84.12
481.188	97.12
481.406	82.12
481.624	83.12
481.843	67.12
482.061	80.12
482.28	84.12
482.498	77.12
482.717	86.12
482.935	93.12
483.153	91.12
483.372	91.12
483.59	78.12
483.808	73.12
484.027	85.12
484.245	69.12
484.463	76.12
484.681	105.12
484.9	90.12
485.118	93.12
485.336	89.12
485.554	83.12
485.772	79.12
485.99	85.12
486.209	84.12
486.427	77.12
486.645	86.12
486.863	87.12
487.081	81.12
487.299	82.12
487.517	90.12
487.735	83.12
487.953	89.12
488.171	72.12
488.389	90.12
488.607	77.12
488.825	64.12
489.043	81.12
489.261	87.12
489.479	88.12
489.696	86.12
489.914	75.12
490.132	95.12
490.35	92.12
490.568	75.12
490.786	85.12
491.003	100.12
491.221	82.12
491.439	89.12
491.657	92.12
491.874	81.12
492.092	82.12
492.31	95.12
492.527	66.12
492.745	73.12
492.963	80.12
493.18	92.12
493.398	98.12
493.615	91.12
493.833	78.12
494.05	101.12
494.268	88.12
494.485	80.12
494.703	91.12
494.92	86.12
495.138	93.12
495.355	105.12
495.573	91.12
495.79	87.12
496.008	96.12
496.225	79.12
496.442	79.12
496.66	85.12
496.877	85.12
497.094	75.12
497.312	97.12
497.529	94.12
497.746	82.12
497.963	92.12
498.181	82.12
498.398	70.12
498.615	89.12
498.832	93.12
499.049	89.12
499.267	85.12
499.484	94.12
499.701	96.12
499.918	81.12
500.135	83.12
500.352	97.12
500.569	80.12
500.786	78.12
501.003	89.12
501.22	87.12
501.437	80.12
501.654	85.12
501.871	96.12
502.088	80.12
502.305	66.12
502.522	71.12
502.739	92.12
502.956	97.12
503.172	107.12
503.389	88.12
503.606	90.12
503.823	92.12
504.04	75.12
504.256	102.12
504.473	85.12
504.69	90.12
504.907	106.12
505.123	78.12
505.34	84.12
505.557	82.12
505.773	81.12
505.99	83.12
506.207	86.12
506.423	86.12
506.64	99.12
506.856	86.12
507.073	76.12
507.289	85.12
507.506	75.12
507.722	86.12
507.939	82.12
508.155	77.12
508.372	76.12
508.588	78.12
508.805	88.12
509.021	99.12
509.238	90.12
509.454	73.12
509.67	76.12
509.887	78.12
510.103	90.12
510.319	85.12
510.536	79.12
510.752	93.12
510.968	78.12
511.184	77.12
511.401	75.12
511.617	77.12
511.833	72.12
512.049	92.12
512.265	89.12
512.481	86.12
512.698	85.12
512.914	76.12
513.13	79.12
513.346	90.12
513.562	84.12
513.778	80.12
513.994	81.12
514.21	95.12
514.426	85.12
514.642	93.12
514.858	91.12
515.074	87.12
515.29	84.12
515.506	77.12
515.721	94.12
515.937	89.12
516.153	77.12
516.369	84.12
516.585	81.12
516.801	89.12
517.016	87.12
517.232	85.12
517.448	87.12
517.664	88.12
517.879	93.12
518.095	95.12
518.311	89.12
518.527	86.12
518.742	78.12
518.958	96.12
519.173	97.12
519.389	92.12
519.605	91.12
519.82	80.12
