Data from Dirtnoheat3_HRD10591_00013.txt Node
Date: Fri Dec 27 15:21:26 EST 2024
User: Yrep
Spectrometer: HR+D1059
Trigger mode: 1
Integration Time (sec): 1.000000E-1
Scans to average: 1
Electric dark correction enabled: true
Nonlinearity correction enabled: false
Boxcar width: 0
XAxis mode: Wavelengths
Number of Pixels in Spectrum: 2048
>>>>>Begin Spectral Data<<<<<
223.165	-20.69
223.4	-20.69
223.635	-20.69
223.869	-11.69
224.104	-22.69
224.338	-22.69
224.573	-27.69
224.808	-17.69
225.042	6.31
225.277	-4.69
225.511	0.31
225.746	1.31
225.98	12.31
226.215	14.31
226.449	-3.69
226.683	30.31
226.918	33.31
227.152	33.31
227.387	35.31
227.621	33.31
227.856	36.31
228.09	52.31
228.324	41.31
228.559	40.31
228.793	61.31
229.027	62.31
229.262	66.31
229.496	66.31
229.73	63.31
229.964	72.31
230.199	65.31
230.433	72.31
230.667	88.31
230.901	81.31
231.136	81.31
231.37	66.31
231.604	72.31
231.838	62.31
232.072	73.31
232.306	78.31
232.541	94.31
232.775	85.31
233.009	83.31
233.243	67.31
233.477	79.31
233.711	78.31
233.945	66.31
234.179	76.31
234.413	83.31
234.647	76.31
234.881	75.31
235.115	76.31
235.349	87.31
235.583	79.31
235.817	74.31
236.051	67.31
236.285	67.31
236.519	75.31
236.753	62.31
236.987	74.31
237.221	80.31
237.455	73.31
237.689	82.31
237.922	79.31
238.156	70.31
238.39	56.31
238.624	84.31
238.858	84.31
239.091	88.31
239.325	76.31
239.559	81.31
239.793	72.31
240.027	76.31
240.26	79.31
240.494	71.31
240.728	72.31
240.961	79.31
241.195	85.31
241.429	76.31
241.662	78.31
241.896	68.31
242.13	88.31
242.363	81.31
242.597	89.31
242.83	66.31
243.064	80.31
243.298	72.31
243.531	71.31
243.765	69.31
243.998	64.31
244.232	70.31
244.465	84.31
244.699	63.31
244.932	88.31
245.166	75.31
245.399	83.31
245.633	94.31
245.866	61.31
246.099	79.31
246.333	70.31
246.566	66.31
246.8	85.31
247.033	76.31
247.266	89.31
247.5	74.31
247.733	80.31
247.966	84.31
248.2	83.31
248.433	80.31
248.666	72.31
248.899	75.31
249.133	72.31
249.366	78.31
249.599	82.31
249.832	82.31
250.066	76.31
250.299	79.31
250.532	79.31
250.765	79.31
250.998	80.31
251.231	82.31
251.465	72.31
251.698	77.31
251.931	81.31
252.164	92.31
252.397	80.31
252.63	87.31
252.863	75.31
253.096	74.31
253.329	91.31
253.562	78.31
253.795	77.31
254.028	88.31
254.261	76.31
254.494	73.31
254.727	89.31
254.96	63.31
255.193	90.31
255.426	76.31
255.659	84.31
255.892	88.31
256.124	69.31
256.357	86.31
256.59	71.31
256.823	75.31
257.056	85.31
257.289	83.31
257.521	90.31
257.754	75.31
257.987	83.31
258.22	77.31
258.452	94.31
258.685	83.31
258.918	82.31
259.151	88.31
259.383	76.31
259.616	76.31
259.849	74.31
260.081	71.31
260.314	75.31
260.547	58.31
260.779	102.31
261.012	77.31
261.244	68.31
261.477	87.31
261.71	74.31
261.942	72.31
262.175	75.31
262.407	82.31
262.64	81.31
262.872	93.31
263.105	80.31
263.337	80.31
263.57	82.31
263.802	73.31
264.035	92.31
264.267	76.31
264.499	79.31
264.732	72.31
264.964	77.31
265.197	74.31
265.429	79.31
265.661	89.31
265.894	73.31
266.126	75.31
266.358	67.31
266.591	76.31
266.823	91.31
267.055	92.31
267.287	79.31
267.52	91.31
267.752	78.31
267.984	72.31
268.216	87.31
268.448	90.31
268.681	75.31
268.913	77.31
269.145	82.31
269.377	74.31
269.609	71.31
269.841	85.31
270.073	82.31
270.306	77.31
270.538	79.31
270.77	79.31
271.002	69.31
271.234	82.31
271.466	85.31
271.698	75.31
271.93	84.31
272.162	97.31
272.394	72.31
272.626	89.31
272.858	92.31
273.09	77.31
273.322	71.31
273.553	89.31
273.785	77.31
274.017	73.31
274.249	83.31
274.481	77.31
274.713	81.31
274.945	77.31
275.176	89.31
275.408	85.31
275.64	70.31
275.872	77.31
276.104	89.31
276.335	88.31
276.567	90.31
276.799	82.31
277.031	76.31
277.262	82.31
277.494	85.31
277.726	86.31
277.957	79.31
278.189	79.31
278.421	83.31
278.652	80.31
278.884	86.31
279.115	91.31
279.347	76.31
279.579	81.31
279.81	88.31
280.042	73.31
280.273	72.31
280.505	69.31
280.736	90.31
280.968	91.31
281.199	85.31
281.431	78.31
281.662	82.31
281.894	78.31
282.125	78.31
282.356	76.31
282.588	88.31
282.819	84.31
283.051	82.31
283.282	79.31
283.513	96.31
283.745	77.31
283.976	81.31
284.207	85.31
284.439	82.31
284.67	88.31
284.901	85.31
285.132	85.31
285.364	77.31
285.595	78.31
285.826	83.31
286.057	86.31
286.288	92.31
286.52	95.31
286.751	82.31
286.982	91.31
287.213	79.31
287.444	81.31
287.675	79.31
287.906	88.31
288.138	78.31
288.369	68.31
288.6	76.31
288.831	94.31
289.062	86.31
289.293	80.31
289.524	91.31
289.755	85.31
289.986	95.31
290.217	72.31
290.448	84.31
290.679	71.31
290.91	69.31
291.141	92.31
291.371	93.31
291.602	83.31
291.833	81.31
292.064	95.31
292.295	86.31
292.526	81.31
292.757	86.31
292.987	83.31
293.218	70.31
293.449	93.31
293.68	90.31
293.91	101.31
294.141	95.31
294.372	84.31
294.603	91.31
294.833	75.31
295.064	78.31
295.295	98.31
295.525	69.31
295.756	84.31
295.987	84.31
296.217	83.31
296.448	76.31
296.679	70.31
296.909	68.31
297.14	83.31
297.37	75.31
297.601	77.31
297.831	90.31
298.062	81.31
298.292	80.31
298.523	77.31
298.753	69.31
298.984	84.31
299.214	74.31
299.445	84.31
299.675	85.31
299.905	84.31
300.136	73.31
300.366	86.31
300.597	91.31
300.827	89.31
301.057	80.31
301.288	78.31
301.518	78.31
301.748	86.31
301.979	88.31
302.209	89.31
302.439	104.31
302.669	80.31
302.9	100.31
303.13	86.31
303.36	77.31
303.59	82.31
303.82	76.31
304.051	75.31
304.281	80.31
304.511	69.31
304.741	96.31
304.971	93.31
305.201	85.31
305.431	79.31
305.661	89.31
305.891	78.31
306.121	79.31
306.352	80.31
306.582	77.31
306.812	81.31
307.042	92.31
307.272	79.31
307.502	84.31
307.731	95.31
307.961	81.31
308.191	77.31
308.421	74.31
308.651	91.31
308.881	85.31
309.111	91.31
309.341	81.31
309.571	87.31
309.8	74.31
310.03	87.31
310.26	78.31
310.49	95.31
310.72	76.31
310.949	93.31
311.179	85.31
311.409	77.31
311.639	91.31
311.868	95.31
312.098	86.31
312.328	97.31
312.557	80.31
312.787	87.31
313.017	99.31
313.246	93.31
313.476	91.31
313.706	97.31
313.935	77.31
314.165	85.31
314.394	98.31
314.624	105.31
314.853	67.31
315.083	87.31
315.312	89.31
315.542	71.31
315.771	85.31
316.001	76.31
316.23	86.31
316.46	86.31
316.689	93.31
316.919	75.31
317.148	80.31
317.377	90.31
317.607	81.31
317.836	87.31
318.065	90.31
318.295	92.31
318.524	76.31
318.753	88.31
318.983	84.31
319.212	84.31
319.441	82.31
319.67	80.31
319.9	97.31
320.129	80.31
320.358	91.31
320.587	93.31
320.816	87.31
321.046	90.31
321.275	79.31
321.504	81.31
321.733	74.31
321.962	81.31
322.191	96.31
322.42	81.31
322.649	97.31
322.878	92.31
323.108	86.31
323.337	87.31
323.566	100.31
323.795	82.31
324.024	80.31
324.253	78.31
324.482	68.31
324.71	77.31
324.939	95.31
325.168	66.31
325.397	80.31
325.626	87.31
325.855	87.31
326.084	88.31
326.313	73.31
326.542	94.31
326.77	75.31
326.999	79.31
327.228	79.31
327.457	80.31
327.686	84.31
327.914	76.31
328.143	85.31
328.372	95.31
328.6	81.31
328.829	77.31
329.058	80.31
329.287	75.31
329.515	80.31
329.744	78.31
329.972	82.31
330.201	85.31
330.43	76.31
330.658	85.31
330.887	87.31
331.115	77.31
331.344	92.31
331.572	85.31
331.801	70.31
332.03	83.31
332.258	76.31
332.486	83.31
332.715	79.31
332.943	89.31
333.172	87.31
333.4	81.31
333.629	82.31
333.857	89.31
334.085	86.31
334.314	80.31
334.542	65.31
334.771	66.31
334.999	72.31
335.227	71.31
335.455	83.31
335.684	87.31
335.912	81.31
336.14	81.31
336.369	67.31
336.597	73.31
336.825	92.31
337.053	85.31
337.281	69.31
337.51	77.31
337.738	92.31
337.966	75.31
338.194	74.31
338.422	83.31
338.65	85.31
338.878	88.31
339.106	74.31
339.334	93.31
339.562	82.31
339.79	79.31
340.018	98.31
340.246	79.31
340.474	82.31
340.702	88.31
340.93	100.31
341.158	78.31
341.386	75.31
341.614	77.31
341.842	90.31
342.07	83.31
342.298	84.31
342.526	73.31
342.754	84.31
342.981	80.31
343.209	70.31
343.437	93.31
343.665	83.31
343.893	92.31
344.12	81.31
344.348	92.31
344.576	89.31
344.804	89.31
345.031	86.31
345.259	83.31
345.487	67.31
345.714	73.31
345.942	79.31
346.17	88.31
346.397	73.31
346.625	77.31
346.853	69.31
347.08	85.31
347.308	93.31
347.535	77.31
347.763	87.31
347.99	78.31
348.218	78.31
348.445	90.31
348.673	75.31
348.9	82.31
349.128	87.31
349.355	77.31
349.583	87.31
349.81	88.31
350.037	89.31
350.265	86.31
350.492	80.31
350.72	82.31
350.947	80.31
351.174	95.31
351.402	83.31
351.629	88.31
351.856	83.31
352.083	81.31
352.311	70.31
352.538	82.31
352.765	79.31
352.992	92.31
353.22	83.31
353.447	78.31
353.674	84.31
353.901	81.31
354.128	78.31
354.355	83.31
354.583	86.31
354.81	72.31
355.037	80.31
355.264	86.31
355.491	88.31
355.718	82.31
355.945	83.31
356.172	81.31
356.399	82.31
356.626	87.31
356.853	76.31
357.08	89.31
357.307	94.31
357.534	82.31
357.761	78.31
357.988	80.31
358.215	78.31
358.441	96.31
358.668	77.31
358.895	96.31
359.122	67.31
359.349	88.31
359.576	74.31
359.802	71.31
360.029	93.31
360.256	87.31
360.483	80.31
360.709	76.31
360.936	79.31
361.163	87.31
361.39	73.31
361.616	73.31
361.843	76.31
362.07	84.31
362.296	81.31
362.523	91.31
362.749	72.31
362.976	72.31
363.203	80.31
363.429	88.31
363.656	78.31
363.882	84.31
364.109	77.31
364.335	82.31
364.562	79.31
364.788	94.31
365.015	81.31
365.241	86.31
365.468	82.31
365.694	71.31
365.92	86.31
366.147	82.31
366.373	85.31
366.599	86.31
366.826	75.31
367.052	83.31
367.278	89.31
367.505	85.31
367.731	86.31
367.957	81.31
368.184	84.31
368.41	90.31
368.636	78.31
368.862	96.31
369.089	91.31
369.315	80.31
369.541	88.31
369.767	91.31
369.993	100.31
370.219	91.31
370.445	75.31
370.672	64.31
370.898	69.31
371.124	86.31
371.35	80.31
371.576	75.31
371.802	66.31
372.028	82.31
372.254	69.31
372.48	80.31
372.706	83.31
372.932	67.31
373.158	82.31
373.384	89.31
373.61	88.31
373.835	84.31
374.061	78.31
374.287	82.31
374.513	70.31
374.739	81.31
374.965	80.31
375.191	87.31
375.416	85.31
375.642	95.31
375.868	76.31
376.094	89.31
376.319	86.31
376.545	80.31
376.771	74.31
376.997	76.31
377.222	88.31
377.448	65.31
377.674	73.31
377.899	80.31
378.125	92.31
378.35	87.31
378.576	77.31
378.802	78.31
379.027	91.31
379.253	80.31
379.478	83.31
379.704	82.31
379.929	80.31
380.155	96.31
380.38	77.31
380.606	102.31
380.831	90.31
381.057	73.31
381.282	82.31
381.507	75.31
381.733	74.31
381.958	79.31
382.184	86.31
382.409	62.31
382.634	91.31
382.86	84.31
383.085	88.31
383.31	99.31
383.535	87.31
383.761	80.31
383.986	92.31
384.211	83.31
384.436	81.31
384.662	73.31
384.887	89.31
385.112	78.31
385.337	91.31
385.562	69.31
385.787	87.31
386.013	84.31
386.238	66.31
386.463	79.31
386.688	99.31
386.913	67.31
387.138	89.31
387.363	78.31
387.588	81.31
387.813	78.31
388.038	82.31
388.263	80.31
388.488	82.31
388.713	73.31
388.938	83.31
389.163	65.31
389.387	92.31
389.612	80.31
389.837	72.31
390.062	84.31
390.287	87.31
390.512	79.31
390.736	78.31
390.961	80.31
391.186	79.31
391.411	71.31
391.636	93.31
391.86	73.31
392.085	89.31
392.31	94.31
392.534	97.31
392.759	78.31
392.984	83.31
393.208	91.31
393.433	81.31
393.658	82.31
393.882	84.31
394.107	91.31
394.331	83.31
394.556	75.31
394.78	73.31
395.005	86.31
395.229	84.31
395.454	83.31
395.678	72.31
395.903	82.31
396.127	88.31
396.352	76.31
396.576	71.31
396.801	80.31
397.025	76.31
397.249	70.31
397.474	80.31
397.698	81.31
397.922	82.31
398.147	84.31
398.371	66.31
398.595	72.31
398.82	95.31
399.044	89.31
399.268	79.31
399.492	81.31
399.717	82.31
399.941	86.31
400.165	79.31
400.389	81.31
400.613	89.31
400.837	73.31
401.062	75.31
401.286	73.31
401.51	88.31
401.734	91.31
401.958	88.31
402.182	80.31
402.406	77.31
402.63	75.31
402.854	75.31
403.078	88.31
403.302	83.31
403.526	76.31
403.75	76.31
403.974	78.31
404.198	80.31
404.422	92.31
404.645	91.31
404.869	77.31
405.093	91.31
405.317	79.31
405.541	88.31
405.765	69.31
405.988	81.31
406.212	74.31
406.436	72.31
406.66	85.31
406.883	76.31
407.107	75.31
407.331	85.31
407.555	79.31
407.778	67.31
408.002	88.31
408.226	95.31
408.449	75.31
408.673	85.31
408.896	87.31
409.12	86.31
409.344	85.31
409.567	90.31
409.791	89.31
410.014	95.31
410.238	71.31
410.461	72.31
410.685	78.31
410.908	79.31
411.132	92.31
411.355	108.31
411.578	86.31
411.802	80.31
412.025	73.31
412.249	88.31
412.472	87.31
412.695	75.31
412.919	66.31
413.142	85.31
413.365	83.31
413.589	81.31
413.812	72.31
414.035	84.31
414.258	84.31
414.482	92.31
414.705	76.31
414.928	69.31
415.151	59.31
415.374	66.31
415.597	83.31
415.821	79.31
416.044	77.31
416.267	80.31
416.49	86.31
416.713	65.31
416.936	70.31
417.159	81.31
417.382	89.31
417.605	83.31
417.828	84.31
418.051	64.31
418.274	90.31
418.497	89.31
418.72	74.31
418.943	81.31
419.166	88.31
419.389	83.31
419.611	92.31
419.834	87.31
420.057	73.31
420.28	80.31
420.503	79.31
420.726	73.31
420.948	81.31
421.171	85.31
421.394	85.31
421.617	89.31
421.839	90.31
422.062	84.31
422.285	80.31
422.507	88.31
422.73	92.31
422.953	80.31
423.175	86.31
423.398	74.31
423.621	93.31
423.843	80.31
424.066	82.31
424.288	77.31
424.511	69.31
424.733	76.31
424.956	70.31
425.178	70.31
425.401	66.31
425.623	75.31
425.846	81.31
426.068	80.31
426.291	102.31
426.513	65.31
426.735	88.31
426.958	85.31
427.18	78.31
427.402	84.31
427.625	78.31
427.847	84.31
428.069	73.31
428.292	80.31
428.514	75.31
428.736	88.31
428.958	78.31
429.181	81.31
429.403	86.31
429.625	75.31
429.847	86.31
430.069	88.31
430.292	85.31
430.514	75.31
430.736	69.31
430.958	76.31
431.18	90.31
431.402	88.31
431.624	91.31
431.846	74.31
432.068	77.31
432.29	78.31
432.512	83.31
432.734	80.31
432.956	85.31
433.178	77.31
433.4	84.31
433.622	93.31
433.844	76.31
434.066	69.31
434.287	75.31
434.509	78.31
434.731	59.31
434.953	101.31
435.175	84.31
435.397	84.31
435.618	92.31
435.84	90.31
436.062	84.31
436.284	91.31
436.505	92.31
436.727	78.31
436.949	81.31
437.17	78.31
437.392	76.31
437.614	67.31
437.835	74.31
438.057	79.31
438.278	73.31
438.5	85.31
438.721	81.31
438.943	68.31
439.165	83.31
439.386	79.31
439.608	69.31
439.829	81.31
440.05	76.31
440.272	83.31
440.493	79.31
440.715	92.31
440.936	80.31
441.158	105.31
441.379	81.31
441.6	78.31
441.822	92.31
442.043	80.31
442.264	72.31
442.486	78.31
442.707	83.31
442.928	88.31
443.149	81.31
443.371	82.31
443.592	75.31
443.813	93.31
444.034	80.31
444.255	76.31
444.476	85.31
444.698	70.31
444.919	73.31
445.14	130.31
445.361	100.31
445.582	73.31
445.803	90.31
446.024	93.31
446.245	65.31
446.466	77.31
446.687	85.31
446.908	87.31
447.129	70.31
447.35	87.31
447.571	97.31
447.792	69.31
448.013	72.31
448.234	79.31
448.455	80.31
448.675	78.31
448.896	74.31
449.117	77.31
449.338	92.31
449.559	77.31
449.779	80.31
450	78.31
450.221	78.31
450.442	82.31
450.662	80.31
450.883	60.31
451.104	80.31
451.324	84.31
451.545	77.31
451.766	86.31
451.986	92.31
452.207	97.31
452.428	74.31
452.648	89.31
452.869	91.31
453.089	82.31
453.31	82.31
453.53	86.31
453.751	96.31
453.971	84.31
454.192	73.31
454.412	79.31
454.633	73.31
454.853	80.31
455.073	70.31
455.294	73.31
455.514	78.31
455.734	83.31
455.955	78.31
456.175	82.31
456.395	82.31
456.616	65.31
456.836	90.31
457.056	77.31
457.276	74.31
457.497	69.31
457.717	77.31
457.937	86.31
458.157	75.31
458.377	69.31
458.598	88.31
458.818	80.31
459.038	75.31
459.258	78.31
459.478	79.31
459.698	81.31
459.918	69.31
460.138	74.31
460.358	79.31
460.578	98.31
460.798	86.31
461.018	79.31
461.238	95.31
461.458	66.31
461.678	89.31
461.898	75.31
462.118	83.31
462.338	87.31
462.558	81.31
462.777	70.31
462.997	82.31
463.217	78.31
463.437	71.31
463.657	82.31
463.876	92.31
464.096	74.31
464.316	86.31
464.536	73.31
464.755	86.31
464.975	83.31
465.195	93.31
465.414	69.31
465.634	68.31
465.854	71.31
466.073	75.31
466.293	62.31
466.512	71.31
466.732	70.31
466.951	96.31
467.171	98.31
467.391	83.31
467.61	71.31
467.829	75.31
468.049	68.31
468.268	76.31
468.488	76.31
468.707	72.31
468.927	73.31
469.146	81.31
469.365	86.31
469.585	84.31
469.804	88.31
470.023	74.31
470.243	82.31
470.462	95.31
470.681	77.31
470.901	89.31
471.12	80.31
471.339	74.31
471.558	77.31
471.777	79.31
471.997	84.31
472.216	82.31
472.435	77.31
472.654	74.31
472.873	84.31
473.092	86.31
473.311	83.31
473.53	70.31
473.749	82.31
473.968	81.31
474.187	81.31
474.406	75.31
474.625	85.31
474.844	80.31
475.063	90.31
475.282	82.31
475.501	80.31
475.72	88.31
475.939	84.31
476.158	80.31
476.377	78.31
476.596	80.31
476.814	76.31
477.033	90.31
477.252	76.31
477.471	79.31
477.69	73.31
477.908	78.31
478.127	87.31
478.346	74.31
478.564	76.31
478.783	84.31
479.002	82.31
479.22	85.31
479.439	76.31
479.658	73.31
479.876	85.31
480.095	72.31
480.313	89.31
480.532	73.31
480.751	81.31
480.969	82.31
481.188	73.31
481.406	108.31
481.624	82.31
481.843	84.31
482.061	63.31
482.28	68.31
482.498	85.31
482.717	89.31
482.935	83.31
483.153	85.31
483.372	84.31
483.59	78.31
483.808	73.31
484.027	74.31
484.245	92.31
484.463	75.31
484.681	81.31
484.9	92.31
485.118	77.31
485.336	85.31
485.554	91.31
485.772	69.31
485.99	75.31
486.209	84.31
486.427	82.31
486.645	83.31
486.863	89.31
487.081	73.31
487.299	85.31
487.517	82.31
487.735	81.31
487.953	73.31
488.171	87.31
488.389	78.31
488.607	77.31
488.825	97.31
489.043	87.31
489.261	87.31
489.479	75.31
489.696	90.31
489.914	75.31
490.132	87.31
490.35	82.31
490.568	75.31
490.786	81.31
491.003	90.31
491.221	80.31
491.439	83.31
491.657	67.31
491.874	81.31
492.092	77.31
492.31	82.31
492.527	66.31
492.745	75.31
492.963	85.31
493.18	80.31
493.398	77.31
493.615	81.31
493.833	87.31
494.05	95.31
494.268	82.31
494.485	90.31
494.703	81.31
494.92	90.31
495.138	96.31
495.355	76.31
495.573	95.31
495.79	97.31
496.008	89.31
496.225	88.31
496.442	92.31
496.66	90.31
496.877	81.31
497.094	82.31
497.312	73.31
497.529	78.31
497.746	81.31
497.963	88.31
498.181	75.31
498.398	80.31
498.615	95.31
498.832	65.31
499.049	81.31
499.267	81.31
499.484	97.31
499.701	78.31
499.918	88.31
500.135	91.31
500.352	87.31
500.569	72.31
500.786	90.31
501.003	81.31
501.22	92.31
501.437	81.31
501.654	78.31
501.871	73.31
502.088	67.31
502.305	82.31
502.522	84.31
502.739	72.31
502.956	75.31
503.172	86.31
503.389	78.31
503.606	90.31
503.823	81.31
504.04	80.31
504.256	81.31
504.473	90.31
504.69	81.31
504.907	103.31
505.123	89.31
505.34	79.31
505.557	86.31
505.773	81.31
505.99	78.31
506.207	76.31
506.423	78.31
506.64	71.31
506.856	82.31
507.073	79.31
507.289	66.31
507.506	85.31
507.722	74.31
507.939	96.31
508.155	87.31
508.372	75.31
508.588	71.31
508.805	88.31
509.021	76.31
509.238	74.31
509.454	71.31
509.67	78.31
509.887	81.31
510.103	66.31
510.319	69.31
510.536	78.31
510.752	82.31
510.968	84.31
511.184	78.31
511.401	84.31
511.617	79.31
511.833	74.31
512.049	87.31
512.265	81.31
512.481	84.31
512.698	89.31
512.914	72.31
513.13	82.31
513.346	96.31
513.562	74.31
513.778	75.31
513.994	69.31
514.21	89.31
514.426	84.31
514.642	80.31
514.858	66.31
515.074	88.31
515.29	104.31
515.506	76.31
515.721	85.31
515.937	81.31
516.153	70.31
516.369	90.31
516.585	86.31
516.801	92.31
517.016	86.31
517.232	71.31
517.448	86.31
517.664	78.31
517.879	80.31
518.095	77.31
518.311	85.31
518.527	82.31
518.742	87.31
518.958	88.31
519.173	84.31
519.389	78.31
519.605	67.31
519.82	73.31
520.036	73.31
