Data from Dirtnoheat3_HRD10591_00002.txt Node
Date: Fri Dec 27 15:21:15 EST 2024
User: Yrep
Spectrometer: HR+D1059
Trigger mode: 1
Integration Time (sec): 1.000000E-1
Scans to average: 1
Electric dark correction enabled: true
Nonlinearity correction enabled: false
Boxcar width: 0
XAxis mode: Wavelengths
Number of Pixels in Spectrum: 2048
>>>>>Begin Spectral Data<<<<<
223.165	-15.25
223.4	-15.25
223.635	-15.25
223.869	-32.25
224.104	-17.25
224.338	-7.25
224.573	-31.25
224.808	-15.25
225.042	-7.25
225.277	-2.25
225.511	-6.25
225.746	7.75
225.98	-5.25
226.215	16.75
226.449	17.75
226.683	33.75
226.918	26.75
227.152	36.75
227.387	46.75
227.621	54.75
227.856	51.75
228.09	54.75
228.324	58.75
228.559	64.75
228.793	55.75
229.027	73.75
229.262	66.75
229.496	69.75
229.73	72.75
229.964	67.75
230.199	65.75
230.433	77.75
230.667	65.75
230.901	68.75
231.136	84.75
231.37	81.75
231.604	81.75
231.838	66.75
232.072	82.75
232.306	86.75
232.541	84.75
232.775	83.75
233.009	81.75
233.243	85.75
233.477	101.75
233.711	100.75
233.945	89.75
234.179	82.75
234.413	77.75
234.647	89.75
234.881	79.75
235.115	82.75
235.349	81.75
235.583	71.75
235.817	73.75
236.051	65.75
236.285	65.75
236.519	66.75
236.753	81.75
236.987	83.75
237.221	70.75
237.455	72.75
237.689	78.75
237.922	82.75
238.156	74.75
238.39	75.75
238.624	70.75
238.858	76.75
239.091	75.75
239.325	68.75
239.559	62.75
239.793	75.75
240.027	77.75
240.26	86.75
240.494	89.75
240.728	85.75
240.961	78.75
241.195	92.75
241.429	78.75
241.662	71.75
241.896	72.75
242.13	93.75
242.363	76.75
242.597	70.75
242.83	77.75
243.064	85.75
243.298	68.75
243.531	82.75
243.765	82.75
243.998	65.75
244.232	71.75
244.465	79.75
244.699	85.75
244.932	70.75
245.166	84.75
245.399	77.75
245.633	75.75
245.866	74.75
246.099	80.75
246.333	94.75
246.566	79.75
246.8	76.75
247.033	75.75
247.266	87.75
247.5	91.75
247.733	75.75
247.966	75.75
248.2	77.75
248.433	76.75
248.666	58.75
248.899	75.75
249.133	79.75
249.366	85.75
249.599	79.75
249.832	82.75
250.066	61.75
250.299	94.75
250.532	78.75
250.765	98.75
250.998	67.75
251.231	84.75
251.465	88.75
251.698	84.75
251.931	81.75
252.164	85.75
252.397	73.75
252.63	77.75
252.863	84.75
253.096	75.75
253.329	72.75
253.562	74.75
253.795	79.75
254.028	85.75
254.261	73.75
254.494	79.75
254.727	79.75
254.96	78.75
255.193	79.75
255.426	80.75
255.659	65.75
255.892	82.75
256.124	78.75
256.357	84.75
256.59	75.75
256.823	68.75
257.056	88.75
257.289	92.75
257.521	75.75
257.754	87.75
257.987	93.75
258.22	86.75
258.452	92.75
258.685	80.75
258.918	84.75
259.151	80.75
259.383	85.75
259.616	82.75
259.849	70.75
260.081	92.75
260.314	85.75
260.547	87.75
260.779	87.75
261.012	81.75
261.244	89.75
261.477	84.75
261.71	66.75
261.942	85.75
262.175	60.75
262.407	71.75
262.64	83.75
262.872	90.75
263.105	91.75
263.337	92.75
263.57	84.75
263.802	88.75
264.035	78.75
264.267	75.75
264.499	72.75
264.732	82.75
264.964	74.75
265.197	92.75
265.429	80.75
265.661	88.75
265.894	79.75
266.126	86.75
266.358	89.75
266.591	82.75
266.823	66.75
267.055	80.75
267.287	75.75
267.52	79.75
267.752	76.75
267.984	90.75
268.216	84.75
268.448	70.75
268.681	68.75
268.913	73.75
269.145	88.75
269.377	85.75
269.609	80.75
269.841	89.75
270.073	84.75
270.306	74.75
270.538	72.75
270.77	80.75
271.002	81.75
271.234	91.75
271.466	81.75
271.698	80.75
271.93	90.75
272.162	81.75
272.394	87.75
272.626	75.75
272.858	91.75
273.09	76.75
273.322	79.75
273.553	70.75
273.785	87.75
274.017	93.75
274.249	98.75
274.481	71.75
274.713	87.75
274.945	90.75
275.176	74.75
275.408	91.75
275.64	76.75
275.872	77.75
276.104	88.75
276.335	78.75
276.567	89.75
276.799	89.75
277.031	90.75
277.262	96.75
277.494	93.75
277.726	86.75
277.957	78.75
278.189	84.75
278.421	95.75
278.652	83.75
278.884	89.75
279.115	79.75
279.347	93.75
279.579	70.75
279.81	77.75
280.042	88.75
280.273	78.75
280.505	89.75
280.736	82.75
280.968	76.75
281.199	90.75
281.431	86.75
281.662	83.75
281.894	77.75
282.125	83.75
282.356	91.75
282.588	76.75
282.819	81.75
283.051	80.75
283.282	91.75
283.513	100.75
283.745	76.75
283.976	89.75
284.207	98.75
284.439	76.75
284.67	85.75
284.901	76.75
285.132	94.75
285.364	87.75
285.595	80.75
285.826	79.75
286.057	91.75
286.288	77.75
286.52	85.75
286.751	82.75
286.982	70.75
287.213	92.75
287.444	75.75
287.675	81.75
287.906	94.75
288.138	78.75
288.369	93.75
288.6	88.75
288.831	70.75
289.062	82.75
289.293	82.75
289.524	69.75
289.755	84.75
289.986	95.75
290.217	79.75
290.448	76.75
290.679	89.75
290.91	101.75
291.141	80.75
291.371	98.75
291.602	85.75
291.833	92.75
292.064	74.75
292.295	82.75
292.526	81.75
292.757	79.75
292.987	78.75
293.218	76.75
293.449	78.75
293.68	83.75
293.91	74.75
294.141	95.75
294.372	86.75
294.603	82.75
294.833	78.75
295.064	87.75
295.295	82.75
295.525	72.75
295.756	103.75
295.987	77.75
296.217	70.75
296.448	86.75
296.679	95.75
296.909	94.75
297.14	88.75
297.37	89.75
297.601	85.75
297.831	88.75
298.062	96.75
298.292	99.75
298.523	76.75
298.753	67.75
298.984	100.75
299.214	89.75
299.445	105.75
299.675	96.75
299.905	87.75
300.136	77.75
300.366	88.75
300.597	70.75
300.827	93.75
301.057	85.75
301.288	86.75
301.518	89.75
301.748	89.75
301.979	85.75
302.209	85.75
302.439	86.75
302.669	82.75
302.9	85.75
303.13	81.75
303.36	85.75
303.59	85.75
303.82	94.75
304.051	102.75
304.281	89.75
304.511	76.75
304.741	92.75
304.971	88.75
305.201	84.75
305.431	92.75
305.661	90.75
305.891	86.75
306.121	100.75
306.352	85.75
306.582	84.75
306.812	80.75
307.042	81.75
307.272	84.75
307.502	72.75
307.731	90.75
307.961	75.75
308.191	80.75
308.421	92.75
308.651	95.75
308.881	103.75
309.111	83.75
309.341	85.75
309.571	101.75
309.8	90.75
310.03	87.75
310.26	91.75
310.49	81.75
310.72	83.75
310.949	73.75
311.179	80.75
311.409	85.75
311.639	94.75
311.868	103.75
312.098	86.75
312.328	95.75
312.557	88.75
312.787	79.75
313.017	89.75
313.246	81.75
313.476	78.75
313.706	83.75
313.935	80.75
314.165	81.75
314.394	81.75
314.624	80.75
314.853	73.75
315.083	81.75
315.312	89.75
315.542	79.75
315.771	80.75
316.001	88.75
316.23	90.75
316.46	82.75
316.689	84.75
316.919	82.75
317.148	81.75
317.377	93.75
317.607	87.75
317.836	93.75
318.065	95.75
318.295	98.75
318.524	82.75
318.753	94.75
318.983	80.75
319.212	87.75
319.441	96.75
319.67	87.75
319.9	77.75
320.129	83.75
320.358	73.75
320.587	76.75
320.816	104.75
321.046	95.75
321.275	86.75
321.504	99.75
321.733	92.75
321.962	86.75
322.191	84.75
322.42	91.75
322.649	90.75
322.878	89.75
323.108	84.75
323.337	72.75
323.566	87.75
323.795	88.75
324.024	86.75
324.253	110.75
324.482	84.75
324.71	77.75
324.939	85.75
325.168	84.75
325.397	72.75
325.626	78.75
325.855	80.75
326.084	85.75
326.313	90.75
326.542	81.75
326.77	85.75
326.999	79.75
327.228	79.75
327.457	89.75
327.686	91.75
327.914	75.75
328.143	100.75
328.372	90.75
328.6	87.75
328.829	78.75
329.058	91.75
329.287	86.75
329.515	88.75
329.744	94.75
329.972	81.75
330.201	86.75
330.43	100.75
330.658	86.75
330.887	77.75
331.115	88.75
331.344	93.75
331.572	90.75
331.801	84.75
332.03	82.75
332.258	77.75
332.486	93.75
332.715	75.75
332.943	85.75
333.172	94.75
333.4	90.75
333.629	82.75
333.857	96.75
334.085	89.75
334.314	80.75
334.542	79.75
334.771	81.75
334.999	96.75
335.227	87.75
335.455	87.75
335.684	95.75
335.912	97.75
336.14	87.75
336.369	84.75
336.597	81.75
336.825	82.75
337.053	75.75
337.281	93.75
337.51	88.75
337.738	90.75
337.966	93.75
338.194	74.75
338.422	84.75
338.65	88.75
338.878	85.75
339.106	80.75
339.334	84.75
339.562	81.75
339.79	97.75
340.018	81.75
340.246	88.75
340.474	86.75
340.702	90.75
340.93	78.75
341.158	85.75
341.386	77.75
341.614	92.75
341.842	94.75
342.07	88.75
342.298	77.75
342.526	88.75
342.754	96.75
342.981	87.75
343.209	82.75
343.437	102.75
343.665	89.75
343.893	84.75
344.12	95.75
344.348	90.75
344.576	83.75
344.804	82.75
345.031	82.75
345.259	84.75
345.487	92.75
345.714	91.75
345.942	78.75
346.17	87.75
346.397	72.75
346.625	83.75
346.853	83.75
347.08	85.75
347.308	93.75
347.535	97.75
347.763	71.75
347.99	93.75
348.218	83.75
348.445	71.75
348.673	86.75
348.9	88.75
349.128	100.75
349.355	76.75
349.583	73.75
349.81	86.75
350.037	77.75
350.265	76.75
350.492	80.75
350.72	84.75
350.947	87.75
351.174	71.75
351.402	81.75
351.629	80.75
351.856	88.75
352.083	90.75
352.311	88.75
352.538	80.75
352.765	77.75
352.992	92.75
353.22	79.75
353.447	91.75
353.674	84.75
353.901	91.75
354.128	87.75
354.355	82.75
354.583	76.75
354.81	91.75
355.037	82.75
355.264	76.75
355.491	95.75
355.718	92.75
355.945	69.75
356.172	69.75
356.399	76.75
356.626	97.75
356.853	91.75
357.08	82.75
357.307	80.75
357.534	82.75
357.761	76.75
357.988	99.75
358.215	89.75
358.441	69.75
358.668	77.75
358.895	77.75
359.122	91.75
359.349	104.75
359.576	84.75
359.802	75.75
360.029	84.75
360.256	90.75
360.483	79.75
360.709	87.75
360.936	91.75
361.163	85.75
361.39	79.75
361.616	80.75
361.843	91.75
362.07	80.75
362.296	71.75
362.523	76.75
362.749	83.75
362.976	79.75
363.203	91.75
363.429	79.75
363.656	81.75
363.882	76.75
364.109	94.75
364.335	90.75
364.562	87.75
364.788	74.75
365.015	76.75
365.241	78.75
365.468	88.75
365.694	90.75
365.92	83.75
366.147	76.75
366.373	84.75
366.599	85.75
366.826	78.75
367.052	81.75
367.278	82.75
367.505	94.75
367.731	84.75
367.957	80.75
368.184	80.75
368.41	87.75
368.636	78.75
368.862	80.75
369.089	84.75
369.315	78.75
369.541	80.75
369.767	102.75
369.993	80.75
370.219	77.75
370.445	77.75
370.672	82.75
370.898	88.75
371.124	74.75
371.35	70.75
371.576	86.75
371.802	90.75
372.028	82.75
372.254	72.75
372.48	68.75
372.706	86.75
372.932	82.75
373.158	90.75
373.384	97.75
373.61	93.75
373.835	80.75
374.061	66.75
374.287	76.75
374.513	86.75
374.739	90.75
374.965	95.75
375.191	84.75
375.416	88.75
375.642	90.75
375.868	71.75
376.094	79.75
376.319	89.75
376.545	87.75
376.771	87.75
376.997	105.75
377.222	76.75
377.448	87.75
377.674	81.75
377.899	81.75
378.125	79.75
378.35	83.75
378.576	86.75
378.802	88.75
379.027	83.75
379.253	95.75
379.478	84.75
379.704	67.75
379.929	84.75
380.155	81.75
380.38	79.75
380.606	76.75
380.831	73.75
381.057	100.75
381.282	69.75
381.507	86.75
381.733	75.75
381.958	82.75
382.184	85.75
382.409	77.75
382.634	88.75
382.86	86.75
383.085	72.75
383.31	81.75
383.535	83.75
383.761	81.75
383.986	82.75
384.211	77.75
384.436	75.75
384.662	68.75
384.887	82.75
385.112	90.75
385.337	94.75
385.562	80.75
385.787	77.75
386.013	88.75
386.238	80.75
386.463	81.75
386.688	98.75
386.913	96.75
387.138	91.75
387.363	80.75
387.588	73.75
387.813	77.75
388.038	92.75
388.263	92.75
388.488	79.75
388.713	73.75
388.938	65.75
389.163	82.75
389.387	92.75
389.612	88.75
389.837	79.75
390.062	90.75
390.287	75.75
390.512	92.75
390.736	86.75
390.961	83.75
391.186	78.75
391.411	77.75
391.636	93.75
391.86	77.75
392.085	86.75
392.31	85.75
392.534	76.75
392.759	97.75
392.984	84.75
393.208	87.75
393.433	85.75
393.658	84.75
393.882	89.75
394.107	80.75
394.331	88.75
394.556	93.75
394.78	90.75
395.005	93.75
395.229	90.75
395.454	81.75
395.678	89.75
395.903	94.75
396.127	95.75
396.352	96.75
396.576	79.75
396.801	91.75
397.025	105.75
397.249	94.75
397.474	95.75
397.698	84.75
397.922	84.75
398.147	91.75
398.371	80.75
398.595	101.75
398.82	87.75
399.044	74.75
399.268	81.75
399.492	82.75
399.717	81.75
399.941	74.75
400.165	80.75
400.389	91.75
400.613	69.75
400.837	85.75
401.062	83.75
401.286	87.75
401.51	87.75
401.734	77.75
401.958	72.75
402.182	81.75
402.406	81.75
402.63	81.75
402.854	77.75
403.078	71.75
403.302	70.75
403.526	86.75
403.75	85.75
403.974	79.75
404.198	100.75
404.422	80.75
404.645	61.75
404.869	82.75
405.093	83.75
405.317	70.75
405.541	96.75
405.765	73.75
405.988	69.75
406.212	71.75
406.436	82.75
406.66	72.75
406.883	87.75
407.107	94.75
407.331	69.75
407.555	91.75
407.778	88.75
408.002	84.75
408.226	72.75
408.449	77.75
408.673	64.75
408.896	85.75
409.12	79.75
409.344	82.75
409.567	74.75
409.791	82.75
410.014	89.75
410.238	71.75
410.461	91.75
410.685	85.75
410.908	80.75
411.132	80.75
411.355	79.75
411.578	90.75
411.802	80.75
412.025	77.75
412.249	83.75
412.472	79.75
412.695	87.75
412.919	82.75
413.142	84.75
413.365	78.75
413.589	86.75
413.812	88.75
414.035	91.75
414.258	80.75
414.482	77.75
414.705	82.75
414.928	62.75
415.151	69.75
415.374	77.75
415.597	80.75
415.821	92.75
416.044	92.75
416.267	86.75
416.49	89.75
416.713	85.75
416.936	90.75
417.159	92.75
417.382	71.75
417.605	86.75
417.828	73.75
418.051	84.75
418.274	88.75
418.497	90.75
418.72	88.75
418.943	66.75
419.166	85.75
419.389	76.75
419.611	80.75
419.834	83.75
420.057	82.75
420.28	80.75
420.503	89.75
420.726	82.75
420.948	91.75
421.171	83.75
421.394	84.75
421.617	87.75
421.839	82.75
422.062	69.75
422.285	99.75
422.507	95.75
422.73	97.75
422.953	100.75
423.175	96.75
423.398	88.75
423.621	87.75
423.843	72.75
424.066	76.75
424.288	94.75
424.511	82.75
424.733	89.75
424.956	89.75
425.178	89.75
425.401	78.75
425.623	81.75
425.846	87.75
426.068	77.75
426.291	84.75
426.513	80.75
426.735	76.75
426.958	81.75
427.18	88.75
427.402	76.75
427.625	77.75
427.847	70.75
428.069	93.75
428.292	95.75
428.514	84.75
428.736	86.75
428.958	81.75
429.181	78.75
429.403	86.75
429.625	81.75
429.847	71.75
430.069	89.75
430.292	100.75
430.514	86.75
430.736	87.75
430.958	80.75
431.18	77.75
431.402	75.75
431.624	73.75
431.846	82.75
432.068	83.75
432.29	79.75
432.512	97.75
432.734	91.75
432.956	91.75
433.178	83.75
433.4	88.75
433.622	90.75
433.844	96.75
434.066	79.75
434.287	80.75
434.509	89.75
434.731	73.75
434.953	76.75
435.175	101.75
435.397	81.75
435.618	85.75
435.84	78.75
436.062	71.75
436.284	74.75
436.505	69.75
436.727	83.75
436.949	75.75
437.17	76.75
437.392	75.75
437.614	81.75
437.835	79.75
438.057	76.75
438.278	82.75
438.5	80.75
438.721	84.75
438.943	77.75
439.165	74.75
439.386	70.75
439.608	81.75
439.829	82.75
440.05	75.75
440.272	81.75
440.493	96.75
440.715	80.75
440.936	81.75
441.158	86.75
441.379	94.75
441.6	92.75
441.822	85.75
442.043	81.75
442.264	72.75
442.486	74.75
442.707	81.75
442.928	80.75
443.149	84.75
443.371	79.75
443.592	79.75
443.813	109.75
444.034	92.75
444.255	80.75
444.476	83.75
444.698	68.75
444.919	82.75
445.14	156.75
445.361	125.75
445.582	96.75
445.803	94.75
446.024	85.75
446.245	91.75
446.466	93.75
446.687	70.75
446.908	74.75
447.129	90.75
447.35	94.75
447.571	94.75
447.792	79.75
448.013	80.75
448.234	78.75
448.455	84.75
448.675	87.75
448.896	78.75
449.117	84.75
449.338	79.75
449.559	78.75
449.779	73.75
450	75.75
450.221	76.75
450.442	77.75
450.662	89.75
450.883	82.75
451.104	96.75
451.324	86.75
451.545	75.75
451.766	85.75
451.986	75.75
452.207	88.75
452.428	81.75
452.648	81.75
452.869	81.75
453.089	79.75
453.31	72.75
453.53	86.75
453.751	92.75
453.971	80.75
454.192	67.75
454.412	77.75
454.633	87.75
454.853	80.75
455.073	73.75
455.294	79.75
455.514	87.75
455.734	78.75
455.955	72.75
456.175	78.75
456.395	81.75
456.616	93.75
456.836	83.75
457.056	72.75
457.276	88.75
457.497	86.75
457.717	81.75
457.937	85.75
458.157	104.75
458.377	90.75
458.598	82.75
458.818	82.75
459.038	89.75
459.258	74.75
459.478	93.75
459.698	73.75
459.918	80.75
460.138	74.75
460.358	88.75
460.578	82.75
460.798	91.75
461.018	83.75
461.238	72.75
461.458	86.75
461.678	82.75
461.898	77.75
462.118	78.75
462.338	93.75
462.558	75.75
462.777	71.75
462.997	71.75
463.217	87.75
463.437	76.75
463.657	72.75
463.876	77.75
464.096	80.75
464.316	89.75
464.536	76.75
464.755	72.75
464.975	83.75
465.195	89.75
465.414	82.75
465.634	89.75
465.854	69.75
466.073	74.75
466.293	65.75
466.512	80.75
466.732	63.75
466.951	78.75
467.171	81.75
467.391	80.75
467.61	82.75
467.829	75.75
468.049	100.75
468.268	76.75
468.488	88.75
468.707	84.75
468.927	84.75
469.146	83.75
469.365	77.75
469.585	83.75
469.804	87.75
470.023	82.75
470.243	72.75
470.462	80.75
470.681	93.75
470.901	88.75
471.12	93.75
471.339	91.75
471.558	80.75
471.777	77.75
471.997	94.75
472.216	77.75
472.435	85.75
472.654	85.75
472.873	96.75
473.092	89.75
473.311	89.75
473.53	92.75
473.749	82.75
473.968	87.75
474.187	74.75
474.406	78.75
474.625	80.75
474.844	82.75
475.063	89.75
475.282	83.75
475.501	79.75
475.72	77.75
475.939	93.75
476.158	92.75
476.377	92.75
476.596	92.75
476.814	76.75
477.033	82.75
477.252	85.75
477.471	77.75
477.69	89.75
477.908	80.75
478.127	80.75
478.346	95.75
478.564	78.75
478.783	81.75
479.002	73.75
479.22	79.75
479.439	80.75
479.658	89.75
479.876	82.75
480.095	68.75
480.313	91.75
480.532	83.75
480.751	90.75
480.969	71.75
481.188	70.75
481.406	81.75
481.624	84.75
481.843	76.75
482.061	95.75
482.28	69.75
482.498	76.75
482.717	89.75
482.935	84.75
483.153	80.75
483.372	87.75
483.59	72.75
483.808	80.75
484.027	81.75
484.245	97.75
484.463	84.75
484.681	88.75
484.9	93.75
485.118	89.75
485.336	83.75
485.554	76.75
485.772	72.75
485.99	90.75
486.209	87.75
486.427	78.75
486.645	88.75
486.863	76.75
487.081	82.75
487.299	95.75
487.517	91.75
487.735	93.75
487.953	101.75
488.171	87.75
488.389	78.75
488.607	91.75
488.825	89.75
489.043	79.75
489.261	86.75
489.479	97.75
489.696	81.75
489.914	102.75
490.132	80.75
490.35	95.75
490.568	92.75
490.786	86.75
491.003	89.75
491.221	82.75
491.439	87.75
491.657	91.75
491.874	80.75
492.092	72.75
492.31	83.75
492.527	81.75
492.745	88.75
492.963	83.75
493.18	87.75
493.398	90.75
493.615	88.75
493.833	86.75
494.05	71.75
494.268	89.75
494.485	93.75
494.703	94.75
494.92	85.75
495.138	89.75
495.355	88.75
495.573	91.75
495.79	73.75
496.008	75.75
496.225	89.75
496.442	88.75
496.66	84.75
496.877	83.75
497.094	84.75
497.312	86.75
497.529	78.75
497.746	86.75
497.963	74.75
498.181	86.75
498.398	82.75
498.615	82.75
498.832	94.75
499.049	86.75
499.267	86.75
499.484	86.75
499.701	103.75
499.918	84.75
500.135	90.75
500.352	77.75
500.569	96.75
500.786	75.75
501.003	72.75
501.22	82.75
501.437	76.75
501.654	68.75
501.871	88.75
502.088	72.75
502.305	93.75
502.522	96.75
502.739	80.75
502.956	82.75
503.172	88.75
503.389	81.75
503.606	72.75
503.823	96.75
504.04	91.75
504.256	89.75
504.473	98.75
504.69	93.75
504.907	89.75
505.123	80.75
505.34	96.75
505.557	77.75
505.773	82.75
505.99	64.75
506.207	97.75
506.423	85.75
506.64	75.75
506.856	80.75
507.073	79.75
507.289	88.75
507.506	81.75
507.722	87.75
507.939	92.75
508.155	85.75
508.372	84.75
508.588	89.75
508.805	100.75
509.021	84.75
509.238	77.75
509.454	86.75
509.67	85.75
509.887	73.75
510.103	85.75
510.319	83.75
510.536	90.75
510.752	80.75
510.968	90.75
511.184	95.75
511.401	88.75
511.617	91.75
511.833	83.75
512.049	79.75
512.265	79.75
512.481	76.75
512.698	87.75
512.914	90.75
513.13	87.75
513.346	77.75
513.562	88.75
513.778	82.75
513.994	98.75
514.21	93.75
514.426	81.75
514.642	84.75
514.858	67.75
515.074	79.75
515.29	85.75
515.506	89.75
515.721	78.75
515.937	82.75
516.153	74.75
516.369	93.75
516.585	81.75
516.801	83.75
517.016	97.75
517.232	85.75
517.448	77.75
517.664	85.75
517.879	79.75
518.095	97.75
518.311	89.75
518.527	95.75
518.742	76.75
518.958	80.75
519.173	103.75
519.389	89.75
519.605	72.75
