Data from Dirtnoheat3_HRD10591_00019.txt Node
Date: Fri Dec 27 15:21:32 EST 2024
User: Yrep
Spectrometer: HR+D1059
Trigger mode: 1
Integration Time (sec): 1.000000E-1
Scans to average: 1
Electric dark correction enabled: true
Nonlinearity correction enabled: false
Boxcar width: 0
XAxis mode: Wavelengths
Number of Pixels in Spectrum: 2048
>>>>>Begin Spectral Data<<<<<
223.165	-18.44
223.4	-18.44
223.635	-18.44
223.869	-11.44
224.104	-13.44
224.338	-13.44
224.573	-5.44
224.808	-19.44
225.042	-3.44
225.277	-11.44
225.511	-3.44
225.746	-3.44
225.98	1.56
226.215	20.56
226.449	18.56
226.683	12.56
226.918	29.56
227.152	20.56
227.387	44.56
227.621	34.56
227.856	45.56
228.09	47.56
228.324	50.56
228.559	55.56
228.793	57.56
229.027	57.56
229.262	67.56
229.496	74.56
229.73	51.56
229.964	80.56
230.199	64.56
230.433	74.56
230.667	55.56
230.901	89.56
231.136	69.56
231.37	67.56
231.604	75.56
231.838	81.56
232.072	81.56
232.306	75.56
232.541	90.56
232.775	75.56
233.009	84.56
233.243	75.56
233.477	79.56
233.711	72.56
233.945	77.56
234.179	78.56
234.413	83.56
234.647	78.56
234.881	82.56
235.115	85.56
235.349	77.56
235.583	81.56
235.817	84.56
236.051	78.56
236.285	82.56
236.519	84.56
236.753	67.56
236.987	80.56
237.221	71.56
237.455	70.56
237.689	61.56
237.922	70.56
238.156	69.56
238.39	73.56
238.624	74.56
238.858	73.56
239.091	74.56
239.325	89.56
239.559	81.56
239.793	73.56
240.027	70.56
240.26	82.56
240.494	85.56
240.728	88.56
240.961	64.56
241.195	73.56
241.429	84.56
241.662	84.56
241.896	75.56
242.13	73.56
242.363	72.56
242.597	78.56
242.83	66.56
243.064	71.56
243.298	87.56
243.531	81.56
243.765	84.56
243.998	77.56
244.232	73.56
244.465	73.56
244.699	67.56
244.932	69.56
245.166	77.56
245.399	77.56
245.633	80.56
245.866	66.56
246.099	69.56
246.333	63.56
246.566	75.56
246.8	88.56
247.033	70.56
247.266	80.56
247.5	72.56
247.733	62.56
247.966	88.56
248.2	85.56
248.433	68.56
248.666	82.56
248.899	85.56
249.133	67.56
249.366	76.56
249.599	81.56
249.832	70.56
250.066	79.56
250.299	68.56
250.532	62.56
250.765	84.56
250.998	80.56
251.231	81.56
251.465	78.56
251.698	83.56
251.931	72.56
252.164	77.56
252.397	72.56
252.63	72.56
252.863	82.56
253.096	71.56
253.329	78.56
253.562	72.56
253.795	76.56
254.028	96.56
254.261	95.56
254.494	73.56
254.727	82.56
254.96	79.56
255.193	67.56
255.426	70.56
255.659	76.56
255.892	73.56
256.124	62.56
256.357	74.56
256.59	80.56
256.823	86.56
257.056	93.56
257.289	86.56
257.521	74.56
257.754	84.56
257.987	84.56
258.22	84.56
258.452	65.56
258.685	78.56
258.918	77.56
259.151	72.56
259.383	80.56
259.616	82.56
259.849	75.56
260.081	81.56
260.314	90.56
260.547	76.56
260.779	74.56
261.012	77.56
261.244	79.56
261.477	90.56
261.71	81.56
261.942	86.56
262.175	80.56
262.407	86.56
262.64	72.56
262.872	82.56
263.105	88.56
263.337	69.56
263.57	76.56
263.802	89.56
264.035	81.56
264.267	78.56
264.499	85.56
264.732	64.56
264.964	68.56
265.197	94.56
265.429	72.56
265.661	81.56
265.894	94.56
266.126	83.56
266.358	97.56
266.591	79.56
266.823	77.56
267.055	76.56
267.287	82.56
267.52	91.56
267.752	86.56
267.984	84.56
268.216	84.56
268.448	87.56
268.681	76.56
268.913	88.56
269.145	80.56
269.377	59.56
269.609	78.56
269.841	66.56
270.073	87.56
270.306	81.56
270.538	75.56
270.77	80.56
271.002	74.56
271.234	90.56
271.466	96.56
271.698	95.56
271.93	96.56
272.162	74.56
272.394	79.56
272.626	92.56
272.858	72.56
273.09	98.56
273.322	83.56
273.553	84.56
273.785	64.56
274.017	74.56
274.249	86.56
274.481	81.56
274.713	92.56
274.945	76.56
275.176	74.56
275.408	85.56
275.64	84.56
275.872	82.56
276.104	69.56
276.335	73.56
276.567	81.56
276.799	66.56
277.031	81.56
277.262	78.56
277.494	87.56
277.726	81.56
277.957	82.56
278.189	95.56
278.421	89.56
278.652	71.56
278.884	81.56
279.115	79.56
279.347	90.56
279.579	90.56
279.81	95.56
280.042	84.56
280.273	85.56
280.505	72.56
280.736	79.56
280.968	87.56
281.199	80.56
281.431	79.56
281.662	74.56
281.894	77.56
282.125	81.56
282.356	69.56
282.588	77.56
282.819	72.56
283.051	88.56
283.282	69.56
283.513	90.56
283.745	80.56
283.976	71.56
284.207	85.56
284.439	80.56
284.67	77.56
284.901	92.56
285.132	84.56
285.364	83.56
285.595	79.56
285.826	75.56
286.057	91.56
286.288	70.56
286.52	87.56
286.751	95.56
286.982	67.56
287.213	92.56
287.444	90.56
287.675	89.56
287.906	87.56
288.138	97.56
288.369	90.56
288.6	89.56
288.831	87.56
289.062	92.56
289.293	81.56
289.524	94.56
289.755	94.56
289.986	91.56
290.217	82.56
290.448	81.56
290.679	85.56
290.91	86.56
291.141	92.56
291.371	92.56
291.602	82.56
291.833	75.56
292.064	88.56
292.295	89.56
292.526	76.56
292.757	68.56
292.987	76.56
293.218	78.56
293.449	84.56
293.68	66.56
293.91	74.56
294.141	75.56
294.372	80.56
294.603	72.56
294.833	70.56
295.064	65.56
295.295	92.56
295.525	75.56
295.756	88.56
295.987	86.56
296.217	78.56
296.448	82.56
296.679	92.56
296.909	84.56
297.14	86.56
297.37	90.56
297.601	85.56
297.831	79.56
298.062	102.56
298.292	92.56
298.523	84.56
298.753	77.56
298.984	84.56
299.214	78.56
299.445	74.56
299.675	81.56
299.905	80.56
300.136	72.56
300.366	59.56
300.597	89.56
300.827	73.56
301.057	86.56
301.288	97.56
301.518	91.56
301.748	92.56
301.979	103.56
302.209	84.56
302.439	74.56
302.669	89.56
302.9	85.56
303.13	77.56
303.36	86.56
303.59	90.56
303.82	89.56
304.051	87.56
304.281	94.56
304.511	99.56
304.741	90.56
304.971	88.56
305.201	93.56
305.431	79.56
305.661	84.56
305.891	82.56
306.121	92.56
306.352	80.56
306.582	73.56
306.812	86.56
307.042	89.56
307.272	79.56
307.502	86.56
307.731	85.56
307.961	89.56
308.191	86.56
308.421	72.56
308.651	86.56
308.881	86.56
309.111	56.56
309.341	96.56
309.571	74.56
309.8	91.56
310.03	100.56
310.26	84.56
310.49	86.56
310.72	92.56
310.949	82.56
311.179	76.56
311.409	76.56
311.639	82.56
311.868	93.56
312.098	99.56
312.328	86.56
312.557	96.56
312.787	79.56
313.017	80.56
313.246	85.56
313.476	71.56
313.706	89.56
313.935	96.56
314.165	91.56
314.394	87.56
314.624	85.56
314.853	100.56
315.083	86.56
315.312	74.56
315.542	83.56
315.771	78.56
316.001	90.56
316.23	86.56
316.46	79.56
316.689	82.56
316.919	86.56
317.148	86.56
317.377	79.56
317.607	97.56
317.836	81.56
318.065	82.56
318.295	80.56
318.524	91.56
318.753	81.56
318.983	82.56
319.212	87.56
319.441	72.56
319.67	77.56
319.9	84.56
320.129	92.56
320.358	76.56
320.587	77.56
320.816	71.56
321.046	78.56
321.275	84.56
321.504	83.56
321.733	84.56
321.962	66.56
322.191	83.56
322.42	66.56
322.649	76.56
322.878	76.56
323.108	83.56
323.337	72.56
323.566	74.56
323.795	85.56
324.024	92.56
324.253	93.56
324.482	84.56
324.71	84.56
324.939	91.56
325.168	90.56
325.397	88.56
325.626	87.56
325.855	83.56
326.084	92.56
326.313	87.56
326.542	77.56
326.77	88.56
326.999	87.56
327.228	98.56
327.457	85.56
327.686	91.56
327.914	82.56
328.143	96.56
328.372	80.56
328.6	87.56
328.829	101.56
329.058	80.56
329.287	73.56
329.515	69.56
329.744	92.56
329.972	76.56
330.201	91.56
330.43	79.56
330.658	81.56
330.887	78.56
331.115	75.56
331.344	78.56
331.572	88.56
331.801	77.56
332.03	76.56
332.258	92.56
332.486	80.56
332.715	91.56
332.943	88.56
333.172	82.56
333.4	84.56
333.629	87.56
333.857	87.56
334.085	79.56
334.314	87.56
334.542	85.56
334.771	85.56
334.999	70.56
335.227	89.56
335.455	74.56
335.684	75.56
335.912	93.56
336.14	84.56
336.369	74.56
336.597	80.56
336.825	91.56
337.053	92.56
337.281	80.56
337.51	82.56
337.738	81.56
337.966	79.56
338.194	105.56
338.422	86.56
338.65	84.56
338.878	101.56
339.106	70.56
339.334	85.56
339.562	78.56
339.79	95.56
340.018	84.56
340.246	75.56
340.474	89.56
340.702	92.56
340.93	82.56
341.158	78.56
341.386	93.56
341.614	76.56
341.842	83.56
342.07	77.56
342.298	79.56
342.526	87.56
342.754	84.56
342.981	87.56
343.209	96.56
343.437	93.56
343.665	70.56
343.893	77.56
344.12	78.56
344.348	81.56
344.576	76.56
344.804	79.56
345.031	83.56
345.259	90.56
345.487	72.56
345.714	83.56
345.942	89.56
346.17	79.56
346.397	77.56
346.625	76.56
346.853	81.56
347.08	85.56
347.308	91.56
347.535	79.56
347.763	78.56
347.99	90.56
348.218	86.56
348.445	75.56
348.673	96.56
348.9	80.56
349.128	84.56
349.355	87.56
349.583	87.56
349.81	86.56
350.037	92.56
350.265	101.56
350.492	91.56
350.72	91.56
350.947	68.56
351.174	91.56
351.402	76.56
351.629	77.56
351.856	66.56
352.083	88.56
352.311	76.56
352.538	92.56
352.765	77.56
352.992	94.56
353.22	85.56
353.447	73.56
353.674	84.56
353.901	93.56
354.128	74.56
354.355	71.56
354.583	78.56
354.81	80.56
355.037	71.56
355.264	88.56
355.491	75.56
355.718	83.56
355.945	86.56
356.172	87.56
356.399	88.56
356.626	88.56
356.853	84.56
357.08	91.56
357.307	78.56
357.534	74.56
357.761	69.56
357.988	96.56
358.215	82.56
358.441	93.56
358.668	79.56
358.895	84.56
359.122	88.56
359.349	84.56
359.576	75.56
359.802	81.56
360.029	90.56
360.256	80.56
360.483	83.56
360.709	96.56
360.936	101.56
361.163	93.56
361.39	80.56
361.616	78.56
361.843	78.56
362.07	77.56
362.296	85.56
362.523	87.56
362.749	86.56
362.976	89.56
363.203	90.56
363.429	83.56
363.656	82.56
363.882	95.56
364.109	86.56
364.335	79.56
364.562	90.56
364.788	91.56
365.015	81.56
365.241	81.56
365.468	84.56
365.694	76.56
365.92	85.56
366.147	87.56
366.373	95.56
366.599	87.56
366.826	86.56
367.052	76.56
367.278	78.56
367.505	81.56
367.731	92.56
367.957	82.56
368.184	86.56
368.41	79.56
368.636	97.56
368.862	97.56
369.089	80.56
369.315	80.56
369.541	87.56
369.767	100.56
369.993	74.56
370.219	80.56
370.445	83.56
370.672	80.56
370.898	90.56
371.124	94.56
371.35	84.56
371.576	87.56
371.802	84.56
372.028	76.56
372.254	86.56
372.48	81.56
372.706	78.56
372.932	96.56
373.158	83.56
373.384	106.56
373.61	102.56
373.835	95.56
374.061	87.56
374.287	88.56
374.513	91.56
374.739	66.56
374.965	83.56
375.191	85.56
375.416	86.56
375.642	91.56
375.868	82.56
376.094	87.56
376.319	70.56
376.545	78.56
376.771	85.56
376.997	82.56
377.222	98.56
377.448	84.56
377.674	84.56
377.899	90.56
378.125	81.56
378.35	79.56
378.576	83.56
378.802	71.56
379.027	84.56
379.253	84.56
379.478	77.56
379.704	68.56
379.929	78.56
380.155	69.56
380.38	88.56
380.606	90.56
380.831	86.56
381.057	82.56
381.282	75.56
381.507	81.56
381.733	92.56
381.958	88.56
382.184	91.56
382.409	74.56
382.634	81.56
382.86	81.56
383.085	85.56
383.31	92.56
383.535	75.56
383.761	74.56
383.986	78.56
384.211	76.56
384.436	82.56
384.662	91.56
384.887	73.56
385.112	78.56
385.337	65.56
385.562	78.56
385.787	84.56
386.013	79.56
386.238	81.56
386.463	85.56
386.688	82.56
386.913	71.56
387.138	73.56
387.363	85.56
387.588	99.56
387.813	94.56
388.038	79.56
388.263	87.56
388.488	70.56
388.713	88.56
388.938	84.56
389.163	73.56
389.387	85.56
389.612	88.56
389.837	77.56
390.062	94.56
390.287	81.56
390.512	83.56
390.736	78.56
390.961	85.56
391.186	76.56
391.411	91.56
391.636	86.56
391.86	88.56
392.085	90.56
392.31	81.56
392.534	79.56
392.759	81.56
392.984	99.56
393.208	105.56
393.433	95.56
393.658	87.56
393.882	78.56
394.107	71.56
394.331	98.56
394.556	93.56
394.78	88.56
395.005	90.56
395.229	84.56
395.454	95.56
395.678	92.56
395.903	83.56
396.127	94.56
396.352	79.56
396.576	84.56
396.801	94.56
397.025	85.56
397.249	89.56
397.474	99.56
397.698	104.56
397.922	78.56
398.147	77.56
398.371	77.56
398.595	94.56
398.82	80.56
399.044	82.56
399.268	76.56
399.492	70.56
399.717	89.56
399.941	84.56
400.165	70.56
400.389	81.56
400.613	79.56
400.837	73.56
401.062	81.56
401.286	63.56
401.51	87.56
401.734	86.56
401.958	92.56
402.182	88.56
402.406	68.56
402.63	102.56
402.854	86.56
403.078	87.56
403.302	78.56
403.526	82.56
403.75	72.56
403.974	79.56
404.198	93.56
404.422	90.56
404.645	79.56
404.869	86.56
405.093	84.56
405.317	71.56
405.541	76.56
405.765	86.56
405.988	88.56
406.212	76.56
406.436	80.56
406.66	86.56
406.883	95.56
407.107	82.56
407.331	79.56
407.555	81.56
407.778	86.56
408.002	81.56
408.226	78.56
408.449	94.56
408.673	78.56
408.896	69.56
409.12	77.56
409.344	77.56
409.567	89.56
409.791	97.56
410.014	87.56
410.238	69.56
410.461	77.56
410.685	80.56
410.908	78.56
411.132	90.56
411.355	84.56
411.578	73.56
411.802	83.56
412.025	83.56
412.249	82.56
412.472	70.56
412.695	84.56
412.919	78.56
413.142	71.56
413.365	69.56
413.589	70.56
413.812	81.56
414.035	72.56
414.258	80.56
414.482	81.56
414.705	82.56
414.928	77.56
415.151	77.56
415.374	65.56
415.597	88.56
415.821	76.56
416.044	75.56
416.267	79.56
416.49	88.56
416.713	77.56
416.936	79.56
417.159	92.56
417.382	75.56
417.605	85.56
417.828	68.56
418.051	82.56
418.274	83.56
418.497	79.56
418.72	88.56
418.943	74.56
419.166	86.56
419.389	91.56
419.611	81.56
419.834	78.56
420.057	79.56
420.28	74.56
420.503	69.56
420.726	73.56
420.948	80.56
421.171	76.56
421.394	83.56
421.617	89.56
421.839	96.56
422.062	96.56
422.285	89.56
422.507	100.56
422.73	117.56
422.953	92.56
423.175	90.56
423.398	87.56
423.621	94.56
423.843	70.56
424.066	78.56
424.288	85.56
424.511	82.56
424.733	82.56
424.956	92.56
425.178	93.56
425.401	84.56
425.623	83.56
425.846	88.56
426.068	77.56
426.291	87.56
426.513	75.56
426.735	92.56
426.958	88.56
427.18	69.56
427.402	90.56
427.625	93.56
427.847	81.56
428.069	96.56
428.292	90.56
428.514	81.56
428.736	84.56
428.958	94.56
429.181	89.56
429.403	86.56
429.625	89.56
429.847	93.56
430.069	107.56
430.292	96.56
430.514	86.56
430.736	96.56
430.958	75.56
431.18	67.56
431.402	97.56
431.624	81.56
431.846	92.56
432.068	104.56
432.29	77.56
432.512	80.56
432.734	92.56
432.956	82.56
433.178	85.56
433.4	78.56
433.622	70.56
433.844	88.56
434.066	92.56
434.287	78.56
434.509	74.56
434.731	79.56
434.953	83.56
435.175	64.56
435.397	81.56
435.618	83.56
435.84	93.56
436.062	91.56
436.284	81.56
436.505	93.56
436.727	81.56
436.949	80.56
437.17	96.56
437.392	82.56
437.614	78.56
437.835	81.56
438.057	88.56
438.278	71.56
438.5	88.56
438.721	68.56
438.943	82.56
439.165	92.56
439.386	77.56
439.608	93.56
439.829	94.56
440.05	89.56
440.272	82.56
440.493	74.56
440.715	76.56
440.936	90.56
441.158	89.56
441.379	86.56
441.6	95.56
441.822	87.56
442.043	83.56
442.264	84.56
442.486	91.56
442.707	95.56
442.928	94.56
443.149	76.56
443.371	92.56
443.592	89.56
443.813	90.56
444.034	88.56
444.255	89.56
444.476	90.56
444.698	82.56
444.919	86.56
445.14	145.56
445.361	121.56
445.582	117.56
445.803	95.56
446.024	91.56
446.245	79.56
446.466	86.56
446.687	73.56
446.908	79.56
447.129	76.56
447.35	84.56
447.571	106.56
447.792	89.56
448.013	90.56
448.234	91.56
448.455	80.56
448.675	69.56
448.896	84.56
449.117	84.56
449.338	77.56
449.559	77.56
449.779	88.56
450	78.56
450.221	74.56
450.442	74.56
450.662	85.56
450.883	73.56
451.104	79.56
451.324	82.56
451.545	85.56
451.766	70.56
451.986	78.56
452.207	86.56
452.428	90.56
452.648	82.56
452.869	80.56
453.089	74.56
453.31	82.56
453.53	84.56
453.751	89.56
453.971	97.56
454.192	87.56
454.412	91.56
454.633	90.56
454.853	72.56
455.073	85.56
455.294	81.56
455.514	98.56
455.734	82.56
455.955	91.56
456.175	72.56
456.395	80.56
456.616	82.56
456.836	82.56
457.056	78.56
457.276	88.56
457.497	66.56
457.717	84.56
457.937	88.56
458.157	69.56
458.377	80.56
458.598	83.56
458.818	82.56
459.038	87.56
459.258	89.56
459.478	75.56
459.698	84.56
459.918	89.56
460.138	76.56
460.358	87.56
460.578	57.56
460.798	84.56
461.018	87.56
461.238	82.56
461.458	85.56
461.678	81.56
461.898	84.56
462.118	88.56
462.338	85.56
462.558	84.56
462.777	88.56
462.997	93.56
463.217	72.56
463.437	82.56
463.657	86.56
463.876	82.56
464.096	92.56
464.316	77.56
464.536	81.56
464.755	86.56
464.975	74.56
465.195	71.56
465.414	100.56
465.634	78.56
465.854	89.56
466.073	84.56
466.293	84.56
466.512	73.56
466.732	74.56
466.951	73.56
467.171	89.56
467.391	84.56
467.61	92.56
467.829	75.56
468.049	88.56
468.268	75.56
468.488	90.56
468.707	95.56
468.927	90.56
469.146	86.56
469.365	85.56
469.585	91.56
469.804	89.56
470.023	71.56
470.243	79.56
470.462	79.56
470.681	80.56
470.901	75.56
471.12	76.56
471.339	74.56
471.558	84.56
471.777	87.56
471.997	94.56
472.216	86.56
472.435	72.56
472.654	91.56
472.873	82.56
473.092	83.56
473.311	71.56
473.53	87.56
473.749	94.56
473.968	96.56
474.187	93.56
474.406	89.56
474.625	80.56
474.844	70.56
475.063	69.56
475.282	72.56
475.501	87.56
475.72	95.56
475.939	81.56
476.158	93.56
476.377	92.56
476.596	68.56
476.814	76.56
477.033	86.56
477.252	72.56
477.471	74.56
477.69	88.56
477.908	89.56
478.127	79.56
478.346	78.56
478.564	79.56
478.783	65.56
479.002	74.56
479.22	89.56
479.439	69.56
479.658	78.56
479.876	94.56
480.095	85.56
480.313	82.56
480.532	87.56
480.751	78.56
480.969	83.56
481.188	80.56
481.406	87.56
481.624	75.56
481.843	77.56
482.061	101.56
482.28	88.56
482.498	79.56
482.717	93.56
482.935	88.56
483.153	80.56
483.372	83.56
483.59	90.56
483.808	74.56
484.027	101.56
484.245	82.56
484.463	82.56
484.681	85.56
484.9	68.56
485.118	91.56
485.336	62.56
485.554	80.56
485.772	73.56
485.99	77.56
486.209	88.56
486.427	79.56
486.645	71.56
486.863	78.56
487.081	94.56
487.299	83.56
487.517	88.56
487.735	83.56
487.953	87.56
488.171	98.56
488.389	85.56
488.607	79.56
488.825	85.56
489.043	93.56
489.261	101.56
489.479	95.56
489.696	93.56
489.914	78.56
490.132	77.56
490.35	87.56
490.568	82.56
490.786	83.56
491.003	69.56
491.221	71.56
491.439	86.56
491.657	79.56
491.874	82.56
492.092	76.56
492.31	92.56
492.527	84.56
492.745	83.56
492.963	81.56
493.18	81.56
493.398	79.56
493.615	91.56
493.833	74.56
494.05	70.56
494.268	89.56
494.485	80.56
494.703	94.56
494.92	85.56
495.138	84.56
495.355	88.56
495.573	84.56
495.79	67.56
496.008	84.56
496.225	73.56
496.442	63.56
496.66	85.56
496.877	78.56
497.094	92.56
497.312	75.56
497.529	82.56
497.746	74.56
497.963	73.56
498.181	86.56
498.398	92.56
498.615	83.56
498.832	88.56
499.049	91.56
499.267	90.56
499.484	89.56
499.701	87.56
499.918	82.56
500.135	90.56
500.352	92.56
500.569	77.56
500.786	91.56
501.003	97.56
501.22	94.56
501.437	84.56
501.654	76.56
501.871	77.56
502.088	90.56
502.305	94.56
502.522	73.56
502.739	82.56
502.956	81.56
503.172	74.56
503.389	76.56
503.606	71.56
503.823	81.56
504.04	79.56
504.256	96.56
504.473	78.56
504.69	78.56
504.907	98.56
505.123	87.56
505.34	101.56
505.557	70.56
505.773	80.56
505.99	69.56
506.207	78.56
506.423	78.56
506.64	89.56
506.856	90.56
507.073	80.56
507.289	89.56
507.506	86.56
507.722	86.56
507.939	65.56
508.155	84.56
508.372	88.56
508.588	80.56
508.805	91.56
509.021	84.56
509.238	97.56
509.454	87.56
509.67	70.56
509.887	70.56
510.103	89.56
510.319	77.56
510.536	80.56
510.752	85.56
510.968	88.56
511.184	105.56
511.401	91.56
511.617	68.56
511.833	81.56
512.049	93.56
512.265	89.56
512.481	88.56
512.698	82.56
512.914	77.56
513.13	86.56
513.346	84.56
513.562	85.56
513.778	88.56
513.994	74.56
514.21	86.56
514.426	83.56
514.642	79.56
514.858	83.56
515.074	80.56
515.29	80.56
515.506	65.56
515.721	72.56
515.937	91.56
516.153	72.56
516.369	75.56
516.585	86.56
516.801	70.56
517.016	98.56
517.232	75.56
517.448	77.56
517.664	98.56
517.879	93.56
518.095	90.56
518.311	87.56
518.527	77.56
518.742	80.56
518.958	95.56
519.173	85.56
519.389	82.56
519.605	86.56
519.82	100.56
