Data from Dirtnoheat3_HRD10591_00015.txt Node
Date: Fri Dec 27 15:21:28 EST 2024
User: Yrep
Spectrometer: HR+D1059
Trigger mode: 1
Integration Time (sec): 1.000000E-1
Scans to average: 1
Electric dark correction enabled: true
Nonlinearity correction enabled: false
Boxcar width: 0
XAxis mode: Wavelengths
Number of Pixels in Spectrum: 2048
>>>>>Begin Spectral Data<<<<<
223.165	-5.19
223.4	-5.19
223.635	-5.19
223.869	-11.19
224.104	-28.19
224.338	-18.19
224.573	-9.19
224.808	-16.19
225.042	-9.19
225.277	0.81
225.511	6.81
225.746	-1.19
225.98	8.81
226.215	6.81
226.449	10.81
226.683	14.81
226.918	28.81
227.152	20.81
227.387	25.81
227.621	36.81
227.856	56.81
228.09	47.81
228.324	60.81
228.559	51.81
228.793	63.81
229.027	54.81
229.262	67.81
229.496	74.81
229.73	65.81
229.964	57.81
230.199	73.81
230.433	86.81
230.667	72.81
230.901	68.81
231.136	83.81
231.37	76.81
231.604	71.81
231.838	85.81
232.072	71.81
232.306	80.81
232.541	76.81
232.775	76.81
233.009	77.81
233.243	70.81
233.477	74.81
233.711	79.81
233.945	82.81
234.179	70.81
234.413	75.81
234.647	66.81
234.881	75.81
235.115	74.81
235.349	71.81
235.583	67.81
235.817	82.81
236.051	80.81
236.285	79.81
236.519	82.81
236.753	77.81
236.987	69.81
237.221	69.81
237.455	61.81
237.689	71.81
237.922	68.81
238.156	78.81
238.39	72.81
238.624	68.81
238.858	88.81
239.091	70.81
239.325	84.81
239.559	71.81
239.793	67.81
240.027	76.81
240.26	87.81
240.494	71.81
240.728	73.81
240.961	71.81
241.195	57.81
241.429	64.81
241.662	70.81
241.896	62.81
242.13	61.81
242.363	70.81
242.597	62.81
242.83	60.81
243.064	75.81
243.298	72.81
243.531	87.81
243.765	79.81
243.998	76.81
244.232	70.81
244.465	78.81
244.699	77.81
244.932	71.81
245.166	66.81
245.399	64.81
245.633	83.81
245.866	80.81
246.099	89.81
246.333	82.81
246.566	76.81
246.8	74.81
247.033	83.81
247.266	72.81
247.5	70.81
247.733	75.81
247.966	80.81
248.2	78.81
248.433	72.81
248.666	83.81
248.899	79.81
249.133	72.81
249.366	94.81
249.599	84.81
249.832	82.81
250.066	87.81
250.299	80.81
250.532	82.81
250.765	68.81
250.998	74.81
251.231	75.81
251.465	70.81
251.698	64.81
251.931	63.81
252.164	67.81
252.397	70.81
252.63	76.81
252.863	73.81
253.096	70.81
253.329	68.81
253.562	75.81
253.795	83.81
254.028	84.81
254.261	79.81
254.494	91.81
254.727	84.81
254.96	78.81
255.193	85.81
255.426	94.81
255.659	82.81
255.892	68.81
256.124	72.81
256.357	80.81
256.59	72.81
256.823	85.81
257.056	80.81
257.289	79.81
257.521	86.81
257.754	75.81
257.987	63.81
258.22	71.81
258.452	86.81
258.685	66.81
258.918	76.81
259.151	91.81
259.383	78.81
259.616	83.81
259.849	73.81
260.081	70.81
260.314	84.81
260.547	79.81
260.779	79.81
261.012	77.81
261.244	79.81
261.477	71.81
261.71	88.81
261.942	84.81
262.175	80.81
262.407	78.81
262.64	91.81
262.872	70.81
263.105	77.81
263.337	64.81
263.57	79.81
263.802	95.81
264.035	86.81
264.267	74.81
264.499	80.81
264.732	87.81
264.964	75.81
265.197	82.81
265.429	82.81
265.661	67.81
265.894	84.81
266.126	89.81
266.358	87.81
266.591	87.81
266.823	75.81
267.055	66.81
267.287	73.81
267.52	84.81
267.752	72.81
267.984	82.81
268.216	86.81
268.448	85.81
268.681	71.81
268.913	99.81
269.145	78.81
269.377	69.81
269.609	71.81
269.841	91.81
270.073	75.81
270.306	81.81
270.538	84.81
270.77	78.81
271.002	75.81
271.234	75.81
271.466	95.81
271.698	83.81
271.93	83.81
272.162	88.81
272.394	85.81
272.626	70.81
272.858	84.81
273.09	75.81
273.322	80.81
273.553	76.81
273.785	68.81
274.017	75.81
274.249	97.81
274.481	78.81
274.713	77.81
274.945	77.81
275.176	98.81
275.408	84.81
275.64	87.81
275.872	81.81
276.104	78.81
276.335	79.81
276.567	84.81
276.799	82.81
277.031	82.81
277.262	84.81
277.494	76.81
277.726	83.81
277.957	87.81
278.189	72.81
278.421	76.81
278.652	83.81
278.884	82.81
279.115	79.81
279.347	81.81
279.579	67.81
279.81	86.81
280.042	80.81
280.273	79.81
280.505	78.81
280.736	79.81
280.968	94.81
281.199	88.81
281.431	86.81
281.662	77.81
281.894	79.81
282.125	84.81
282.356	80.81
282.588	90.81
282.819	80.81
283.051	82.81
283.282	82.81
283.513	87.81
283.745	68.81
283.976	79.81
284.207	71.81
284.439	67.81
284.67	79.81
284.901	67.81
285.132	74.81
285.364	88.81
285.595	78.81
285.826	83.81
286.057	83.81
286.288	80.81
286.52	86.81
286.751	80.81
286.982	82.81
287.213	70.81
287.444	82.81
287.675	93.81
287.906	78.81
288.138	78.81
288.369	83.81
288.6	75.81
288.831	71.81
289.062	74.81
289.293	79.81
289.524	70.81
289.755	72.81
289.986	78.81
290.217	80.81
290.448	75.81
290.679	77.81
290.91	80.81
291.141	80.81
291.371	74.81
291.602	83.81
291.833	66.81
292.064	99.81
292.295	87.81
292.526	78.81
292.757	100.81
292.987	78.81
293.218	68.81
293.449	83.81
293.68	76.81
293.91	84.81
294.141	81.81
294.372	82.81
294.603	82.81
294.833	75.81
295.064	78.81
295.295	83.81
295.525	80.81
295.756	88.81
295.987	96.81
296.217	79.81
296.448	69.81
296.679	83.81
296.909	72.81
297.14	90.81
297.37	91.81
297.601	83.81
297.831	65.81
298.062	80.81
298.292	79.81
298.523	85.81
298.753	87.81
298.984	75.81
299.214	88.81
299.445	73.81
299.675	68.81
299.905	68.81
300.136	94.81
300.366	81.81
300.597	99.81
300.827	80.81
301.057	86.81
301.288	100.81
301.518	90.81
301.748	81.81
301.979	88.81
302.209	83.81
302.439	82.81
302.669	74.81
302.9	81.81
303.13	71.81
303.36	75.81
303.59	66.81
303.82	76.81
304.051	79.81
304.281	83.81
304.511	80.81
304.741	74.81
304.971	80.81
305.201	99.81
305.431	81.81
305.661	86.81
305.891	63.81
306.121	96.81
306.352	86.81
306.582	76.81
306.812	82.81
307.042	79.81
307.272	75.81
307.502	87.81
307.731	81.81
307.961	90.81
308.191	86.81
308.421	88.81
308.651	80.81
308.881	89.81
309.111	76.81
309.341	67.81
309.571	69.81
309.8	71.81
310.03	71.81
310.26	82.81
310.49	75.81
310.72	70.81
310.949	77.81
311.179	91.81
311.409	95.81
311.639	67.81
311.868	89.81
312.098	90.81
312.328	87.81
312.557	78.81
312.787	99.81
313.017	83.81
313.246	74.81
313.476	81.81
313.706	74.81
313.935	65.81
314.165	86.81
314.394	81.81
314.624	81.81
314.853	78.81
315.083	71.81
315.312	82.81
315.542	87.81
315.771	84.81
316.001	86.81
316.23	79.81
316.46	63.81
316.689	73.81
316.919	73.81
317.148	97.81
317.377	86.81
317.607	71.81
317.836	67.81
318.065	91.81
318.295	78.81
318.524	96.81
318.753	88.81
318.983	107.81
319.212	78.81
319.441	78.81
319.67	72.81
319.9	78.81
320.129	78.81
320.358	82.81
320.587	72.81
320.816	66.81
321.046	87.81
321.275	83.81
321.504	72.81
321.733	83.81
321.962	76.81
322.191	87.81
322.42	74.81
322.649	91.81
322.878	78.81
323.108	81.81
323.337	71.81
323.566	86.81
323.795	78.81
324.024	67.81
324.253	87.81
324.482	95.81
324.71	84.81
324.939	81.81
325.168	77.81
325.397	78.81
325.626	83.81
325.855	75.81
326.084	76.81
326.313	72.81
326.542	77.81
326.77	95.81
326.999	79.81
327.228	89.81
327.457	83.81
327.686	84.81
327.914	78.81
328.143	75.81
328.372	86.81
328.6	64.81
328.829	77.81
329.058	74.81
329.287	81.81
329.515	86.81
329.744	78.81
329.972	99.81
330.201	83.81
330.43	81.81
330.658	90.81
330.887	79.81
331.115	88.81
331.344	88.81
331.572	102.81
331.801	81.81
332.03	89.81
332.258	75.81
332.486	87.81
332.715	90.81
332.943	86.81
333.172	85.81
333.4	85.81
333.629	86.81
333.857	82.81
334.085	78.81
334.314	75.81
334.542	93.81
334.771	89.81
334.999	74.81
335.227	78.81
335.455	88.81
335.684	82.81
335.912	92.81
336.14	90.81
336.369	97.81
336.597	84.81
336.825	78.81
337.053	86.81
337.281	82.81
337.51	86.81
337.738	86.81
337.966	90.81
338.194	78.81
338.422	70.81
338.65	61.81
338.878	71.81
339.106	72.81
339.334	85.81
339.562	72.81
339.79	67.81
340.018	83.81
340.246	89.81
340.474	78.81
340.702	80.81
340.93	74.81
341.158	86.81
341.386	79.81
341.614	82.81
341.842	82.81
342.07	76.81
342.298	76.81
342.526	81.81
342.754	89.81
342.981	82.81
343.209	77.81
343.437	102.81
343.665	75.81
343.893	78.81
344.12	68.81
344.348	86.81
344.576	89.81
344.804	76.81
345.031	81.81
345.259	77.81
345.487	97.81
345.714	90.81
345.942	71.81
346.17	80.81
346.397	86.81
346.625	104.81
346.853	75.81
347.08	78.81
347.308	70.81
347.535	96.81
347.763	84.81
347.99	87.81
348.218	85.81
348.445	74.81
348.673	82.81
348.9	82.81
349.128	73.81
349.355	64.81
349.583	79.81
349.81	91.81
350.037	80.81
350.265	78.81
350.492	78.81
350.72	71.81
350.947	74.81
351.174	81.81
351.402	86.81
351.629	92.81
351.856	74.81
352.083	70.81
352.311	83.81
352.538	75.81
352.765	85.81
352.992	91.81
353.22	86.81
353.447	92.81
353.674	75.81
353.901	94.81
354.128	76.81
354.355	78.81
354.583	77.81
354.81	83.81
355.037	74.81
355.264	83.81
355.491	69.81
355.718	83.81
355.945	100.81
356.172	69.81
356.399	86.81
356.626	73.81
356.853	78.81
357.08	95.81
357.307	85.81
357.534	71.81
357.761	78.81
357.988	85.81
358.215	82.81
358.441	77.81
358.668	76.81
358.895	70.81
359.122	69.81
359.349	72.81
359.576	70.81
359.802	69.81
360.029	75.81
360.256	77.81
360.483	76.81
360.709	90.81
360.936	98.81
361.163	93.81
361.39	84.81
361.616	95.81
361.843	83.81
362.07	84.81
362.296	67.81
362.523	64.81
362.749	80.81
362.976	98.81
363.203	93.81
363.429	93.81
363.656	82.81
363.882	84.81
364.109	89.81
364.335	90.81
364.562	84.81
364.788	90.81
365.015	88.81
365.241	91.81
365.468	71.81
365.694	74.81
365.92	79.81
366.147	88.81
366.373	82.81
366.599	82.81
366.826	80.81
367.052	81.81
367.278	75.81
367.505	84.81
367.731	83.81
367.957	84.81
368.184	83.81
368.41	72.81
368.636	80.81
368.862	83.81
369.089	82.81
369.315	64.81
369.541	78.81
369.767	70.81
369.993	88.81
370.219	86.81
370.445	84.81
370.672	91.81
370.898	77.81
371.124	74.81
371.35	76.81
371.576	70.81
371.802	75.81
372.028	76.81
372.254	84.81
372.48	73.81
372.706	86.81
372.932	86.81
373.158	77.81
373.384	73.81
373.61	76.81
373.835	67.81
374.061	71.81
374.287	81.81
374.513	85.81
374.739	74.81
374.965	69.81
375.191	76.81
375.416	72.81
375.642	81.81
375.868	86.81
376.094	74.81
376.319	63.81
376.545	74.81
376.771	77.81
376.997	74.81
377.222	73.81
377.448	80.81
377.674	79.81
377.899	76.81
378.125	92.81
378.35	80.81
378.576	66.81
378.802	77.81
379.027	72.81
379.253	86.81
379.478	82.81
379.704	87.81
379.929	71.81
380.155	70.81
380.38	71.81
380.606	72.81
380.831	79.81
381.057	87.81
381.282	76.81
381.507	76.81
381.733	70.81
381.958	72.81
382.184	88.81
382.409	66.81
382.634	88.81
382.86	63.81
383.085	79.81
383.31	88.81
383.535	76.81
383.761	85.81
383.986	86.81
384.211	71.81
384.436	77.81
384.662	82.81
384.887	73.81
385.112	78.81
385.337	69.81
385.562	87.81
385.787	86.81
386.013	84.81
386.238	79.81
386.463	83.81
386.688	91.81
386.913	76.81
387.138	86.81
387.363	77.81
387.588	85.81
387.813	89.81
388.038	78.81
388.263	78.81
388.488	84.81
388.713	69.81
388.938	83.81
389.163	82.81
389.387	76.81
389.612	62.81
389.837	63.81
390.062	76.81
390.287	70.81
390.512	73.81
390.736	80.81
390.961	76.81
391.186	74.81
391.411	66.81
391.636	76.81
391.86	86.81
392.085	85.81
392.31	76.81
392.534	71.81
392.759	80.81
392.984	79.81
393.208	88.81
393.433	80.81
393.658	76.81
393.882	63.81
394.107	87.81
394.331	82.81
394.556	74.81
394.78	75.81
395.005	68.81
395.229	88.81
395.454	87.81
395.678	59.81
395.903	85.81
396.127	87.81
396.352	69.81
396.576	82.81
396.801	72.81
397.025	76.81
397.249	75.81
397.474	78.81
397.698	87.81
397.922	70.81
398.147	77.81
398.371	76.81
398.595	83.81
398.82	94.81
399.044	78.81
399.268	82.81
399.492	75.81
399.717	82.81
399.941	85.81
400.165	86.81
400.389	71.81
400.613	64.81
400.837	66.81
401.062	72.81
401.286	82.81
401.51	96.81
401.734	83.81
401.958	76.81
402.182	87.81
402.406	86.81
402.63	75.81
402.854	87.81
403.078	80.81
403.302	74.81
403.526	92.81
403.75	72.81
403.974	78.81
404.198	72.81
404.422	65.81
404.645	70.81
404.869	73.81
405.093	87.81
405.317	72.81
405.541	80.81
405.765	75.81
405.988	68.81
406.212	92.81
406.436	63.81
406.66	65.81
406.883	76.81
407.107	71.81
407.331	77.81
407.555	92.81
407.778	80.81
408.002	74.81
408.226	65.81
408.449	72.81
408.673	76.81
408.896	69.81
409.12	85.81
409.344	74.81
409.567	93.81
409.791	82.81
410.014	76.81
410.238	86.81
410.461	83.81
410.685	84.81
410.908	86.81
411.132	79.81
411.355	76.81
411.578	65.81
411.802	69.81
412.025	75.81
412.249	74.81
412.472	66.81
412.695	64.81
412.919	74.81
413.142	78.81
413.365	85.81
413.589	79.81
413.812	84.81
414.035	77.81
414.258	84.81
414.482	66.81
414.705	63.81
414.928	84.81
415.151	67.81
415.374	79.81
415.597	87.81
415.821	75.81
416.044	81.81
416.267	84.81
416.49	73.81
416.713	77.81
416.936	85.81
417.159	83.81
417.382	73.81
417.605	72.81
417.828	77.81
418.051	86.81
418.274	68.81
418.497	80.81
418.72	78.81
418.943	84.81
419.166	82.81
419.389	68.81
419.611	79.81
419.834	83.81
420.057	86.81
420.28	74.81
420.503	78.81
420.726	84.81
420.948	90.81
421.171	63.81
421.394	78.81
421.617	72.81
421.839	79.81
422.062	69.81
422.285	89.81
422.507	100.81
422.73	79.81
422.953	90.81
423.175	72.81
423.398	78.81
423.621	81.81
423.843	77.81
424.066	79.81
424.288	68.81
424.511	72.81
424.733	78.81
424.956	55.81
425.178	75.81
425.401	85.81
425.623	79.81
425.846	64.81
426.068	66.81
426.291	72.81
426.513	72.81
426.735	78.81
426.958	78.81
427.18	79.81
427.402	102.81
427.625	78.81
427.847	73.81
428.069	84.81
428.292	84.81
428.514	79.81
428.736	69.81
428.958	83.81
429.181	86.81
429.403	80.81
429.625	84.81
429.847	66.81
430.069	86.81
430.292	78.81
430.514	88.81
430.736	86.81
430.958	94.81
431.18	84.81
431.402	78.81
431.624	80.81
431.846	74.81
432.068	83.81
432.29	85.81
432.512	82.81
432.734	75.81
432.956	78.81
433.178	88.81
433.4	82.81
433.622	71.81
433.844	80.81
434.066	84.81
434.287	67.81
434.509	82.81
434.731	82.81
434.953	65.81
435.175	79.81
435.397	81.81
435.618	89.81
435.84	79.81
436.062	74.81
436.284	71.81
436.505	72.81
436.727	80.81
436.949	70.81
437.17	74.81
437.392	71.81
437.614	78.81
437.835	92.81
438.057	85.81
438.278	84.81
438.5	87.81
438.721	86.81
438.943	78.81
439.165	84.81
439.386	74.81
439.608	81.81
439.829	84.81
440.05	70.81
440.272	69.81
440.493	77.81
440.715	74.81
440.936	80.81
441.158	80.81
441.379	69.81
441.6	76.81
441.822	76.81
442.043	91.81
442.264	77.81
442.486	67.81
442.707	76.81
442.928	78.81
443.149	78.81
443.371	83.81
443.592	82.81
443.813	82.81
444.034	78.81
444.255	94.81
444.476	83.81
444.698	85.81
444.919	75.81
445.14	132.81
445.361	115.81
445.582	84.81
445.803	81.81
446.024	82.81
446.245	79.81
446.466	80.81
446.687	79.81
446.908	68.81
447.129	65.81
447.35	72.81
447.571	75.81
447.792	74.81
448.013	79.81
448.234	77.81
448.455	60.81
448.675	59.81
448.896	80.81
449.117	86.81
449.338	79.81
449.559	81.81
449.779	76.81
450	76.81
450.221	76.81
450.442	78.81
450.662	86.81
450.883	75.81
451.104	72.81
451.324	75.81
451.545	60.81
451.766	69.81
451.986	82.81
452.207	75.81
452.428	86.81
452.648	90.81
452.869	58.81
453.089	74.81
453.31	68.81
453.53	70.81
453.751	65.81
453.971	78.81
454.192	67.81
454.412	73.81
454.633	77.81
454.853	78.81
455.073	74.81
455.294	77.81
455.514	71.81
455.734	72.81
455.955	61.81
456.175	75.81
456.395	83.81
456.616	82.81
456.836	74.81
457.056	72.81
457.276	86.81
457.497	85.81
457.717	77.81
457.937	77.81
458.157	82.81
458.377	81.81
458.598	76.81
458.818	92.81
459.038	90.81
459.258	78.81
459.478	87.81
459.698	70.81
459.918	84.81
460.138	79.81
460.358	79.81
460.578	67.81
460.798	67.81
461.018	73.81
461.238	85.81
461.458	79.81
461.678	73.81
461.898	69.81
462.118	84.81
462.338	65.81
462.558	78.81
462.777	83.81
462.997	80.81
463.217	64.81
463.437	84.81
463.657	93.81
463.876	85.81
464.096	85.81
464.316	80.81
464.536	74.81
464.755	75.81
464.975	80.81
465.195	81.81
465.414	78.81
465.634	80.81
465.854	73.81
466.073	88.81
466.293	66.81
466.512	88.81
466.732	84.81
466.951	87.81
467.171	75.81
467.391	88.81
467.61	84.81
467.829	76.81
468.049	69.81
468.268	64.81
468.488	75.81
468.707	82.81
468.927	62.81
469.146	78.81
469.365	73.81
469.585	83.81
469.804	73.81
470.023	72.81
470.243	83.81
470.462	77.81
470.681	96.81
470.901	62.81
471.12	73.81
471.339	74.81
471.558	92.81
471.777	81.81
471.997	77.81
472.216	79.81
472.435	74.81
472.654	86.81
472.873	79.81
473.092	82.81
473.311	76.81
473.53	73.81
473.749	74.81
473.968	77.81
474.187	74.81
474.406	88.81
474.625	77.81
474.844	68.81
475.063	77.81
475.282	85.81
475.501	78.81
475.72	92.81
475.939	98.81
476.158	81.81
476.377	75.81
476.596	76.81
476.814	76.81
477.033	90.81
477.252	78.81
477.471	83.81
477.69	82.81
477.908	79.81
478.127	75.81
478.346	84.81
478.564	82.81
478.783	80.81
479.002	84.81
479.22	85.81
479.439	80.81
479.658	79.81
479.876	70.81
480.095	53.81
480.313	83.81
480.532	86.81
480.751	67.81
480.969	87.81
481.188	83.81
481.406	85.81
481.624	75.81
481.843	78.81
482.061	69.81
482.28	74.81
482.498	79.81
482.717	69.81
482.935	94.81
483.153	91.81
483.372	81.81
483.59	85.81
483.808	75.81
484.027	99.81
484.245	90.81
484.463	78.81
484.681	82.81
484.9	78.81
485.118	83.81
485.336	85.81
485.554	89.81
485.772	83.81
485.99	85.81
486.209	75.81
486.427	64.81
486.645	78.81
486.863	70.81
487.081	81.81
487.299	72.81
487.517	75.81
487.735	96.81
487.953	93.81
488.171	83.81
488.389	94.81
488.607	76.81
488.825	70.81
489.043	65.81
489.261	77.81
489.479	89.81
489.696	85.81
489.914	77.81
490.132	72.81
490.35	82.81
490.568	82.81
490.786	74.81
491.003	87.81
491.221	75.81
491.439	78.81
491.657	76.81
491.874	90.81
492.092	92.81
492.31	86.81
492.527	69.81
492.745	87.81
492.963	79.81
493.18	77.81
493.398	84.81
493.615	75.81
493.833	86.81
494.05	81.81
494.268	83.81
494.485	78.81
494.703	81.81
494.92	89.81
495.138	87.81
495.355	82.81
495.573	82.81
495.79	82.81
496.008	91.81
496.225	82.81
496.442	78.81
496.66	83.81
496.877	72.81
497.094	82.81
497.312	78.81
497.529	79.81
497.746	75.81
497.963	76.81
498.181	90.81
498.398	94.81
498.615	92.81
498.832	73.81
499.049	69.81
499.267	97.81
499.484	64.81
499.701	90.81
499.918	81.81
500.135	69.81
500.352	87.81
500.569	90.81
500.786	78.81
501.003	83.81
501.22	93.81
501.437	71.81
501.654	88.81
501.871	87.81
502.088	74.81
502.305	91.81
502.522	71.81
502.739	66.81
502.956	81.81
503.172	77.81
503.389	75.81
503.606	71.81
503.823	70.81
504.04	89.81
504.256	88.81
504.473	73.81
504.69	83.81
504.907	87.81
505.123	78.81
505.34	72.81
505.557	75.81
505.773	88.81
505.99	77.81
506.207	95.81
506.423	79.81
506.64	75.81
506.856	91.81
507.073	83.81
507.289	83.81
507.506	87.81
507.722	71.81
507.939	77.81
508.155	69.81
508.372	82.81
508.588	87.81
508.805	76.81
509.021	74.81
509.238	88.81
509.454	85.81
509.67	72.81
509.887	89.81
510.103	84.81
510.319	78.81
510.536	77.81
510.752	87.81
510.968	84.81
511.184	80.81
511.401	84.81
511.617	74.81
511.833	71.81
512.049	80.81
512.265	98.81
512.481	81.81
512.698	75.81
512.914	72.81
513.13	66.81
513.346	80.81
513.562	81.81
513.778	85.81
513.994	75.81
514.21	83.81
514.426	79.81
514.642	82.81
514.858	91.81
515.074	90.81
515.29	78.81
515.506	73.81
515.721	86.81
515.937	75.81
516.153	76.81
516.369	73.81
516.585	83.81
516.801	93.81
517.016	75.81
517.232	79.81
517.448	73.81
517.664	83.81
517.879	75.81
518.095	63.81
518.311	73.81
518.527	68.81
518.742	67.81
518.958	83.81
519.173	95.81
519.389	81.81
519.605	87.81
519.82	86.81
520.036	91.81
520.251	83.81
