Data from Dirtnoheat3_HRD10591_00007.txt Node
Date: Fri Dec 27 15:21:20 EST 2024
User: Yrep
Spectrometer: HR+D1059
Trigger mode: 1
Integration Time (sec): 1.000000E-1
Scans to average: 1
Electric dark correction enabled: true
Nonlinearity correction enabled: false
Boxcar width: 0
XAxis mode: Wavelengths
Number of Pixels in Spectrum: 2048
>>>>>Begin Spectral Data<<<<<
223.165	-24.31
223.4	-24.31
223.635	-24.31
223.869	-26.31
224.104	-21.31
224.338	-21.31
224.573	-17.31
224.808	-8.31
225.042	-13.31
225.277	2.69
225.511	9.69
225.746	7.69
225.98	-5.31
226.215	6.69
226.449	15.69
226.683	15.69
226.918	34.69
227.152	44.69
227.387	44.69
227.621	38.69
227.856	50.69
228.09	42.69
228.324	58.69
228.559	57.69
228.793	53.69
229.027	67.69
229.262	72.69
229.496	66.69
229.73	75.69
229.964	80.69
230.199	64.69
230.433	72.69
230.667	95.69
230.901	72.69
231.136	88.69
231.37	82.69
231.604	95.69
231.838	72.69
232.072	84.69
232.306	82.69
232.541	93.69
232.775	81.69
233.009	85.69
233.243	75.69
233.477	81.69
233.711	78.69
233.945	75.69
234.179	73.69
234.413	86.69
234.647	80.69
234.881	86.69
235.115	91.69
235.349	85.69
235.583	94.69
235.817	91.69
236.051	80.69
236.285	80.69
236.519	73.69
236.753	87.69
236.987	83.69
237.221	78.69
237.455	86.69
237.689	84.69
237.922	81.69
238.156	81.69
238.39	68.69
238.624	72.69
238.858	82.69
239.091	79.69
239.325	62.69
239.559	85.69
239.793	85.69
240.027	75.69
240.26	74.69
240.494	86.69
240.728	73.69
240.961	79.69
241.195	83.69
241.429	77.69
241.662	82.69
241.896	73.69
242.13	68.69
242.363	65.69
242.597	70.69
242.83	83.69
243.064	95.69
243.298	80.69
243.531	70.69
243.765	79.69
243.998	80.69
244.232	71.69
244.465	87.69
244.699	94.69
244.932	75.69
245.166	80.69
245.399	66.69
245.633	81.69
245.866	73.69
246.099	67.69
246.333	79.69
246.566	90.69
246.8	61.69
247.033	72.69
247.266	80.69
247.5	80.69
247.733	90.69
247.966	82.69
248.2	64.69
248.433	62.69
248.666	82.69
248.899	82.69
249.133	92.69
249.366	81.69
249.599	78.69
249.832	77.69
250.066	76.69
250.299	99.69
250.532	85.69
250.765	77.69
250.998	82.69
251.231	62.69
251.465	82.69
251.698	79.69
251.931	90.69
252.164	66.69
252.397	76.69
252.63	83.69
252.863	96.69
253.096	85.69
253.329	85.69
253.562	80.69
253.795	70.69
254.028	79.69
254.261	78.69
254.494	81.69
254.727	76.69
254.96	87.69
255.193	78.69
255.426	77.69
255.659	87.69
255.892	90.69
256.124	83.69
256.357	90.69
256.59	83.69
256.823	87.69
257.056	82.69
257.289	88.69
257.521	85.69
257.754	87.69
257.987	84.69
258.22	84.69
258.452	88.69
258.685	84.69
258.918	79.69
259.151	87.69
259.383	86.69
259.616	85.69
259.849	82.69
260.081	74.69
260.314	75.69
260.547	84.69
260.779	68.69
261.012	83.69
261.244	92.69
261.477	84.69
261.71	72.69
261.942	80.69
262.175	86.69
262.407	84.69
262.64	79.69
262.872	78.69
263.105	92.69
263.337	78.69
263.57	87.69
263.802	84.69
264.035	82.69
264.267	74.69
264.499	79.69
264.732	91.69
264.964	88.69
265.197	84.69
265.429	83.69
265.661	83.69
265.894	89.69
266.126	96.69
266.358	89.69
266.591	84.69
266.823	72.69
267.055	83.69
267.287	82.69
267.52	90.69
267.752	87.69
267.984	72.69
268.216	90.69
268.448	89.69
268.681	86.69
268.913	84.69
269.145	82.69
269.377	85.69
269.609	82.69
269.841	87.69
270.073	80.69
270.306	84.69
270.538	86.69
270.77	79.69
271.002	72.69
271.234	78.69
271.466	88.69
271.698	83.69
271.93	78.69
272.162	93.69
272.394	98.69
272.626	81.69
272.858	79.69
273.09	85.69
273.322	97.69
273.553	82.69
273.785	90.69
274.017	87.69
274.249	79.69
274.481	85.69
274.713	90.69
274.945	77.69
275.176	69.69
275.408	92.69
275.64	86.69
275.872	91.69
276.104	94.69
276.335	90.69
276.567	91.69
276.799	84.69
277.031	88.69
277.262	86.69
277.494	82.69
277.726	82.69
277.957	90.69
278.189	91.69
278.421	90.69
278.652	91.69
278.884	83.69
279.115	83.69
279.347	77.69
279.579	83.69
279.81	95.69
280.042	87.69
280.273	93.69
280.505	78.69
280.736	86.69
280.968	81.69
281.199	90.69
281.431	95.69
281.662	84.69
281.894	88.69
282.125	73.69
282.356	85.69
282.588	88.69
282.819	75.69
283.051	76.69
283.282	92.69
283.513	98.69
283.745	93.69
283.976	86.69
284.207	92.69
284.439	94.69
284.67	101.69
284.901	84.69
285.132	86.69
285.364	90.69
285.595	94.69
285.826	83.69
286.057	71.69
286.288	74.69
286.52	92.69
286.751	108.69
286.982	91.69
287.213	77.69
287.444	87.69
287.675	93.69
287.906	85.69
288.138	83.69
288.369	86.69
288.6	88.69
288.831	97.69
289.062	79.69
289.293	85.69
289.524	76.69
289.755	102.69
289.986	86.69
290.217	84.69
290.448	95.69
290.679	90.69
290.91	88.69
291.141	72.69
291.371	88.69
291.602	65.69
291.833	87.69
292.064	90.69
292.295	73.69
292.526	93.69
292.757	84.69
292.987	91.69
293.218	91.69
293.449	91.69
293.68	100.69
293.91	80.69
294.141	91.69
294.372	86.69
294.603	96.69
294.833	96.69
295.064	91.69
295.295	76.69
295.525	75.69
295.756	105.69
295.987	89.69
296.217	100.69
296.448	82.69
296.679	86.69
296.909	73.69
297.14	75.69
297.37	99.69
297.601	93.69
297.831	90.69
298.062	97.69
298.292	87.69
298.523	96.69
298.753	84.69
298.984	81.69
299.214	91.69
299.445	93.69
299.675	93.69
299.905	72.69
300.136	75.69
300.366	79.69
300.597	80.69
300.827	63.69
301.057	86.69
301.288	106.69
301.518	88.69
301.748	93.69
301.979	94.69
302.209	84.69
302.439	96.69
302.669	95.69
302.9	100.69
303.13	91.69
303.36	89.69
303.59	86.69
303.82	80.69
304.051	78.69
304.281	88.69
304.511	77.69
304.741	78.69
304.971	97.69
305.201	99.69
305.431	91.69
305.661	86.69
305.891	98.69
306.121	91.69
306.352	90.69
306.582	99.69
306.812	77.69
307.042	97.69
307.272	93.69
307.502	87.69
307.731	99.69
307.961	87.69
308.191	91.69
308.421	99.69
308.651	87.69
308.881	86.69
309.111	81.69
309.341	94.69
309.571	88.69
309.8	85.69
310.03	82.69
310.26	75.69
310.49	90.69
310.72	86.69
310.949	92.69
311.179	93.69
311.409	93.69
311.639	95.69
311.868	103.69
312.098	89.69
312.328	90.69
312.557	91.69
312.787	87.69
313.017	91.69
313.246	71.69
313.476	84.69
313.706	85.69
313.935	100.69
314.165	90.69
314.394	91.69
314.624	94.69
314.853	91.69
315.083	93.69
315.312	82.69
315.542	80.69
315.771	78.69
316.001	88.69
316.23	95.69
316.46	82.69
316.689	97.69
316.919	79.69
317.148	94.69
317.377	88.69
317.607	80.69
317.836	90.69
318.065	91.69
318.295	85.69
318.524	76.69
318.753	93.69
318.983	78.69
319.212	83.69
319.441	91.69
319.67	82.69
319.9	90.69
320.129	83.69
320.358	102.69
320.587	94.69
320.816	96.69
321.046	86.69
321.275	86.69
321.504	79.69
321.733	82.69
321.962	71.69
322.191	85.69
322.42	89.69
322.649	102.69
322.878	101.69
323.108	84.69
323.337	100.69
323.566	80.69
323.795	93.69
324.024	92.69
324.253	99.69
324.482	92.69
324.71	103.69
324.939	92.69
325.168	92.69
325.397	91.69
325.626	75.69
325.855	87.69
326.084	100.69
326.313	87.69
326.542	111.69
326.77	78.69
326.999	85.69
327.228	97.69
327.457	85.69
327.686	77.69
327.914	97.69
328.143	90.69
328.372	103.69
328.6	91.69
328.829	91.69
329.058	79.69
329.287	90.69
329.515	94.69
329.744	95.69
329.972	81.69
330.201	92.69
330.43	81.69
330.658	103.69
330.887	85.69
331.115	87.69
331.344	72.69
331.572	87.69
331.801	93.69
332.03	88.69
332.258	84.69
332.486	88.69
332.715	76.69
332.943	83.69
333.172	98.69
333.4	90.69
333.629	98.69
333.857	82.69
334.085	83.69
334.314	88.69
334.542	76.69
334.771	87.69
334.999	90.69
335.227	88.69
335.455	90.69
335.684	93.69
335.912	86.69
336.14	99.69
336.369	83.69
336.597	89.69
336.825	91.69
337.053	87.69
337.281	99.69
337.51	99.69
337.738	94.69
337.966	103.69
338.194	83.69
338.422	94.69
338.65	90.69
338.878	98.69
339.106	75.69
339.334	82.69
339.562	90.69
339.79	90.69
340.018	94.69
340.246	81.69
340.474	85.69
340.702	90.69
340.93	79.69
341.158	73.69
341.386	96.69
341.614	84.69
341.842	80.69
342.07	80.69
342.298	82.69
342.526	99.69
342.754	88.69
342.981	81.69
343.209	86.69
343.437	98.69
343.665	100.69
343.893	87.69
344.12	97.69
344.348	87.69
344.576	94.69
344.804	79.69
345.031	83.69
345.259	84.69
345.487	99.69
345.714	87.69
345.942	87.69
346.17	78.69
346.397	83.69
346.625	86.69
346.853	79.69
347.08	89.69
347.308	78.69
347.535	87.69
347.763	79.69
347.99	86.69
348.218	93.69
348.445	81.69
348.673	85.69
348.9	88.69
349.128	97.69
349.355	93.69
349.583	85.69
349.81	71.69
350.037	82.69
350.265	82.69
350.492	84.69
350.72	91.69
350.947	99.69
351.174	90.69
351.402	78.69
351.629	80.69
351.856	91.69
352.083	94.69
352.311	96.69
352.538	81.69
352.765	96.69
352.992	117.69
353.22	98.69
353.447	91.69
353.674	87.69
353.901	86.69
354.128	76.69
354.355	95.69
354.583	93.69
354.81	102.69
355.037	98.69
355.264	86.69
355.491	83.69
355.718	97.69
355.945	87.69
356.172	84.69
356.399	89.69
356.626	90.69
356.853	78.69
357.08	108.69
357.307	89.69
357.534	91.69
357.761	94.69
357.988	92.69
358.215	95.69
358.441	94.69
358.668	93.69
358.895	97.69
359.122	96.69
359.349	82.69
359.576	82.69
359.802	72.69
360.029	82.69
360.256	95.69
360.483	80.69
360.709	73.69
360.936	97.69
361.163	97.69
361.39	82.69
361.616	79.69
361.843	99.69
362.07	86.69
362.296	100.69
362.523	85.69
362.749	87.69
362.976	81.69
363.203	109.69
363.429	83.69
363.656	86.69
363.882	89.69
364.109	86.69
364.335	96.69
364.562	98.69
364.788	81.69
365.015	87.69
365.241	95.69
365.468	95.69
365.694	92.69
365.92	98.69
366.147	110.69
366.373	81.69
366.599	96.69
366.826	80.69
367.052	90.69
367.278	81.69
367.505	95.69
367.731	95.69
367.957	81.69
368.184	87.69
368.41	106.69
368.636	90.69
368.862	82.69
369.089	78.69
369.315	67.69
369.541	94.69
369.767	89.69
369.993	93.69
370.219	90.69
370.445	88.69
370.672	89.69
370.898	82.69
371.124	85.69
371.35	99.69
371.576	94.69
371.802	77.69
372.028	80.69
372.254	84.69
372.48	92.69
372.706	80.69
372.932	88.69
373.158	84.69
373.384	97.69
373.61	94.69
373.835	84.69
374.061	99.69
374.287	97.69
374.513	90.69
374.739	77.69
374.965	83.69
375.191	85.69
375.416	87.69
375.642	98.69
375.868	78.69
376.094	91.69
376.319	93.69
376.545	77.69
376.771	81.69
376.997	82.69
377.222	83.69
377.448	94.69
377.674	94.69
377.899	82.69
378.125	92.69
378.35	110.69
378.576	86.69
378.802	85.69
379.027	95.69
379.253	93.69
379.478	107.69
379.704	72.69
379.929	90.69
380.155	83.69
380.38	85.69
380.606	77.69
380.831	63.69
381.057	95.69
381.282	89.69
381.507	82.69
381.733	78.69
381.958	88.69
382.184	96.69
382.409	87.69
382.634	85.69
382.86	73.69
383.085	78.69
383.31	90.69
383.535	89.69
383.761	84.69
383.986	73.69
384.211	83.69
384.436	76.69
384.662	93.69
384.887	87.69
385.112	99.69
385.337	80.69
385.562	92.69
385.787	87.69
386.013	79.69
386.238	83.69
386.463	77.69
386.688	99.69
386.913	92.69
387.138	60.69
387.363	84.69
387.588	74.69
387.813	83.69
388.038	97.69
388.263	84.69
388.488	88.69
388.713	93.69
388.938	87.69
389.163	87.69
389.387	82.69
389.612	86.69
389.837	81.69
390.062	76.69
390.287	75.69
390.512	88.69
390.736	84.69
390.961	76.69
391.186	74.69
391.411	87.69
391.636	92.69
391.86	96.69
392.085	91.69
392.31	81.69
392.534	85.69
392.759	97.69
392.984	99.69
393.208	99.69
393.433	103.69
393.658	81.69
393.882	88.69
394.107	86.69
394.331	95.69
394.556	86.69
394.78	93.69
395.005	83.69
395.229	77.69
395.454	84.69
395.678	74.69
395.903	83.69
396.127	85.69
396.352	74.69
396.576	103.69
396.801	83.69
397.025	92.69
397.249	94.69
397.474	83.69
397.698	85.69
397.922	87.69
398.147	98.69
398.371	83.69
398.595	93.69
398.82	78.69
399.044	85.69
399.268	84.69
399.492	78.69
399.717	80.69
399.941	79.69
400.165	89.69
400.389	88.69
400.613	93.69
400.837	89.69
401.062	87.69
401.286	86.69
401.51	88.69
401.734	86.69
401.958	77.69
402.182	90.69
402.406	87.69
402.63	77.69
402.854	81.69
403.078	92.69
403.302	92.69
403.526	86.69
403.75	82.69
403.974	79.69
404.198	88.69
404.422	92.69
404.645	82.69
404.869	72.69
405.093	95.69
405.317	90.69
405.541	77.69
405.765	88.69
405.988	94.69
406.212	87.69
406.436	86.69
406.66	82.69
406.883	90.69
407.107	94.69
407.331	91.69
407.555	81.69
407.778	88.69
408.002	61.69
408.226	84.69
408.449	85.69
408.673	84.69
408.896	66.69
409.12	82.69
409.344	84.69
409.567	71.69
409.791	87.69
410.014	72.69
410.238	92.69
410.461	89.69
410.685	89.69
410.908	79.69
411.132	88.69
411.355	88.69
411.578	97.69
411.802	89.69
412.025	85.69
412.249	93.69
412.472	90.69
412.695	95.69
412.919	86.69
413.142	74.69
413.365	88.69
413.589	82.69
413.812	80.69
414.035	80.69
414.258	81.69
414.482	78.69
414.705	77.69
414.928	104.69
415.151	86.69
415.374	78.69
415.597	88.69
415.821	82.69
416.044	72.69
416.267	86.69
416.49	86.69
416.713	73.69
416.936	80.69
417.159	91.69
417.382	103.69
417.605	85.69
417.828	87.69
418.051	102.69
418.274	83.69
418.497	82.69
418.72	85.69
418.943	95.69
419.166	89.69
419.389	82.69
419.611	84.69
419.834	90.69
420.057	73.69
420.28	83.69
420.503	82.69
420.726	84.69
420.948	80.69
421.171	85.69
421.394	92.69
421.617	82.69
421.839	78.69
422.062	77.69
422.285	85.69
422.507	85.69
422.73	95.69
422.953	98.69
423.175	98.69
423.398	75.69
423.621	82.69
423.843	84.69
424.066	85.69
424.288	81.69
424.511	78.69
424.733	86.69
424.956	71.69
425.178	90.69
425.401	83.69
425.623	68.69
425.846	76.69
426.068	82.69
426.291	97.69
426.513	86.69
426.735	88.69
426.958	92.69
427.18	85.69
427.402	80.69
427.625	92.69
427.847	79.69
428.069	84.69
428.292	85.69
428.514	94.69
428.736	75.69
428.958	82.69
429.181	88.69
429.403	76.69
429.625	99.69
429.847	107.69
430.069	90.69
430.292	78.69
430.514	80.69
430.736	92.69
430.958	87.69
431.18	66.69
431.402	82.69
431.624	77.69
431.846	86.69
432.068	82.69
432.29	83.69
432.512	98.69
432.734	83.69
432.956	86.69
433.178	86.69
433.4	79.69
433.622	75.69
433.844	84.69
434.066	81.69
434.287	72.69
434.509	91.69
434.731	91.69
434.953	73.69
435.175	72.69
435.397	82.69
435.618	81.69
435.84	101.69
436.062	100.69
436.284	87.69
436.505	85.69
436.727	85.69
436.949	91.69
437.17	83.69
437.392	80.69
437.614	85.69
437.835	71.69
438.057	88.69
438.278	92.69
438.5	90.69
438.721	83.69
438.943	86.69
439.165	90.69
439.386	92.69
439.608	84.69
439.829	78.69
440.05	85.69
440.272	78.69
440.493	73.69
440.715	92.69
440.936	96.69
441.158	79.69
441.379	85.69
441.6	87.69
441.822	83.69
442.043	86.69
442.264	79.69
442.486	75.69
442.707	82.69
442.928	79.69
443.149	75.69
443.371	80.69
443.592	75.69
443.813	81.69
444.034	79.69
444.255	91.69
444.476	89.69
444.698	89.69
444.919	90.69
445.14	149.69
445.361	111.69
445.582	88.69
445.803	86.69
446.024	75.69
446.245	84.69
446.466	76.69
446.687	85.69
446.908	67.69
447.129	92.69
447.35	84.69
447.571	79.69
447.792	83.69
448.013	91.69
448.234	88.69
448.455	90.69
448.675	91.69
448.896	89.69
449.117	83.69
449.338	85.69
449.559	95.69
449.779	93.69
450	94.69
450.221	83.69
450.442	84.69
450.662	84.69
450.883	80.69
451.104	82.69
451.324	90.69
451.545	92.69
451.766	85.69
451.986	78.69
452.207	93.69
452.428	98.69
452.648	80.69
452.869	87.69
453.089	86.69
453.31	75.69
453.53	86.69
453.751	86.69
453.971	74.69
454.192	73.69
454.412	85.69
454.633	88.69
454.853	79.69
455.073	87.69
455.294	82.69
455.514	76.69
455.734	74.69
455.955	79.69
456.175	93.69
456.395	95.69
456.616	87.69
456.836	77.69
457.056	87.69
457.276	92.69
457.497	78.69
457.717	97.69
457.937	84.69
458.157	82.69
458.377	99.69
458.598	94.69
458.818	75.69
459.038	93.69
459.258	92.69
459.478	80.69
459.698	70.69
459.918	70.69
460.138	90.69
460.358	85.69
460.578	98.69
460.798	86.69
461.018	78.69
461.238	98.69
461.458	96.69
461.678	94.69
461.898	87.69
462.118	93.69
462.338	81.69
462.558	87.69
462.777	85.69
462.997	77.69
463.217	84.69
463.437	82.69
463.657	63.69
463.876	82.69
464.096	78.69
464.316	85.69
464.536	81.69
464.755	100.69
464.975	76.69
465.195	76.69
465.414	95.69
465.634	82.69
465.854	82.69
466.073	81.69
466.293	86.69
466.512	85.69
466.732	100.69
466.951	89.69
467.171	82.69
467.391	72.69
467.61	93.69
467.829	86.69
468.049	97.69
468.268	92.69
468.488	85.69
468.707	76.69
468.927	80.69
469.146	69.69
469.365	94.69
469.585	89.69
469.804	73.69
470.023	78.69
470.243	84.69
470.462	82.69
470.681	91.69
470.901	78.69
471.12	84.69
471.339	62.69
471.558	82.69
471.777	79.69
471.997	89.69
472.216	94.69
472.435	81.69
472.654	81.69
472.873	84.69
473.092	85.69
473.311	84.69
473.53	85.69
473.749	94.69
473.968	92.69
474.187	89.69
474.406	82.69
474.625	73.69
474.844	93.69
475.063	58.69
475.282	91.69
475.501	80.69
475.72	90.69
475.939	77.69
476.158	80.69
476.377	100.69
476.596	87.69
476.814	96.69
477.033	82.69
477.252	82.69
477.471	86.69
477.69	71.69
477.908	78.69
478.127	98.69
478.346	97.69
478.564	82.69
478.783	83.69
479.002	71.69
479.22	78.69
479.439	87.69
479.658	72.69
479.876	82.69
480.095	75.69
480.313	82.69
480.532	84.69
480.751	72.69
480.969	68.69
481.188	92.69
481.406	92.69
481.624	77.69
481.843	88.69
482.061	85.69
482.28	88.69
482.498	77.69
482.717	80.69
482.935	83.69
483.153	80.69
483.372	106.69
483.59	83.69
483.808	83.69
484.027	94.69
484.245	86.69
484.463	81.69
484.681	101.69
484.9	87.69
485.118	93.69
485.336	86.69
485.554	98.69
485.772	95.69
485.99	89.69
486.209	79.69
486.427	92.69
486.645	75.69
486.863	82.69
487.081	78.69
487.299	83.69
487.517	84.69
487.735	84.69
487.953	79.69
488.171	80.69
488.389	93.69
488.607	74.69
488.825	101.69
489.043	87.69
489.261	87.69
489.479	93.69
489.696	85.69
489.914	90.69
490.132	91.69
490.35	79.69
490.568	80.69
490.786	77.69
491.003	96.69
491.221	110.69
491.439	90.69
491.657	75.69
491.874	95.69
492.092	83.69
492.31	86.69
492.527	82.69
492.745	79.69
492.963	84.69
493.18	86.69
493.398	85.69
493.615	87.69
493.833	102.69
494.05	88.69
494.268	79.69
494.485	96.69
494.703	95.69
494.92	94.69
495.138	86.69
495.355	83.69
495.573	81.69
495.79	84.69
496.008	81.69
496.225	91.69
496.442	107.69
496.66	80.69
496.877	82.69
497.094	104.69
497.312	93.69
497.529	91.69
497.746	86.69
497.963	89.69
498.181	90.69
498.398	73.69
498.615	83.69
498.832	81.69
499.049	95.69
499.267	95.69
499.484	91.69
499.701	80.69
499.918	90.69
500.135	83.69
500.352	84.69
500.569	79.69
500.786	87.69
501.003	96.69
501.22	76.69
501.437	91.69
501.654	86.69
501.871	84.69
502.088	71.69
502.305	89.69
502.522	89.69
502.739	86.69
502.956	84.69
503.172	93.69
503.389	88.69
503.606	85.69
503.823	81.69
504.04	82.69
504.256	74.69
504.473	72.69
504.69	98.69
504.907	94.69
505.123	85.69
505.34	100.69
505.557	93.69
505.773	90.69
505.99	88.69
506.207	92.69
506.423	84.69
506.64	81.69
506.856	76.69
507.073	75.69
507.289	61.69
507.506	85.69
507.722	85.69
507.939	88.69
508.155	95.69
508.372	87.69
508.588	86.69
508.805	113.69
509.021	80.69
509.238	88.69
509.454	98.69
509.67	81.69
509.887	94.69
510.103	80.69
510.319	94.69
510.536	81.69
510.752	76.69
510.968	89.69
511.184	81.69
511.401	78.69
511.617	80.69
511.833	74.69
512.049	78.69
512.265	90.69
512.481	95.69
512.698	94.69
512.914	84.69
513.13	90.69
513.346	69.69
513.562	95.69
513.778	98.69
513.994	95.69
514.21	77.69
514.426	90.69
514.642	83.69
514.858	80.69
515.074	80.69
515.29	87.69
515.506	91.69
515.721	91.69
515.937	85.69
516.153	80.69
516.369	96.69
516.585	75.69
516.801	84.69
517.016	77.69
517.232	92.69
517.448	95.69
517.664	85.69
517.879	69.69
518.095	94.69
518.311	83.69
518.527	100.69
518.742	91.69
518.958	108.69
519.173	77.69
519.389	94.69
