Data from Dirtnoheat3_HRD10591_00017.txt Node
Date: Fri Dec 27 15:21:30 EST 2024
User: Yrep
Spectrometer: HR+D1059
Trigger mode: 1
Integration Time (sec): 1.000000E-1
Scans to average: 1
Electric dark correction enabled: true
Nonlinearity correction enabled: false
Boxcar width: 0
XAxis mode: Wavelengths
Number of Pixels in Spectrum: 2048
>>>>>Begin Spectral Data<<<<<
223.165	-28.5
223.4	-28.5
223.635	-28.5
223.869	-21.5
224.104	-25.5
224.338	-8.5
224.573	-8.5
224.808	-12.5
225.042	-14.5
225.277	15.5
225.511	1.5
225.746	-3.5
225.98	17.5
226.215	9.5
226.449	13.5
226.683	7.5
226.918	20.5
227.152	37.5
227.387	39.5
227.621	37.5
227.856	42.5
228.09	52.5
228.324	45.5
228.559	49.5
228.793	55.5
229.027	56.5
229.262	65.5
229.496	60.5
229.73	64.5
229.964	66.5
230.199	70.5
230.433	62.5
230.667	69.5
230.901	88.5
231.136	69.5
231.37	77.5
231.604	73.5
231.838	82.5
232.072	72.5
232.306	87.5
232.541	77.5
232.775	89.5
233.009	60.5
233.243	70.5
233.477	79.5
233.711	77.5
233.945	80.5
234.179	75.5
234.413	81.5
234.647	88.5
234.881	67.5
235.115	78.5
235.349	87.5
235.583	83.5
235.817	81.5
236.051	79.5
236.285	82.5
236.519	74.5
236.753	75.5
236.987	70.5
237.221	73.5
237.455	81.5
237.689	71.5
237.922	52.5
238.156	71.5
238.39	75.5
238.624	76.5
238.858	63.5
239.091	58.5
239.325	68.5
239.559	67.5
239.793	57.5
240.027	75.5
240.26	66.5
240.494	74.5
240.728	74.5
240.961	63.5
241.195	81.5
241.429	63.5
241.662	76.5
241.896	67.5
242.13	69.5
242.363	79.5
242.597	61.5
242.83	81.5
243.064	62.5
243.298	78.5
243.531	81.5
243.765	76.5
243.998	66.5
244.232	68.5
244.465	73.5
244.699	78.5
244.932	79.5
245.166	64.5
245.399	63.5
245.633	69.5
245.866	71.5
246.099	77.5
246.333	69.5
246.566	59.5
246.8	73.5
247.033	65.5
247.266	76.5
247.5	73.5
247.733	71.5
247.966	69.5
248.2	77.5
248.433	75.5
248.666	75.5
248.899	58.5
249.133	77.5
249.366	99.5
249.599	82.5
249.832	83.5
250.066	76.5
250.299	77.5
250.532	74.5
250.765	61.5
250.998	75.5
251.231	74.5
251.465	77.5
251.698	85.5
251.931	82.5
252.164	72.5
252.397	63.5
252.63	82.5
252.863	81.5
253.096	76.5
253.329	92.5
253.562	76.5
253.795	86.5
254.028	63.5
254.261	69.5
254.494	77.5
254.727	72.5
254.96	73.5
255.193	77.5
255.426	69.5
255.659	69.5
255.892	79.5
256.124	74.5
256.357	74.5
256.59	78.5
256.823	72.5
257.056	77.5
257.289	77.5
257.521	63.5
257.754	81.5
257.987	91.5
258.22	83.5
258.452	77.5
258.685	84.5
258.918	86.5
259.151	68.5
259.383	61.5
259.616	85.5
259.849	72.5
260.081	74.5
260.314	70.5
260.547	73.5
260.779	72.5
261.012	74.5
261.244	92.5
261.477	87.5
261.71	85.5
261.942	80.5
262.175	75.5
262.407	78.5
262.64	77.5
262.872	79.5
263.105	84.5
263.337	80.5
263.57	67.5
263.802	67.5
264.035	81.5
264.267	87.5
264.499	79.5
264.732	72.5
264.964	81.5
265.197	87.5
265.429	86.5
265.661	71.5
265.894	70.5
266.126	74.5
266.358	78.5
266.591	86.5
266.823	83.5
267.055	76.5
267.287	86.5
267.52	75.5
267.752	74.5
267.984	89.5
268.216	81.5
268.448	73.5
268.681	81.5
268.913	67.5
269.145	77.5
269.377	61.5
269.609	83.5
269.841	82.5
270.073	64.5
270.306	75.5
270.538	83.5
270.77	82.5
271.002	88.5
271.234	88.5
271.466	82.5
271.698	82.5
271.93	75.5
272.162	89.5
272.394	76.5
272.626	79.5
272.858	87.5
273.09	68.5
273.322	80.5
273.553	83.5
273.785	82.5
274.017	84.5
274.249	66.5
274.481	80.5
274.713	91.5
274.945	79.5
275.176	75.5
275.408	70.5
275.64	67.5
275.872	78.5
276.104	90.5
276.335	73.5
276.567	74.5
276.799	91.5
277.031	89.5
277.262	86.5
277.494	85.5
277.726	75.5
277.957	86.5
278.189	76.5
278.421	90.5
278.652	78.5
278.884	86.5
279.115	77.5
279.347	66.5
279.579	78.5
279.81	92.5
280.042	81.5
280.273	78.5
280.505	64.5
280.736	67.5
280.968	81.5
281.199	83.5
281.431	80.5
281.662	79.5
281.894	78.5
282.125	84.5
282.356	74.5
282.588	69.5
282.819	77.5
283.051	82.5
283.282	77.5
283.513	85.5
283.745	70.5
283.976	74.5
284.207	93.5
284.439	64.5
284.67	84.5
284.901	69.5
285.132	89.5
285.364	74.5
285.595	85.5
285.826	89.5
286.057	82.5
286.288	69.5
286.52	67.5
286.751	81.5
286.982	93.5
287.213	69.5
287.444	68.5
287.675	73.5
287.906	68.5
288.138	90.5
288.369	77.5
288.6	68.5
288.831	72.5
289.062	78.5
289.293	87.5
289.524	78.5
289.755	63.5
289.986	75.5
290.217	82.5
290.448	70.5
290.679	78.5
290.91	76.5
291.141	85.5
291.371	77.5
291.602	94.5
291.833	80.5
292.064	69.5
292.295	90.5
292.526	74.5
292.757	75.5
292.987	87.5
293.218	84.5
293.449	75.5
293.68	78.5
293.91	69.5
294.141	82.5
294.372	78.5
294.603	79.5
294.833	91.5
295.064	86.5
295.295	101.5
295.525	85.5
295.756	70.5
295.987	79.5
296.217	74.5
296.448	69.5
296.679	79.5
296.909	86.5
297.14	82.5
297.37	80.5
297.601	80.5
297.831	75.5
298.062	71.5
298.292	95.5
298.523	82.5
298.753	75.5
298.984	81.5
299.214	83.5
299.445	80.5
299.675	78.5
299.905	63.5
300.136	82.5
300.366	75.5
300.597	75.5
300.827	76.5
301.057	77.5
301.288	86.5
301.518	80.5
301.748	67.5
301.979	96.5
302.209	85.5
302.439	72.5
302.669	70.5
302.9	83.5
303.13	89.5
303.36	86.5
303.59	81.5
303.82	81.5
304.051	83.5
304.281	85.5
304.511	72.5
304.741	88.5
304.971	89.5
305.201	85.5
305.431	88.5
305.661	84.5
305.891	75.5
306.121	65.5
306.352	99.5
306.582	67.5
306.812	83.5
307.042	91.5
307.272	76.5
307.502	83.5
307.731	84.5
307.961	75.5
308.191	70.5
308.421	84.5
308.651	86.5
308.881	80.5
309.111	81.5
309.341	82.5
309.571	91.5
309.8	101.5
310.03	85.5
310.26	76.5
310.49	61.5
310.72	86.5
310.949	83.5
311.179	75.5
311.409	95.5
311.639	71.5
311.868	80.5
312.098	84.5
312.328	74.5
312.557	75.5
312.787	88.5
313.017	86.5
313.246	77.5
313.476	73.5
313.706	76.5
313.935	79.5
314.165	56.5
314.394	77.5
314.624	93.5
314.853	74.5
315.083	87.5
315.312	83.5
315.542	81.5
315.771	76.5
316.001	78.5
316.23	75.5
316.46	90.5
316.689	69.5
316.919	85.5
317.148	84.5
317.377	91.5
317.607	86.5
317.836	74.5
318.065	73.5
318.295	81.5
318.524	94.5
318.753	84.5
318.983	83.5
319.212	90.5
319.441	75.5
319.67	87.5
319.9	59.5
320.129	91.5
320.358	87.5
320.587	88.5
320.816	96.5
321.046	83.5
321.275	87.5
321.504	75.5
321.733	90.5
321.962	85.5
322.191	91.5
322.42	86.5
322.649	92.5
322.878	88.5
323.108	86.5
323.337	87.5
323.566	83.5
323.795	90.5
324.024	76.5
324.253	79.5
324.482	64.5
324.71	87.5
324.939	79.5
325.168	98.5
325.397	76.5
325.626	84.5
325.855	77.5
326.084	82.5
326.313	80.5
326.542	72.5
326.77	82.5
326.999	81.5
327.228	87.5
327.457	83.5
327.686	74.5
327.914	75.5
328.143	70.5
328.372	86.5
328.6	66.5
328.829	74.5
329.058	90.5
329.287	75.5
329.515	76.5
329.744	85.5
329.972	75.5
330.201	83.5
330.43	78.5
330.658	64.5
330.887	75.5
331.115	79.5
331.344	74.5
331.572	93.5
331.801	60.5
332.03	94.5
332.258	85.5
332.486	88.5
332.715	63.5
332.943	89.5
333.172	83.5
333.4	97.5
333.629	97.5
333.857	78.5
334.085	75.5
334.314	66.5
334.542	89.5
334.771	83.5
334.999	87.5
335.227	83.5
335.455	88.5
335.684	78.5
335.912	85.5
336.14	86.5
336.369	80.5
336.597	73.5
336.825	95.5
337.053	83.5
337.281	77.5
337.51	64.5
337.738	78.5
337.966	75.5
338.194	79.5
338.422	82.5
338.65	86.5
338.878	71.5
339.106	78.5
339.334	86.5
339.562	78.5
339.79	68.5
340.018	79.5
340.246	79.5
340.474	79.5
340.702	83.5
340.93	77.5
341.158	83.5
341.386	78.5
341.614	71.5
341.842	86.5
342.07	83.5
342.298	73.5
342.526	74.5
342.754	90.5
342.981	87.5
343.209	73.5
343.437	91.5
343.665	67.5
343.893	80.5
344.12	90.5
344.348	84.5
344.576	81.5
344.804	77.5
345.031	79.5
345.259	81.5
345.487	86.5
345.714	89.5
345.942	69.5
346.17	72.5
346.397	65.5
346.625	79.5
346.853	86.5
347.08	73.5
347.308	78.5
347.535	80.5
347.763	75.5
347.99	76.5
348.218	98.5
348.445	73.5
348.673	85.5
348.9	73.5
349.128	90.5
349.355	78.5
349.583	75.5
349.81	84.5
350.037	77.5
350.265	82.5
350.492	77.5
350.72	84.5
350.947	90.5
351.174	81.5
351.402	76.5
351.629	80.5
351.856	75.5
352.083	81.5
352.311	78.5
352.538	72.5
352.765	82.5
352.992	87.5
353.22	81.5
353.447	83.5
353.674	79.5
353.901	83.5
354.128	70.5
354.355	83.5
354.583	79.5
354.81	100.5
355.037	84.5
355.264	73.5
355.491	79.5
355.718	69.5
355.945	88.5
356.172	89.5
356.399	89.5
356.626	85.5
356.853	90.5
357.08	86.5
357.307	84.5
357.534	81.5
357.761	85.5
357.988	94.5
358.215	93.5
358.441	71.5
358.668	73.5
358.895	88.5
359.122	70.5
359.349	82.5
359.576	76.5
359.802	86.5
360.029	77.5
360.256	80.5
360.483	76.5
360.709	85.5
360.936	79.5
361.163	72.5
361.39	83.5
361.616	88.5
361.843	89.5
362.07	85.5
362.296	76.5
362.523	75.5
362.749	92.5
362.976	73.5
363.203	87.5
363.429	97.5
363.656	90.5
363.882	83.5
364.109	92.5
364.335	78.5
364.562	86.5
364.788	75.5
365.015	83.5
365.241	66.5
365.468	104.5
365.694	89.5
365.92	79.5
366.147	88.5
366.373	77.5
366.599	83.5
366.826	90.5
367.052	71.5
367.278	101.5
367.505	65.5
367.731	67.5
367.957	78.5
368.184	79.5
368.41	81.5
368.636	92.5
368.862	87.5
369.089	75.5
369.315	79.5
369.541	88.5
369.767	80.5
369.993	75.5
370.219	74.5
370.445	66.5
370.672	72.5
370.898	76.5
371.124	73.5
371.35	76.5
371.576	81.5
371.802	69.5
372.028	82.5
372.254	63.5
372.48	81.5
372.706	75.5
372.932	75.5
373.158	77.5
373.384	83.5
373.61	88.5
373.835	82.5
374.061	73.5
374.287	76.5
374.513	71.5
374.739	87.5
374.965	90.5
375.191	81.5
375.416	89.5
375.642	95.5
375.868	98.5
376.094	91.5
376.319	81.5
376.545	74.5
376.771	81.5
376.997	81.5
377.222	82.5
377.448	77.5
377.674	83.5
377.899	85.5
378.125	74.5
378.35	85.5
378.576	82.5
378.802	86.5
379.027	78.5
379.253	63.5
379.478	68.5
379.704	89.5
379.929	76.5
380.155	69.5
380.38	57.5
380.606	71.5
380.831	73.5
381.057	88.5
381.282	78.5
381.507	79.5
381.733	81.5
381.958	86.5
382.184	68.5
382.409	78.5
382.634	76.5
382.86	84.5
383.085	76.5
383.31	82.5
383.535	89.5
383.761	66.5
383.986	90.5
384.211	70.5
384.436	83.5
384.662	83.5
384.887	73.5
385.112	76.5
385.337	87.5
385.562	61.5
385.787	76.5
386.013	73.5
386.238	86.5
386.463	84.5
386.688	86.5
386.913	66.5
387.138	79.5
387.363	69.5
387.588	80.5
387.813	92.5
388.038	70.5
388.263	71.5
388.488	75.5
388.713	72.5
388.938	77.5
389.163	76.5
389.387	64.5
389.612	85.5
389.837	79.5
390.062	82.5
390.287	81.5
390.512	73.5
390.736	73.5
390.961	74.5
391.186	66.5
391.411	80.5
391.636	82.5
391.86	86.5
392.085	75.5
392.31	69.5
392.534	90.5
392.759	77.5
392.984	67.5
393.208	71.5
393.433	92.5
393.658	69.5
393.882	82.5
394.107	79.5
394.331	84.5
394.556	77.5
394.78	80.5
395.005	81.5
395.229	82.5
395.454	71.5
395.678	73.5
395.903	78.5
396.127	81.5
396.352	82.5
396.576	83.5
396.801	81.5
397.025	75.5
397.249	83.5
397.474	75.5
397.698	80.5
397.922	78.5
398.147	89.5
398.371	84.5
398.595	81.5
398.82	72.5
399.044	77.5
399.268	84.5
399.492	67.5
399.717	72.5
399.941	82.5
400.165	79.5
400.389	78.5
400.613	77.5
400.837	75.5
401.062	85.5
401.286	83.5
401.51	71.5
401.734	77.5
401.958	70.5
402.182	77.5
402.406	71.5
402.63	81.5
402.854	71.5
403.078	62.5
403.302	69.5
403.526	92.5
403.75	66.5
403.974	61.5
404.198	61.5
404.422	83.5
404.645	85.5
404.869	69.5
405.093	83.5
405.317	78.5
405.541	76.5
405.765	79.5
405.988	66.5
406.212	91.5
406.436	90.5
406.66	71.5
406.883	88.5
407.107	67.5
407.331	85.5
407.555	84.5
407.778	79.5
408.002	69.5
408.226	74.5
408.449	80.5
408.673	83.5
408.896	74.5
409.12	63.5
409.344	69.5
409.567	85.5
409.791	78.5
410.014	83.5
410.238	79.5
410.461	62.5
410.685	75.5
410.908	70.5
411.132	73.5
411.355	96.5
411.578	94.5
411.802	81.5
412.025	73.5
412.249	70.5
412.472	86.5
412.695	69.5
412.919	60.5
413.142	77.5
413.365	84.5
413.589	78.5
413.812	85.5
414.035	85.5
414.258	70.5
414.482	68.5
414.705	80.5
414.928	74.5
415.151	74.5
415.374	79.5
415.597	74.5
415.821	89.5
416.044	83.5
416.267	89.5
416.49	84.5
416.713	83.5
416.936	86.5
417.159	86.5
417.382	86.5
417.605	82.5
417.828	80.5
418.051	82.5
418.274	81.5
418.497	69.5
418.72	71.5
418.943	77.5
419.166	83.5
419.389	76.5
419.611	80.5
419.834	77.5
420.057	78.5
420.28	78.5
420.503	75.5
420.726	76.5
420.948	64.5
421.171	74.5
421.394	65.5
421.617	81.5
421.839	87.5
422.062	73.5
422.285	79.5
422.507	84.5
422.73	94.5
422.953	88.5
423.175	91.5
423.398	79.5
423.621	90.5
423.843	73.5
424.066	77.5
424.288	60.5
424.511	77.5
424.733	75.5
424.956	81.5
425.178	93.5
425.401	78.5
425.623	83.5
425.846	75.5
426.068	71.5
426.291	81.5
426.513	75.5
426.735	84.5
426.958	75.5
427.18	73.5
427.402	86.5
427.625	81.5
427.847	84.5
428.069	83.5
428.292	68.5
428.514	71.5
428.736	80.5
428.958	99.5
429.181	91.5
429.403	80.5
429.625	65.5
429.847	88.5
430.069	85.5
430.292	84.5
430.514	76.5
430.736	71.5
430.958	94.5
431.18	75.5
431.402	72.5
431.624	78.5
431.846	75.5
432.068	71.5
432.29	79.5
432.512	80.5
432.734	66.5
432.956	82.5
433.178	101.5
433.4	78.5
433.622	83.5
433.844	69.5
434.066	69.5
434.287	73.5
434.509	75.5
434.731	64.5
434.953	79.5
435.175	67.5
435.397	91.5
435.618	73.5
435.84	64.5
436.062	85.5
436.284	82.5
436.505	69.5
436.727	71.5
436.949	73.5
437.17	83.5
437.392	59.5
437.614	76.5
437.835	84.5
438.057	69.5
438.278	80.5
438.5	83.5
438.721	77.5
438.943	81.5
439.165	70.5
439.386	77.5
439.608	84.5
439.829	89.5
440.05	70.5
440.272	70.5
440.493	82.5
440.715	77.5
440.936	67.5
441.158	70.5
441.379	77.5
441.6	76.5
441.822	99.5
442.043	81.5
442.264	74.5
442.486	91.5
442.707	64.5
442.928	72.5
443.149	84.5
443.371	85.5
443.592	94.5
443.813	69.5
444.034	77.5
444.255	74.5
444.476	72.5
444.698	67.5
444.919	80.5
445.14	135.5
445.361	108.5
445.582	81.5
445.803	75.5
446.024	89.5
446.245	87.5
446.466	72.5
446.687	77.5
446.908	88.5
447.129	94.5
447.35	89.5
447.571	79.5
447.792	64.5
448.013	75.5
448.234	62.5
448.455	76.5
448.675	69.5
448.896	83.5
449.117	78.5
449.338	81.5
449.559	70.5
449.779	62.5
450	82.5
450.221	84.5
450.442	85.5
450.662	73.5
450.883	86.5
451.104	82.5
451.324	63.5
451.545	83.5
451.766	75.5
451.986	68.5
452.207	76.5
452.428	77.5
452.648	84.5
452.869	88.5
453.089	74.5
453.31	79.5
453.53	86.5
453.751	75.5
453.971	81.5
454.192	83.5
454.412	60.5
454.633	75.5
454.853	91.5
455.073	85.5
455.294	70.5
455.514	82.5
455.734	64.5
455.955	77.5
456.175	84.5
456.395	76.5
456.616	84.5
456.836	85.5
457.056	68.5
457.276	74.5
457.497	86.5
457.717	79.5
457.937	92.5
458.157	99.5
458.377	75.5
458.598	70.5
458.818	85.5
459.038	83.5
459.258	84.5
459.478	73.5
459.698	71.5
459.918	79.5
460.138	75.5
460.358	84.5
460.578	89.5
460.798	86.5
461.018	82.5
461.238	66.5
461.458	79.5
461.678	70.5
461.898	73.5
462.118	69.5
462.338	69.5
462.558	77.5
462.777	69.5
462.997	77.5
463.217	81.5
463.437	72.5
463.657	59.5
463.876	80.5
464.096	75.5
464.316	69.5
464.536	84.5
464.755	93.5
464.975	55.5
465.195	90.5
465.414	79.5
465.634	87.5
465.854	71.5
466.073	74.5
466.293	83.5
466.512	74.5
466.732	78.5
466.951	78.5
467.171	76.5
467.391	70.5
467.61	79.5
467.829	71.5
468.049	81.5
468.268	79.5
468.488	82.5
468.707	79.5
468.927	82.5
469.146	65.5
469.365	87.5
469.585	85.5
469.804	76.5
470.023	82.5
470.243	83.5
470.462	86.5
470.681	90.5
470.901	84.5
471.12	61.5
471.339	90.5
471.558	77.5
471.777	76.5
471.997	78.5
472.216	90.5
472.435	76.5
472.654	89.5
472.873	72.5
473.092	69.5
473.311	79.5
473.53	74.5
473.749	91.5
473.968	81.5
474.187	69.5
474.406	69.5
474.625	67.5
474.844	83.5
475.063	79.5
475.282	84.5
475.501	79.5
475.72	87.5
475.939	77.5
476.158	78.5
476.377	76.5
476.596	89.5
476.814	79.5
477.033	82.5
477.252	83.5
477.471	77.5
477.69	69.5
477.908	82.5
478.127	78.5
478.346	80.5
478.564	75.5
478.783	74.5
479.002	68.5
479.22	81.5
479.439	77.5
479.658	70.5
479.876	79.5
480.095	80.5
480.313	82.5
480.532	79.5
480.751	81.5
480.969	66.5
481.188	84.5
481.406	71.5
481.624	96.5
481.843	82.5
482.061	84.5
482.28	80.5
482.498	77.5
482.717	82.5
482.935	84.5
483.153	76.5
483.372	77.5
483.59	78.5
483.808	73.5
484.027	72.5
484.245	82.5
484.463	82.5
484.681	83.5
484.9	80.5
485.118	75.5
485.336	71.5
485.554	84.5
485.772	67.5
485.99	84.5
486.209	63.5
486.427	77.5
486.645	69.5
486.863	81.5
487.081	84.5
487.299	81.5
487.517	71.5
487.735	77.5
487.953	88.5
488.171	79.5
488.389	92.5
488.607	80.5
488.825	85.5
489.043	73.5
489.261	80.5
489.479	77.5
489.696	87.5
489.914	67.5
490.132	85.5
490.35	90.5
490.568	79.5
490.786	73.5
491.003	76.5
491.221	76.5
491.439	78.5
491.657	82.5
491.874	86.5
492.092	94.5
492.31	84.5
492.527	67.5
492.745	69.5
492.963	72.5
493.18	75.5
493.398	91.5
493.615	92.5
493.833	81.5
494.05	76.5
494.268	72.5
494.485	80.5
494.703	75.5
494.92	80.5
495.138	58.5
495.355	59.5
495.573	82.5
495.79	82.5
496.008	70.5
496.225	78.5
496.442	74.5
496.66	68.5
496.877	95.5
497.094	83.5
497.312	75.5
497.529	62.5
497.746	89.5
497.963	72.5
498.181	64.5
498.398	69.5
498.615	75.5
498.832	74.5
499.049	75.5
499.267	74.5
499.484	67.5
499.701	92.5
499.918	84.5
500.135	79.5
500.352	85.5
500.569	73.5
500.786	76.5
501.003	75.5
501.22	84.5
501.437	80.5
501.654	82.5
501.871	82.5
502.088	77.5
502.305	83.5
502.522	70.5
502.739	87.5
502.956	75.5
503.172	73.5
503.389	86.5
503.606	95.5
503.823	74.5
504.04	84.5
504.256	67.5
504.473	78.5
504.69	81.5
504.907	85.5
505.123	84.5
505.34	74.5
505.557	85.5
505.773	83.5
505.99	93.5
506.207	74.5
506.423	86.5
506.64	77.5
506.856	88.5
507.073	86.5
507.289	74.5
507.506	84.5
507.722	87.5
507.939	81.5
508.155	80.5
508.372	72.5
508.588	87.5
508.805	66.5
509.021	89.5
509.238	81.5
509.454	87.5
509.67	78.5
509.887	89.5
510.103	72.5
510.319	83.5
510.536	91.5
510.752	70.5
510.968	74.5
511.184	79.5
511.401	78.5
511.617	79.5
511.833	74.5
512.049	72.5
512.265	73.5
512.481	75.5
512.698	73.5
512.914	88.5
513.13	81.5
513.346	79.5
513.562	74.5
513.778	76.5
513.994	70.5
514.21	81.5
514.426	81.5
514.642	73.5
514.858	81.5
515.074	84.5
515.29	84.5
515.506	64.5
515.721	65.5
515.937	91.5
516.153	89.5
516.369	76.5
516.585	77.5
516.801	80.5
517.016	82.5
517.232	81.5
517.448	92.5
517.664	67.5
517.879	92.5
518.095	87.5
518.311	84.5
518.527	69.5
518.742	80.5
518.958	81.5
519.173	91.5
519.389	85.5
519.605	80.5
519.82	69.5
520.036	74.5
520.251	84.5
520.467	69.5
520.682	68.5
520.898	81.5
521.113	68.5
521.329	89.5
521.544	96.5
521.76	60.5
521.975	78.5
522.19	68.5
522.406	69.5
522.621	78.5
522.836	82.5
523.052	80.5
523.267	64.5
523.482	79.5
523.698	70.5
523.913	81.5
524.128	77.5
524.343	83.5
524.559	89.5
524.774	76.5
524.989	76.5
525.204	89.5
525.419	69.5
525.634	81.5
525.849	84.5
526.064	70.5
526.28	98.5
526.495	83.5
526.71	94.5
526.925	82.5
527.14	88.5
527.355	96.5
527.57	81.5
527.785	73.5
527.999	77.5
528.214	79.5
528.429	92.5
528.644	103.5
528.859	77.5
529.074	86.5
529.289	74.5
529.503	73.5
529.718	84.5
529.933	81.5
530.148	78.5
530.363	82.5
530.577	71.5
530.792	79.5
531.007	79.5
531.221	95.5
531.436	87.5
531.651	80.5
531.865	83.5
532.08	90.5
532.295	90.5
532.509	76.5
532.724	79.5
532.938	84.5
533.153	69.5
533.367	71.5
533.582	62.5
533.796	74.5
534.011	83.5
534.225	81.5
534.44	82.5
534.654	88.5
534.868	89.5
535.083	86.5
535.297	96.5
535.511	99.5
535.726	85.5
535.94	86.5
536.154	75.5
536.369	78.5
536.583	81.5
536.797	81.5
537.011	85.5
537.225	93.5
537.44	81.5
537.654	89.5
537.868	69.5
538.082	64.5
538.296	85.5
538.51	89.5
538.724	75.5
538.938	87.5
539.153	92.5
539.367	86.5
539.581	77.5
539.795	69.5
540.009	79.5
540.222	73.5
540.436	75.5
540.65	81.5
