Data from Dirtnoheat3_HRD10591_00008.txt Node
Date: Fri Dec 27 15:21:21 EST 2024
User: Yrep
Spectrometer: HR+D1059
Trigger mode: 1
Integration Time (sec): 1.000000E-1
Scans to average: 1
Electric dark correction enabled: true
Nonlinearity correction enabled: false
Boxcar width: 0
XAxis mode: Wavelengths
Number of Pixels in Spectrum: 2048
>>>>>Begin Spectral Data<<<<<
223.165	-0.69
223.4	-0.69
223.635	-0.69
223.869	-19.69
224.104	-27.69
224.338	-16.69
224.573	-6.69
224.808	-10.69
225.042	-0.69
225.277	-17.69
225.511	19.31
225.746	3.31
225.98	-3.69
226.215	7.31
226.449	4.31
226.683	21.31
226.918	19.31
227.152	29.31
227.387	42.31
227.621	35.31
227.856	53.31
228.09	47.31
228.324	54.31
228.559	45.31
228.793	56.31
229.027	47.31
229.262	57.31
229.496	50.31
229.73	77.31
229.964	73.31
230.199	62.31
230.433	79.31
230.667	75.31
230.901	76.31
231.136	86.31
231.37	79.31
231.604	96.31
231.838	90.31
232.072	77.31
232.306	78.31
232.541	91.31
232.775	77.31
233.009	70.31
233.243	85.31
233.477	66.31
233.711	71.31
233.945	79.31
234.179	81.31
234.413	79.31
234.647	83.31
234.881	67.31
235.115	73.31
235.349	73.31
235.583	99.31
235.817	77.31
236.051	91.31
236.285	90.31
236.519	82.31
236.753	76.31
236.987	85.31
237.221	60.31
237.455	77.31
237.689	77.31
237.922	71.31
238.156	70.31
238.39	74.31
238.624	68.31
238.858	72.31
239.091	66.31
239.325	79.31
239.559	73.31
239.793	79.31
240.027	81.31
240.26	81.31
240.494	69.31
240.728	77.31
240.961	72.31
241.195	66.31
241.429	68.31
241.662	69.31
241.896	74.31
242.13	86.31
242.363	81.31
242.597	77.31
242.83	89.31
243.064	78.31
243.298	77.31
243.531	78.31
243.765	81.31
243.998	82.31
244.232	80.31
244.465	77.31
244.699	87.31
244.932	69.31
245.166	73.31
245.399	77.31
245.633	85.31
245.866	80.31
246.099	70.31
246.333	90.31
246.566	77.31
246.8	73.31
247.033	74.31
247.266	85.31
247.5	79.31
247.733	85.31
247.966	73.31
248.2	83.31
248.433	73.31
248.666	86.31
248.899	90.31
249.133	70.31
249.366	73.31
249.599	83.31
249.832	91.31
250.066	83.31
250.299	79.31
250.532	84.31
250.765	70.31
250.998	78.31
251.231	83.31
251.465	80.31
251.698	76.31
251.931	80.31
252.164	74.31
252.397	80.31
252.63	81.31
252.863	79.31
253.096	82.31
253.329	97.31
253.562	90.31
253.795	85.31
254.028	70.31
254.261	69.31
254.494	70.31
254.727	84.31
254.96	90.31
255.193	70.31
255.426	68.31
255.659	86.31
255.892	93.31
256.124	76.31
256.357	70.31
256.59	71.31
256.823	73.31
257.056	70.31
257.289	85.31
257.521	82.31
257.754	87.31
257.987	72.31
258.22	75.31
258.452	78.31
258.685	90.31
258.918	81.31
259.151	64.31
259.383	94.31
259.616	79.31
259.849	90.31
260.081	81.31
260.314	75.31
260.547	87.31
260.779	72.31
261.012	88.31
261.244	73.31
261.477	84.31
261.71	84.31
261.942	84.31
262.175	72.31
262.407	74.31
262.64	76.31
262.872	73.31
263.105	78.31
263.337	83.31
263.57	71.31
263.802	86.31
264.035	73.31
264.267	85.31
264.499	84.31
264.732	88.31
264.964	75.31
265.197	82.31
265.429	73.31
265.661	98.31
265.894	64.31
266.126	82.31
266.358	82.31
266.591	86.31
266.823	83.31
267.055	88.31
267.287	74.31
267.52	70.31
267.752	79.31
267.984	89.31
268.216	97.31
268.448	85.31
268.681	81.31
268.913	87.31
269.145	89.31
269.377	83.31
269.609	78.31
269.841	85.31
270.073	88.31
270.306	79.31
270.538	80.31
270.77	80.31
271.002	86.31
271.234	79.31
271.466	86.31
271.698	76.31
271.93	80.31
272.162	87.31
272.394	92.31
272.626	92.31
272.858	78.31
273.09	77.31
273.322	66.31
273.553	73.31
273.785	88.31
274.017	102.31
274.249	85.31
274.481	75.31
274.713	83.31
274.945	71.31
275.176	82.31
275.408	89.31
275.64	63.31
275.872	80.31
276.104	82.31
276.335	84.31
276.567	87.31
276.799	70.31
277.031	82.31
277.262	70.31
277.494	89.31
277.726	88.31
277.957	82.31
278.189	76.31
278.421	85.31
278.652	79.31
278.884	78.31
279.115	78.31
279.347	86.31
279.579	91.31
279.81	95.31
280.042	93.31
280.273	85.31
280.505	67.31
280.736	89.31
280.968	87.31
281.199	92.31
281.431	80.31
281.662	88.31
281.894	82.31
282.125	83.31
282.356	88.31
282.588	89.31
282.819	97.31
283.051	82.31
283.282	76.31
283.513	90.31
283.745	73.31
283.976	90.31
284.207	86.31
284.439	75.31
284.67	88.31
284.901	83.31
285.132	73.31
285.364	75.31
285.595	76.31
285.826	69.31
286.057	88.31
286.288	72.31
286.52	85.31
286.751	83.31
286.982	83.31
287.213	77.31
287.444	94.31
287.675	93.31
287.906	80.31
288.138	86.31
288.369	81.31
288.6	78.31
288.831	93.31
289.062	93.31
289.293	72.31
289.524	79.31
289.755	74.31
289.986	83.31
290.217	86.31
290.448	79.31
290.679	77.31
290.91	96.31
291.141	72.31
291.371	90.31
291.602	80.31
291.833	94.31
292.064	94.31
292.295	92.31
292.526	76.31
292.757	82.31
292.987	77.31
293.218	73.31
293.449	74.31
293.68	90.31
293.91	74.31
294.141	72.31
294.372	89.31
294.603	77.31
294.833	83.31
295.064	85.31
295.295	87.31
295.525	91.31
295.756	93.31
295.987	81.31
296.217	81.31
296.448	80.31
296.679	86.31
296.909	86.31
297.14	73.31
297.37	74.31
297.601	89.31
297.831	74.31
298.062	93.31
298.292	82.31
298.523	79.31
298.753	85.31
298.984	90.31
299.214	76.31
299.445	89.31
299.675	82.31
299.905	84.31
300.136	92.31
300.366	78.31
300.597	81.31
300.827	84.31
301.057	82.31
301.288	82.31
301.518	79.31
301.748	77.31
301.979	99.31
302.209	85.31
302.439	78.31
302.669	80.31
302.9	82.31
303.13	81.31
303.36	71.31
303.59	76.31
303.82	73.31
304.051	91.31
304.281	95.31
304.511	93.31
304.741	82.31
304.971	84.31
305.201	83.31
305.431	84.31
305.661	90.31
305.891	85.31
306.121	85.31
306.352	76.31
306.582	81.31
306.812	73.31
307.042	78.31
307.272	79.31
307.502	73.31
307.731	75.31
307.961	105.31
308.191	88.31
308.421	86.31
308.651	77.31
308.881	79.31
309.111	80.31
309.341	88.31
309.571	82.31
309.8	70.31
310.03	77.31
310.26	90.31
310.49	87.31
310.72	85.31
310.949	82.31
311.179	79.31
311.409	59.31
311.639	76.31
311.868	71.31
312.098	71.31
312.328	94.31
312.557	102.31
312.787	85.31
313.017	86.31
313.246	89.31
313.476	95.31
313.706	80.31
313.935	72.31
314.165	71.31
314.394	86.31
314.624	78.31
314.853	83.31
315.083	69.31
315.312	81.31
315.542	78.31
315.771	82.31
316.001	81.31
316.23	92.31
316.46	71.31
316.689	72.31
316.919	90.31
317.148	80.31
317.377	87.31
317.607	95.31
317.836	79.31
318.065	87.31
318.295	59.31
318.524	84.31
318.753	85.31
318.983	78.31
319.212	78.31
319.441	86.31
319.67	82.31
319.9	73.31
320.129	85.31
320.358	88.31
320.587	86.31
320.816	81.31
321.046	79.31
321.275	98.31
321.504	80.31
321.733	99.31
321.962	93.31
322.191	76.31
322.42	90.31
322.649	82.31
322.878	89.31
323.108	109.31
323.337	80.31
323.566	89.31
323.795	72.31
324.024	73.31
324.253	84.31
324.482	101.31
324.71	83.31
324.939	94.31
325.168	90.31
325.397	87.31
325.626	82.31
325.855	73.31
326.084	75.31
326.313	81.31
326.542	80.31
326.77	90.31
326.999	106.31
327.228	77.31
327.457	93.31
327.686	97.31
327.914	71.31
328.143	76.31
328.372	83.31
328.6	82.31
328.829	83.31
329.058	80.31
329.287	83.31
329.515	81.31
329.744	92.31
329.972	76.31
330.201	86.31
330.43	76.31
330.658	92.31
330.887	87.31
331.115	87.31
331.344	81.31
331.572	85.31
331.801	108.31
332.03	73.31
332.258	82.31
332.486	92.31
332.715	82.31
332.943	92.31
333.172	81.31
333.4	90.31
333.629	91.31
333.857	102.31
334.085	86.31
334.314	84.31
334.542	79.31
334.771	92.31
334.999	86.31
335.227	95.31
335.455	92.31
335.684	83.31
335.912	81.31
336.14	66.31
336.369	89.31
336.597	77.31
336.825	71.31
337.053	75.31
337.281	81.31
337.51	84.31
337.738	96.31
337.966	62.31
338.194	66.31
338.422	78.31
338.65	98.31
338.878	83.31
339.106	89.31
339.334	80.31
339.562	64.31
339.79	75.31
340.018	87.31
340.246	80.31
340.474	74.31
340.702	68.31
340.93	75.31
341.158	93.31
341.386	71.31
341.614	101.31
341.842	89.31
342.07	89.31
342.298	90.31
342.526	84.31
342.754	83.31
342.981	103.31
343.209	88.31
343.437	89.31
343.665	80.31
343.893	88.31
344.12	85.31
344.348	81.31
344.576	92.31
344.804	65.31
345.031	77.31
345.259	87.31
345.487	77.31
345.714	74.31
345.942	86.31
346.17	91.31
346.397	92.31
346.625	80.31
346.853	85.31
347.08	87.31
347.308	76.31
347.535	92.31
347.763	87.31
347.99	78.31
348.218	93.31
348.445	81.31
348.673	93.31
348.9	89.31
349.128	86.31
349.355	79.31
349.583	71.31
349.81	88.31
350.037	81.31
350.265	94.31
350.492	95.31
350.72	91.31
350.947	83.31
351.174	86.31
351.402	92.31
351.629	79.31
351.856	78.31
352.083	77.31
352.311	84.31
352.538	81.31
352.765	82.31
352.992	85.31
353.22	95.31
353.447	94.31
353.674	84.31
353.901	84.31
354.128	91.31
354.355	86.31
354.583	79.31
354.81	78.31
355.037	96.31
355.264	81.31
355.491	73.31
355.718	87.31
355.945	84.31
356.172	89.31
356.399	93.31
356.626	80.31
356.853	101.31
357.08	85.31
357.307	87.31
357.534	91.31
357.761	83.31
357.988	67.31
358.215	94.31
358.441	82.31
358.668	88.31
358.895	88.31
359.122	90.31
359.349	99.31
359.576	92.31
359.802	84.31
360.029	76.31
360.256	74.31
360.483	74.31
360.709	87.31
360.936	102.31
361.163	85.31
361.39	75.31
361.616	73.31
361.843	76.31
362.07	80.31
362.296	77.31
362.523	84.31
362.749	77.31
362.976	85.31
363.203	97.31
363.429	91.31
363.656	73.31
363.882	94.31
364.109	80.31
364.335	95.31
364.562	75.31
364.788	87.31
365.015	68.31
365.241	87.31
365.468	97.31
365.694	87.31
365.92	81.31
366.147	96.31
366.373	80.31
366.599	89.31
366.826	86.31
367.052	85.31
367.278	88.31
367.505	96.31
367.731	82.31
367.957	78.31
368.184	82.31
368.41	89.31
368.636	77.31
368.862	84.31
369.089	73.31
369.315	80.31
369.541	80.31
369.767	84.31
369.993	78.31
370.219	92.31
370.445	89.31
370.672	80.31
370.898	69.31
371.124	79.31
371.35	77.31
371.576	71.31
371.802	75.31
372.028	73.31
372.254	91.31
372.48	78.31
372.706	86.31
372.932	77.31
373.158	73.31
373.384	84.31
373.61	83.31
373.835	70.31
374.061	78.31
374.287	87.31
374.513	79.31
374.739	74.31
374.965	92.31
375.191	72.31
375.416	97.31
375.642	84.31
375.868	82.31
376.094	81.31
376.319	81.31
376.545	90.31
376.771	68.31
376.997	69.31
377.222	81.31
377.448	70.31
377.674	80.31
377.899	81.31
378.125	74.31
378.35	81.31
378.576	106.31
378.802	93.31
379.027	83.31
379.253	77.31
379.478	82.31
379.704	83.31
379.929	87.31
380.155	73.31
380.38	87.31
380.606	78.31
380.831	70.31
381.057	92.31
381.282	89.31
381.507	77.31
381.733	86.31
381.958	83.31
382.184	84.31
382.409	90.31
382.634	90.31
382.86	76.31
383.085	73.31
383.31	96.31
383.535	79.31
383.761	82.31
383.986	80.31
384.211	90.31
384.436	83.31
384.662	73.31
384.887	79.31
385.112	81.31
385.337	90.31
385.562	83.31
385.787	82.31
386.013	78.31
386.238	102.31
386.463	95.31
386.688	92.31
386.913	83.31
387.138	83.31
387.363	91.31
387.588	90.31
387.813	90.31
388.038	77.31
388.263	79.31
388.488	80.31
388.713	83.31
388.938	77.31
389.163	77.31
389.387	83.31
389.612	86.31
389.837	89.31
390.062	85.31
390.287	88.31
390.512	104.31
390.736	79.31
390.961	89.31
391.186	66.31
391.411	78.31
391.636	89.31
391.86	87.31
392.085	80.31
392.31	82.31
392.534	79.31
392.759	82.31
392.984	85.31
393.208	75.31
393.433	64.31
393.658	80.31
393.882	95.31
394.107	92.31
394.331	79.31
394.556	86.31
394.78	64.31
395.005	79.31
395.229	91.31
395.454	89.31
395.678	84.31
395.903	73.31
396.127	83.31
396.352	94.31
396.576	80.31
396.801	89.31
397.025	75.31
397.249	79.31
397.474	80.31
397.698	80.31
397.922	79.31
398.147	82.31
398.371	78.31
398.595	89.31
398.82	83.31
399.044	107.31
399.268	83.31
399.492	67.31
399.717	86.31
399.941	69.31
400.165	87.31
400.389	70.31
400.613	78.31
400.837	78.31
401.062	67.31
401.286	74.31
401.51	69.31
401.734	92.31
401.958	76.31
402.182	82.31
402.406	76.31
402.63	78.31
402.854	75.31
403.078	81.31
403.302	80.31
403.526	83.31
403.75	93.31
403.974	80.31
404.198	102.31
404.422	96.31
404.645	96.31
404.869	86.31
405.093	88.31
405.317	90.31
405.541	83.31
405.765	83.31
405.988	67.31
406.212	78.31
406.436	91.31
406.66	89.31
406.883	76.31
407.107	78.31
407.331	77.31
407.555	82.31
407.778	75.31
408.002	75.31
408.226	76.31
408.449	85.31
408.673	78.31
408.896	87.31
409.12	80.31
409.344	66.31
409.567	72.31
409.791	89.31
410.014	88.31
410.238	81.31
410.461	79.31
410.685	93.31
410.908	85.31
411.132	79.31
411.355	88.31
411.578	88.31
411.802	71.31
412.025	85.31
412.249	72.31
412.472	82.31
412.695	78.31
412.919	84.31
413.142	92.31
413.365	80.31
413.589	91.31
413.812	77.31
414.035	102.31
414.258	86.31
414.482	78.31
414.705	89.31
414.928	93.31
415.151	76.31
415.374	77.31
415.597	91.31
415.821	94.31
416.044	75.31
416.267	89.31
416.49	101.31
416.713	81.31
416.936	64.31
417.159	86.31
417.382	82.31
417.605	84.31
417.828	78.31
418.051	86.31
418.274	89.31
418.497	77.31
418.72	91.31
418.943	71.31
419.166	78.31
419.389	80.31
419.611	82.31
419.834	80.31
420.057	82.31
420.28	89.31
420.503	79.31
420.726	74.31
420.948	91.31
421.171	87.31
421.394	72.31
421.617	74.31
421.839	86.31
422.062	74.31
422.285	84.31
422.507	105.31
422.73	89.31
422.953	89.31
423.175	85.31
423.398	79.31
423.621	88.31
423.843	89.31
424.066	72.31
424.288	74.31
424.511	89.31
424.733	71.31
424.956	80.31
425.178	89.31
425.401	82.31
425.623	86.31
425.846	81.31
426.068	93.31
426.291	89.31
426.513	96.31
426.735	76.31
426.958	90.31
427.18	90.31
427.402	84.31
427.625	87.31
427.847	86.31
428.069	78.31
428.292	79.31
428.514	80.31
428.736	79.31
428.958	74.31
429.181	79.31
429.403	82.31
429.625	77.31
429.847	97.31
430.069	96.31
430.292	92.31
430.514	83.31
430.736	78.31
430.958	88.31
431.18	80.31
431.402	81.31
431.624	69.31
431.846	93.31
432.068	80.31
432.29	74.31
432.512	83.31
432.734	80.31
432.956	77.31
433.178	78.31
433.4	81.31
433.622	76.31
433.844	92.31
434.066	93.31
434.287	100.31
434.509	80.31
434.731	102.31
434.953	84.31
435.175	82.31
435.397	102.31
435.618	76.31
435.84	81.31
436.062	86.31
436.284	71.31
436.505	75.31
436.727	88.31
436.949	72.31
437.17	83.31
437.392	85.31
437.614	74.31
437.835	77.31
438.057	81.31
438.278	82.31
438.5	81.31
438.721	77.31
438.943	82.31
439.165	67.31
439.386	88.31
439.608	92.31
439.829	89.31
440.05	89.31
440.272	87.31
440.493	79.31
440.715	82.31
440.936	85.31
441.158	86.31
441.379	92.31
441.6	76.31
441.822	80.31
442.043	85.31
442.264	82.31
442.486	97.31
442.707	76.31
442.928	79.31
443.149	90.31
443.371	85.31
443.592	90.31
443.813	85.31
444.034	79.31
444.255	73.31
444.476	73.31
444.698	89.31
444.919	90.31
445.14	153.31
445.361	115.31
445.582	92.31
445.803	87.31
446.024	85.31
446.245	84.31
446.466	76.31
446.687	97.31
446.908	88.31
447.129	81.31
447.35	78.31
447.571	83.31
447.792	73.31
448.013	88.31
448.234	100.31
448.455	86.31
448.675	79.31
448.896	80.31
449.117	82.31
449.338	91.31
449.559	82.31
449.779	73.31
450	83.31
450.221	89.31
450.442	85.31
450.662	81.31
450.883	81.31
451.104	77.31
451.324	82.31
451.545	69.31
451.766	69.31
451.986	81.31
452.207	82.31
452.428	87.31
452.648	82.31
452.869	89.31
453.089	78.31
453.31	76.31
453.53	83.31
453.751	80.31
453.971	87.31
454.192	87.31
454.412	72.31
454.633	77.31
454.853	76.31
455.073	96.31
455.294	78.31
455.514	97.31
455.734	80.31
455.955	71.31
456.175	71.31
456.395	83.31
456.616	90.31
456.836	70.31
457.056	70.31
457.276	89.31
457.497	86.31
457.717	88.31
457.937	75.31
458.157	91.31
458.377	86.31
458.598	73.31
458.818	78.31
459.038	79.31
459.258	63.31
459.478	77.31
459.698	90.31
459.918	91.31
460.138	87.31
460.358	82.31
460.578	81.31
460.798	79.31
461.018	83.31
461.238	73.31
461.458	89.31
461.678	81.31
461.898	82.31
462.118	103.31
462.338	90.31
462.558	87.31
462.777	82.31
462.997	76.31
463.217	85.31
463.437	82.31
463.657	94.31
463.876	94.31
464.096	75.31
464.316	93.31
464.536	78.31
464.755	81.31
464.975	76.31
465.195	79.31
465.414	79.31
465.634	88.31
465.854	85.31
466.073	81.31
466.293	93.31
466.512	99.31
466.732	81.31
466.951	85.31
467.171	78.31
467.391	82.31
467.61	84.31
467.829	82.31
468.049	80.31
468.268	85.31
468.488	90.31
468.707	88.31
468.927	79.31
469.146	76.31
469.365	76.31
469.585	67.31
469.804	66.31
470.023	94.31
470.243	91.31
470.462	76.31
470.681	84.31
470.901	80.31
471.12	79.31
471.339	78.31
471.558	82.31
471.777	75.31
471.997	83.31
472.216	85.31
472.435	85.31
472.654	74.31
472.873	69.31
473.092	83.31
473.311	87.31
473.53	79.31
473.749	79.31
473.968	93.31
474.187	86.31
474.406	73.31
474.625	80.31
474.844	92.31
475.063	78.31
475.282	86.31
475.501	78.31
475.72	90.31
475.939	75.31
476.158	85.31
476.377	85.31
476.596	87.31
476.814	81.31
477.033	82.31
477.252	87.31
477.471	76.31
477.69	82.31
477.908	91.31
478.127	80.31
478.346	84.31
478.564	73.31
478.783	94.31
479.002	79.31
479.22	79.31
479.439	87.31
479.658	91.31
479.876	100.31
480.095	85.31
480.313	80.31
480.532	83.31
480.751	96.31
480.969	91.31
481.188	65.31
481.406	75.31
481.624	67.31
481.843	80.31
482.061	94.31
482.28	69.31
482.498	79.31
482.717	75.31
482.935	80.31
483.153	66.31
483.372	73.31
483.59	85.31
483.808	70.31
484.027	85.31
484.245	76.31
484.463	95.31
484.681	99.31
484.9	87.31
485.118	80.31
485.336	86.31
485.554	80.31
485.772	72.31
485.99	74.31
486.209	88.31
486.427	87.31
486.645	63.31
486.863	99.31
487.081	94.31
487.299	87.31
487.517	82.31
487.735	90.31
487.953	92.31
488.171	80.31
488.389	96.31
488.607	87.31
488.825	80.31
489.043	84.31
489.261	85.31
489.479	88.31
489.696	83.31
489.914	78.31
490.132	72.31
490.35	88.31
490.568	79.31
490.786	88.31
491.003	87.31
491.221	91.31
491.439	78.31
491.657	99.31
491.874	80.31
492.092	81.31
492.31	80.31
492.527	90.31
492.745	76.31
492.963	88.31
493.18	88.31
493.398	85.31
493.615	81.31
493.833	85.31
494.05	86.31
494.268	84.31
494.485	86.31
494.703	71.31
494.92	83.31
495.138	79.31
495.355	90.31
495.573	86.31
495.79	77.31
496.008	81.31
496.225	83.31
496.442	91.31
496.66	88.31
496.877	84.31
497.094	103.31
497.312	75.31
497.529	67.31
497.746	100.31
497.963	85.31
498.181	72.31
498.398	70.31
498.615	90.31
498.832	91.31
499.049	88.31
499.267	97.31
499.484	83.31
499.701	82.31
499.918	79.31
500.135	92.31
500.352	87.31
500.569	95.31
500.786	81.31
501.003	84.31
501.22	87.31
501.437	89.31
501.654	81.31
501.871	81.31
502.088	84.31
502.305	87.31
502.522	86.31
502.739	90.31
502.956	82.31
503.172	75.31
503.389	72.31
503.606	82.31
503.823	79.31
504.04	80.31
504.256	83.31
504.473	90.31
504.69	84.31
504.907	82.31
505.123	77.31
505.34	88.31
505.557	97.31
505.773	75.31
505.99	74.31
506.207	78.31
506.423	79.31
506.64	81.31
506.856	84.31
507.073	89.31
507.289	87.31
507.506	72.31
507.722	78.31
507.939	77.31
508.155	75.31
508.372	90.31
508.588	74.31
508.805	88.31
509.021	82.31
509.238	80.31
509.454	82.31
509.67	73.31
509.887	94.31
510.103	90.31
510.319	78.31
510.536	88.31
510.752	89.31
510.968	71.31
511.184	83.31
511.401	74.31
511.617	76.31
511.833	83.31
512.049	94.31
512.265	67.31
512.481	84.31
512.698	70.31
512.914	86.31
513.13	97.31
513.346	68.31
513.562	92.31
513.778	99.31
513.994	93.31
514.21	67.31
514.426	78.31
514.642	87.31
514.858	94.31
515.074	73.31
515.29	83.31
515.506	70.31
515.721	86.31
515.937	93.31
516.153	90.31
516.369	80.31
516.585	73.31
516.801	82.31
517.016	92.31
517.232	75.31
517.448	94.31
517.664	78.31
517.879	78.31
518.095	78.31
518.311	90.31
518.527	87.31
518.742	85.31
518.958	79.31
519.173	81.31
519.389	77.31
519.605	77.31
519.82	77.31
