Data from Dirtnoheat3_HRD10591_00003.txt Node
Date: Fri Dec 27 15:21:16 EST 2024
User: Yrep
Spectrometer: HR+D1059
Trigger mode: 1
Integration Time (sec): 1.000000E-1
Scans to average: 1
Electric dark correction enabled: true
Nonlinearity correction enabled: false
Boxcar width: 0
XAxis mode: Wavelengths
Number of Pixels in Spectrum: 2048
>>>>>Begin Spectral Data<<<<<
223.165	-17.62
223.4	-17.62
223.635	-17.62
223.869	-21.62
224.104	-27.62
224.338	-17.62
224.573	-0.62
224.808	-4.62
225.042	-7.62
225.277	-1.62
225.511	-12.62
225.746	1.38
225.98	1.38
226.215	20.38
226.449	27.38
226.683	15.38
226.918	14.38
227.152	31.38
227.387	46.38
227.621	46.38
227.856	55.38
228.09	40.38
228.324	57.38
228.559	52.38
228.793	51.38
229.027	58.38
229.262	77.38
229.496	82.38
229.73	71.38
229.964	66.38
230.199	82.38
230.433	74.38
230.667	66.38
230.901	75.38
231.136	74.38
231.37	90.38
231.604	78.38
231.838	85.38
232.072	80.38
232.306	74.38
232.541	94.38
232.775	96.38
233.009	86.38
233.243	85.38
233.477	94.38
233.711	80.38
233.945	84.38
234.179	81.38
234.413	77.38
234.647	79.38
234.881	80.38
235.115	84.38
235.349	80.38
235.583	81.38
235.817	89.38
236.051	85.38
236.285	83.38
236.519	78.38
236.753	79.38
236.987	96.38
237.221	80.38
237.455	90.38
237.689	84.38
237.922	84.38
238.156	84.38
238.39	63.38
238.624	77.38
238.858	91.38
239.091	81.38
239.325	82.38
239.559	67.38
239.793	73.38
240.027	82.38
240.26	76.38
240.494	93.38
240.728	74.38
240.961	69.38
241.195	85.38
241.429	84.38
241.662	83.38
241.896	82.38
242.13	67.38
242.363	73.38
242.597	88.38
242.83	93.38
243.064	72.38
243.298	69.38
243.531	82.38
243.765	78.38
243.998	80.38
244.232	85.38
244.465	73.38
244.699	89.38
244.932	90.38
245.166	73.38
245.399	88.38
245.633	93.38
245.866	80.38
246.099	79.38
246.333	79.38
246.566	88.38
246.8	77.38
247.033	100.38
247.266	77.38
247.5	77.38
247.733	77.38
247.966	82.38
248.2	88.38
248.433	80.38
248.666	84.38
248.899	95.38
249.133	72.38
249.366	79.38
249.599	75.38
249.832	72.38
250.066	86.38
250.299	84.38
250.532	93.38
250.765	89.38
250.998	91.38
251.231	83.38
251.465	84.38
251.698	97.38
251.931	83.38
252.164	81.38
252.397	85.38
252.63	96.38
252.863	86.38
253.096	80.38
253.329	77.38
253.562	78.38
253.795	84.38
254.028	88.38
254.261	102.38
254.494	81.38
254.727	87.38
254.96	91.38
255.193	91.38
255.426	80.38
255.659	69.38
255.892	71.38
256.124	84.38
256.357	89.38
256.59	84.38
256.823	63.38
257.056	91.38
257.289	76.38
257.521	81.38
257.754	94.38
257.987	88.38
258.22	97.38
258.452	88.38
258.685	87.38
258.918	63.38
259.151	77.38
259.383	77.38
259.616	78.38
259.849	82.38
260.081	92.38
260.314	73.38
260.547	83.38
260.779	83.38
261.012	79.38
261.244	79.38
261.477	99.38
261.71	84.38
261.942	83.38
262.175	83.38
262.407	98.38
262.64	97.38
262.872	90.38
263.105	81.38
263.337	86.38
263.57	85.38
263.802	99.38
264.035	81.38
264.267	77.38
264.499	99.38
264.732	78.38
264.964	85.38
265.197	94.38
265.429	83.38
265.661	86.38
265.894	91.38
266.126	103.38
266.358	79.38
266.591	98.38
266.823	83.38
267.055	82.38
267.287	87.38
267.52	104.38
267.752	87.38
267.984	72.38
268.216	91.38
268.448	90.38
268.681	85.38
268.913	86.38
269.145	92.38
269.377	96.38
269.609	82.38
269.841	83.38
270.073	85.38
270.306	78.38
270.538	89.38
270.77	78.38
271.002	87.38
271.234	77.38
271.466	71.38
271.698	86.38
271.93	82.38
272.162	83.38
272.394	76.38
272.626	99.38
272.858	82.38
273.09	97.38
273.322	101.38
273.553	82.38
273.785	93.38
274.017	96.38
274.249	91.38
274.481	87.38
274.713	88.38
274.945	85.38
275.176	89.38
275.408	92.38
275.64	89.38
275.872	101.38
276.104	97.38
276.335	85.38
276.567	70.38
276.799	88.38
277.031	79.38
277.262	91.38
277.494	92.38
277.726	89.38
277.957	107.38
278.189	85.38
278.421	66.38
278.652	89.38
278.884	94.38
279.115	89.38
279.347	88.38
279.579	98.38
279.81	91.38
280.042	83.38
280.273	91.38
280.505	94.38
280.736	72.38
280.968	82.38
281.199	92.38
281.431	89.38
281.662	88.38
281.894	96.38
282.125	95.38
282.356	88.38
282.588	85.38
282.819	87.38
283.051	84.38
283.282	88.38
283.513	92.38
283.745	92.38
283.976	88.38
284.207	87.38
284.439	93.38
284.67	96.38
284.901	85.38
285.132	87.38
285.364	95.38
285.595	80.38
285.826	97.38
286.057	97.38
286.288	101.38
286.52	90.38
286.751	92.38
286.982	97.38
287.213	90.38
287.444	91.38
287.675	84.38
287.906	85.38
288.138	94.38
288.369	99.38
288.6	84.38
288.831	78.38
289.062	93.38
289.293	97.38
289.524	86.38
289.755	73.38
289.986	80.38
290.217	87.38
290.448	100.38
290.679	95.38
290.91	91.38
291.141	83.38
291.371	87.38
291.602	74.38
291.833	82.38
292.064	86.38
292.295	87.38
292.526	81.38
292.757	91.38
292.987	77.38
293.218	102.38
293.449	93.38
293.68	84.38
293.91	85.38
294.141	97.38
294.372	92.38
294.603	90.38
294.833	93.38
295.064	84.38
295.295	87.38
295.525	94.38
295.756	86.38
295.987	91.38
296.217	100.38
296.448	91.38
296.679	85.38
296.909	106.38
297.14	94.38
297.37	83.38
297.601	89.38
297.831	89.38
298.062	104.38
298.292	95.38
298.523	96.38
298.753	99.38
298.984	98.38
299.214	96.38
299.445	86.38
299.675	98.38
299.905	78.38
300.136	99.38
300.366	84.38
300.597	91.38
300.827	97.38
301.057	94.38
301.288	88.38
301.518	92.38
301.748	81.38
301.979	94.38
302.209	109.38
302.439	79.38
302.669	83.38
302.9	83.38
303.13	88.38
303.36	92.38
303.59	102.38
303.82	97.38
304.051	93.38
304.281	76.38
304.511	95.38
304.741	86.38
304.971	93.38
305.201	95.38
305.431	87.38
305.661	92.38
305.891	91.38
306.121	88.38
306.352	95.38
306.582	98.38
306.812	99.38
307.042	84.38
307.272	98.38
307.502	82.38
307.731	90.38
307.961	82.38
308.191	82.38
308.421	94.38
308.651	70.38
308.881	91.38
309.111	86.38
309.341	107.38
309.571	85.38
309.8	77.38
310.03	91.38
310.26	86.38
310.49	87.38
310.72	88.38
310.949	86.38
311.179	91.38
311.409	86.38
311.639	83.38
311.868	96.38
312.098	85.38
312.328	93.38
312.557	81.38
312.787	93.38
313.017	86.38
313.246	98.38
313.476	87.38
313.706	91.38
313.935	84.38
314.165	96.38
314.394	88.38
314.624	79.38
314.853	84.38
315.083	97.38
315.312	99.38
315.542	93.38
315.771	93.38
316.001	81.38
316.23	93.38
316.46	72.38
316.689	72.38
316.919	89.38
317.148	98.38
317.377	96.38
317.607	89.38
317.836	98.38
318.065	79.38
318.295	101.38
318.524	77.38
318.753	73.38
318.983	96.38
319.212	89.38
319.441	91.38
319.67	86.38
319.9	90.38
320.129	88.38
320.358	88.38
320.587	92.38
320.816	86.38
321.046	79.38
321.275	86.38
321.504	86.38
321.733	81.38
321.962	100.38
322.191	79.38
322.42	92.38
322.649	86.38
322.878	102.38
323.108	75.38
323.337	84.38
323.566	100.38
323.795	83.38
324.024	86.38
324.253	100.38
324.482	95.38
324.71	86.38
324.939	89.38
325.168	95.38
325.397	92.38
325.626	86.38
325.855	93.38
326.084	91.38
326.313	98.38
326.542	94.38
326.77	101.38
326.999	99.38
327.228	81.38
327.457	91.38
327.686	86.38
327.914	91.38
328.143	97.38
328.372	104.38
328.6	92.38
328.829	90.38
329.058	86.38
329.287	79.38
329.515	96.38
329.744	81.38
329.972	86.38
330.201	85.38
330.43	96.38
330.658	90.38
330.887	98.38
331.115	84.38
331.344	78.38
331.572	90.38
331.801	98.38
332.03	93.38
332.258	86.38
332.486	87.38
332.715	82.38
332.943	84.38
333.172	80.38
333.4	85.38
333.629	103.38
333.857	90.38
334.085	88.38
334.314	93.38
334.542	87.38
334.771	89.38
334.999	103.38
335.227	86.38
335.455	87.38
335.684	78.38
335.912	97.38
336.14	99.38
336.369	91.38
336.597	77.38
336.825	88.38
337.053	80.38
337.281	100.38
337.51	78.38
337.738	85.38
337.966	70.38
338.194	81.38
338.422	94.38
338.65	101.38
338.878	82.38
339.106	90.38
339.334	97.38
339.562	82.38
339.79	81.38
340.018	93.38
340.246	94.38
340.474	87.38
340.702	95.38
340.93	98.38
341.158	98.38
341.386	79.38
341.614	88.38
341.842	84.38
342.07	96.38
342.298	86.38
342.526	97.38
342.754	90.38
342.981	80.38
343.209	83.38
343.437	94.38
343.665	93.38
343.893	81.38
344.12	81.38
344.348	85.38
344.576	65.38
344.804	84.38
345.031	102.38
345.259	81.38
345.487	91.38
345.714	80.38
345.942	98.38
346.17	80.38
346.397	104.38
346.625	84.38
346.853	92.38
347.08	84.38
347.308	92.38
347.535	84.38
347.763	84.38
347.99	92.38
348.218	87.38
348.445	101.38
348.673	83.38
348.9	83.38
349.128	84.38
349.355	83.38
349.583	98.38
349.81	96.38
350.037	104.38
350.265	83.38
350.492	102.38
350.72	84.38
350.947	88.38
351.174	85.38
351.402	99.38
351.629	87.38
351.856	64.38
352.083	78.38
352.311	89.38
352.538	93.38
352.765	98.38
352.992	86.38
353.22	81.38
353.447	93.38
353.674	86.38
353.901	87.38
354.128	93.38
354.355	99.38
354.583	87.38
354.81	76.38
355.037	103.38
355.264	88.38
355.491	102.38
355.718	71.38
355.945	85.38
356.172	93.38
356.399	87.38
356.626	81.38
356.853	89.38
357.08	90.38
357.307	82.38
357.534	83.38
357.761	97.38
357.988	78.38
358.215	89.38
358.441	86.38
358.668	101.38
358.895	108.38
359.122	79.38
359.349	91.38
359.576	84.38
359.802	79.38
360.029	85.38
360.256	87.38
360.483	78.38
360.709	95.38
360.936	103.38
361.163	84.38
361.39	84.38
361.616	82.38
361.843	80.38
362.07	89.38
362.296	96.38
362.523	80.38
362.749	80.38
362.976	90.38
363.203	97.38
363.429	81.38
363.656	96.38
363.882	78.38
364.109	84.38
364.335	88.38
364.562	87.38
364.788	78.38
365.015	91.38
365.241	91.38
365.468	98.38
365.694	88.38
365.92	89.38
366.147	88.38
366.373	87.38
366.599	84.38
366.826	85.38
367.052	82.38
367.278	105.38
367.505	78.38
367.731	83.38
367.957	88.38
368.184	82.38
368.41	86.38
368.636	88.38
368.862	75.38
369.089	94.38
369.315	89.38
369.541	100.38
369.767	97.38
369.993	92.38
370.219	82.38
370.445	100.38
370.672	83.38
370.898	92.38
371.124	80.38
371.35	84.38
371.576	94.38
371.802	89.38
372.028	96.38
372.254	100.38
372.48	93.38
372.706	89.38
372.932	96.38
373.158	78.38
373.384	93.38
373.61	78.38
373.835	95.38
374.061	87.38
374.287	88.38
374.513	93.38
374.739	91.38
374.965	92.38
375.191	85.38
375.416	93.38
375.642	95.38
375.868	101.38
376.094	90.38
376.319	86.38
376.545	84.38
376.771	79.38
376.997	91.38
377.222	72.38
377.448	86.38
377.674	86.38
377.899	83.38
378.125	101.38
378.35	80.38
378.576	85.38
378.802	93.38
379.027	98.38
379.253	83.38
379.478	87.38
379.704	87.38
379.929	80.38
380.155	91.38
380.38	90.38
380.606	93.38
380.831	98.38
381.057	93.38
381.282	91.38
381.507	83.38
381.733	91.38
381.958	92.38
382.184	102.38
382.409	93.38
382.634	91.38
382.86	92.38
383.085	77.38
383.31	90.38
383.535	107.38
383.761	105.38
383.986	88.38
384.211	82.38
384.436	97.38
384.662	79.38
384.887	94.38
385.112	80.38
385.337	77.38
385.562	82.38
385.787	79.38
386.013	81.38
386.238	79.38
386.463	87.38
386.688	93.38
386.913	83.38
387.138	76.38
387.363	73.38
387.588	92.38
387.813	84.38
388.038	98.38
388.263	96.38
388.488	78.38
388.713	83.38
388.938	76.38
389.163	88.38
389.387	82.38
389.612	86.38
389.837	81.38
390.062	96.38
390.287	92.38
390.512	94.38
390.736	91.38
390.961	102.38
391.186	87.38
391.411	77.38
391.636	86.38
391.86	90.38
392.085	89.38
392.31	87.38
392.534	95.38
392.759	95.38
392.984	87.38
393.208	105.38
393.433	101.38
393.658	94.38
393.882	80.38
394.107	85.38
394.331	90.38
394.556	101.38
394.78	91.38
395.005	83.38
395.229	88.38
395.454	88.38
395.678	90.38
395.903	86.38
396.127	86.38
396.352	92.38
396.576	92.38
396.801	100.38
397.025	102.38
397.249	92.38
397.474	91.38
397.698	94.38
397.922	89.38
398.147	74.38
398.371	109.38
398.595	84.38
398.82	87.38
399.044	83.38
399.268	91.38
399.492	90.38
399.717	88.38
399.941	79.38
400.165	87.38
400.389	83.38
400.613	89.38
400.837	86.38
401.062	88.38
401.286	87.38
401.51	78.38
401.734	80.38
401.958	81.38
402.182	81.38
402.406	96.38
402.63	88.38
402.854	78.38
403.078	78.38
403.302	91.38
403.526	88.38
403.75	81.38
403.974	94.38
404.198	84.38
404.422	81.38
404.645	87.38
404.869	83.38
405.093	80.38
405.317	78.38
405.541	81.38
405.765	73.38
405.988	85.38
406.212	83.38
406.436	79.38
406.66	83.38
406.883	80.38
407.107	84.38
407.331	87.38
407.555	61.38
407.778	83.38
408.002	80.38
408.226	76.38
408.449	79.38
408.673	91.38
408.896	79.38
409.12	93.38
409.344	93.38
409.567	82.38
409.791	86.38
410.014	95.38
410.238	90.38
410.461	86.38
410.685	99.38
410.908	85.38
411.132	87.38
411.355	92.38
411.578	69.38
411.802	68.38
412.025	84.38
412.249	76.38
412.472	80.38
412.695	88.38
412.919	83.38
413.142	84.38
413.365	83.38
413.589	94.38
413.812	89.38
414.035	99.38
414.258	92.38
414.482	80.38
414.705	80.38
414.928	76.38
415.151	89.38
415.374	77.38
415.597	79.38
415.821	89.38
416.044	85.38
416.267	71.38
416.49	78.38
416.713	87.38
416.936	88.38
417.159	90.38
417.382	105.38
417.605	78.38
417.828	86.38
418.051	71.38
418.274	88.38
418.497	93.38
418.72	81.38
418.943	80.38
419.166	92.38
419.389	80.38
419.611	92.38
419.834	78.38
420.057	88.38
420.28	96.38
420.503	92.38
420.726	80.38
420.948	89.38
421.171	96.38
421.394	83.38
421.617	85.38
421.839	81.38
422.062	90.38
422.285	87.38
422.507	89.38
422.73	104.38
422.953	91.38
423.175	88.38
423.398	90.38
423.621	97.38
423.843	84.38
424.066	91.38
424.288	88.38
424.511	80.38
424.733	75.38
424.956	99.38
425.178	95.38
425.401	86.38
425.623	85.38
425.846	90.38
426.068	89.38
426.291	77.38
426.513	72.38
426.735	96.38
426.958	93.38
427.18	93.38
427.402	89.38
427.625	76.38
427.847	79.38
428.069	97.38
428.292	89.38
428.514	96.38
428.736	82.38
428.958	74.38
429.181	91.38
429.403	99.38
429.625	89.38
429.847	96.38
430.069	98.38
430.292	97.38
430.514	89.38
430.736	87.38
430.958	87.38
431.18	78.38
431.402	79.38
431.624	84.38
431.846	78.38
432.068	92.38
432.29	89.38
432.512	91.38
432.734	86.38
432.956	87.38
433.178	81.38
433.4	95.38
433.622	88.38
433.844	88.38
434.066	88.38
434.287	96.38
434.509	91.38
434.731	72.38
434.953	64.38
435.175	88.38
435.397	70.38
435.618	89.38
435.84	91.38
436.062	87.38
436.284	87.38
436.505	95.38
436.727	88.38
436.949	92.38
437.17	86.38
437.392	94.38
437.614	89.38
437.835	94.38
438.057	78.38
438.278	70.38
438.5	93.38
438.721	100.38
438.943	86.38
439.165	88.38
439.386	94.38
439.608	88.38
439.829	91.38
440.05	91.38
440.272	79.38
440.493	87.38
440.715	79.38
440.936	96.38
441.158	89.38
441.379	89.38
441.6	96.38
441.822	77.38
442.043	91.38
442.264	90.38
442.486	79.38
442.707	84.38
442.928	80.38
443.149	78.38
443.371	92.38
443.592	98.38
443.813	99.38
444.034	90.38
444.255	93.38
444.476	92.38
444.698	92.38
444.919	86.38
445.14	147.38
445.361	127.38
445.582	115.38
445.803	91.38
446.024	95.38
446.245	95.38
446.466	77.38
446.687	81.38
446.908	82.38
447.129	82.38
447.35	77.38
447.571	89.38
447.792	87.38
448.013	82.38
448.234	77.38
448.455	76.38
448.675	78.38
448.896	79.38
449.117	88.38
449.338	80.38
449.559	77.38
449.779	68.38
450	88.38
450.221	76.38
450.442	82.38
450.662	84.38
450.883	75.38
451.104	78.38
451.324	101.38
451.545	85.38
451.766	66.38
451.986	79.38
452.207	81.38
452.428	86.38
452.648	84.38
452.869	94.38
453.089	73.38
453.31	92.38
453.53	78.38
453.751	86.38
453.971	85.38
454.192	92.38
454.412	78.38
454.633	89.38
454.853	87.38
455.073	85.38
455.294	72.38
455.514	91.38
455.734	98.38
455.955	85.38
456.175	83.38
456.395	91.38
456.616	88.38
456.836	85.38
457.056	96.38
457.276	75.38
457.497	95.38
457.717	78.38
457.937	93.38
458.157	71.38
458.377	89.38
458.598	86.38
458.818	100.38
459.038	72.38
459.258	84.38
459.478	75.38
459.698	86.38
459.918	80.38
460.138	72.38
460.358	88.38
460.578	86.38
460.798	105.38
461.018	84.38
461.238	79.38
461.458	99.38
461.678	92.38
461.898	94.38
462.118	91.38
462.338	79.38
462.558	85.38
462.777	81.38
462.997	86.38
463.217	79.38
463.437	89.38
463.657	80.38
463.876	89.38
464.096	91.38
464.316	83.38
464.536	73.38
464.755	82.38
464.975	80.38
465.195	88.38
465.414	95.38
465.634	85.38
465.854	85.38
466.073	75.38
466.293	93.38
466.512	81.38
466.732	83.38
466.951	80.38
467.171	78.38
467.391	103.38
467.61	95.38
467.829	93.38
468.049	85.38
468.268	91.38
468.488	88.38
468.707	88.38
468.927	87.38
469.146	75.38
469.365	88.38
469.585	72.38
469.804	85.38
470.023	93.38
470.243	76.38
470.462	86.38
470.681	92.38
470.901	73.38
471.12	102.38
471.339	85.38
471.558	84.38
471.777	84.38
471.997	83.38
472.216	89.38
472.435	79.38
472.654	94.38
472.873	88.38
473.092	84.38
473.311	85.38
473.53	81.38
473.749	87.38
473.968	102.38
474.187	92.38
474.406	99.38
474.625	86.38
474.844	71.38
475.063	94.38
475.282	76.38
475.501	87.38
475.72	96.38
475.939	81.38
476.158	93.38
476.377	88.38
476.596	91.38
476.814	88.38
477.033	97.38
477.252	77.38
477.471	85.38
477.69	75.38
477.908	84.38
478.127	97.38
478.346	86.38
478.564	93.38
478.783	77.38
479.002	67.38
479.22	75.38
479.439	83.38
479.658	82.38
479.876	85.38
480.095	86.38
480.313	89.38
480.532	89.38
480.751	93.38
480.969	96.38
481.188	91.38
481.406	98.38
481.624	79.38
481.843	88.38
482.061	78.38
482.28	83.38
482.498	70.38
482.717	88.38
482.935	101.38
483.153	81.38
483.372	94.38
483.59	80.38
483.808	67.38
484.027	73.38
484.245	90.38
484.463	93.38
484.681	101.38
484.9	90.38
485.118	113.38
485.336	81.38
485.554	95.38
485.772	87.38
485.99	83.38
486.209	86.38
486.427	90.38
486.645	88.38
486.863	99.38
487.081	81.38
487.299	81.38
487.517	80.38
487.735	85.38
487.953	91.38
488.171	87.38
488.389	91.38
488.607	84.38
488.825	90.38
489.043	92.38
489.261	90.38
489.479	87.38
489.696	91.38
489.914	91.38
490.132	71.38
490.35	85.38
490.568	85.38
490.786	77.38
491.003	91.38
491.221	84.38
491.439	94.38
491.657	83.38
491.874	83.38
492.092	79.38
492.31	104.38
492.527	86.38
492.745	86.38
492.963	102.38
493.18	90.38
493.398	86.38
493.615	88.38
493.833	86.38
494.05	79.38
494.268	93.38
494.485	98.38
494.703	97.38
494.92	89.38
495.138	97.38
495.355	96.38
495.573	96.38
495.79	89.38
496.008	94.38
496.225	86.38
496.442	87.38
496.66	99.38
496.877	81.38
497.094	92.38
497.312	101.38
497.529	92.38
497.746	87.38
497.963	91.38
498.181	73.38
498.398	86.38
498.615	80.38
498.832	93.38
499.049	87.38
499.267	95.38
499.484	90.38
499.701	95.38
499.918	85.38
500.135	74.38
500.352	95.38
500.569	85.38
500.786	101.38
501.003	81.38
501.22	90.38
501.437	83.38
501.654	83.38
501.871	96.38
502.088	83.38
502.305	89.38
502.522	72.38
502.739	79.38
502.956	101.38
503.172	83.38
503.389	93.38
503.606	85.38
503.823	96.38
504.04	97.38
504.256	96.38
504.473	101.38
504.69	87.38
504.907	98.38
505.123	86.38
505.34	78.38
505.557	84.38
505.773	86.38
505.99	73.38
506.207	77.38
506.423	89.38
506.64	83.38
506.856	93.38
507.073	86.38
507.289	95.38
507.506	91.38
507.722	86.38
507.939	89.38
508.155	83.38
508.372	88.38
508.588	84.38
508.805	83.38
509.021	71.38
509.238	89.38
509.454	85.38
509.67	83.38
509.887	87.38
510.103	81.38
510.319	84.38
510.536	92.38
510.752	77.38
510.968	77.38
511.184	91.38
511.401	80.38
511.617	95.38
511.833	90.38
512.049	82.38
512.265	88.38
512.481	85.38
512.698	79.38
512.914	81.38
513.13	95.38
513.346	102.38
513.562	92.38
513.778	84.38
513.994	77.38
514.21	87.38
514.426	80.38
514.642	82.38
514.858	88.38
515.074	81.38
515.29	95.38
515.506	91.38
515.721	91.38
515.937	85.38
516.153	92.38
516.369	72.38
516.585	77.38
516.801	86.38
517.016	84.38
517.232	101.38
517.448	89.38
517.664	93.38
517.879	72.38
518.095	89.38
518.311	84.38
518.527	83.38
518.742	85.38
518.958	86.38
519.173	93.38
