Data from Dirtnoheat3_HRD10591_00010.txt Node
Date: Fri Dec 27 15:21:23 EST 2024
User: Yrep
Spectrometer: HR+D1059
Trigger mode: 1
Integration Time (sec): 1.000000E-1
Scans to average: 1
Electric dark correction enabled: true
Nonlinearity correction enabled: false
Boxcar width: 0
XAxis mode: Wavelengths
Number of Pixels in Spectrum: 2048
>>>>>Begin Spectral Data<<<<<
223.165	-23.75
223.4	-23.75
223.635	-23.75
223.869	-21.75
224.104	-15.75
224.338	-23.75
224.573	-21.75
224.808	-16.75
225.042	-11.75
225.277	-9.75
225.511	-10.75
225.746	8.25
225.98	15.25
226.215	5.25
226.449	19.25
226.683	43.25
226.918	30.25
227.152	34.25
227.387	49.25
227.621	41.25
227.856	43.25
228.09	61.25
228.324	51.25
228.559	67.25
228.793	61.25
229.027	67.25
229.262	62.25
229.496	67.25
229.73	70.25
229.964	79.25
230.199	88.25
230.433	78.25
230.667	89.25
230.901	83.25
231.136	76.25
231.37	81.25
231.604	84.25
231.838	96.25
232.072	84.25
232.306	81.25
232.541	78.25
232.775	82.25
233.009	87.25
233.243	85.25
233.477	84.25
233.711	85.25
233.945	92.25
234.179	86.25
234.413	88.25
234.647	88.25
234.881	84.25
235.115	74.25
235.349	76.25
235.583	87.25
235.817	82.25
236.051	77.25
236.285	72.25
236.519	79.25
236.753	71.25
236.987	80.25
237.221	78.25
237.455	79.25
237.689	91.25
237.922	82.25
238.156	82.25
238.39	63.25
238.624	80.25
238.858	92.25
239.091	79.25
239.325	76.25
239.559	86.25
239.793	84.25
240.027	93.25
240.26	84.25
240.494	76.25
240.728	77.25
240.961	79.25
241.195	86.25
241.429	79.25
241.662	89.25
241.896	97.25
242.13	85.25
242.363	86.25
242.597	81.25
242.83	83.25
243.064	91.25
243.298	82.25
243.531	76.25
243.765	83.25
243.998	88.25
244.232	89.25
244.465	80.25
244.699	73.25
244.932	78.25
245.166	83.25
245.399	74.25
245.633	71.25
245.866	83.25
246.099	81.25
246.333	91.25
246.566	76.25
246.8	80.25
247.033	70.25
247.266	82.25
247.5	79.25
247.733	80.25
247.966	84.25
248.2	66.25
248.433	84.25
248.666	84.25
248.899	90.25
249.133	73.25
249.366	76.25
249.599	76.25
249.832	74.25
250.066	82.25
250.299	76.25
250.532	91.25
250.765	87.25
250.998	73.25
251.231	79.25
251.465	105.25
251.698	99.25
251.931	88.25
252.164	79.25
252.397	87.25
252.63	75.25
252.863	72.25
253.096	85.25
253.329	83.25
253.562	69.25
253.795	67.25
254.028	77.25
254.261	74.25
254.494	96.25
254.727	83.25
254.96	76.25
255.193	99.25
255.426	83.25
255.659	91.25
255.892	86.25
256.124	82.25
256.357	78.25
256.59	85.25
256.823	84.25
257.056	80.25
257.289	93.25
257.521	82.25
257.754	76.25
257.987	90.25
258.22	84.25
258.452	73.25
258.685	88.25
258.918	94.25
259.151	82.25
259.383	85.25
259.616	95.25
259.849	78.25
260.081	94.25
260.314	87.25
260.547	84.25
260.779	80.25
261.012	71.25
261.244	88.25
261.477	89.25
261.71	86.25
261.942	73.25
262.175	88.25
262.407	91.25
262.64	83.25
262.872	89.25
263.105	80.25
263.337	95.25
263.57	91.25
263.802	90.25
264.035	94.25
264.267	90.25
264.499	92.25
264.732	90.25
264.964	83.25
265.197	77.25
265.429	81.25
265.661	94.25
265.894	83.25
266.126	91.25
266.358	92.25
266.591	96.25
266.823	77.25
267.055	89.25
267.287	75.25
267.52	82.25
267.752	81.25
267.984	79.25
268.216	82.25
268.448	93.25
268.681	91.25
268.913	79.25
269.145	93.25
269.377	77.25
269.609	84.25
269.841	90.25
270.073	79.25
270.306	98.25
270.538	103.25
270.77	94.25
271.002	94.25
271.234	96.25
271.466	91.25
271.698	101.25
271.93	86.25
272.162	77.25
272.394	90.25
272.626	81.25
272.858	97.25
273.09	91.25
273.322	95.25
273.553	85.25
273.785	70.25
274.017	65.25
274.249	70.25
274.481	82.25
274.713	102.25
274.945	87.25
275.176	84.25
275.408	91.25
275.64	89.25
275.872	100.25
276.104	99.25
276.335	100.25
276.567	97.25
276.799	101.25
277.031	78.25
277.262	101.25
277.494	75.25
277.726	76.25
277.957	83.25
278.189	90.25
278.421	78.25
278.652	80.25
278.884	94.25
279.115	90.25
279.347	93.25
279.579	85.25
279.81	93.25
280.042	102.25
280.273	84.25
280.505	86.25
280.736	64.25
280.968	84.25
281.199	80.25
281.431	84.25
281.662	94.25
281.894	100.25
282.125	85.25
282.356	83.25
282.588	91.25
282.819	81.25
283.051	83.25
283.282	97.25
283.513	90.25
283.745	83.25
283.976	96.25
284.207	99.25
284.439	88.25
284.67	91.25
284.901	83.25
285.132	95.25
285.364	104.25
285.595	96.25
285.826	89.25
286.057	91.25
286.288	90.25
286.52	94.25
286.751	79.25
286.982	82.25
287.213	78.25
287.444	83.25
287.675	100.25
287.906	81.25
288.138	94.25
288.369	68.25
288.6	80.25
288.831	72.25
289.062	95.25
289.293	82.25
289.524	84.25
289.755	93.25
289.986	76.25
290.217	85.25
290.448	88.25
290.679	91.25
290.91	94.25
291.141	94.25
291.371	100.25
291.602	89.25
291.833	95.25
292.064	87.25
292.295	92.25
292.526	84.25
292.757	71.25
292.987	85.25
293.218	87.25
293.449	88.25
293.68	80.25
293.91	83.25
294.141	91.25
294.372	78.25
294.603	83.25
294.833	88.25
295.064	95.25
295.295	93.25
295.525	87.25
295.756	99.25
295.987	81.25
296.217	87.25
296.448	70.25
296.679	94.25
296.909	103.25
297.14	100.25
297.37	96.25
297.601	78.25
297.831	89.25
298.062	98.25
298.292	90.25
298.523	89.25
298.753	91.25
298.984	83.25
299.214	93.25
299.445	92.25
299.675	80.25
299.905	94.25
300.136	99.25
300.366	95.25
300.597	73.25
300.827	90.25
301.057	97.25
301.288	92.25
301.518	92.25
301.748	86.25
301.979	103.25
302.209	97.25
302.439	92.25
302.669	82.25
302.9	95.25
303.13	102.25
303.36	94.25
303.59	94.25
303.82	94.25
304.051	75.25
304.281	72.25
304.511	85.25
304.741	83.25
304.971	93.25
305.201	90.25
305.431	87.25
305.661	95.25
305.891	95.25
306.121	80.25
306.352	93.25
306.582	96.25
306.812	95.25
307.042	76.25
307.272	83.25
307.502	70.25
307.731	99.25
307.961	97.25
308.191	85.25
308.421	83.25
308.651	80.25
308.881	85.25
309.111	84.25
309.341	81.25
309.571	78.25
309.8	90.25
310.03	85.25
310.26	82.25
310.49	91.25
310.72	92.25
310.949	94.25
311.179	89.25
311.409	70.25
311.639	81.25
311.868	98.25
312.098	96.25
312.328	95.25
312.557	86.25
312.787	74.25
313.017	87.25
313.246	100.25
313.476	86.25
313.706	67.25
313.935	96.25
314.165	93.25
314.394	75.25
314.624	84.25
314.853	72.25
315.083	99.25
315.312	88.25
315.542	78.25
315.771	87.25
316.001	97.25
316.23	88.25
316.46	94.25
316.689	95.25
316.919	86.25
317.148	93.25
317.377	100.25
317.607	87.25
317.836	92.25
318.065	84.25
318.295	85.25
318.524	94.25
318.753	92.25
318.983	90.25
319.212	93.25
319.441	79.25
319.67	91.25
319.9	78.25
320.129	92.25
320.358	85.25
320.587	88.25
320.816	89.25
321.046	80.25
321.275	114.25
321.504	82.25
321.733	85.25
321.962	87.25
322.191	79.25
322.42	91.25
322.649	85.25
322.878	95.25
323.108	76.25
323.337	86.25
323.566	90.25
323.795	83.25
324.024	89.25
324.253	90.25
324.482	78.25
324.71	102.25
324.939	68.25
325.168	96.25
325.397	87.25
325.626	91.25
325.855	95.25
326.084	104.25
326.313	99.25
326.542	75.25
326.77	106.25
326.999	102.25
327.228	95.25
327.457	96.25
327.686	88.25
327.914	109.25
328.143	90.25
328.372	91.25
328.6	101.25
328.829	95.25
329.058	84.25
329.287	83.25
329.515	91.25
329.744	84.25
329.972	84.25
330.201	91.25
330.43	94.25
330.658	86.25
330.887	75.25
331.115	82.25
331.344	78.25
331.572	81.25
331.801	92.25
332.03	86.25
332.258	80.25
332.486	84.25
332.715	92.25
332.943	85.25
333.172	95.25
333.4	81.25
333.629	97.25
333.857	77.25
334.085	100.25
334.314	82.25
334.542	94.25
334.771	83.25
334.999	98.25
335.227	78.25
335.455	90.25
335.684	100.25
335.912	97.25
336.14	93.25
336.369	87.25
336.597	88.25
336.825	100.25
337.053	82.25
337.281	94.25
337.51	93.25
337.738	81.25
337.966	103.25
338.194	94.25
338.422	75.25
338.65	111.25
338.878	102.25
339.106	86.25
339.334	90.25
339.562	87.25
339.79	78.25
340.018	85.25
340.246	79.25
340.474	80.25
340.702	90.25
340.93	83.25
341.158	80.25
341.386	90.25
341.614	78.25
341.842	94.25
342.07	86.25
342.298	75.25
342.526	99.25
342.754	78.25
342.981	92.25
343.209	95.25
343.437	108.25
343.665	93.25
343.893	84.25
344.12	92.25
344.348	92.25
344.576	89.25
344.804	80.25
345.031	78.25
345.259	80.25
345.487	77.25
345.714	96.25
345.942	99.25
346.17	84.25
346.397	83.25
346.625	96.25
346.853	101.25
347.08	91.25
347.308	104.25
347.535	86.25
347.763	97.25
347.99	85.25
348.218	103.25
348.445	80.25
348.673	85.25
348.9	87.25
349.128	93.25
349.355	80.25
349.583	83.25
349.81	86.25
350.037	77.25
350.265	82.25
350.492	90.25
350.72	92.25
350.947	97.25
351.174	87.25
351.402	101.25
351.629	88.25
351.856	101.25
352.083	86.25
352.311	98.25
352.538	89.25
352.765	76.25
352.992	93.25
353.22	91.25
353.447	115.25
353.674	86.25
353.901	99.25
354.128	86.25
354.355	87.25
354.583	73.25
354.81	80.25
355.037	88.25
355.264	92.25
355.491	85.25
355.718	94.25
355.945	93.25
356.172	86.25
356.399	86.25
356.626	97.25
356.853	90.25
357.08	90.25
357.307	83.25
357.534	72.25
357.761	99.25
357.988	93.25
358.215	93.25
358.441	95.25
358.668	87.25
358.895	76.25
359.122	76.25
359.349	79.25
359.576	77.25
359.802	93.25
360.029	90.25
360.256	83.25
360.483	82.25
360.709	84.25
360.936	91.25
361.163	101.25
361.39	85.25
361.616	89.25
361.843	98.25
362.07	94.25
362.296	74.25
362.523	79.25
362.749	75.25
362.976	85.25
363.203	90.25
363.429	80.25
363.656	91.25
363.882	100.25
364.109	103.25
364.335	95.25
364.562	91.25
364.788	78.25
365.015	82.25
365.241	82.25
365.468	98.25
365.694	81.25
365.92	90.25
366.147	86.25
366.373	91.25
366.599	81.25
366.826	80.25
367.052	97.25
367.278	97.25
367.505	87.25
367.731	98.25
367.957	85.25
368.184	87.25
368.41	85.25
368.636	71.25
368.862	89.25
369.089	93.25
369.315	92.25
369.541	82.25
369.767	75.25
369.993	80.25
370.219	87.25
370.445	63.25
370.672	93.25
370.898	86.25
371.124	85.25
371.35	75.25
371.576	82.25
371.802	83.25
372.028	98.25
372.254	95.25
372.48	94.25
372.706	76.25
372.932	95.25
373.158	88.25
373.384	98.25
373.61	94.25
373.835	92.25
374.061	90.25
374.287	90.25
374.513	89.25
374.739	75.25
374.965	87.25
375.191	77.25
375.416	83.25
375.642	84.25
375.868	86.25
376.094	99.25
376.319	92.25
376.545	67.25
376.771	85.25
376.997	88.25
377.222	94.25
377.448	86.25
377.674	83.25
377.899	85.25
378.125	79.25
378.35	82.25
378.576	95.25
378.802	86.25
379.027	75.25
379.253	93.25
379.478	91.25
379.704	83.25
379.929	75.25
380.155	95.25
380.38	94.25
380.606	77.25
380.831	76.25
381.057	83.25
381.282	88.25
381.507	79.25
381.733	84.25
381.958	75.25
382.184	81.25
382.409	81.25
382.634	86.25
382.86	73.25
383.085	95.25
383.31	87.25
383.535	95.25
383.761	91.25
383.986	83.25
384.211	84.25
384.436	88.25
384.662	84.25
384.887	78.25
385.112	90.25
385.337	96.25
385.562	75.25
385.787	99.25
386.013	91.25
386.238	95.25
386.463	84.25
386.688	97.25
386.913	78.25
387.138	89.25
387.363	90.25
387.588	83.25
387.813	88.25
388.038	87.25
388.263	89.25
388.488	90.25
388.713	78.25
388.938	92.25
389.163	87.25
389.387	84.25
389.612	82.25
389.837	99.25
390.062	96.25
390.287	82.25
390.512	89.25
390.736	97.25
390.961	89.25
391.186	91.25
391.411	94.25
391.636	92.25
391.86	75.25
392.085	96.25
392.31	67.25
392.534	94.25
392.759	88.25
392.984	93.25
393.208	85.25
393.433	111.25
393.658	97.25
393.882	80.25
394.107	85.25
394.331	81.25
394.556	83.25
394.78	98.25
395.005	72.25
395.229	86.25
395.454	86.25
395.678	98.25
395.903	81.25
396.127	99.25
396.352	93.25
396.576	80.25
396.801	77.25
397.025	88.25
397.249	75.25
397.474	96.25
397.698	84.25
397.922	90.25
398.147	102.25
398.371	84.25
398.595	100.25
398.82	93.25
399.044	86.25
399.268	95.25
399.492	105.25
399.717	98.25
399.941	88.25
400.165	82.25
400.389	87.25
400.613	73.25
400.837	75.25
401.062	84.25
401.286	82.25
401.51	79.25
401.734	90.25
401.958	95.25
402.182	82.25
402.406	96.25
402.63	92.25
402.854	77.25
403.078	95.25
403.302	93.25
403.526	94.25
403.75	80.25
403.974	97.25
404.198	75.25
404.422	79.25
404.645	98.25
404.869	83.25
405.093	86.25
405.317	82.25
405.541	88.25
405.765	100.25
405.988	74.25
406.212	97.25
406.436	91.25
406.66	86.25
406.883	87.25
407.107	90.25
407.331	89.25
407.555	87.25
407.778	78.25
408.002	73.25
408.226	82.25
408.449	88.25
408.673	91.25
408.896	85.25
409.12	92.25
409.344	75.25
409.567	97.25
409.791	76.25
410.014	97.25
410.238	93.25
410.461	91.25
410.685	74.25
410.908	80.25
411.132	90.25
411.355	73.25
411.578	93.25
411.802	87.25
412.025	91.25
412.249	90.25
412.472	78.25
412.695	88.25
412.919	85.25
413.142	91.25
413.365	77.25
413.589	78.25
413.812	73.25
414.035	84.25
414.258	82.25
414.482	93.25
414.705	80.25
414.928	77.25
415.151	77.25
415.374	94.25
415.597	77.25
415.821	91.25
416.044	90.25
416.267	90.25
416.49	96.25
416.713	91.25
416.936	93.25
417.159	84.25
417.382	81.25
417.605	80.25
417.828	91.25
418.051	87.25
418.274	87.25
418.497	79.25
418.72	84.25
418.943	79.25
419.166	65.25
419.389	84.25
419.611	87.25
419.834	81.25
420.057	85.25
420.28	88.25
420.503	75.25
420.726	79.25
420.948	80.25
421.171	86.25
421.394	94.25
421.617	88.25
421.839	83.25
422.062	74.25
422.285	81.25
422.507	98.25
422.73	88.25
422.953	105.25
423.175	94.25
423.398	85.25
423.621	93.25
423.843	80.25
424.066	89.25
424.288	83.25
424.511	87.25
424.733	88.25
424.956	92.25
425.178	89.25
425.401	84.25
425.623	92.25
425.846	104.25
426.068	85.25
426.291	66.25
426.513	86.25
426.735	83.25
426.958	81.25
427.18	84.25
427.402	78.25
427.625	89.25
427.847	81.25
428.069	82.25
428.292	83.25
428.514	80.25
428.736	83.25
428.958	72.25
429.181	113.25
429.403	84.25
429.625	79.25
429.847	84.25
430.069	92.25
430.292	91.25
430.514	94.25
430.736	72.25
430.958	85.25
431.18	93.25
431.402	83.25
431.624	90.25
431.846	92.25
432.068	98.25
432.29	87.25
432.512	90.25
432.734	77.25
432.956	78.25
433.178	80.25
433.4	82.25
433.622	77.25
433.844	79.25
434.066	78.25
434.287	94.25
434.509	90.25
434.731	76.25
434.953	89.25
435.175	92.25
435.397	86.25
435.618	90.25
435.84	91.25
436.062	106.25
436.284	84.25
436.505	86.25
436.727	87.25
436.949	87.25
437.17	81.25
437.392	83.25
437.614	85.25
437.835	73.25
438.057	82.25
438.278	92.25
438.5	81.25
438.721	83.25
438.943	80.25
439.165	82.25
439.386	88.25
439.608	88.25
439.829	81.25
440.05	102.25
440.272	86.25
440.493	90.25
440.715	82.25
440.936	100.25
441.158	92.25
441.379	87.25
441.6	83.25
441.822	79.25
442.043	81.25
442.264	76.25
442.486	87.25
442.707	80.25
442.928	79.25
443.149	72.25
443.371	82.25
443.592	90.25
443.813	105.25
444.034	74.25
444.255	90.25
444.476	80.25
444.698	86.25
444.919	85.25
445.14	142.25
445.361	121.25
445.582	110.25
445.803	83.25
446.024	81.25
446.245	77.25
446.466	86.25
446.687	95.25
446.908	87.25
447.129	83.25
447.35	78.25
447.571	82.25
447.792	87.25
448.013	81.25
448.234	86.25
448.455	83.25
448.675	73.25
448.896	82.25
449.117	76.25
449.338	89.25
449.559	91.25
449.779	97.25
450	84.25
450.221	96.25
450.442	84.25
450.662	88.25
450.883	77.25
451.104	96.25
451.324	92.25
451.545	91.25
451.766	92.25
451.986	78.25
452.207	98.25
452.428	92.25
452.648	101.25
452.869	84.25
453.089	94.25
453.31	77.25
453.53	83.25
453.751	88.25
453.971	89.25
454.192	102.25
454.412	84.25
454.633	86.25
454.853	85.25
455.073	94.25
455.294	89.25
455.514	101.25
455.734	86.25
455.955	68.25
456.175	81.25
456.395	94.25
456.616	88.25
456.836	92.25
457.056	79.25
457.276	77.25
457.497	79.25
457.717	89.25
457.937	94.25
458.157	82.25
458.377	93.25
458.598	88.25
458.818	82.25
459.038	82.25
459.258	102.25
459.478	98.25
459.698	91.25
459.918	75.25
460.138	93.25
460.358	77.25
460.578	94.25
460.798	85.25
461.018	78.25
461.238	88.25
461.458	93.25
461.678	87.25
461.898	86.25
462.118	86.25
462.338	80.25
462.558	84.25
462.777	89.25
462.997	97.25
463.217	90.25
463.437	96.25
463.657	74.25
463.876	88.25
464.096	81.25
464.316	83.25
464.536	91.25
464.755	87.25
464.975	86.25
465.195	94.25
465.414	87.25
465.634	91.25
465.854	87.25
466.073	91.25
466.293	82.25
466.512	90.25
466.732	75.25
466.951	93.25
467.171	84.25
467.391	87.25
467.61	84.25
467.829	82.25
468.049	87.25
468.268	84.25
468.488	78.25
468.707	72.25
468.927	95.25
469.146	89.25
469.365	100.25
469.585	97.25
469.804	92.25
470.023	88.25
470.243	90.25
470.462	87.25
470.681	89.25
470.901	96.25
471.12	87.25
471.339	83.25
471.558	78.25
471.777	73.25
471.997	84.25
472.216	94.25
472.435	93.25
472.654	93.25
472.873	84.25
473.092	88.25
473.311	73.25
473.53	85.25
473.749	98.25
473.968	103.25
474.187	87.25
474.406	102.25
474.625	101.25
474.844	87.25
475.063	87.25
475.282	88.25
475.501	87.25
475.72	91.25
475.939	78.25
476.158	91.25
476.377	95.25
476.596	78.25
476.814	92.25
477.033	78.25
477.252	76.25
477.471	83.25
477.69	72.25
477.908	85.25
478.127	100.25
478.346	81.25
478.564	91.25
478.783	86.25
479.002	85.25
479.22	84.25
479.439	91.25
479.658	71.25
479.876	87.25
480.095	90.25
480.313	101.25
480.532	92.25
480.751	90.25
480.969	89.25
481.188	97.25
481.406	84.25
481.624	89.25
481.843	88.25
482.061	96.25
482.28	72.25
482.498	81.25
482.717	85.25
482.935	91.25
483.153	93.25
483.372	94.25
483.59	97.25
483.808	91.25
484.027	95.25
484.245	92.25
484.463	89.25
484.681	106.25
484.9	75.25
485.118	93.25
485.336	82.25
485.554	83.25
485.772	85.25
485.99	79.25
486.209	94.25
486.427	93.25
486.645	90.25
486.863	95.25
487.081	85.25
487.299	93.25
487.517	90.25
487.735	86.25
487.953	91.25
488.171	92.25
488.389	93.25
488.607	87.25
488.825	84.25
489.043	89.25
489.261	94.25
489.479	85.25
489.696	77.25
489.914	98.25
490.132	79.25
490.35	94.25
490.568	96.25
490.786	99.25
491.003	95.25
491.221	93.25
491.439	85.25
491.657	98.25
491.874	86.25
492.092	85.25
492.31	94.25
492.527	89.25
492.745	90.25
492.963	91.25
493.18	79.25
493.398	78.25
493.615	90.25
493.833	96.25
494.05	94.25
494.268	90.25
494.485	90.25
494.703	85.25
494.92	83.25
495.138	77.25
495.355	90.25
495.573	84.25
495.79	85.25
496.008	82.25
496.225	75.25
496.442	88.25
496.66	100.25
496.877	87.25
497.094	95.25
497.312	91.25
497.529	85.25
497.746	97.25
497.963	84.25
498.181	97.25
498.398	80.25
498.615	87.25
498.832	80.25
499.049	104.25
499.267	88.25
499.484	75.25
499.701	87.25
499.918	79.25
500.135	84.25
500.352	97.25
500.569	89.25
500.786	99.25
501.003	97.25
501.22	89.25
501.437	90.25
501.654	89.25
501.871	99.25
502.088	90.25
502.305	92.25
502.522	81.25
502.739	82.25
502.956	93.25
503.172	89.25
503.389	89.25
503.606	85.25
503.823	79.25
504.04	85.25
504.256	78.25
504.473	101.25
504.69	97.25
504.907	102.25
505.123	94.25
505.34	103.25
505.557	85.25
505.773	87.25
505.99	83.25
506.207	80.25
506.423	91.25
506.64	83.25
506.856	90.25
507.073	92.25
507.289	88.25
507.506	91.25
507.722	90.25
507.939	72.25
508.155	90.25
508.372	90.25
508.588	93.25
508.805	89.25
509.021	90.25
509.238	114.25
509.454	88.25
509.67	82.25
509.887	103.25
510.103	98.25
510.319	81.25
510.536	98.25
510.752	70.25
510.968	80.25
511.184	98.25
511.401	85.25
511.617	102.25
511.833	85.25
512.049	91.25
512.265	89.25
512.481	95.25
512.698	95.25
512.914	84.25
513.13	73.25
513.346	78.25
513.562	95.25
513.778	85.25
513.994	87.25
514.21	93.25
514.426	89.25
514.642	75.25
514.858	87.25
515.074	91.25
515.29	100.25
515.506	93.25
515.721	80.25
515.937	93.25
516.153	92.25
516.369	83.25
516.585	95.25
516.801	89.25
517.016	91.25
517.232	87.25
517.448	107.25
517.664	84.25
517.879	83.25
518.095	67.25
518.311	90.25
518.527	90.25
518.742	95.25
518.958	83.25
519.173	80.25
