Data from Dirtnoheat3_HRD10591_00020.txt Node
Date: Fri Dec 27 15:21:33 EST 2024
User: Yrep
Spectrometer: HR+D1059
Trigger mode: 1
Integration Time (sec): 1.000000E-1
Scans to average: 1
Electric dark correction enabled: true
Nonlinearity correction enabled: false
Boxcar width: 0
XAxis mode: Wavelengths
Number of Pixels in Spectrum: 2048
>>>>>Begin Spectral Data<<<<<
223.165	-11.62
223.4	-11.62
223.635	-11.62
223.869	-29.62
224.104	-18.62
224.338	-17.62
224.573	-18.62
224.808	-18.62
225.042	-9.62
225.277	-15.62
225.511	-0.62
225.746	4.38
225.98	15.38
226.215	26.38
226.449	22.38
226.683	20.38
226.918	30.38
227.152	21.38
227.387	23.38
227.621	37.38
227.856	46.38
228.09	39.38
228.324	52.38
228.559	59.38
228.793	70.38
229.027	61.38
229.262	81.38
229.496	75.38
229.73	66.38
229.964	80.38
230.199	69.38
230.433	82.38
230.667	69.38
230.901	81.38
231.136	89.38
231.37	76.38
231.604	90.38
231.838	70.38
232.072	70.38
232.306	79.38
232.541	85.38
232.775	89.38
233.009	72.38
233.243	82.38
233.477	84.38
233.711	84.38
233.945	80.38
234.179	77.38
234.413	81.38
234.647	68.38
234.881	66.38
235.115	74.38
235.349	72.38
235.583	71.38
235.817	72.38
236.051	78.38
236.285	78.38
236.519	82.38
236.753	79.38
236.987	68.38
237.221	69.38
237.455	81.38
237.689	68.38
237.922	79.38
238.156	80.38
238.39	81.38
238.624	87.38
238.858	85.38
239.091	71.38
239.325	68.38
239.559	78.38
239.793	82.38
240.027	83.38
240.26	71.38
240.494	77.38
240.728	84.38
240.961	82.38
241.195	85.38
241.429	69.38
241.662	77.38
241.896	92.38
242.13	77.38
242.363	60.38
242.597	69.38
242.83	82.38
243.064	76.38
243.298	77.38
243.531	76.38
243.765	67.38
243.998	76.38
244.232	77.38
244.465	76.38
244.699	84.38
244.932	66.38
245.166	81.38
245.399	86.38
245.633	76.38
245.866	70.38
246.099	73.38
246.333	86.38
246.566	57.38
246.8	86.38
247.033	89.38
247.266	86.38
247.5	75.38
247.733	87.38
247.966	82.38
248.2	86.38
248.433	77.38
248.666	82.38
248.899	76.38
249.133	72.38
249.366	102.38
249.599	79.38
249.832	74.38
250.066	90.38
250.299	78.38
250.532	81.38
250.765	69.38
250.998	79.38
251.231	80.38
251.465	85.38
251.698	77.38
251.931	72.38
252.164	87.38
252.397	87.38
252.63	74.38
252.863	71.38
253.096	79.38
253.329	77.38
253.562	84.38
253.795	91.38
254.028	87.38
254.261	69.38
254.494	71.38
254.727	77.38
254.96	72.38
255.193	78.38
255.426	83.38
255.659	67.38
255.892	92.38
256.124	96.38
256.357	106.38
256.59	83.38
256.823	84.38
257.056	87.38
257.289	86.38
257.521	80.38
257.754	77.38
257.987	77.38
258.22	72.38
258.452	85.38
258.685	74.38
258.918	79.38
259.151	69.38
259.383	86.38
259.616	77.38
259.849	91.38
260.081	94.38
260.314	76.38
260.547	86.38
260.779	98.38
261.012	89.38
261.244	83.38
261.477	89.38
261.71	77.38
261.942	90.38
262.175	75.38
262.407	74.38
262.64	82.38
262.872	76.38
263.105	82.38
263.337	87.38
263.57	85.38
263.802	76.38
264.035	91.38
264.267	84.38
264.499	85.38
264.732	82.38
264.964	65.38
265.197	87.38
265.429	91.38
265.661	87.38
265.894	82.38
266.126	91.38
266.358	79.38
266.591	86.38
266.823	89.38
267.055	75.38
267.287	79.38
267.52	83.38
267.752	84.38
267.984	69.38
268.216	91.38
268.448	94.38
268.681	91.38
268.913	93.38
269.145	90.38
269.377	72.38
269.609	80.38
269.841	100.38
270.073	82.38
270.306	88.38
270.538	101.38
270.77	81.38
271.002	85.38
271.234	80.38
271.466	90.38
271.698	92.38
271.93	85.38
272.162	71.38
272.394	81.38
272.626	94.38
272.858	89.38
273.09	92.38
273.322	96.38
273.553	94.38
273.785	80.38
274.017	75.38
274.249	83.38
274.481	95.38
274.713	81.38
274.945	81.38
275.176	91.38
275.408	80.38
275.64	82.38
275.872	76.38
276.104	79.38
276.335	71.38
276.567	88.38
276.799	84.38
277.031	86.38
277.262	65.38
277.494	82.38
277.726	91.38
277.957	85.38
278.189	86.38
278.421	90.38
278.652	87.38
278.884	97.38
279.115	89.38
279.347	78.38
279.579	82.38
279.81	79.38
280.042	105.38
280.273	81.38
280.505	78.38
280.736	81.38
280.968	95.38
281.199	94.38
281.431	81.38
281.662	81.38
281.894	90.38
282.125	86.38
282.356	96.38
282.588	83.38
282.819	82.38
283.051	93.38
283.282	97.38
283.513	85.38
283.745	76.38
283.976	80.38
284.207	81.38
284.439	66.38
284.67	97.38
284.901	72.38
285.132	98.38
285.364	86.38
285.595	84.38
285.826	92.38
286.057	85.38
286.288	86.38
286.52	99.38
286.751	80.38
286.982	90.38
287.213	85.38
287.444	91.38
287.675	83.38
287.906	86.38
288.138	92.38
288.369	90.38
288.6	82.38
288.831	82.38
289.062	77.38
289.293	85.38
289.524	83.38
289.755	83.38
289.986	94.38
290.217	78.38
290.448	81.38
290.679	88.38
290.91	89.38
291.141	84.38
291.371	71.38
291.602	96.38
291.833	89.38
292.064	83.38
292.295	73.38
292.526	72.38
292.757	86.38
292.987	85.38
293.218	96.38
293.449	90.38
293.68	94.38
293.91	94.38
294.141	103.38
294.372	90.38
294.603	78.38
294.833	85.38
295.064	83.38
295.295	83.38
295.525	87.38
295.756	89.38
295.987	75.38
296.217	78.38
296.448	76.38
296.679	75.38
296.909	84.38
297.14	103.38
297.37	98.38
297.601	90.38
297.831	79.38
298.062	95.38
298.292	79.38
298.523	80.38
298.753	77.38
298.984	92.38
299.214	90.38
299.445	92.38
299.675	88.38
299.905	90.38
300.136	89.38
300.366	80.38
300.597	81.38
300.827	89.38
301.057	79.38
301.288	80.38
301.518	80.38
301.748	91.38
301.979	118.38
302.209	90.38
302.439	71.38
302.669	89.38
302.9	82.38
303.13	94.38
303.36	89.38
303.59	69.38
303.82	98.38
304.051	91.38
304.281	80.38
304.511	67.38
304.741	98.38
304.971	87.38
305.201	95.38
305.431	91.38
305.661	100.38
305.891	81.38
306.121	81.38
306.352	85.38
306.582	82.38
306.812	87.38
307.042	91.38
307.272	84.38
307.502	83.38
307.731	90.38
307.961	96.38
308.191	87.38
308.421	64.38
308.651	85.38
308.881	86.38
309.111	89.38
309.341	93.38
309.571	87.38
309.8	91.38
310.03	90.38
310.26	75.38
310.49	82.38
310.72	81.38
310.949	95.38
311.179	83.38
311.409	82.38
311.639	85.38
311.868	92.38
312.098	85.38
312.328	92.38
312.557	85.38
312.787	82.38
313.017	99.38
313.246	75.38
313.476	85.38
313.706	90.38
313.935	92.38
314.165	91.38
314.394	97.38
314.624	78.38
314.853	89.38
315.083	86.38
315.312	101.38
315.542	86.38
315.771	109.38
316.001	71.38
316.23	85.38
316.46	74.38
316.689	81.38
316.919	83.38
317.148	84.38
317.377	81.38
317.607	92.38
317.836	92.38
318.065	85.38
318.295	92.38
318.524	84.38
318.753	72.38
318.983	89.38
319.212	84.38
319.441	72.38
319.67	77.38
319.9	86.38
320.129	103.38
320.358	98.38
320.587	91.38
320.816	92.38
321.046	80.38
321.275	82.38
321.504	90.38
321.733	83.38
321.962	81.38
322.191	84.38
322.42	77.38
322.649	90.38
322.878	78.38
323.108	92.38
323.337	83.38
323.566	89.38
323.795	87.38
324.024	89.38
324.253	92.38
324.482	82.38
324.71	82.38
324.939	84.38
325.168	95.38
325.397	86.38
325.626	91.38
325.855	86.38
326.084	87.38
326.313	90.38
326.542	90.38
326.77	96.38
326.999	85.38
327.228	81.38
327.457	88.38
327.686	78.38
327.914	93.38
328.143	93.38
328.372	93.38
328.6	85.38
328.829	92.38
329.058	85.38
329.287	94.38
329.515	82.38
329.744	92.38
329.972	87.38
330.201	97.38
330.43	77.38
330.658	89.38
330.887	84.38
331.115	81.38
331.344	84.38
331.572	96.38
331.801	99.38
332.03	83.38
332.258	83.38
332.486	80.38
332.715	78.38
332.943	71.38
333.172	84.38
333.4	89.38
333.629	79.38
333.857	95.38
334.085	89.38
334.314	77.38
334.542	89.38
334.771	86.38
334.999	94.38
335.227	89.38
335.455	91.38
335.684	92.38
335.912	97.38
336.14	98.38
336.369	72.38
336.597	95.38
336.825	80.38
337.053	80.38
337.281	86.38
337.51	75.38
337.738	86.38
337.966	92.38
338.194	77.38
338.422	83.38
338.65	83.38
338.878	94.38
339.106	87.38
339.334	97.38
339.562	84.38
339.79	81.38
340.018	94.38
340.246	82.38
340.474	83.38
340.702	102.38
340.93	86.38
341.158	93.38
341.386	90.38
341.614	82.38
341.842	83.38
342.07	83.38
342.298	90.38
342.526	80.38
342.754	101.38
342.981	80.38
343.209	96.38
343.437	107.38
343.665	95.38
343.893	98.38
344.12	90.38
344.348	85.38
344.576	85.38
344.804	90.38
345.031	86.38
345.259	92.38
345.487	87.38
345.714	92.38
345.942	83.38
346.17	91.38
346.397	82.38
346.625	77.38
346.853	76.38
347.08	81.38
347.308	77.38
347.535	74.38
347.763	94.38
347.99	97.38
348.218	76.38
348.445	85.38
348.673	93.38
348.9	92.38
349.128	100.38
349.355	84.38
349.583	76.38
349.81	82.38
350.037	82.38
350.265	98.38
350.492	72.38
350.72	82.38
350.947	77.38
351.174	70.38
351.402	77.38
351.629	85.38
351.856	78.38
352.083	84.38
352.311	86.38
352.538	96.38
352.765	90.38
352.992	99.38
353.22	86.38
353.447	90.38
353.674	78.38
353.901	90.38
354.128	85.38
354.355	90.38
354.583	72.38
354.81	76.38
355.037	77.38
355.264	90.38
355.491	85.38
355.718	81.38
355.945	91.38
356.172	84.38
356.399	85.38
356.626	93.38
356.853	85.38
357.08	79.38
357.307	100.38
357.534	80.38
357.761	99.38
357.988	102.38
358.215	79.38
358.441	85.38
358.668	76.38
358.895	87.38
359.122	85.38
359.349	90.38
359.576	89.38
359.802	100.38
360.029	93.38
360.256	102.38
360.483	91.38
360.709	84.38
360.936	96.38
361.163	94.38
361.39	84.38
361.616	69.38
361.843	79.38
362.07	66.38
362.296	81.38
362.523	100.38
362.749	71.38
362.976	90.38
363.203	89.38
363.429	87.38
363.656	81.38
363.882	88.38
364.109	97.38
364.335	79.38
364.562	81.38
364.788	82.38
365.015	78.38
365.241	97.38
365.468	87.38
365.694	89.38
365.92	79.38
366.147	95.38
366.373	94.38
366.599	88.38
366.826	91.38
367.052	81.38
367.278	94.38
367.505	85.38
367.731	109.38
367.957	90.38
368.184	89.38
368.41	79.38
368.636	90.38
368.862	83.38
369.089	90.38
369.315	81.38
369.541	81.38
369.767	69.38
369.993	106.38
370.219	91.38
370.445	84.38
370.672	74.38
370.898	90.38
371.124	89.38
371.35	73.38
371.576	75.38
371.802	89.38
372.028	76.38
372.254	84.38
372.48	86.38
372.706	90.38
372.932	86.38
373.158	79.38
373.384	80.38
373.61	82.38
373.835	75.38
374.061	81.38
374.287	83.38
374.513	91.38
374.739	78.38
374.965	94.38
375.191	78.38
375.416	84.38
375.642	98.38
375.868	80.38
376.094	76.38
376.319	85.38
376.545	81.38
376.771	105.38
376.997	99.38
377.222	87.38
377.448	92.38
377.674	83.38
377.899	72.38
378.125	87.38
378.35	88.38
378.576	78.38
378.802	89.38
379.027	97.38
379.253	76.38
379.478	77.38
379.704	82.38
379.929	89.38
380.155	92.38
380.38	80.38
380.606	90.38
380.831	87.38
381.057	91.38
381.282	71.38
381.507	72.38
381.733	80.38
381.958	89.38
382.184	92.38
382.409	89.38
382.634	98.38
382.86	86.38
383.085	82.38
383.31	77.38
383.535	88.38
383.761	89.38
383.986	81.38
384.211	92.38
384.436	88.38
384.662	92.38
384.887	86.38
385.112	74.38
385.337	84.38
385.562	89.38
385.787	74.38
386.013	82.38
386.238	87.38
386.463	63.38
386.688	107.38
386.913	93.38
387.138	86.38
387.363	80.38
387.588	97.38
387.813	89.38
388.038	97.38
388.263	110.38
388.488	87.38
388.713	78.38
388.938	80.38
389.163	85.38
389.387	90.38
389.612	83.38
389.837	94.38
390.062	98.38
390.287	99.38
390.512	79.38
390.736	86.38
390.961	74.38
391.186	82.38
391.411	90.38
391.636	87.38
391.86	76.38
392.085	102.38
392.31	80.38
392.534	90.38
392.759	88.38
392.984	80.38
393.208	95.38
393.433	97.38
393.658	91.38
393.882	105.38
394.107	86.38
394.331	89.38
394.556	98.38
394.78	96.38
395.005	83.38
395.229	88.38
395.454	90.38
395.678	93.38
395.903	80.38
396.127	90.38
396.352	94.38
396.576	106.38
396.801	92.38
397.025	92.38
397.249	93.38
397.474	97.38
397.698	85.38
397.922	87.38
398.147	80.38
398.371	64.38
398.595	71.38
398.82	82.38
399.044	94.38
399.268	81.38
399.492	79.38
399.717	93.38
399.941	83.38
400.165	83.38
400.389	73.38
400.613	82.38
400.837	91.38
401.062	90.38
401.286	91.38
401.51	82.38
401.734	78.38
401.958	77.38
402.182	85.38
402.406	89.38
402.63	75.38
402.854	79.38
403.078	104.38
403.302	73.38
403.526	76.38
403.75	86.38
403.974	83.38
404.198	87.38
404.422	89.38
404.645	92.38
404.869	81.38
405.093	89.38
405.317	82.38
405.541	79.38
405.765	89.38
405.988	87.38
406.212	79.38
406.436	86.38
406.66	81.38
406.883	78.38
407.107	92.38
407.331	83.38
407.555	88.38
407.778	82.38
408.002	81.38
408.226	76.38
408.449	89.38
408.673	77.38
408.896	93.38
409.12	89.38
409.344	89.38
409.567	94.38
409.791	74.38
410.014	98.38
410.238	81.38
410.461	89.38
410.685	76.38
410.908	90.38
411.132	78.38
411.355	77.38
411.578	78.38
411.802	89.38
412.025	87.38
412.249	80.38
412.472	74.38
412.695	89.38
412.919	82.38
413.142	95.38
413.365	79.38
413.589	83.38
413.812	93.38
414.035	82.38
414.258	80.38
414.482	86.38
414.705	86.38
414.928	82.38
415.151	86.38
415.374	77.38
415.597	85.38
415.821	98.38
416.044	87.38
416.267	88.38
416.49	84.38
416.713	77.38
416.936	64.38
417.159	85.38
417.382	91.38
417.605	69.38
417.828	89.38
418.051	78.38
418.274	90.38
418.497	78.38
418.72	84.38
418.943	80.38
419.166	84.38
419.389	83.38
419.611	86.38
419.834	85.38
420.057	85.38
420.28	90.38
420.503	79.38
420.726	89.38
420.948	78.38
421.171	82.38
421.394	88.38
421.617	72.38
421.839	79.38
422.062	96.38
422.285	98.38
422.507	110.38
422.73	93.38
422.953	82.38
423.175	91.38
423.398	97.38
423.621	88.38
423.843	90.38
424.066	84.38
424.288	83.38
424.511	78.38
424.733	90.38
424.956	81.38
425.178	82.38
425.401	77.38
425.623	89.38
425.846	81.38
426.068	75.38
426.291	78.38
426.513	74.38
426.735	76.38
426.958	79.38
427.18	79.38
427.402	70.38
427.625	83.38
427.847	86.38
428.069	89.38
428.292	75.38
428.514	91.38
428.736	86.38
428.958	88.38
429.181	98.38
429.403	83.38
429.625	95.38
429.847	86.38
430.069	89.38
430.292	99.38
430.514	88.38
430.736	76.38
430.958	92.38
431.18	74.38
431.402	89.38
431.624	87.38
431.846	78.38
432.068	94.38
432.29	89.38
432.512	82.38
432.734	85.38
432.956	90.38
433.178	91.38
433.4	77.38
433.622	92.38
433.844	94.38
434.066	83.38
434.287	95.38
434.509	84.38
434.731	83.38
434.953	80.38
435.175	77.38
435.397	73.38
435.618	90.38
435.84	79.38
436.062	83.38
436.284	86.38
436.505	87.38
436.727	87.38
436.949	93.38
437.17	71.38
437.392	99.38
437.614	88.38
437.835	80.38
438.057	82.38
438.278	105.38
438.5	84.38
438.721	98.38
438.943	95.38
439.165	84.38
439.386	87.38
439.608	78.38
439.829	74.38
440.05	83.38
440.272	100.38
440.493	77.38
440.715	75.38
440.936	78.38
441.158	91.38
441.379	70.38
441.6	71.38
441.822	75.38
442.043	80.38
442.264	95.38
442.486	90.38
442.707	96.38
442.928	98.38
443.149	74.38
443.371	84.38
443.592	110.38
443.813	85.38
444.034	95.38
444.255	79.38
444.476	86.38
444.698	79.38
444.919	77.38
445.14	161.38
445.361	120.38
445.582	100.38
445.803	101.38
446.024	94.38
446.245	82.38
446.466	82.38
446.687	86.38
446.908	93.38
447.129	90.38
447.35	93.38
447.571	86.38
447.792	80.38
448.013	89.38
448.234	84.38
448.455	99.38
448.675	87.38
448.896	84.38
449.117	91.38
449.338	79.38
449.559	87.38
449.779	82.38
450	90.38
450.221	82.38
450.442	77.38
450.662	66.38
450.883	76.38
451.104	67.38
451.324	86.38
451.545	75.38
451.766	97.38
451.986	85.38
452.207	83.38
452.428	88.38
452.648	77.38
452.869	89.38
453.089	79.38
453.31	70.38
453.53	79.38
453.751	67.38
453.971	67.38
454.192	79.38
454.412	94.38
454.633	76.38
454.853	84.38
455.073	92.38
455.294	94.38
455.514	71.38
455.734	92.38
455.955	107.38
456.175	87.38
456.395	92.38
456.616	86.38
456.836	87.38
457.056	77.38
457.276	76.38
457.497	82.38
457.717	93.38
457.937	77.38
458.157	95.38
458.377	90.38
458.598	71.38
458.818	95.38
459.038	97.38
459.258	69.38
459.478	90.38
459.698	92.38
459.918	90.38
460.138	77.38
460.358	85.38
460.578	92.38
460.798	82.38
461.018	87.38
461.238	87.38
461.458	88.38
461.678	92.38
461.898	90.38
462.118	85.38
462.338	95.38
462.558	97.38
462.777	83.38
462.997	87.38
463.217	78.38
463.437	84.38
463.657	92.38
463.876	72.38
464.096	86.38
464.316	77.38
464.536	74.38
464.755	87.38
464.975	99.38
465.195	84.38
465.414	76.38
465.634	83.38
465.854	89.38
466.073	87.38
466.293	82.38
466.512	70.38
466.732	91.38
466.951	96.38
467.171	84.38
467.391	75.38
467.61	74.38
467.829	87.38
468.049	80.38
468.268	88.38
468.488	74.38
468.707	78.38
468.927	90.38
469.146	78.38
469.365	78.38
469.585	85.38
469.804	88.38
470.023	78.38
470.243	77.38
470.462	95.38
470.681	81.38
470.901	93.38
471.12	86.38
471.339	89.38
471.558	90.38
471.777	89.38
471.997	79.38
472.216	83.38
472.435	89.38
472.654	80.38
472.873	79.38
473.092	95.38
473.311	82.38
473.53	80.38
473.749	69.38
473.968	77.38
474.187	96.38
474.406	82.38
474.625	73.38
474.844	80.38
475.063	79.38
475.282	91.38
475.501	82.38
475.72	99.38
475.939	86.38
476.158	79.38
476.377	89.38
476.596	75.38
476.814	96.38
477.033	81.38
477.252	81.38
477.471	79.38
477.69	86.38
477.908	82.38
478.127	95.38
478.346	93.38
478.564	91.38
478.783	73.38
479.002	86.38
479.22	89.38
479.439	75.38
479.658	77.38
479.876	87.38
480.095	74.38
480.313	82.38
480.532	79.38
480.751	66.38
480.969	93.38
481.188	91.38
481.406	102.38
481.624	90.38
481.843	84.38
482.061	81.38
482.28	79.38
482.498	88.38
482.717	80.38
482.935	84.38
483.153	78.38
483.372	81.38
483.59	69.38
483.808	82.38
484.027	103.38
484.245	101.38
484.463	90.38
484.681	100.38
484.9	72.38
485.118	91.38
485.336	78.38
485.554	80.38
485.772	83.38
485.99	87.38
486.209	81.38
486.427	82.38
486.645	97.38
486.863	82.38
487.081	87.38
487.299	90.38
487.517	94.38
487.735	83.38
487.953	86.38
488.171	79.38
488.389	70.38
488.607	83.38
488.825	80.38
489.043	84.38
489.261	71.38
489.479	86.38
489.696	73.38
489.914	97.38
490.132	86.38
490.35	82.38
490.568	94.38
490.786	92.38
491.003	76.38
491.221	90.38
491.439	93.38
491.657	88.38
491.874	89.38
492.092	79.38
492.31	85.38
492.527	79.38
492.745	74.38
492.963	87.38
493.18	87.38
493.398	105.38
493.615	96.38
493.833	77.38
494.05	92.38
494.268	78.38
494.485	94.38
494.703	82.38
494.92	73.38
495.138	76.38
495.355	83.38
495.573	99.38
495.79	90.38
496.008	90.38
496.225	68.38
496.442	80.38
496.66	97.38
496.877	92.38
497.094	87.38
497.312	99.38
497.529	86.38
497.746	86.38
497.963	82.38
498.181	89.38
498.398	89.38
498.615	74.38
498.832	85.38
499.049	79.38
499.267	91.38
499.484	85.38
499.701	91.38
499.918	80.38
500.135	98.38
500.352	81.38
500.569	83.38
500.786	85.38
501.003	87.38
501.22	102.38
501.437	89.38
501.654	96.38
501.871	83.38
502.088	66.38
502.305	74.38
502.522	93.38
502.739	82.38
502.956	80.38
503.172	85.38
503.389	90.38
503.606	95.38
503.823	83.38
504.04	99.38
504.256	95.38
504.473	84.38
504.69	94.38
504.907	86.38
505.123	78.38
505.34	86.38
505.557	83.38
505.773	91.38
505.99	76.38
506.207	93.38
506.423	94.38
506.64	85.38
506.856	71.38
507.073	80.38
507.289	74.38
507.506	77.38
507.722	80.38
507.939	77.38
508.155	79.38
508.372	95.38
508.588	86.38
508.805	79.38
509.021	96.38
509.238	91.38
509.454	85.38
509.67	97.38
509.887	76.38
510.103	81.38
510.319	89.38
510.536	103.38
510.752	70.38
510.968	83.38
511.184	87.38
511.401	78.38
511.617	85.38
511.833	79.38
512.049	89.38
512.265	84.38
512.481	88.38
512.698	88.38
512.914	70.38
513.13	85.38
513.346	86.38
513.562	89.38
513.778	83.38
513.994	89.38
514.21	82.38
514.426	102.38
514.642	84.38
514.858	88.38
515.074	78.38
515.29	89.38
515.506	95.38
515.721	85.38
515.937	74.38
516.153	90.38
516.369	93.38
516.585	84.38
516.801	68.38
517.016	82.38
517.232	78.38
517.448	83.38
517.664	84.38
517.879	68.38
518.095	97.38
518.311	91.38
518.527	92.38
518.742	77.38
518.958	80.38
519.173	95.38
519.389	88.38
519.605	84.38
