Data from Coke_Can_Tab_HRD10591_00008.txt Node
Date: Wed Nov 05 15:50:31 EST 2025
User: Yrep
Spectrometer: HR+D1059
Trigger mode: 1
Integration Time (sec): 1.000000E-1
Scans to average: 1
Electric dark correction enabled: true
Nonlinearity correction enabled: false
Boxcar width: 0
XAxis mode: Wavelengths
Number of Pixels in Spectrum: 2048
>>>>>Begin Spectral Data<<<<<
223.165	-20.81
223.4	-20.81
223.635	-20.81
223.869	-15.81
224.104	-18.81
224.338	-8.81
224.573	-13.81
224.808	-23.81
225.042	2.19
225.277	2.19
225.511	-1.81
225.746	3.19
225.98	-5.81
226.215	1.19
226.449	20.19
226.683	20.19
226.918	28.19
227.152	32.19
227.387	37.19
227.621	48.19
227.856	44.19
228.09	36.19
228.324	30.19
228.559	49.19
228.793	56.19
229.027	46.19
229.262	64.19
229.496	49.19
229.73	80.19
229.964	66.19
230.199	73.19
230.433	79.19
230.667	70.19
230.901	82.19
231.136	80.19
231.37	85.19
231.604	87.19
231.838	82.19
232.072	85.19
232.306	74.19
232.541	98.19
232.775	82.19
233.009	89.19
233.243	75.19
233.477	94.19
233.711	97.19
233.945	76.19
234.179	88.19
234.413	74.19
234.647	89.19
234.881	87.19
235.115	76.19
235.349	84.19
235.583	84.19
235.817	85.19
236.051	72.19
236.285	68.19
236.519	78.19
236.753	74.19
236.987	82.19
237.221	80.19
237.455	80.19
237.689	76.19
237.922	74.19
238.156	70.19
238.39	75.19
238.624	82.19
238.858	72.19
239.091	67.19
239.325	75.19
239.559	68.19
239.793	76.19
240.027	71.19
240.26	92.19
240.494	68.19
240.728	74.19
240.961	73.19
241.195	78.19
241.429	87.19
241.662	67.19
241.896	68.19
242.13	73.19
242.363	63.19
242.597	83.19
242.83	77.19
243.064	75.19
243.298	82.19
243.531	71.19
243.765	77.19
243.998	74.19
244.232	84.19
244.465	84.19
244.699	65.19
244.932	74.19
245.166	76.19
245.399	65.19
245.633	86.19
245.866	78.19
246.099	77.19
246.333	73.19
246.566	84.19
246.8	62.19
247.033	84.19
247.266	76.19
247.5	74.19
247.733	86.19
247.966	83.19
248.2	73.19
248.433	89.19
248.666	62.19
248.899	78.19
249.133	68.19
249.366	76.19
249.599	75.19
249.832	70.19
250.066	73.19
250.299	67.19
250.532	82.19
250.765	86.19
250.998	78.19
251.231	70.19
251.465	82.19
251.698	82.19
251.931	92.19
252.164	82.19
252.397	76.19
252.63	73.19
252.863	78.19
253.096	84.19
253.329	66.19
253.562	72.19
253.795	78.19
254.028	90.19
254.261	84.19
254.494	77.19
254.727	84.19
254.96	69.19
255.193	65.19
255.426	66.19
255.659	93.19
255.892	69.19
256.124	85.19
256.357	72.19
256.59	78.19
256.823	77.19
257.056	78.19
257.289	90.19
257.521	73.19
257.754	86.19
257.987	81.19
258.22	78.19
258.452	88.19
258.685	78.19
258.918	78.19
259.151	68.19
259.383	66.19
259.616	69.19
259.849	68.19
260.081	84.19
260.314	84.19
260.547	83.19
260.779	93.19
261.012	73.19
261.244	72.19
261.477	78.19
261.71	79.19
261.942	84.19
262.175	66.19
262.407	88.19
262.64	66.19
262.872	83.19
263.105	76.19
263.337	82.19
263.57	86.19
263.802	92.19
264.035	70.19
264.267	82.19
264.499	93.19
264.732	93.19
264.964	87.19
265.197	85.19
265.429	68.19
265.661	86.19
265.894	88.19
266.126	94.19
266.358	79.19
266.591	80.19
266.823	82.19
267.055	79.19
267.287	88.19
267.52	80.19
267.752	72.19
267.984	96.19
268.216	77.19
268.448	80.19
268.681	92.19
268.913	77.19
269.145	84.19
269.377	92.19
269.609	83.19
269.841	84.19
270.073	87.19
270.306	69.19
270.538	70.19
270.77	81.19
271.002	69.19
271.234	64.19
271.466	84.19
271.698	84.19
271.93	60.19
272.162	76.19
272.394	98.19
272.626	83.19
272.858	79.19
273.09	76.19
273.322	84.19
273.553	92.19
273.785	71.19
274.017	92.19
274.249	74.19
274.481	81.19
274.713	62.19
274.945	82.19
275.176	76.19
275.408	88.19
275.64	76.19
275.872	79.19
276.104	84.19
276.335	84.19
276.567	88.19
276.799	79.19
277.031	88.19
277.262	75.19
277.494	87.19
277.726	103.19
277.957	73.19
278.189	100.19
278.421	88.19
278.652	84.19
278.884	74.19
279.115	80.19
279.347	91.19
279.579	95.19
279.81	93.19
280.042	79.19
280.273	68.19
280.505	80.19
280.736	86.19
280.968	90.19
281.199	90.19
281.431	82.19
281.662	86.19
281.894	76.19
282.125	93.19
282.356	93.19
282.588	75.19
282.819	78.19
283.051	75.19
283.282	82.19
283.513	80.19
283.745	91.19
283.976	84.19
284.207	82.19
284.439	80.19
284.67	87.19
284.901	67.19
285.132	98.19
285.364	97.19
285.595	82.19
285.826	84.19
286.057	91.19
286.288	78.19
286.52	86.19
286.751	94.19
286.982	75.19
287.213	78.19
287.444	71.19
287.675	68.19
287.906	92.19
288.138	72.19
288.369	84.19
288.6	84.19
288.831	73.19
289.062	65.19
289.293	80.19
289.524	87.19
289.755	79.19
289.986	85.19
290.217	86.19
290.448	89.19
290.679	93.19
290.91	78.19
291.141	85.19
291.371	92.19
291.602	80.19
291.833	69.19
292.064	82.19
292.295	88.19
292.526	94.19
292.757	81.19
292.987	66.19
293.218	87.19
293.449	84.19
293.68	95.19
293.91	91.19
294.141	79.19
294.372	82.19
294.603	77.19
294.833	83.19
295.064	68.19
295.295	84.19
295.525	88.19
295.756	80.19
295.987	72.19
296.217	78.19
296.448	85.19
296.679	86.19
296.909	78.19
297.14	78.19
297.37	85.19
297.601	79.19
297.831	81.19
298.062	84.19
298.292	97.19
298.523	79.19
298.753	77.19
298.984	83.19
299.214	82.19
299.445	87.19
299.675	84.19
299.905	78.19
300.136	84.19
300.366	80.19
300.597	87.19
300.827	85.19
301.057	74.19
301.288	76.19
301.518	81.19
301.748	78.19
301.979	98.19
302.209	77.19
302.439	67.19
302.669	78.19
302.9	76.19
303.13	83.19
303.36	93.19
303.59	75.19
303.82	92.19
304.051	81.19
304.281	76.19
304.511	70.19
304.741	79.19
304.971	88.19
305.201	77.19
305.431	89.19
305.661	78.19
305.891	82.19
306.121	74.19
306.352	57.19
306.582	86.19
306.812	90.19
307.042	82.19
307.272	83.19
307.502	77.19
307.731	84.19
307.961	90.19
308.191	90.19
308.421	104.19
308.651	87.19
308.881	94.19
309.111	102.19
309.341	106.19
309.571	116.19
309.8	76.19
310.03	78.19
310.26	81.19
310.49	85.19
310.72	90.19
310.949	68.19
311.179	66.19
311.409	82.19
311.639	85.19
311.868	103.19
312.098	83.19
312.328	88.19
312.557	83.19
312.787	70.19
313.017	72.19
313.246	81.19
313.476	78.19
313.706	73.19
313.935	90.19
314.165	93.19
314.394	83.19
314.624	74.19
314.853	104.19
315.083	84.19
315.312	90.19
315.542	66.19
315.771	88.19
316.001	78.19
316.23	83.19
316.46	86.19
316.689	90.19
316.919	82.19
317.148	94.19
317.377	85.19
317.607	87.19
317.836	86.19
318.065	64.19
318.295	86.19
318.524	61.19
318.753	86.19
318.983	89.19
319.212	75.19
319.441	70.19
319.67	74.19
319.9	87.19
320.129	86.19
320.358	88.19
320.587	101.19
320.816	86.19
321.046	83.19
321.275	84.19
321.504	90.19
321.733	76.19
321.962	76.19
322.191	67.19
322.42	100.19
322.649	78.19
322.878	80.19
323.108	91.19
323.337	86.19
323.566	83.19
323.795	76.19
324.024	76.19
324.253	65.19
324.482	90.19
324.71	83.19
324.939	93.19
325.168	93.19
325.397	78.19
325.626	68.19
325.855	83.19
326.084	85.19
326.313	89.19
326.542	84.19
326.77	75.19
326.999	74.19
327.228	80.19
327.457	88.19
327.686	86.19
327.914	79.19
328.143	78.19
328.372	77.19
328.6	92.19
328.829	82.19
329.058	74.19
329.287	75.19
329.515	77.19
329.744	84.19
329.972	76.19
330.201	87.19
330.43	68.19
330.658	77.19
330.887	71.19
331.115	70.19
331.344	79.19
331.572	77.19
331.801	70.19
332.03	90.19
332.258	90.19
332.486	76.19
332.715	85.19
332.943	84.19
333.172	70.19
333.4	85.19
333.629	100.19
333.857	75.19
334.085	94.19
334.314	75.19
334.542	88.19
334.771	92.19
334.999	74.19
335.227	73.19
335.455	95.19
335.684	80.19
335.912	94.19
336.14	84.19
336.369	88.19
336.597	96.19
336.825	81.19
337.053	84.19
337.281	80.19
337.51	69.19
337.738	85.19
337.966	76.19
338.194	87.19
338.422	79.19
338.65	85.19
338.878	84.19
339.106	76.19
339.334	93.19
339.562	68.19
339.79	80.19
340.018	84.19
340.246	82.19
340.474	74.19
340.702	90.19
340.93	101.19
341.158	80.19
341.386	79.19
341.614	78.19
341.842	72.19
342.07	78.19
342.298	91.19
342.526	84.19
342.754	68.19
342.981	73.19
343.209	76.19
343.437	84.19
343.665	81.19
343.893	73.19
344.12	95.19
344.348	91.19
344.576	82.19
344.804	84.19
345.031	82.19
345.259	73.19
345.487	78.19
345.714	76.19
345.942	66.19
346.17	72.19
346.397	72.19
346.625	77.19
346.853	80.19
347.08	90.19
347.308	74.19
347.535	92.19
347.763	96.19
347.99	85.19
348.218	90.19
348.445	91.19
348.673	86.19
348.9	92.19
349.128	87.19
349.355	76.19
349.583	69.19
349.81	70.19
350.037	81.19
350.265	86.19
350.492	79.19
350.72	74.19
350.947	77.19
351.174	77.19
351.402	79.19
351.629	88.19
351.856	75.19
352.083	76.19
352.311	87.19
352.538	68.19
352.765	95.19
352.992	109.19
353.22	84.19
353.447	88.19
353.674	89.19
353.901	89.19
354.128	68.19
354.355	76.19
354.583	85.19
354.81	80.19
355.037	76.19
355.264	72.19
355.491	82.19
355.718	79.19
355.945	86.19
356.172	87.19
356.399	76.19
356.626	86.19
356.853	91.19
357.08	85.19
357.307	84.19
357.534	76.19
357.761	104.19
357.988	95.19
358.215	89.19
358.441	83.19
358.668	88.19
358.895	89.19
359.122	78.19
359.349	75.19
359.576	84.19
359.802	75.19
360.029	76.19
360.256	78.19
360.483	81.19
360.709	71.19
360.936	72.19
361.163	80.19
361.39	94.19
361.616	87.19
361.843	90.19
362.07	67.19
362.296	70.19
362.523	80.19
362.749	72.19
362.976	85.19
363.203	92.19
363.429	69.19
363.656	81.19
363.882	76.19
364.109	77.19
364.335	98.19
364.562	89.19
364.788	73.19
365.015	86.19
365.241	83.19
365.468	92.19
365.694	80.19
365.92	87.19
366.147	82.19
366.373	85.19
366.599	62.19
366.826	86.19
367.052	93.19
367.278	66.19
367.505	88.19
367.731	82.19
367.957	92.19
368.184	84.19
368.41	78.19
368.636	91.19
368.862	77.19
369.089	76.19
369.315	83.19
369.541	86.19
369.767	78.19
369.993	87.19
370.219	74.19
370.445	85.19
370.672	73.19
370.898	75.19
371.124	68.19
371.35	73.19
371.576	88.19
371.802	71.19
372.028	67.19
372.254	76.19
372.48	78.19
372.706	89.19
372.932	79.19
373.158	77.19
373.384	72.19
373.61	84.19
373.835	96.19
374.061	82.19
374.287	86.19
374.513	78.19
374.739	72.19
374.965	90.19
375.191	93.19
375.416	87.19
375.642	86.19
375.868	73.19
376.094	72.19
376.319	81.19
376.545	81.19
376.771	74.19
376.997	84.19
377.222	82.19
377.448	70.19
377.674	74.19
377.899	73.19
378.125	85.19
378.35	74.19
378.576	79.19
378.802	71.19
379.027	79.19
379.253	80.19
379.478	72.19
379.704	83.19
379.929	90.19
380.155	78.19
380.38	104.19
380.606	84.19
380.831	85.19
381.057	82.19
381.282	88.19
381.507	86.19
381.733	94.19
381.958	87.19
382.184	74.19
382.409	88.19
382.634	93.19
382.86	83.19
383.085	87.19
383.31	94.19
383.535	90.19
383.761	93.19
383.986	85.19
384.211	80.19
384.436	88.19
384.662	89.19
384.887	97.19
385.112	73.19
385.337	86.19
385.562	95.19
385.787	72.19
386.013	76.19
386.238	91.19
386.463	90.19
386.688	93.19
386.913	82.19
387.138	64.19
387.363	94.19
387.588	78.19
387.813	81.19
388.038	88.19
388.263	99.19
388.488	84.19
388.713	88.19
388.938	83.19
389.163	78.19
389.387	78.19
389.612	72.19
389.837	84.19
390.062	70.19
390.287	87.19
390.512	82.19
390.736	84.19
390.961	66.19
391.186	79.19
391.411	77.19
391.636	86.19
391.86	73.19
392.085	88.19
392.31	82.19
392.534	81.19
392.759	55.19
392.984	82.19
393.208	84.19
393.433	74.19
393.658	86.19
393.882	98.19
394.107	107.19
394.331	149.19
394.556	157.19
394.78	109.19
395.005	97.19
395.229	85.19
395.454	97.19
395.678	87.19
395.903	129.19
396.127	182.19
396.352	183.19
396.576	118.19
396.801	82.19
397.025	79.19
397.249	82.19
397.474	82.19
397.698	60.19
397.922	86.19
398.147	88.19
398.371	81.19
398.595	93.19
398.82	85.19
399.044	91.19
399.268	82.19
399.492	76.19
399.717	83.19
399.941	77.19
400.165	84.19
400.389	78.19
400.613	82.19
400.837	79.19
401.062	84.19
401.286	68.19
401.51	69.19
401.734	70.19
401.958	68.19
402.182	69.19
402.406	76.19
402.63	84.19
402.854	79.19
403.078	74.19
403.302	71.19
403.526	89.19
403.75	85.19
403.974	73.19
404.198	83.19
404.422	74.19
404.645	76.19
404.869	88.19
405.093	70.19
405.317	84.19
405.541	99.19
405.765	70.19
405.988	65.19
406.212	77.19
406.436	78.19
406.66	82.19
406.883	85.19
407.107	66.19
407.331	75.19
407.555	78.19
407.778	80.19
408.002	74.19
408.226	75.19
408.449	88.19
408.673	96.19
408.896	85.19
409.12	82.19
409.344	90.19
409.567	69.19
409.791	81.19
410.014	84.19
410.238	74.19
410.461	79.19
410.685	81.19
410.908	81.19
411.132	84.19
411.355	84.19
411.578	89.19
411.802	88.19
412.025	82.19
412.249	77.19
412.472	91.19
412.695	92.19
412.919	91.19
413.142	77.19
413.365	75.19
413.589	82.19
413.812	90.19
414.035	88.19
414.258	93.19
414.482	84.19
414.705	72.19
414.928	79.19
415.151	84.19
415.374	81.19
415.597	80.19
415.821	75.19
416.044	90.19
416.267	68.19
416.49	82.19
416.713	79.19
416.936	93.19
417.159	82.19
417.382	72.19
417.605	72.19
417.828	73.19
418.051	78.19
418.274	96.19
418.497	78.19
418.72	75.19
418.943	92.19
419.166	71.19
419.389	81.19
419.611	79.19
419.834	81.19
420.057	94.19
420.28	88.19
420.503	82.19
420.726	88.19
420.948	72.19
421.171	91.19
421.394	82.19
421.617	99.19
421.839	77.19
422.062	88.19
422.285	90.19
422.507	85.19
422.73	96.19
422.953	93.19
423.175	80.19
423.398	80.19
423.621	88.19
423.843	71.19
424.066	70.19
424.288	73.19
424.511	85.19
424.733	71.19
424.956	101.19
425.178	78.19
425.401	87.19
425.623	82.19
425.846	75.19
426.068	76.19
426.291	66.19
426.513	64.19
426.735	87.19
426.958	89.19
427.18	87.19
427.402	83.19
427.625	84.19
427.847	89.19
428.069	81.19
428.292	72.19
428.514	95.19
428.736	84.19
428.958	74.19
429.181	77.19
429.403	87.19
429.625	73.19
429.847	77.19
430.069	90.19
430.292	84.19
430.514	85.19
430.736	92.19
430.958	95.19
431.18	70.19
431.402	73.19
431.624	74.19
431.846	99.19
432.068	70.19
432.29	80.19
432.512	90.19
432.734	89.19
432.956	99.19
433.178	88.19
433.4	79.19
433.622	75.19
433.844	91.19
434.066	84.19
434.287	73.19
434.509	62.19
434.731	74.19
434.953	72.19
435.175	73.19
435.397	79.19
435.618	88.19
435.84	77.19
436.062	84.19
436.284	73.19
436.505	67.19
436.727	76.19
436.949	77.19
437.17	79.19
437.392	84.19
437.614	81.19
437.835	68.19
438.057	76.19
438.278	74.19
438.5	71.19
438.721	93.19
438.943	87.19
439.165	86.19
439.386	78.19
439.608	79.19
439.829	78.19
440.05	96.19
440.272	88.19
440.493	85.19
440.715	72.19
440.936	86.19
441.158	84.19
441.379	96.19
441.6	100.19
441.822	91.19
442.043	86.19
442.264	85.19
442.486	89.19
442.707	93.19
442.928	90.19
443.149	84.19
443.371	98.19
443.592	89.19
443.813	85.19
444.034	82.19
444.255	93.19
444.476	88.19
444.698	86.19
444.919	72.19
445.14	134.19
445.361	115.19
445.582	91.19
445.803	78.19
446.024	84.19
446.245	68.19
446.466	72.19
446.687	75.19
446.908	93.19
447.129	88.19
447.35	73.19
447.571	90.19
447.792	72.19
448.013	84.19
448.234	86.19
448.455	76.19
448.675	90.19
448.896	85.19
449.117	87.19
449.338	72.19
449.559	86.19
449.779	77.19
450	95.19
450.221	82.19
450.442	85.19
450.662	84.19
450.883	98.19
451.104	78.19
451.324	89.19
451.545	80.19
451.766	78.19
451.986	74.19
452.207	80.19
452.428	82.19
452.648	83.19
452.869	73.19
453.089	78.19
453.31	79.19
453.53	83.19
453.751	81.19
453.971	82.19
454.192	86.19
454.412	67.19
454.633	78.19
454.853	88.19
455.073	74.19
455.294	102.19
455.514	96.19
455.734	87.19
455.955	76.19
456.175	73.19
456.395	74.19
456.616	75.19
456.836	74.19
457.056	79.19
457.276	86.19
457.497	69.19
457.717	74.19
457.937	73.19
458.157	84.19
458.377	84.19
458.598	71.19
458.818	77.19
459.038	91.19
459.258	80.19
459.478	73.19
459.698	72.19
459.918	84.19
460.138	86.19
460.358	78.19
460.578	87.19
460.798	91.19
461.018	83.19
461.238	78.19
461.458	81.19
461.678	79.19
461.898	85.19
462.118	82.19
462.338	84.19
462.558	84.19
462.777	65.19
462.997	77.19
463.217	84.19
463.437	69.19
463.657	83.19
463.876	78.19
464.096	91.19
464.316	71.19
464.536	80.19
464.755	77.19
464.975	80.19
465.195	74.19
465.414	75.19
465.634	73.19
465.854	75.19
466.073	83.19
466.293	95.19
466.512	70.19
466.732	81.19
466.951	95.19
467.171	86.19
467.391	90.19
467.61	93.19
467.829	88.19
468.049	96.19
468.268	84.19
468.488	83.19
468.707	76.19
468.927	80.19
469.146	94.19
469.365	86.19
469.585	64.19
469.804	85.19
470.023	76.19
470.243	84.19
470.462	86.19
470.681	91.19
470.901	87.19
471.12	74.19
471.339	81.19
471.558	90.19
471.777	90.19
471.997	88.19
472.216	103.19
472.435	86.19
472.654	76.19
472.873	82.19
473.092	69.19
473.311	86.19
473.53	104.19
473.749	91.19
473.968	84.19
474.187	93.19
474.406	88.19
474.625	82.19
474.844	97.19
475.063	79.19
475.282	70.19
475.501	81.19
475.72	100.19
475.939	74.19
476.158	87.19
476.377	95.19
476.596	83.19
476.814	81.19
477.033	64.19
477.252	99.19
477.471	89.19
477.69	78.19
477.908	87.19
478.127	82.19
478.346	78.19
478.564	87.19
478.783	84.19
479.002	84.19
479.22	84.19
479.439	95.19
479.658	97.19
479.876	84.19
480.095	92.19
480.313	83.19
480.532	75.19
480.751	84.19
480.969	77.19
481.188	80.19
481.406	82.19
481.624	77.19
481.843	86.19
482.061	84.19
482.28	101.19
482.498	100.19
482.717	80.19
482.935	94.19
483.153	86.19
483.372	96.19
483.59	86.19
483.808	88.19
484.027	84.19
484.245	85.19
484.463	85.19
484.681	91.19
484.9	82.19
485.118	89.19
485.336	80.19
485.554	88.19
485.772	77.19
485.99	93.19
486.209	95.19
486.427	77.19
486.645	90.19
486.863	88.19
487.081	78.19
487.299	107.19
487.517	90.19
487.735	81.19
487.953	93.19
488.171	81.19
488.389	86.19
488.607	75.19
488.825	75.19
489.043	77.19
489.261	95.19
489.479	69.19
489.696	84.19
489.914	76.19
490.132	80.19
490.35	95.19
490.568	86.19
490.786	69.19
491.003	87.19
491.221	94.19
491.439	109.19
491.657	86.19
491.874	99.19
492.092	103.19
492.31	96.19
492.527	90.19
492.745	87.19
492.963	105.19
493.18	96.19
493.398	82.19
493.615	98.19
493.833	98.19
494.05	90.19
494.268	94.19
494.485	94.19
494.703	100.19
494.92	89.19
495.138	96.19
495.355	92.19
495.573	96.19
495.79	90.19
496.008	96.19
496.225	88.19
496.442	79.19
496.66	100.19
496.877	78.19
497.094	94.19
497.312	95.19
497.529	81.19
497.746	86.19
497.963	89.19
498.181	93.19
498.398	95.19
498.615	80.19
498.832	93.19
499.049	87.19
499.267	89.19
499.484	83.19
499.701	92.19
499.918	72.19
500.135	75.19
500.352	83.19
500.569	95.19
500.786	88.19
501.003	99.19
501.22	82.19
501.437	88.19
501.654	79.19
501.871	87.19
502.088	99.19
502.305	82.19
502.522	88.19
502.739	86.19
502.956	72.19
503.172	82.19
503.389	90.19
503.606	70.19
503.823	80.19
504.04	88.19
504.256	72.19
504.473	88.19
504.69	86.19
504.907	89.19
505.123	73.19
505.34	82.19
505.557	93.19
505.773	70.19
505.99	88.19
506.207	79.19
506.423	81.19
506.64	72.19
506.856	96.19
507.073	80.19
507.289	94.19
507.506	77.19
507.722	78.19
507.939	85.19
508.155	84.19
508.372	72.19
508.588	81.19
508.805	86.19
509.021	85.19
509.238	85.19
509.454	79.19
509.67	68.19
509.887	91.19
510.103	79.19
510.319	84.19
510.536	94.19
510.752	70.19
510.968	76.19
511.184	90.19
511.401	84.19
511.617	76.19
511.833	89.19
512.049	76.19
512.265	92.19
512.481	92.19
512.698	92.19
512.914	90.19
513.13	90.19
513.346	74.19
513.562	83.19
513.778	78.19
513.994	89.19
514.21	95.19
514.426	91.19
514.642	83.19
514.858	76.19
515.074	82.19
515.29	86.19
515.506	65.19
515.721	70.19
515.937	74.19
516.153	80.19
516.369	82.19
516.585	59.19
516.801	88.19
517.016	97.19
517.232	84.19
517.448	97.19
517.664	99.19
517.879	89.19
518.095	77.19
518.311	75.19
518.527	120.19
518.742	98.19
518.958	93.19
519.173	85.19
519.389	75.19
519.605	105.19
