Data from Coke_Can_Tab_HRD10591_00013.txt Node
Date: Wed Nov 05 15:50:33 EST 2025
User: Yrep
Spectrometer: HR+D1059
Trigger mode: 1
Integration Time (sec): 1.000000E-1
Scans to average: 1
Electric dark correction enabled: true
Nonlinearity correction enabled: false
Boxcar width: 0
XAxis mode: Wavelengths
Number of Pixels in Spectrum: 2048
>>>>>Begin Spectral Data<<<<<
223.165	-25
223.4	-25
223.635	-25
223.869	-21
224.104	-19
224.338	-25
224.573	2
224.808	-7
225.042	-4
225.277	-5
225.511	1
225.746	4
225.98	7
226.215	14
226.449	9
226.683	25
226.918	25
227.152	19
227.387	38
227.621	41
227.856	29
228.09	33
228.324	59
228.559	54
228.793	59
229.027	61
229.262	56
229.496	69
229.73	65
229.964	59
230.199	76
230.433	77
230.667	69
230.901	70
231.136	79
231.37	79
231.604	89
231.838	75
232.072	70
232.306	85
232.541	87
232.775	89
233.009	81
233.243	87
233.477	77
233.711	85
233.945	67
234.179	69
234.413	83
234.647	76
234.881	81
235.115	90
235.349	59
235.583	80
235.817	87
236.051	67
236.285	77
236.519	67
236.753	88
236.987	90
237.221	89
237.455	93
237.689	71
237.922	77
238.156	82
238.39	80
238.624	73
238.858	77
239.091	68
239.325	62
239.559	73
239.793	79
240.027	66
240.26	78
240.494	89
240.728	94
240.961	87
241.195	75
241.429	89
241.662	79
241.896	81
242.13	71
242.363	79
242.597	76
242.83	76
243.064	83
243.298	65
243.531	91
243.765	85
243.998	82
244.232	91
244.465	78
244.699	84
244.932	79
245.166	70
245.399	81
245.633	78
245.866	79
246.099	67
246.333	69
246.566	72
246.8	72
247.033	80
247.266	87
247.5	85
247.733	92
247.966	81
248.2	72
248.433	88
248.666	80
248.899	67
249.133	82
249.366	67
249.599	62
249.832	67
250.066	85
250.299	88
250.532	84
250.765	80
250.998	77
251.231	72
251.465	80
251.698	75
251.931	79
252.164	66
252.397	89
252.63	78
252.863	75
253.096	71
253.329	88
253.562	87
253.795	68
254.028	88
254.261	85
254.494	79
254.727	84
254.96	65
255.193	79
255.426	91
255.659	79
255.892	71
256.124	77
256.357	78
256.59	68
256.823	88
257.056	81
257.289	59
257.521	83
257.754	91
257.987	74
258.22	79
258.452	86
258.685	77
258.918	74
259.151	65
259.383	75
259.616	67
259.849	88
260.081	71
260.314	82
260.547	91
260.779	82
261.012	79
261.244	87
261.477	91
261.71	87
261.942	62
262.175	81
262.407	79
262.64	60
262.872	72
263.105	83
263.337	75
263.57	65
263.802	85
264.035	78
264.267	72
264.499	86
264.732	94
264.964	99
265.197	80
265.429	75
265.661	73
265.894	75
266.126	85
266.358	82
266.591	87
266.823	63
267.055	89
267.287	67
267.52	90
267.752	87
267.984	90
268.216	76
268.448	93
268.681	84
268.913	81
269.145	87
269.377	88
269.609	103
269.841	87
270.073	79
270.306	79
270.538	80
270.77	87
271.002	78
271.234	75
271.466	93
271.698	77
271.93	71
272.162	81
272.394	78
272.626	93
272.858	91
273.09	79
273.322	81
273.553	91
273.785	87
274.017	63
274.249	84
274.481	89
274.713	76
274.945	84
275.176	80
275.408	98
275.64	80
275.872	85
276.104	83
276.335	92
276.567	78
276.799	65
277.031	72
277.262	87
277.494	89
277.726	81
277.957	91
278.189	67
278.421	85
278.652	93
278.884	77
279.115	82
279.347	85
279.579	81
279.81	96
280.042	79
280.273	97
280.505	89
280.736	92
280.968	87
281.199	97
281.431	89
281.662	98
281.894	89
282.125	85
282.356	80
282.588	83
282.819	82
283.051	79
283.282	91
283.513	100
283.745	88
283.976	75
284.207	89
284.439	93
284.67	97
284.901	89
285.132	93
285.364	100
285.595	105
285.826	89
286.057	88
286.288	61
286.52	76
286.751	81
286.982	87
287.213	87
287.444	81
287.675	92
287.906	79
288.138	96
288.369	86
288.6	72
288.831	91
289.062	88
289.293	85
289.524	85
289.755	80
289.986	80
290.217	67
290.448	83
290.679	98
290.91	88
291.141	86
291.371	92
291.602	77
291.833	90
292.064	89
292.295	102
292.526	92
292.757	83
292.987	75
293.218	80
293.449	78
293.68	97
293.91	79
294.141	102
294.372	79
294.603	79
294.833	70
295.064	92
295.295	87
295.525	79
295.756	92
295.987	79
296.217	91
296.448	80
296.679	80
296.909	80
297.14	100
297.37	81
297.601	67
297.831	77
298.062	91
298.292	73
298.523	75
298.753	84
298.984	63
299.214	85
299.445	82
299.675	75
299.905	97
300.136	91
300.366	77
300.597	95
300.827	85
301.057	76
301.288	92
301.518	82
301.748	63
301.979	91
302.209	86
302.439	88
302.669	105
302.9	102
303.13	61
303.36	85
303.59	78
303.82	85
304.051	79
304.281	81
304.511	82
304.741	74
304.971	85
305.201	98
305.431	81
305.661	91
305.891	80
306.121	93
306.352	87
306.582	86
306.812	89
307.042	93
307.272	80
307.502	86
307.731	95
307.961	112
308.191	100
308.421	102
308.651	97
308.881	99
309.111	104
309.341	109
309.571	103
309.8	91
310.03	88
310.26	96
310.49	87
310.72	83
310.949	78
311.179	89
311.409	84
311.639	95
311.868	83
312.098	71
312.328	77
312.557	95
312.787	85
313.017	88
313.246	88
313.476	76
313.706	89
313.935	77
314.165	97
314.394	86
314.624	83
314.853	85
315.083	73
315.312	83
315.542	87
315.771	94
316.001	92
316.23	81
316.46	81
316.689	77
316.919	85
317.148	82
317.377	89
317.607	88
317.836	85
318.065	79
318.295	80
318.524	85
318.753	67
318.983	79
319.212	64
319.441	76
319.67	83
319.9	86
320.129	73
320.358	75
320.587	90
320.816	80
321.046	78
321.275	87
321.504	82
321.733	91
321.962	92
322.191	94
322.42	79
322.649	91
322.878	93
323.108	89
323.337	81
323.566	88
323.795	73
324.024	84
324.253	86
324.482	78
324.71	78
324.939	77
325.168	87
325.397	88
325.626	87
325.855	103
326.084	82
326.313	98
326.542	85
326.77	89
326.999	92
327.228	97
327.457	87
327.686	88
327.914	96
328.143	82
328.372	87
328.6	86
328.829	89
329.058	96
329.287	87
329.515	70
329.744	91
329.972	89
330.201	83
330.43	76
330.658	73
330.887	84
331.115	83
331.344	74
331.572	71
331.801	88
332.03	76
332.258	99
332.486	93
332.715	79
332.943	75
333.172	88
333.4	78
333.629	93
333.857	91
334.085	80
334.314	87
334.542	95
334.771	88
334.999	75
335.227	92
335.455	81
335.684	88
335.912	94
336.14	87
336.369	84
336.597	74
336.825	87
337.053	93
337.281	104
337.51	80
337.738	85
337.966	81
338.194	81
338.422	88
338.65	77
338.878	94
339.106	94
339.334	93
339.562	79
339.79	71
340.018	95
340.246	98
340.474	91
340.702	88
340.93	89
341.158	78
341.386	86
341.614	77
341.842	83
342.07	86
342.298	74
342.526	81
342.754	83
342.981	80
343.209	74
343.437	103
343.665	91
343.893	95
344.12	85
344.348	81
344.576	94
344.804	100
345.031	93
345.259	92
345.487	81
345.714	85
345.942	82
346.17	85
346.397	74
346.625	73
346.853	83
347.08	92
347.308	93
347.535	90
347.763	81
347.99	85
348.218	97
348.445	97
348.673	69
348.9	83
349.128	87
349.355	85
349.583	84
349.81	82
350.037	82
350.265	95
350.492	89
350.72	75
350.947	88
351.174	85
351.402	94
351.629	107
351.856	86
352.083	88
352.311	96
352.538	74
352.765	73
352.992	100
353.22	87
353.447	87
353.674	86
353.901	97
354.128	92
354.355	79
354.583	77
354.81	101
355.037	81
355.264	95
355.491	100
355.718	79
355.945	81
356.172	91
356.399	75
356.626	85
356.853	85
357.08	90
357.307	84
357.534	86
357.761	98
357.988	86
358.215	77
358.441	75
358.668	81
358.895	99
359.122	76
359.349	92
359.576	83
359.802	83
360.029	81
360.256	90
360.483	91
360.709	80
360.936	95
361.163	92
361.39	80
361.616	86
361.843	89
362.07	89
362.296	86
362.523	95
362.749	72
362.976	80
363.203	85
363.429	75
363.656	79
363.882	97
364.109	80
364.335	101
364.562	81
364.788	104
365.015	83
365.241	91
365.468	79
365.694	87
365.92	93
366.147	92
366.373	84
366.599	77
366.826	79
367.052	70
367.278	99
367.505	87
367.731	99
367.957	88
368.184	85
368.41	68
368.636	77
368.862	79
369.089	85
369.315	87
369.541	78
369.767	87
369.993	89
370.219	79
370.445	78
370.672	82
370.898	74
371.124	79
371.35	70
371.576	72
371.802	86
372.028	93
372.254	71
372.48	91
372.706	101
372.932	73
373.158	73
373.384	74
373.61	78
373.835	87
374.061	76
374.287	85
374.513	79
374.739	79
374.965	79
375.191	87
375.416	85
375.642	85
375.868	89
376.094	86
376.319	85
376.545	102
376.771	78
376.997	77
377.222	94
377.448	75
377.674	90
377.899	68
378.125	88
378.35	90
378.576	95
378.802	92
379.027	77
379.253	85
379.478	76
379.704	87
379.929	85
380.155	85
380.38	76
380.606	87
380.831	84
381.057	105
381.282	80
381.507	73
381.733	81
381.958	75
382.184	79
382.409	83
382.634	88
382.86	65
383.085	96
383.31	99
383.535	89
383.761	96
383.986	92
384.211	93
384.436	88
384.662	95
384.887	100
385.112	88
385.337	96
385.562	99
385.787	87
386.013	99
386.238	87
386.463	87
386.688	100
386.913	95
387.138	95
387.363	79
387.588	87
387.813	76
388.038	82
388.263	81
388.488	85
388.713	85
388.938	79
389.163	81
389.387	84
389.612	92
389.837	101
390.062	71
390.287	97
390.512	86
390.736	80
390.961	80
391.186	86
391.411	75
391.636	85
391.86	80
392.085	83
392.31	95
392.534	77
392.759	93
392.984	85
393.208	79
393.433	99
393.658	91
393.882	92
394.107	132
394.331	155
394.556	172
394.78	111
395.005	76
395.229	87
395.454	89
395.678	93
395.903	137
396.127	184
396.352	176
396.576	117
396.801	87
397.025	79
397.249	95
397.474	93
397.698	70
397.922	88
398.147	85
398.371	73
398.595	75
398.82	83
399.044	81
399.268	89
399.492	75
399.717	76
399.941	79
400.165	76
400.389	95
400.613	94
400.837	85
401.062	75
401.286	85
401.51	93
401.734	83
401.958	85
402.182	76
402.406	86
402.63	80
402.854	101
403.078	84
403.302	101
403.526	91
403.75	82
403.974	85
404.198	73
404.422	65
404.645	90
404.869	81
405.093	96
405.317	83
405.541	77
405.765	85
405.988	88
406.212	89
406.436	82
406.66	96
406.883	75
407.107	91
407.331	79
407.555	83
407.778	76
408.002	87
408.226	93
408.449	78
408.673	80
408.896	87
409.12	84
409.344	85
409.567	92
409.791	91
410.014	83
410.238	81
410.461	78
410.685	87
410.908	89
411.132	97
411.355	83
411.578	81
411.802	81
412.025	81
412.249	85
412.472	76
412.695	102
412.919	82
413.142	89
413.365	101
413.589	86
413.812	87
414.035	103
414.258	95
414.482	94
414.705	88
414.928	84
415.151	65
415.374	93
415.597	81
415.821	91
416.044	69
416.267	89
416.49	98
416.713	79
416.936	78
417.159	80
417.382	84
417.605	86
417.828	70
418.051	91
418.274	85
418.497	93
418.72	89
418.943	86
419.166	81
419.389	84
419.611	79
419.834	93
420.057	86
420.28	89
420.503	88
420.726	83
420.948	86
421.171	77
421.394	78
421.617	82
421.839	84
422.062	88
422.285	77
422.507	80
422.73	75
422.953	91
423.175	88
423.398	72
423.621	92
423.843	81
424.066	77
424.288	73
424.511	79
424.733	91
424.956	85
425.178	79
425.401	92
425.623	78
425.846	81
426.068	83
426.291	93
426.513	89
426.735	75
426.958	85
427.18	85
427.402	83
427.625	76
427.847	85
428.069	77
428.292	76
428.514	81
428.736	79
428.958	100
429.181	95
429.403	85
429.625	81
429.847	85
430.069	96
430.292	85
430.514	66
430.736	83
430.958	87
431.18	94
431.402	88
431.624	82
431.846	84
432.068	92
432.29	78
432.512	83
432.734	81
432.956	91
433.178	97
433.4	91
433.622	88
433.844	102
434.066	80
434.287	81
434.509	77
434.731	82
434.953	86
435.175	82
435.397	75
435.618	81
435.84	80
436.062	76
436.284	73
436.505	78
436.727	91
436.949	92
437.17	87
437.392	80
437.614	87
437.835	76
438.057	85
438.278	77
438.5	81
438.721	93
438.943	80
439.165	78
439.386	97
439.608	100
439.829	83
440.05	81
440.272	83
440.493	89
440.715	84
440.936	93
441.158	99
441.379	87
441.6	89
441.822	82
442.043	89
442.264	84
442.486	74
442.707	79
442.928	87
443.149	90
443.371	99
443.592	90
443.813	81
444.034	83
444.255	87
444.476	100
444.698	92
444.919	94
445.14	136
445.361	117
445.582	84
445.803	85
446.024	90
446.245	69
446.466	90
446.687	99
446.908	98
447.129	87
447.35	77
447.571	87
447.792	89
448.013	85
448.234	87
448.455	77
448.675	99
448.896	80
449.117	97
449.338	85
449.559	65
449.779	91
450	86
450.221	71
450.442	86
450.662	86
450.883	82
451.104	89
451.324	72
451.545	104
451.766	79
451.986	75
452.207	91
452.428	89
452.648	86
452.869	76
453.089	81
453.31	74
453.53	85
453.751	87
453.971	80
454.192	89
454.412	74
454.633	79
454.853	83
455.073	92
455.294	83
455.514	93
455.734	105
455.955	84
456.175	65
456.395	86
456.616	85
456.836	89
457.056	71
457.276	86
457.497	77
457.717	93
457.937	80
458.157	86
458.377	86
458.598	75
458.818	87
459.038	78
459.258	80
459.478	75
459.698	83
459.918	79
460.138	83
460.358	92
460.578	82
460.798	81
461.018	68
461.238	80
461.458	85
461.678	73
461.898	102
462.118	88
462.338	91
462.558	73
462.777	73
462.997	93
463.217	98
463.437	96
463.657	88
463.876	82
464.096	91
464.316	96
464.536	88
464.755	91
464.975	79
465.195	87
465.414	79
465.634	99
465.854	83
466.073	91
466.293	82
466.512	67
466.732	91
466.951	83
467.171	75
467.391	75
467.61	106
467.829	93
468.049	83
468.268	90
468.488	92
468.707	100
468.927	96
469.146	94
469.365	94
469.585	104
469.804	89
470.023	99
470.243	103
470.462	103
470.681	85
470.901	73
471.12	91
471.339	97
471.558	92
471.777	107
471.997	84
472.216	95
472.435	75
472.654	92
472.873	91
473.092	77
473.311	99
473.53	84
473.749	94
473.968	89
474.187	81
474.406	76
474.625	82
474.844	90
475.063	80
475.282	97
475.501	85
475.72	105
475.939	91
476.158	76
476.377	75
476.596	87
476.814	89
477.033	89
477.252	78
477.471	81
477.69	89
477.908	95
478.127	94
478.346	73
478.564	77
478.783	82
479.002	82
479.22	90
479.439	87
479.658	74
479.876	73
480.095	89
480.313	85
480.532	82
480.751	78
480.969	87
481.188	74
481.406	90
481.624	88
481.843	73
482.061	79
482.28	105
482.498	85
482.717	94
482.935	99
483.153	76
483.372	95
483.59	87
483.808	91
484.027	88
484.245	85
484.463	108
484.681	93
484.9	87
485.118	87
485.336	78
485.554	101
485.772	90
485.99	93
486.209	82
486.427	87
486.645	80
486.863	87
487.081	85
487.299	86
487.517	82
487.735	85
487.953	102
488.171	93
488.389	80
488.607	94
488.825	81
489.043	87
489.261	88
489.479	87
489.696	103
489.914	88
490.132	85
490.35	87
490.568	91
490.786	88
491.003	93
491.221	82
491.439	83
491.657	94
491.874	101
492.092	91
492.31	96
492.527	102
492.745	98
492.963	90
493.18	100
493.398	92
493.615	77
493.833	81
494.05	79
494.268	98
494.485	97
494.703	91
494.92	81
495.138	92
495.355	91
495.573	94
495.79	81
496.008	89
496.225	87
496.442	87
496.66	101
496.877	95
497.094	77
497.312	83
497.529	85
497.746	86
497.963	84
498.181	89
498.398	85
498.615	79
498.832	79
499.049	95
499.267	91
499.484	78
499.701	86
499.918	77
500.135	85
500.352	71
500.569	71
500.786	91
501.003	100
501.22	67
501.437	82
501.654	83
501.871	96
502.088	93
502.305	79
502.522	83
502.739	82
502.956	110
503.172	72
503.389	81
503.606	90
503.823	71
504.04	82
504.256	80
504.473	94
504.69	72
504.907	93
505.123	96
505.34	85
505.557	100
505.773	99
505.99	70
506.207	102
506.423	93
506.64	79
506.856	94
507.073	93
507.289	86
507.506	88
507.722	90
507.939	82
508.155	81
508.372	91
508.588	112
508.805	77
509.021	78
509.238	89
509.454	83
509.67	74
509.887	84
510.103	74
510.319	77
510.536	74
510.752	83
510.968	103
511.184	77
511.401	82
511.617	85
511.833	93
512.049	81
512.265	88
512.481	91
512.698	81
512.914	89
513.13	108
513.346	91
513.562	83
513.778	85
513.994	77
514.21	103
514.426	77
514.642	79
514.858	84
515.074	97
515.29	107
515.506	76
515.721	87
515.937	82
516.153	86
516.369	92
516.585	83
516.801	85
517.016	92
517.232	87
517.448	102
517.664	92
517.879	85
518.095	87
518.311	100
518.527	107
518.742	87
518.958	87
519.173	93
519.389	94
519.605	92
519.82	88
520.036	87
520.251	78
520.467	75
520.682	71
520.898	78
521.113	78
521.329	83
521.544	76
521.76	85
521.975	87
522.19	101
522.406	101
522.621	77
522.836	67
523.052	85
523.267	81
523.482	85
523.698	99
523.913	83
524.128	104
524.343	82
524.559	87
524.774	85
524.989	80
525.204	82
525.419	107
525.634	93
525.849	90
526.064	91
526.28	77
526.495	84
526.71	79
526.925	83
527.14	93
527.355	81
527.57	87
527.785	79
527.999	85
528.214	83
528.429	83
528.644	81
528.859	93
529.074	84
529.289	91
529.503	69
529.718	91
529.933	75
530.148	88
530.363	81
530.577	76
530.792	93
531.007	84
531.221	69
531.436	65
531.651	79
531.865	70
532.08	80
532.295	95
532.509	85
532.724	69
532.938	81
533.153	84
533.367	87
533.582	86
533.796	62
534.011	71
534.225	65
534.44	81
534.654	98
534.868	75
535.083	75
535.297	86
535.511	92
535.726	80
535.94	82
536.154	96
536.369	89
536.583	93
536.797	82
537.011	85
537.225	72
537.44	86
537.654	64
537.868	106
538.082	81
538.296	98
538.51	79
538.724	88
538.938	95
539.153	89
539.367	93
539.581	85
539.795	93
540.009	78
540.222	89
540.436	78
540.65	82
540.864	87
541.078	88
541.292	84
541.506	79
541.72	91
541.934	90
542.147	98
542.361	96
542.575	87
542.789	90
543.002	88
543.216	91
543.43	89
543.644	99
543.857	90
544.071	95
544.285	96
544.498	95
544.712	101
544.925	82
545.139	87
545.352	75
545.566	102
545.779	68
545.993	98
546.206	103
546.42	96
546.633	90
546.847	96
547.06	100
547.274	91
547.487	89
547.7	80
547.914	80
548.127	93
548.34	82
548.554	95
548.767	88
548.98	87
549.193	78
549.407	89
549.62	95
549.833	103
550.046	83
550.259	100
550.473	83
550.686	94
550.899	83
551.112	89
551.325	87
551.538	83
551.751	88
551.964	85
552.177	87
552.39	93
552.603	87
552.816	89
553.029	79
553.242	94
553.455	103
553.667	80
553.88	83
554.093	91
554.306	80
554.519	110
554.732	94
554.944	91
555.157	92
555.37	88
555.583	93
555.795	71
556.008	89
556.221	94
556.433	83
556.646	95
556.859	91
557.071	84
557.284	80
557.496	87
557.709	93
557.921	88
558.134	82
558.346	68
558.559	92
558.771	109
558.984	100
559.196	94
559.409	83
559.621	83
559.833	87
560.046	80
560.258	94
560.47	83
560.683	105
560.895	85
561.107	89
561.32	85
561.532	96
561.744	98
561.956	94
562.168	92
562.381	85
562.593	90
562.805	84
563.017	81
563.229	89
563.441	72
563.653	94
563.865	100
564.077	96
564.289	95
564.501	81
564.713	98
564.925	81
565.137	87
565.349	87
565.561	81
565.773	97
565.985	86
566.197	97
566.408	94
566.62	71
566.832	83
567.044	92
567.255	86
567.467	96
567.679	98
567.891	85
568.102	80
568.314	85
568.526	83
568.737	84
568.949	79
569.161	93
569.372	95
569.584	77
569.795	89
570.007	95
570.218	81
570.43	74
570.641	89
570.853	96
571.064	84
571.276	89
571.487	99
571.698	75
571.91	97
572.121	85
572.333	93
572.544	83
572.755	84
572.966	101
573.178	81
573.389	79
573.6	76
573.811	84
574.023	83
574.234	75
574.445	76
574.656	83
574.867	89
575.078	85
575.289	86
575.501	79
575.712	87
575.923	97
576.134	81
576.345	90
576.556	88
576.767	91
576.978	85
577.188	95
577.399	82
577.61	78
577.821	80
578.032	83
578.243	81
578.454	81
578.665	90
578.875	86
579.086	87
579.297	88
579.508	87
579.718	81
579.929	82
580.14	87
580.35	76
580.561	82
580.772	87
580.982	89
581.193	96
581.403	89
581.614	95
581.825	77
582.035	71
582.246	87
582.456	78
582.667	71
582.877	82
583.087	74
583.298	87
583.508	97
583.719	83
583.929	83
584.139	87
584.35	95
584.56	78
584.77	92
584.981	96
585.191	87
585.401	79
585.611	89
585.821	94
586.032	87
586.242	94
586.452	86
586.662	89
586.872	96
587.082	80
587.292	76
587.502	72
587.713	69
587.923	73
588.133	80
588.343	78
588.553	90
588.762	89
588.972	89
589.182	80
589.392	76
