Data from Coke_Can_Tab_HRD10591_00005.txt Node
Date: Wed Nov 05 15:50:29 EST 2025
User: Yrep
Spectrometer: HR+D1059
Trigger mode: 1
Integration Time (sec): 1.000000E-1
Scans to average: 1
Electric dark correction enabled: true
Nonlinearity correction enabled: false
Boxcar width: 0
XAxis mode: Wavelengths
Number of Pixels in Spectrum: 2048
>>>>>Begin Spectral Data<<<<<
223.165	-10.31
223.4	-10.31
223.635	-10.31
223.869	-10.31
224.104	-19.31
224.338	-21.31
224.573	-22.31
224.808	-24.31
225.042	-5.31
225.277	8.69
225.511	-2.31
225.746	5.69
225.98	-4.31
226.215	9.69
226.449	9.69
226.683	26.69
226.918	24.69
227.152	34.69
227.387	27.69
227.621	41.69
227.856	62.69
228.09	34.69
228.324	59.69
228.559	62.69
228.793	64.69
229.027	71.69
229.262	79.69
229.496	62.69
229.73	66.69
229.964	75.69
230.199	64.69
230.433	93.69
230.667	80.69
230.901	72.69
231.136	75.69
231.37	50.69
231.604	89.69
231.838	67.69
232.072	78.69
232.306	75.69
232.541	74.69
232.775	71.69
233.009	81.69
233.243	81.69
233.477	82.69
233.711	82.69
233.945	88.69
234.179	73.69
234.413	82.69
234.647	103.69
234.881	106.69
235.115	83.69
235.349	72.69
235.583	75.69
235.817	74.69
236.051	94.69
236.285	81.69
236.519	77.69
236.753	95.69
236.987	86.69
237.221	93.69
237.455	77.69
237.689	87.69
237.922	97.69
238.156	83.69
238.39	72.69
238.624	94.69
238.858	89.69
239.091	69.69
239.325	72.69
239.559	77.69
239.793	87.69
240.027	89.69
240.26	80.69
240.494	85.69
240.728	76.69
240.961	75.69
241.195	77.69
241.429	75.69
241.662	98.69
241.896	62.69
242.13	77.69
242.363	71.69
242.597	71.69
242.83	79.69
243.064	82.69
243.298	91.69
243.531	74.69
243.765	69.69
243.998	65.69
244.232	81.69
244.465	80.69
244.699	73.69
244.932	67.69
245.166	82.69
245.399	73.69
245.633	87.69
245.866	77.69
246.099	81.69
246.333	84.69
246.566	73.69
246.8	69.69
247.033	69.69
247.266	77.69
247.5	87.69
247.733	72.69
247.966	77.69
248.2	69.69
248.433	68.69
248.666	51.69
248.899	89.69
249.133	83.69
249.366	75.69
249.599	76.69
249.832	87.69
250.066	74.69
250.299	87.69
250.532	94.69
250.765	88.69
250.998	60.69
251.231	83.69
251.465	82.69
251.698	76.69
251.931	74.69
252.164	73.69
252.397	71.69
252.63	79.69
252.863	83.69
253.096	103.69
253.329	72.69
253.562	84.69
253.795	77.69
254.028	88.69
254.261	76.69
254.494	93.69
254.727	80.69
254.96	86.69
255.193	89.69
255.426	80.69
255.659	79.69
255.892	83.69
256.124	88.69
256.357	81.69
256.59	77.69
256.823	78.69
257.056	86.69
257.289	96.69
257.521	74.69
257.754	67.69
257.987	75.69
258.22	86.69
258.452	81.69
258.685	88.69
258.918	63.69
259.151	68.69
259.383	86.69
259.616	84.69
259.849	72.69
260.081	88.69
260.314	91.69
260.547	77.69
260.779	81.69
261.012	84.69
261.244	95.69
261.477	85.69
261.71	90.69
261.942	91.69
262.175	88.69
262.407	89.69
262.64	75.69
262.872	70.69
263.105	91.69
263.337	99.69
263.57	79.69
263.802	85.69
264.035	85.69
264.267	92.69
264.499	94.69
264.732	77.69
264.964	76.69
265.197	78.69
265.429	75.69
265.661	73.69
265.894	86.69
266.126	88.69
266.358	70.69
266.591	92.69
266.823	87.69
267.055	68.69
267.287	79.69
267.52	72.69
267.752	91.69
267.984	82.69
268.216	81.69
268.448	87.69
268.681	91.69
268.913	83.69
269.145	84.69
269.377	81.69
269.609	73.69
269.841	88.69
270.073	101.69
270.306	77.69
270.538	73.69
270.77	82.69
271.002	76.69
271.234	95.69
271.466	72.69
271.698	86.69
271.93	82.69
272.162	77.69
272.394	83.69
272.626	85.69
272.858	80.69
273.09	81.69
273.322	97.69
273.553	80.69
273.785	86.69
274.017	81.69
274.249	83.69
274.481	81.69
274.713	87.69
274.945	89.69
275.176	86.69
275.408	93.69
275.64	78.69
275.872	77.69
276.104	97.69
276.335	81.69
276.567	77.69
276.799	93.69
277.031	67.69
277.262	72.69
277.494	87.69
277.726	87.69
277.957	74.69
278.189	73.69
278.421	87.69
278.652	75.69
278.884	89.69
279.115	83.69
279.347	80.69
279.579	90.69
279.81	103.69
280.042	78.69
280.273	98.69
280.505	87.69
280.736	93.69
280.968	82.69
281.199	78.69
281.431	76.69
281.662	99.69
281.894	89.69
282.125	98.69
282.356	92.69
282.588	75.69
282.819	78.69
283.051	83.69
283.282	79.69
283.513	72.69
283.745	101.69
283.976	79.69
284.207	80.69
284.439	83.69
284.67	72.69
284.901	93.69
285.132	95.69
285.364	87.69
285.595	78.69
285.826	78.69
286.057	83.69
286.288	82.69
286.52	74.69
286.751	88.69
286.982	81.69
287.213	81.69
287.444	80.69
287.675	81.69
287.906	87.69
288.138	94.69
288.369	75.69
288.6	89.69
288.831	95.69
289.062	76.69
289.293	77.69
289.524	79.69
289.755	84.69
289.986	93.69
290.217	94.69
290.448	94.69
290.679	87.69
290.91	92.69
291.141	73.69
291.371	87.69
291.602	83.69
291.833	86.69
292.064	91.69
292.295	86.69
292.526	83.69
292.757	85.69
292.987	86.69
293.218	83.69
293.449	80.69
293.68	72.69
293.91	88.69
294.141	84.69
294.372	88.69
294.603	92.69
294.833	81.69
295.064	91.69
295.295	85.69
295.525	85.69
295.756	92.69
295.987	104.69
296.217	100.69
296.448	92.69
296.679	71.69
296.909	81.69
297.14	80.69
297.37	86.69
297.601	85.69
297.831	74.69
298.062	93.69
298.292	81.69
298.523	81.69
298.753	69.69
298.984	101.69
299.214	84.69
299.445	82.69
299.675	82.69
299.905	93.69
300.136	77.69
300.366	83.69
300.597	90.69
300.827	93.69
301.057	82.69
301.288	99.69
301.518	75.69
301.748	88.69
301.979	97.69
302.209	97.69
302.439	87.69
302.669	73.69
302.9	97.69
303.13	85.69
303.36	84.69
303.59	75.69
303.82	82.69
304.051	81.69
304.281	97.69
304.511	88.69
304.741	81.69
304.971	84.69
305.201	84.69
305.431	95.69
305.661	80.69
305.891	88.69
306.121	99.69
306.352	86.69
306.582	84.69
306.812	81.69
307.042	75.69
307.272	80.69
307.502	80.69
307.731	84.69
307.961	90.69
308.191	94.69
308.421	110.69
308.651	88.69
308.881	97.69
309.111	97.69
309.341	114.69
309.571	94.69
309.8	80.69
310.03	83.69
310.26	75.69
310.49	84.69
310.72	89.69
310.949	80.69
311.179	96.69
311.409	87.69
311.639	84.69
311.868	70.69
312.098	94.69
312.328	85.69
312.557	83.69
312.787	92.69
313.017	90.69
313.246	79.69
313.476	77.69
313.706	80.69
313.935	88.69
314.165	95.69
314.394	92.69
314.624	84.69
314.853	71.69
315.083	87.69
315.312	87.69
315.542	74.69
315.771	87.69
316.001	87.69
316.23	81.69
316.46	82.69
316.689	94.69
316.919	83.69
317.148	93.69
317.377	97.69
317.607	97.69
317.836	92.69
318.065	85.69
318.295	70.69
318.524	87.69
318.753	89.69
318.983	89.69
319.212	95.69
319.441	97.69
319.67	85.69
319.9	90.69
320.129	94.69
320.358	75.69
320.587	85.69
320.816	93.69
321.046	72.69
321.275	88.69
321.504	90.69
321.733	98.69
321.962	83.69
322.191	82.69
322.42	87.69
322.649	91.69
322.878	95.69
323.108	101.69
323.337	86.69
323.566	93.69
323.795	72.69
324.024	84.69
324.253	78.69
324.482	76.69
324.71	74.69
324.939	77.69
325.168	84.69
325.397	89.69
325.626	87.69
325.855	76.69
326.084	83.69
326.313	98.69
326.542	76.69
326.77	78.69
326.999	81.69
327.228	88.69
327.457	85.69
327.686	75.69
327.914	84.69
328.143	93.69
328.372	88.69
328.6	94.69
328.829	77.69
329.058	85.69
329.287	91.69
329.515	93.69
329.744	101.69
329.972	85.69
330.201	79.69
330.43	70.69
330.658	73.69
330.887	93.69
331.115	75.69
331.344	79.69
331.572	83.69
331.801	82.69
332.03	70.69
332.258	66.69
332.486	97.69
332.715	87.69
332.943	86.69
333.172	83.69
333.4	82.69
333.629	82.69
333.857	82.69
334.085	85.69
334.314	85.69
334.542	69.69
334.771	93.69
334.999	77.69
335.227	78.69
335.455	91.69
335.684	97.69
335.912	84.69
336.14	91.69
336.369	84.69
336.597	80.69
336.825	75.69
337.053	93.69
337.281	87.69
337.51	86.69
337.738	91.69
337.966	73.69
338.194	91.69
338.422	80.69
338.65	92.69
338.878	73.69
339.106	91.69
339.334	91.69
339.562	90.69
339.79	81.69
340.018	90.69
340.246	79.69
340.474	79.69
340.702	90.69
340.93	98.69
341.158	86.69
341.386	70.69
341.614	80.69
341.842	87.69
342.07	92.69
342.298	82.69
342.526	84.69
342.754	87.69
342.981	76.69
343.209	90.69
343.437	87.69
343.665	78.69
343.893	87.69
344.12	74.69
344.348	77.69
344.576	85.69
344.804	93.69
345.031	88.69
345.259	76.69
345.487	90.69
345.714	85.69
345.942	79.69
346.17	91.69
346.397	82.69
346.625	90.69
346.853	81.69
347.08	73.69
347.308	85.69
347.535	79.69
347.763	93.69
347.99	82.69
348.218	97.69
348.445	82.69
348.673	75.69
348.9	97.69
349.128	94.69
349.355	81.69
349.583	72.69
349.81	81.69
350.037	88.69
350.265	88.69
350.492	84.69
350.72	85.69
350.947	90.69
351.174	89.69
351.402	75.69
351.629	77.69
351.856	87.69
352.083	73.69
352.311	87.69
352.538	92.69
352.765	91.69
352.992	91.69
353.22	86.69
353.447	93.69
353.674	80.69
353.901	79.69
354.128	92.69
354.355	81.69
354.583	89.69
354.81	90.69
355.037	91.69
355.264	84.69
355.491	80.69
355.718	84.69
355.945	88.69
356.172	91.69
356.399	83.69
356.626	84.69
356.853	96.69
357.08	88.69
357.307	93.69
357.534	100.69
357.761	85.69
357.988	94.69
358.215	85.69
358.441	75.69
358.668	83.69
358.895	88.69
359.122	89.69
359.349	89.69
359.576	79.69
359.802	75.69
360.029	83.69
360.256	79.69
360.483	83.69
360.709	82.69
360.936	96.69
361.163	76.69
361.39	78.69
361.616	83.69
361.843	91.69
362.07	79.69
362.296	83.69
362.523	78.69
362.749	91.69
362.976	91.69
363.203	90.69
363.429	89.69
363.656	87.69
363.882	82.69
364.109	82.69
364.335	97.69
364.562	69.69
364.788	85.69
365.015	68.69
365.241	93.69
365.468	89.69
365.694	73.69
365.92	94.69
366.147	96.69
366.373	94.69
366.599	88.69
366.826	89.69
367.052	77.69
367.278	89.69
367.505	71.69
367.731	89.69
367.957	87.69
368.184	93.69
368.41	84.69
368.636	81.69
368.862	77.69
369.089	95.69
369.315	82.69
369.541	81.69
369.767	99.69
369.993	86.69
370.219	82.69
370.445	85.69
370.672	78.69
370.898	80.69
371.124	77.69
371.35	75.69
371.576	80.69
371.802	87.69
372.028	81.69
372.254	90.69
372.48	91.69
372.706	77.69
372.932	83.69
373.158	86.69
373.384	85.69
373.61	71.69
373.835	82.69
374.061	66.69
374.287	72.69
374.513	75.69
374.739	77.69
374.965	88.69
375.191	79.69
375.416	78.69
375.642	90.69
375.868	79.69
376.094	85.69
376.319	90.69
376.545	90.69
376.771	86.69
376.997	81.69
377.222	85.69
377.448	77.69
377.674	76.69
377.899	78.69
378.125	69.69
378.35	81.69
378.576	95.69
378.802	82.69
379.027	91.69
379.253	91.69
379.478	84.69
379.704	83.69
379.929	84.69
380.155	81.69
380.38	88.69
380.606	79.69
380.831	69.69
381.057	92.69
381.282	90.69
381.507	90.69
381.733	86.69
381.958	79.69
382.184	87.69
382.409	75.69
382.634	89.69
382.86	84.69
383.085	98.69
383.31	107.69
383.535	97.69
383.761	102.69
383.986	91.69
384.211	107.69
384.436	83.69
384.662	84.69
384.887	79.69
385.112	80.69
385.337	88.69
385.562	98.69
385.787	85.69
386.013	93.69
386.238	67.69
386.463	91.69
386.688	101.69
386.913	78.69
387.138	78.69
387.363	87.69
387.588	82.69
387.813	89.69
388.038	97.69
388.263	91.69
388.488	83.69
388.713	93.69
388.938	84.69
389.163	89.69
389.387	80.69
389.612	94.69
389.837	90.69
390.062	85.69
390.287	79.69
390.512	67.69
390.736	82.69
390.961	78.69
391.186	76.69
391.411	84.69
391.636	82.69
391.86	78.69
392.085	88.69
392.31	80.69
392.534	77.69
392.759	91.69
392.984	87.69
393.208	81.69
393.433	93.69
393.658	86.69
393.882	84.69
394.107	120.69
394.331	137.69
394.556	156.69
394.78	104.69
395.005	94.69
395.229	97.69
395.454	87.69
395.678	97.69
395.903	139.69
396.127	176.69
396.352	176.69
396.576	96.69
396.801	89.69
397.025	85.69
397.249	90.69
397.474	82.69
397.698	83.69
397.922	82.69
398.147	73.69
398.371	80.69
398.595	84.69
398.82	75.69
399.044	81.69
399.268	79.69
399.492	108.69
399.717	96.69
399.941	103.69
400.165	83.69
400.389	85.69
400.613	89.69
400.837	81.69
401.062	85.69
401.286	79.69
401.51	86.69
401.734	90.69
401.958	81.69
402.182	82.69
402.406	74.69
402.63	94.69
402.854	82.69
403.078	80.69
403.302	85.69
403.526	82.69
403.75	91.69
403.974	93.69
404.198	90.69
404.422	94.69
404.645	68.69
404.869	85.69
405.093	88.69
405.317	85.69
405.541	90.69
405.765	70.69
405.988	78.69
406.212	83.69
406.436	77.69
406.66	79.69
406.883	86.69
407.107	71.69
407.331	88.69
407.555	89.69
407.778	98.69
408.002	90.69
408.226	86.69
408.449	83.69
408.673	79.69
408.896	73.69
409.12	84.69
409.344	77.69
409.567	86.69
409.791	84.69
410.014	90.69
410.238	78.69
410.461	85.69
410.685	83.69
410.908	79.69
411.132	99.69
411.355	91.69
411.578	82.69
411.802	90.69
412.025	96.69
412.249	74.69
412.472	87.69
412.695	74.69
412.919	82.69
413.142	92.69
413.365	72.69
413.589	91.69
413.812	106.69
414.035	87.69
414.258	85.69
414.482	86.69
414.705	80.69
414.928	87.69
415.151	95.69
415.374	93.69
415.597	86.69
415.821	80.69
416.044	69.69
416.267	77.69
416.49	72.69
416.713	92.69
416.936	72.69
417.159	84.69
417.382	65.69
417.605	88.69
417.828	89.69
418.051	74.69
418.274	90.69
418.497	70.69
418.72	96.69
418.943	75.69
419.166	94.69
419.389	94.69
419.611	101.69
419.834	85.69
420.057	76.69
420.28	73.69
420.503	83.69
420.726	94.69
420.948	87.69
421.171	90.69
421.394	78.69
421.617	76.69
421.839	95.69
422.062	91.69
422.285	84.69
422.507	77.69
422.73	99.69
422.953	83.69
423.175	72.69
423.398	72.69
423.621	90.69
423.843	96.69
424.066	84.69
424.288	77.69
424.511	83.69
424.733	91.69
424.956	83.69
425.178	86.69
425.401	90.69
425.623	83.69
425.846	78.69
426.068	82.69
426.291	81.69
426.513	98.69
426.735	89.69
426.958	91.69
427.18	97.69
427.402	78.69
427.625	92.69
427.847	90.69
428.069	86.69
428.292	83.69
428.514	89.69
428.736	97.69
428.958	72.69
429.181	87.69
429.403	80.69
429.625	89.69
429.847	74.69
430.069	80.69
430.292	89.69
430.514	79.69
430.736	85.69
430.958	86.69
431.18	93.69
431.402	88.69
431.624	81.69
431.846	83.69
432.068	76.69
432.29	85.69
432.512	77.69
432.734	78.69
432.956	84.69
433.178	89.69
433.4	83.69
433.622	90.69
433.844	79.69
434.066	74.69
434.287	94.69
434.509	80.69
434.731	84.69
434.953	97.69
435.175	91.69
435.397	85.69
435.618	86.69
435.84	87.69
436.062	94.69
436.284	94.69
436.505	92.69
436.727	81.69
436.949	85.69
437.17	99.69
437.392	90.69
437.614	94.69
437.835	69.69
438.057	87.69
438.278	90.69
438.5	82.69
438.721	90.69
438.943	95.69
439.165	90.69
439.386	89.69
439.608	85.69
439.829	89.69
440.05	92.69
440.272	91.69
440.493	73.69
440.715	87.69
440.936	107.69
441.158	77.69
441.379	96.69
441.6	73.69
441.822	80.69
442.043	93.69
442.264	91.69
442.486	89.69
442.707	79.69
442.928	96.69
443.149	83.69
443.371	106.69
443.592	93.69
443.813	79.69
444.034	89.69
444.255	101.69
444.476	95.69
444.698	86.69
444.919	95.69
445.14	154.69
445.361	117.69
445.582	89.69
445.803	73.69
446.024	92.69
446.245	77.69
446.466	92.69
446.687	100.69
446.908	84.69
447.129	76.69
447.35	84.69
447.571	89.69
447.792	78.69
448.013	94.69
448.234	94.69
448.455	75.69
448.675	85.69
448.896	75.69
449.117	90.69
449.338	96.69
449.559	86.69
449.779	92.69
450	70.69
450.221	82.69
450.442	96.69
450.662	87.69
450.883	90.69
451.104	87.69
451.324	87.69
451.545	87.69
451.766	71.69
451.986	83.69
452.207	99.69
452.428	86.69
452.648	84.69
452.869	96.69
453.089	89.69
453.31	69.69
453.53	94.69
453.751	77.69
453.971	90.69
454.192	89.69
454.412	80.69
454.633	74.69
454.853	88.69
455.073	80.69
455.294	53.69
455.514	84.69
455.734	86.69
455.955	93.69
456.175	89.69
456.395	93.69
456.616	87.69
456.836	78.69
457.056	73.69
457.276	81.69
457.497	76.69
457.717	77.69
457.937	78.69
458.157	82.69
458.377	67.69
458.598	81.69
458.818	75.69
459.038	86.69
459.258	84.69
459.478	73.69
459.698	96.69
459.918	91.69
460.138	84.69
460.358	72.69
460.578	84.69
460.798	98.69
461.018	83.69
461.238	83.69
461.458	96.69
461.678	80.69
461.898	78.69
462.118	87.69
462.338	87.69
462.558	82.69
462.777	98.69
462.997	92.69
463.217	83.69
463.437	80.69
463.657	83.69
463.876	93.69
464.096	103.69
464.316	93.69
464.536	89.69
464.755	81.69
464.975	85.69
465.195	82.69
465.414	79.69
465.634	91.69
465.854	75.69
466.073	98.69
466.293	89.69
466.512	91.69
466.732	107.69
466.951	89.69
467.171	88.69
467.391	94.69
467.61	87.69
467.829	103.69
468.049	95.69
468.268	89.69
468.488	87.69
468.707	91.69
468.927	86.69
469.146	90.69
469.365	98.69
469.585	82.69
469.804	90.69
470.023	95.69
470.243	96.69
470.462	96.69
470.681	100.69
470.901	95.69
471.12	89.69
471.339	89.69
471.558	83.69
471.777	77.69
471.997	75.69
472.216	76.69
472.435	105.69
472.654	89.69
472.873	96.69
473.092	78.69
473.311	74.69
473.53	80.69
473.749	76.69
473.968	90.69
474.187	81.69
474.406	85.69
474.625	75.69
474.844	100.69
475.063	82.69
475.282	79.69
475.501	81.69
475.72	84.69
475.939	85.69
476.158	81.69
476.377	88.69
476.596	79.69
476.814	84.69
477.033	75.69
477.252	89.69
477.471	85.69
477.69	65.69
477.908	102.69
478.127	69.69
478.346	93.69
478.564	87.69
478.783	94.69
479.002	97.69
479.22	82.69
479.439	80.69
479.658	74.69
479.876	83.69
480.095	85.69
480.313	76.69
480.532	91.69
480.751	94.69
480.969	93.69
481.188	75.69
481.406	87.69
481.624	79.69
481.843	79.69
482.061	75.69
482.28	94.69
482.498	83.69
482.717	79.69
482.935	89.69
483.153	87.69
483.372	90.69
483.59	77.69
483.808	66.69
484.027	92.69
484.245	82.69
484.463	76.69
484.681	86.69
484.9	87.69
485.118	108.69
485.336	84.69
485.554	69.69
485.772	82.69
485.99	96.69
486.209	86.69
486.427	96.69
486.645	82.69
486.863	99.69
487.081	104.69
487.299	96.69
487.517	97.69
487.735	97.69
487.953	99.69
488.171	99.69
488.389	86.69
488.607	92.69
488.825	79.69
489.043	79.69
489.261	83.69
489.479	92.69
489.696	87.69
489.914	91.69
490.132	82.69
490.35	102.69
490.568	79.69
490.786	89.69
491.003	89.69
491.221	84.69
491.439	96.69
491.657	88.69
491.874	97.69
492.092	91.69
492.31	85.69
492.527	99.69
492.745	95.69
492.963	99.69
493.18	86.69
493.398	95.69
493.615	90.69
493.833	97.69
494.05	78.69
494.268	85.69
494.485	83.69
494.703	91.69
494.92	109.69
495.138	90.69
495.355	98.69
495.573	99.69
495.79	93.69
496.008	101.69
496.225	84.69
496.442	99.69
496.66	87.69
496.877	99.69
497.094	110.69
497.312	89.69
497.529	87.69
497.746	103.69
497.963	98.69
498.181	84.69
498.398	65.69
498.615	82.69
498.832	80.69
499.049	82.69
499.267	81.69
499.484	87.69
499.701	75.69
499.918	87.69
500.135	89.69
500.352	85.69
500.569	81.69
500.786	75.69
501.003	97.69
501.22	82.69
501.437	104.69
501.654	89.69
501.871	76.69
502.088	90.69
502.305	78.69
502.522	89.69
502.739	91.69
502.956	79.69
503.172	93.69
503.389	89.69
503.606	81.69
503.823	87.69
504.04	93.69
504.256	88.69
504.473	83.69
504.69	73.69
504.907	94.69
505.123	71.69
505.34	89.69
505.557	96.69
505.773	93.69
505.99	84.69
506.207	86.69
506.423	86.69
506.64	80.69
506.856	86.69
507.073	88.69
507.289	93.69
507.506	85.69
507.722	72.69
507.939	94.69
508.155	92.69
508.372	79.69
508.588	74.69
508.805	72.69
509.021	80.69
509.238	72.69
509.454	87.69
509.67	84.69
509.887	77.69
510.103	75.69
510.319	92.69
510.536	91.69
510.752	78.69
510.968	71.69
511.184	81.69
511.401	92.69
511.617	87.69
511.833	74.69
512.049	101.69
512.265	91.69
512.481	91.69
512.698	76.69
512.914	93.69
513.13	90.69
513.346	79.69
513.562	90.69
513.778	97.69
513.994	92.69
514.21	86.69
514.426	93.69
514.642	83.69
514.858	95.69
515.074	95.69
515.29	93.69
515.506	90.69
515.721	94.69
515.937	87.69
516.153	93.69
516.369	95.69
516.585	90.69
516.801	83.69
517.016	79.69
517.232	80.69
517.448	94.69
517.664	96.69
517.879	91.69
518.095	93.69
518.311	105.69
518.527	103.69
518.742	102.69
518.958	89.69
519.173	84.69
519.389	87.69
