Data from Coke_Can_Tab_HRD10591_00003.txt Node
Date: Wed Nov 05 15:50:28 EST 2025
User: Yrep
Spectrometer: HR+D1059
Trigger mode: 1
Integration Time (sec): 1.000000E-1
Scans to average: 1
Electric dark correction enabled: true
Nonlinearity correction enabled: false
Boxcar width: 0
XAxis mode: Wavelengths
Number of Pixels in Spectrum: 2048
>>>>>Begin Spectral Data<<<<<
223.165	-20.44
223.4	-20.44
223.635	-20.44
223.869	-8.44
224.104	-26.44
224.338	-12.44
224.573	-32.44
224.808	-15.44
225.042	-11.44
225.277	3.56
225.511	7.56
225.746	11.56
225.98	4.56
226.215	8.56
226.449	25.56
226.683	24.56
226.918	20.56
227.152	20.56
227.387	31.56
227.621	23.56
227.856	46.56
228.09	40.56
228.324	62.56
228.559	48.56
228.793	61.56
229.027	60.56
229.262	67.56
229.496	64.56
229.73	57.56
229.964	73.56
230.199	63.56
230.433	73.56
230.667	90.56
230.901	73.56
231.136	82.56
231.37	84.56
231.604	91.56
231.838	83.56
232.072	76.56
232.306	77.56
232.541	82.56
232.775	87.56
233.009	66.56
233.243	79.56
233.477	82.56
233.711	85.56
233.945	73.56
234.179	87.56
234.413	85.56
234.647	82.56
234.881	93.56
235.115	79.56
235.349	75.56
235.583	77.56
235.817	92.56
236.051	75.56
236.285	74.56
236.519	87.56
236.753	83.56
236.987	78.56
237.221	68.56
237.455	89.56
237.689	85.56
237.922	85.56
238.156	78.56
238.39	80.56
238.624	75.56
238.858	79.56
239.091	84.56
239.325	75.56
239.559	83.56
239.793	79.56
240.027	78.56
240.26	85.56
240.494	79.56
240.728	79.56
240.961	77.56
241.195	95.56
241.429	92.56
241.662	75.56
241.896	69.56
242.13	80.56
242.363	71.56
242.597	72.56
242.83	80.56
243.064	77.56
243.298	85.56
243.531	88.56
243.765	84.56
243.998	73.56
244.232	95.56
244.465	76.56
244.699	75.56
244.932	77.56
245.166	82.56
245.399	79.56
245.633	85.56
245.866	79.56
246.099	73.56
246.333	81.56
246.566	77.56
246.8	72.56
247.033	67.56
247.266	88.56
247.5	80.56
247.733	92.56
247.966	85.56
248.2	76.56
248.433	74.56
248.666	89.56
248.899	87.56
249.133	77.56
249.366	87.56
249.599	79.56
249.832	67.56
250.066	79.56
250.299	68.56
250.532	74.56
250.765	79.56
250.998	76.56
251.231	77.56
251.465	95.56
251.698	74.56
251.931	69.56
252.164	74.56
252.397	76.56
252.63	80.56
252.863	94.56
253.096	80.56
253.329	69.56
253.562	74.56
253.795	73.56
254.028	76.56
254.261	74.56
254.494	95.56
254.727	95.56
254.96	86.56
255.193	67.56
255.426	76.56
255.659	82.56
255.892	89.56
256.124	76.56
256.357	82.56
256.59	80.56
256.823	82.56
257.056	77.56
257.289	69.56
257.521	78.56
257.754	76.56
257.987	91.56
258.22	82.56
258.452	80.56
258.685	81.56
258.918	74.56
259.151	82.56
259.383	90.56
259.616	88.56
259.849	88.56
260.081	93.56
260.314	87.56
260.547	78.56
260.779	79.56
261.012	91.56
261.244	75.56
261.477	89.56
261.71	92.56
261.942	78.56
262.175	81.56
262.407	68.56
262.64	86.56
262.872	78.56
263.105	99.56
263.337	83.56
263.57	90.56
263.802	76.56
264.035	85.56
264.267	79.56
264.499	77.56
264.732	80.56
264.964	81.56
265.197	75.56
265.429	85.56
265.661	93.56
265.894	81.56
266.126	89.56
266.358	78.56
266.591	75.56
266.823	84.56
267.055	67.56
267.287	88.56
267.52	77.56
267.752	80.56
267.984	72.56
268.216	75.56
268.448	89.56
268.681	73.56
268.913	89.56
269.145	80.56
269.377	79.56
269.609	82.56
269.841	97.56
270.073	89.56
270.306	90.56
270.538	80.56
270.77	75.56
271.002	74.56
271.234	88.56
271.466	94.56
271.698	79.56
271.93	92.56
272.162	77.56
272.394	91.56
272.626	83.56
272.858	79.56
273.09	85.56
273.322	80.56
273.553	89.56
273.785	83.56
274.017	81.56
274.249	85.56
274.481	71.56
274.713	85.56
274.945	79.56
275.176	88.56
275.408	87.56
275.64	92.56
275.872	91.56
276.104	79.56
276.335	88.56
276.567	73.56
276.799	88.56
277.031	85.56
277.262	93.56
277.494	88.56
277.726	80.56
277.957	77.56
278.189	89.56
278.421	90.56
278.652	71.56
278.884	78.56
279.115	93.56
279.347	82.56
279.579	100.56
279.81	98.56
280.042	94.56
280.273	87.56
280.505	92.56
280.736	85.56
280.968	96.56
281.199	96.56
281.431	86.56
281.662	80.56
281.894	85.56
282.125	89.56
282.356	85.56
282.588	87.56
282.819	91.56
283.051	96.56
283.282	74.56
283.513	88.56
283.745	94.56
283.976	89.56
284.207	85.56
284.439	87.56
284.67	97.56
284.901	85.56
285.132	77.56
285.364	81.56
285.595	83.56
285.826	80.56
286.057	81.56
286.288	87.56
286.52	80.56
286.751	72.56
286.982	107.56
287.213	94.56
287.444	70.56
287.675	91.56
287.906	89.56
288.138	92.56
288.369	88.56
288.6	93.56
288.831	82.56
289.062	86.56
289.293	72.56
289.524	75.56
289.755	87.56
289.986	93.56
290.217	105.56
290.448	87.56
290.679	74.56
290.91	77.56
291.141	88.56
291.371	90.56
291.602	93.56
291.833	91.56
292.064	73.56
292.295	83.56
292.526	85.56
292.757	103.56
292.987	95.56
293.218	79.56
293.449	88.56
293.68	85.56
293.91	77.56
294.141	87.56
294.372	93.56
294.603	68.56
294.833	79.56
295.064	85.56
295.295	99.56
295.525	84.56
295.756	94.56
295.987	71.56
296.217	79.56
296.448	97.56
296.679	88.56
296.909	86.56
297.14	81.56
297.37	92.56
297.601	87.56
297.831	75.56
298.062	88.56
298.292	103.56
298.523	92.56
298.753	93.56
298.984	75.56
299.214	94.56
299.445	77.56
299.675	99.56
299.905	98.56
300.136	75.56
300.366	81.56
300.597	80.56
300.827	79.56
301.057	73.56
301.288	89.56
301.518	89.56
301.748	85.56
301.979	104.56
302.209	87.56
302.439	87.56
302.669	95.56
302.9	89.56
303.13	79.56
303.36	79.56
303.59	87.56
303.82	71.56
304.051	88.56
304.281	85.56
304.511	93.56
304.741	102.56
304.971	104.56
305.201	82.56
305.431	79.56
305.661	88.56
305.891	91.56
306.121	95.56
306.352	87.56
306.582	96.56
306.812	89.56
307.042	77.56
307.272	84.56
307.502	93.56
307.731	90.56
307.961	91.56
308.191	103.56
308.421	94.56
308.651	99.56
308.881	97.56
309.111	91.56
309.341	107.56
309.571	115.56
309.8	97.56
310.03	83.56
310.26	88.56
310.49	97.56
310.72	80.56
310.949	86.56
311.179	82.56
311.409	91.56
311.639	79.56
311.868	91.56
312.098	82.56
312.328	78.56
312.557	80.56
312.787	94.56
313.017	80.56
313.246	85.56
313.476	93.56
313.706	83.56
313.935	100.56
314.165	85.56
314.394	91.56
314.624	83.56
314.853	84.56
315.083	95.56
315.312	88.56
315.542	82.56
315.771	91.56
316.001	84.56
316.23	84.56
316.46	93.56
316.689	69.56
316.919	87.56
317.148	78.56
317.377	78.56
317.607	92.56
317.836	91.56
318.065	95.56
318.295	91.56
318.524	100.56
318.753	87.56
318.983	80.56
319.212	87.56
319.441	89.56
319.67	92.56
319.9	95.56
320.129	75.56
320.358	78.56
320.587	88.56
320.816	87.56
321.046	87.56
321.275	92.56
321.504	77.56
321.733	85.56
321.962	78.56
322.191	81.56
322.42	87.56
322.649	87.56
322.878	82.56
323.108	86.56
323.337	93.56
323.566	95.56
323.795	83.56
324.024	90.56
324.253	79.56
324.482	85.56
324.71	89.56
324.939	87.56
325.168	91.56
325.397	88.56
325.626	89.56
325.855	81.56
326.084	80.56
326.313	90.56
326.542	80.56
326.77	78.56
326.999	80.56
327.228	84.56
327.457	91.56
327.686	77.56
327.914	86.56
328.143	82.56
328.372	95.56
328.6	85.56
328.829	102.56
329.058	84.56
329.287	80.56
329.515	78.56
329.744	80.56
329.972	88.56
330.201	80.56
330.43	76.56
330.658	88.56
330.887	89.56
331.115	89.56
331.344	96.56
331.572	94.56
331.801	86.56
332.03	90.56
332.258	91.56
332.486	87.56
332.715	103.56
332.943	88.56
333.172	73.56
333.4	97.56
333.629	76.56
333.857	75.56
334.085	70.56
334.314	75.56
334.542	80.56
334.771	96.56
334.999	75.56
335.227	79.56
335.455	82.56
335.684	79.56
335.912	93.56
336.14	87.56
336.369	78.56
336.597	77.56
336.825	73.56
337.053	89.56
337.281	89.56
337.51	84.56
337.738	79.56
337.966	87.56
338.194	80.56
338.422	81.56
338.65	92.56
338.878	85.56
339.106	85.56
339.334	95.56
339.562	102.56
339.79	94.56
340.018	82.56
340.246	72.56
340.474	73.56
340.702	74.56
340.93	79.56
341.158	92.56
341.386	77.56
341.614	85.56
341.842	82.56
342.07	89.56
342.298	77.56
342.526	80.56
342.754	90.56
342.981	92.56
343.209	93.56
343.437	93.56
343.665	96.56
343.893	93.56
344.12	87.56
344.348	92.56
344.576	83.56
344.804	70.56
345.031	74.56
345.259	88.56
345.487	77.56
345.714	77.56
345.942	92.56
346.17	94.56
346.397	72.56
346.625	79.56
346.853	71.56
347.08	87.56
347.308	83.56
347.535	83.56
347.763	79.56
347.99	81.56
348.218	84.56
348.445	85.56
348.673	74.56
348.9	89.56
349.128	87.56
349.355	97.56
349.583	82.56
349.81	83.56
350.037	89.56
350.265	77.56
350.492	80.56
350.72	90.56
350.947	92.56
351.174	88.56
351.402	92.56
351.629	95.56
351.856	79.56
352.083	77.56
352.311	74.56
352.538	82.56
352.765	80.56
352.992	85.56
353.22	86.56
353.447	89.56
353.674	83.56
353.901	91.56
354.128	84.56
354.355	77.56
354.583	75.56
354.81	76.56
355.037	72.56
355.264	86.56
355.491	82.56
355.718	91.56
355.945	74.56
356.172	86.56
356.399	79.56
356.626	80.56
356.853	83.56
357.08	86.56
357.307	82.56
357.534	96.56
357.761	91.56
357.988	91.56
358.215	97.56
358.441	88.56
358.668	84.56
358.895	84.56
359.122	90.56
359.349	75.56
359.576	76.56
359.802	85.56
360.029	81.56
360.256	95.56
360.483	89.56
360.709	97.56
360.936	80.56
361.163	85.56
361.39	84.56
361.616	87.56
361.843	89.56
362.07	89.56
362.296	88.56
362.523	92.56
362.749	79.56
362.976	84.56
363.203	89.56
363.429	72.56
363.656	85.56
363.882	81.56
364.109	70.56
364.335	91.56
364.562	85.56
364.788	84.56
365.015	76.56
365.241	79.56
365.468	92.56
365.694	73.56
365.92	99.56
366.147	71.56
366.373	75.56
366.599	80.56
366.826	87.56
367.052	87.56
367.278	92.56
367.505	83.56
367.731	91.56
367.957	76.56
368.184	85.56
368.41	83.56
368.636	78.56
368.862	89.56
369.089	87.56
369.315	85.56
369.541	77.56
369.767	85.56
369.993	89.56
370.219	78.56
370.445	68.56
370.672	77.56
370.898	82.56
371.124	67.56
371.35	80.56
371.576	87.56
371.802	65.56
372.028	105.56
372.254	97.56
372.48	94.56
372.706	88.56
372.932	94.56
373.158	88.56
373.384	89.56
373.61	81.56
373.835	74.56
374.061	94.56
374.287	88.56
374.513	88.56
374.739	86.56
374.965	88.56
375.191	96.56
375.416	81.56
375.642	80.56
375.868	82.56
376.094	81.56
376.319	87.56
376.545	88.56
376.771	81.56
376.997	82.56
377.222	77.56
377.448	102.56
377.674	83.56
377.899	108.56
378.125	96.56
378.35	86.56
378.576	63.56
378.802	81.56
379.027	91.56
379.253	87.56
379.478	80.56
379.704	84.56
379.929	85.56
380.155	68.56
380.38	87.56
380.606	84.56
380.831	80.56
381.057	94.56
381.282	105.56
381.507	67.56
381.733	84.56
381.958	102.56
382.184	83.56
382.409	84.56
382.634	93.56
382.86	88.56
383.085	82.56
383.31	82.56
383.535	103.56
383.761	92.56
383.986	99.56
384.211	82.56
384.436	85.56
384.662	77.56
384.887	83.56
385.112	90.56
385.337	82.56
385.562	82.56
385.787	73.56
386.013	84.56
386.238	82.56
386.463	101.56
386.688	103.56
386.913	77.56
387.138	96.56
387.363	83.56
387.588	99.56
387.813	89.56
388.038	96.56
388.263	98.56
388.488	86.56
388.713	77.56
388.938	89.56
389.163	86.56
389.387	81.56
389.612	89.56
389.837	91.56
390.062	84.56
390.287	75.56
390.512	78.56
390.736	84.56
390.961	97.56
391.186	76.56
391.411	82.56
391.636	89.56
391.86	78.56
392.085	107.56
392.31	88.56
392.534	81.56
392.759	89.56
392.984	85.56
393.208	91.56
393.433	75.56
393.658	75.56
393.882	80.56
394.107	101.56
394.331	144.56
394.556	167.56
394.78	106.56
395.005	93.56
395.229	86.56
395.454	93.56
395.678	99.56
395.903	121.56
396.127	185.56
396.352	187.56
396.576	118.56
396.801	101.56
397.025	88.56
397.249	66.56
397.474	93.56
397.698	89.56
397.922	86.56
398.147	89.56
398.371	79.56
398.595	87.56
398.82	77.56
399.044	82.56
399.268	85.56
399.492	95.56
399.717	81.56
399.941	78.56
400.165	73.56
400.389	77.56
400.613	82.56
400.837	81.56
401.062	73.56
401.286	76.56
401.51	95.56
401.734	89.56
401.958	74.56
402.182	91.56
402.406	99.56
402.63	92.56
402.854	87.56
403.078	89.56
403.302	91.56
403.526	75.56
403.75	89.56
403.974	76.56
404.198	88.56
404.422	93.56
404.645	81.56
404.869	71.56
405.093	78.56
405.317	70.56
405.541	96.56
405.765	77.56
405.988	81.56
406.212	84.56
406.436	87.56
406.66	85.56
406.883	91.56
407.107	72.56
407.331	79.56
407.555	94.56
407.778	87.56
408.002	87.56
408.226	84.56
408.449	78.56
408.673	96.56
408.896	89.56
409.12	87.56
409.344	76.56
409.567	85.56
409.791	88.56
410.014	87.56
410.238	91.56
410.461	75.56
410.685	83.56
410.908	77.56
411.132	98.56
411.355	94.56
411.578	97.56
411.802	88.56
412.025	84.56
412.249	91.56
412.472	90.56
412.695	85.56
412.919	85.56
413.142	96.56
413.365	87.56
413.589	65.56
413.812	84.56
414.035	101.56
414.258	92.56
414.482	73.56
414.705	96.56
414.928	74.56
415.151	77.56
415.374	85.56
415.597	78.56
415.821	70.56
416.044	85.56
416.267	87.56
416.49	84.56
416.713	84.56
416.936	95.56
417.159	85.56
417.382	87.56
417.605	85.56
417.828	67.56
418.051	81.56
418.274	79.56
418.497	96.56
418.72	92.56
418.943	89.56
419.166	97.56
419.389	85.56
419.611	91.56
419.834	80.56
420.057	90.56
420.28	87.56
420.503	80.56
420.726	92.56
420.948	85.56
421.171	71.56
421.394	82.56
421.617	79.56
421.839	92.56
422.062	78.56
422.285	77.56
422.507	92.56
422.73	96.56
422.953	102.56
423.175	85.56
423.398	92.56
423.621	94.56
423.843	95.56
424.066	70.56
424.288	72.56
424.511	85.56
424.733	110.56
424.956	89.56
425.178	79.56
425.401	72.56
425.623	84.56
425.846	84.56
426.068	86.56
426.291	73.56
426.513	93.56
426.735	91.56
426.958	78.56
427.18	81.56
427.402	76.56
427.625	75.56
427.847	85.56
428.069	83.56
428.292	93.56
428.514	76.56
428.736	89.56
428.958	92.56
429.181	85.56
429.403	75.56
429.625	86.56
429.847	99.56
430.069	100.56
430.292	77.56
430.514	64.56
430.736	76.56
430.958	80.56
431.18	94.56
431.402	77.56
431.624	77.56
431.846	74.56
432.068	79.56
432.29	91.56
432.512	90.56
432.734	93.56
432.956	99.56
433.178	87.56
433.4	71.56
433.622	93.56
433.844	89.56
434.066	89.56
434.287	87.56
434.509	87.56
434.731	82.56
434.953	84.56
435.175	88.56
435.397	86.56
435.618	90.56
435.84	77.56
436.062	86.56
436.284	76.56
436.505	84.56
436.727	91.56
436.949	95.56
437.17	82.56
437.392	89.56
437.614	93.56
437.835	91.56
438.057	84.56
438.278	81.56
438.5	89.56
438.721	89.56
438.943	77.56
439.165	84.56
439.386	81.56
439.608	83.56
439.829	81.56
440.05	92.56
440.272	75.56
440.493	85.56
440.715	87.56
440.936	100.56
441.158	93.56
441.379	96.56
441.6	91.56
441.822	69.56
442.043	75.56
442.264	90.56
442.486	83.56
442.707	94.56
442.928	88.56
443.149	87.56
443.371	99.56
443.592	103.56
443.813	75.56
444.034	88.56
444.255	82.56
444.476	84.56
444.698	100.56
444.919	86.56
445.14	131.56
445.361	123.56
445.582	87.56
445.803	89.56
446.024	87.56
446.245	75.56
446.466	71.56
446.687	100.56
446.908	81.56
447.129	89.56
447.35	88.56
447.571	96.56
447.792	83.56
448.013	88.56
448.234	92.56
448.455	76.56
448.675	83.56
448.896	90.56
449.117	69.56
449.338	87.56
449.559	94.56
449.779	79.56
450	74.56
450.221	83.56
450.442	80.56
450.662	67.56
450.883	83.56
451.104	74.56
451.324	81.56
451.545	74.56
451.766	70.56
451.986	95.56
452.207	89.56
452.428	78.56
452.648	87.56
452.869	85.56
453.089	87.56
453.31	100.56
453.53	96.56
453.751	96.56
453.971	99.56
454.192	71.56
454.412	83.56
454.633	71.56
454.853	73.56
455.073	79.56
455.294	86.56
455.514	83.56
455.734	61.56
455.955	76.56
456.175	74.56
456.395	76.56
456.616	81.56
456.836	88.56
457.056	85.56
457.276	81.56
457.497	83.56
457.717	85.56
457.937	80.56
458.157	75.56
458.377	75.56
458.598	81.56
458.818	73.56
459.038	72.56
459.258	89.56
459.478	83.56
459.698	72.56
459.918	88.56
460.138	79.56
460.358	89.56
460.578	84.56
460.798	89.56
461.018	74.56
461.238	83.56
461.458	83.56
461.678	78.56
461.898	86.56
462.118	77.56
462.338	77.56
462.558	86.56
462.777	85.56
462.997	86.56
463.217	87.56
463.437	79.56
463.657	77.56
463.876	95.56
464.096	81.56
464.316	80.56
464.536	79.56
464.755	73.56
464.975	80.56
465.195	88.56
465.414	82.56
465.634	84.56
465.854	80.56
466.073	100.56
466.293	83.56
466.512	100.56
466.732	81.56
466.951	79.56
467.171	80.56
467.391	103.56
467.61	85.56
467.829	88.56
468.049	91.56
468.268	93.56
468.488	84.56
468.707	83.56
468.927	84.56
469.146	91.56
469.365	81.56
469.585	87.56
469.804	88.56
470.023	72.56
470.243	95.56
470.462	88.56
470.681	87.56
470.901	93.56
471.12	80.56
471.339	93.56
471.558	87.56
471.777	91.56
471.997	77.56
472.216	78.56
472.435	84.56
472.654	65.56
472.873	88.56
473.092	95.56
473.311	93.56
473.53	92.56
473.749	90.56
473.968	79.56
474.187	71.56
474.406	80.56
474.625	77.56
474.844	93.56
475.063	88.56
475.282	72.56
475.501	84.56
475.72	92.56
475.939	83.56
476.158	93.56
476.377	88.56
476.596	69.56
476.814	91.56
477.033	85.56
477.252	91.56
477.471	88.56
477.69	85.56
477.908	100.56
478.127	83.56
478.346	91.56
478.564	87.56
478.783	99.56
479.002	88.56
479.22	92.56
479.439	94.56
479.658	94.56
479.876	103.56
480.095	96.56
480.313	103.56
480.532	91.56
480.751	79.56
480.969	81.56
481.188	72.56
481.406	95.56
481.624	77.56
481.843	82.56
482.061	91.56
482.28	80.56
482.498	75.56
482.717	67.56
482.935	84.56
483.153	83.56
483.372	99.56
483.59	93.56
483.808	84.56
484.027	86.56
484.245	93.56
484.463	81.56
484.681	79.56
484.9	88.56
485.118	80.56
485.336	89.56
485.554	89.56
485.772	92.56
485.99	81.56
486.209	91.56
486.427	89.56
486.645	88.56
486.863	101.56
487.081	94.56
487.299	78.56
487.517	87.56
487.735	93.56
487.953	98.56
488.171	81.56
488.389	85.56
488.607	85.56
488.825	87.56
489.043	92.56
489.261	106.56
489.479	85.56
489.696	83.56
489.914	93.56
490.132	90.56
490.35	84.56
490.568	94.56
490.786	93.56
491.003	92.56
491.221	90.56
491.439	94.56
491.657	96.56
491.874	91.56
492.092	79.56
492.31	99.56
492.527	98.56
492.745	94.56
492.963	97.56
493.18	92.56
493.398	102.56
493.615	84.56
493.833	80.56
494.05	95.56
494.268	102.56
494.485	97.56
494.703	81.56
494.92	96.56
495.138	89.56
495.355	103.56
495.573	83.56
495.79	91.56
496.008	95.56
496.225	93.56
496.442	90.56
496.66	97.56
496.877	97.56
497.094	94.56
497.312	78.56
497.529	96.56
497.746	87.56
497.963	75.56
498.181	88.56
498.398	67.56
498.615	81.56
498.832	83.56
499.049	84.56
499.267	104.56
499.484	95.56
499.701	89.56
499.918	76.56
500.135	79.56
500.352	78.56
500.569	86.56
500.786	82.56
501.003	85.56
501.22	88.56
501.437	98.56
501.654	94.56
501.871	87.56
502.088	75.56
502.305	81.56
502.522	87.56
502.739	92.56
502.956	87.56
503.172	88.56
503.389	104.56
503.606	90.56
503.823	78.56
504.04	96.56
504.256	89.56
504.473	85.56
504.69	80.56
504.907	89.56
505.123	87.56
505.34	88.56
505.557	81.56
505.773	95.56
505.99	75.56
506.207	96.56
506.423	75.56
506.64	82.56
506.856	87.56
507.073	86.56
507.289	77.56
507.506	91.56
507.722	80.56
507.939	81.56
508.155	83.56
508.372	83.56
508.588	88.56
508.805	82.56
509.021	84.56
509.238	79.56
509.454	85.56
509.67	87.56
509.887	84.56
510.103	84.56
510.319	77.56
510.536	96.56
510.752	95.56
510.968	80.56
511.184	65.56
511.401	78.56
511.617	93.56
511.833	88.56
512.049	87.56
512.265	89.56
512.481	83.56
512.698	63.56
512.914	90.56
513.13	101.56
513.346	90.56
513.562	83.56
513.778	81.56
513.994	81.56
514.21	76.56
514.426	84.56
514.642	92.56
514.858	93.56
515.074	100.56
515.29	84.56
515.506	81.56
515.721	85.56
515.937	76.56
516.153	98.56
516.369	91.56
516.585	93.56
516.801	96.56
517.016	95.56
517.232	85.56
517.448	102.56
517.664	102.56
517.879	83.56
518.095	84.56
518.311	96.56
518.527	114.56
518.742	85.56
518.958	91.56
519.173	72.56
519.389	83.56
