Data from Coke_Can_Tab_HRD10591_00007.txt Node
Date: Wed Nov 05 15:50:30 EST 2025
User: Yrep
Spectrometer: HR+D1059
Trigger mode: 1
Integration Time (sec): 1.000000E-1
Scans to average: 1
Electric dark correction enabled: true
Nonlinearity correction enabled: false
Boxcar width: 0
XAxis mode: Wavelengths
Number of Pixels in Spectrum: 2048
>>>>>Begin Spectral Data<<<<<
223.165	-19.94
223.4	-19.94
223.635	-19.94
223.869	-23.94
224.104	-28.94
224.338	-7.94
224.573	-25.94
224.808	-24.94
225.042	-1.94
225.277	-1.94
225.511	-0.94
225.746	10.06
225.98	8.06
226.215	1.06
226.449	16.06
226.683	33.06
226.918	40.06
227.152	28.06
227.387	31.06
227.621	34.06
227.856	51.06
228.09	57.06
228.324	40.06
228.559	61.06
228.793	61.06
229.027	60.06
229.262	76.06
229.496	69.06
229.73	68.06
229.964	75.06
230.199	65.06
230.433	79.06
230.667	79.06
230.901	85.06
231.136	73.06
231.37	71.06
231.604	67.06
231.838	73.06
232.072	69.06
232.306	82.06
232.541	86.06
232.775	82.06
233.009	68.06
233.243	97.06
233.477	76.06
233.711	77.06
233.945	82.06
234.179	76.06
234.413	65.06
234.647	67.06
234.881	75.06
235.115	81.06
235.349	76.06
235.583	78.06
235.817	77.06
236.051	75.06
236.285	80.06
236.519	72.06
236.753	78.06
236.987	73.06
237.221	76.06
237.455	89.06
237.689	96.06
237.922	57.06
238.156	64.06
238.39	65.06
238.624	61.06
238.858	80.06
239.091	79.06
239.325	69.06
239.559	72.06
239.793	83.06
240.027	83.06
240.26	84.06
240.494	66.06
240.728	103.06
240.961	76.06
241.195	81.06
241.429	78.06
241.662	81.06
241.896	81.06
242.13	62.06
242.363	80.06
242.597	77.06
242.83	83.06
243.064	71.06
243.298	91.06
243.531	83.06
243.765	82.06
243.998	64.06
244.232	74.06
244.465	81.06
244.699	76.06
244.932	78.06
245.166	76.06
245.399	74.06
245.633	84.06
245.866	78.06
246.099	72.06
246.333	86.06
246.566	69.06
246.8	60.06
247.033	64.06
247.266	67.06
247.5	68.06
247.733	77.06
247.966	84.06
248.2	65.06
248.433	65.06
248.666	77.06
248.899	77.06
249.133	76.06
249.366	96.06
249.599	95.06
249.832	76.06
250.066	75.06
250.299	75.06
250.532	84.06
250.765	67.06
250.998	58.06
251.231	71.06
251.465	74.06
251.698	88.06
251.931	99.06
252.164	77.06
252.397	68.06
252.63	69.06
252.863	76.06
253.096	68.06
253.329	87.06
253.562	79.06
253.795	95.06
254.028	67.06
254.261	74.06
254.494	72.06
254.727	61.06
254.96	71.06
255.193	93.06
255.426	67.06
255.659	73.06
255.892	80.06
256.124	86.06
256.357	86.06
256.59	72.06
256.823	80.06
257.056	85.06
257.289	72.06
257.521	74.06
257.754	82.06
257.987	75.06
258.22	79.06
258.452	71.06
258.685	71.06
258.918	79.06
259.151	84.06
259.383	79.06
259.616	79.06
259.849	77.06
260.081	75.06
260.314	82.06
260.547	72.06
260.779	76.06
261.012	77.06
261.244	81.06
261.477	73.06
261.71	92.06
261.942	73.06
262.175	81.06
262.407	82.06
262.64	80.06
262.872	81.06
263.105	71.06
263.337	77.06
263.57	79.06
263.802	88.06
264.035	85.06
264.267	82.06
264.499	79.06
264.732	75.06
264.964	84.06
265.197	87.06
265.429	99.06
265.661	91.06
265.894	79.06
266.126	67.06
266.358	63.06
266.591	76.06
266.823	94.06
267.055	84.06
267.287	76.06
267.52	82.06
267.752	91.06
267.984	97.06
268.216	86.06
268.448	82.06
268.681	94.06
268.913	86.06
269.145	68.06
269.377	86.06
269.609	89.06
269.841	73.06
270.073	85.06
270.306	93.06
270.538	79.06
270.77	82.06
271.002	80.06
271.234	79.06
271.466	86.06
271.698	75.06
271.93	79.06
272.162	83.06
272.394	77.06
272.626	64.06
272.858	77.06
273.09	81.06
273.322	71.06
273.553	76.06
273.785	79.06
274.017	74.06
274.249	86.06
274.481	80.06
274.713	76.06
274.945	70.06
275.176	83.06
275.408	85.06
275.64	72.06
275.872	87.06
276.104	88.06
276.335	75.06
276.567	65.06
276.799	81.06
277.031	78.06
277.262	87.06
277.494	77.06
277.726	95.06
277.957	77.06
278.189	85.06
278.421	83.06
278.652	105.06
278.884	97.06
279.115	89.06
279.347	100.06
279.579	108.06
279.81	93.06
280.042	88.06
280.273	99.06
280.505	94.06
280.736	81.06
280.968	82.06
281.199	87.06
281.431	71.06
281.662	86.06
281.894	87.06
282.125	75.06
282.356	88.06
282.588	103.06
282.819	85.06
283.051	76.06
283.282	66.06
283.513	84.06
283.745	88.06
283.976	65.06
284.207	76.06
284.439	70.06
284.67	72.06
284.901	78.06
285.132	85.06
285.364	71.06
285.595	88.06
285.826	77.06
286.057	85.06
286.288	82.06
286.52	91.06
286.751	83.06
286.982	85.06
287.213	97.06
287.444	89.06
287.675	75.06
287.906	97.06
288.138	96.06
288.369	85.06
288.6	75.06
288.831	75.06
289.062	79.06
289.293	87.06
289.524	88.06
289.755	87.06
289.986	81.06
290.217	71.06
290.448	93.06
290.679	87.06
290.91	89.06
291.141	70.06
291.371	88.06
291.602	87.06
291.833	92.06
292.064	84.06
292.295	103.06
292.526	81.06
292.757	95.06
292.987	75.06
293.218	81.06
293.449	83.06
293.68	90.06
293.91	92.06
294.141	72.06
294.372	81.06
294.603	69.06
294.833	78.06
295.064	87.06
295.295	82.06
295.525	86.06
295.756	101.06
295.987	79.06
296.217	91.06
296.448	69.06
296.679	69.06
296.909	94.06
297.14	81.06
297.37	81.06
297.601	86.06
297.831	77.06
298.062	99.06
298.292	71.06
298.523	87.06
298.753	92.06
298.984	79.06
299.214	100.06
299.445	87.06
299.675	82.06
299.905	88.06
300.136	85.06
300.366	78.06
300.597	85.06
300.827	85.06
301.057	86.06
301.288	86.06
301.518	78.06
301.748	88.06
301.979	98.06
302.209	93.06
302.439	77.06
302.669	104.06
302.9	74.06
303.13	71.06
303.36	88.06
303.59	67.06
303.82	71.06
304.051	76.06
304.281	103.06
304.511	76.06
304.741	77.06
304.971	77.06
305.201	79.06
305.431	71.06
305.661	85.06
305.891	79.06
306.121	93.06
306.352	91.06
306.582	85.06
306.812	79.06
307.042	70.06
307.272	94.06
307.502	93.06
307.731	90.06
307.961	85.06
308.191	99.06
308.421	97.06
308.651	89.06
308.881	102.06
309.111	115.06
309.341	124.06
309.571	118.06
309.8	102.06
310.03	84.06
310.26	87.06
310.49	75.06
310.72	87.06
310.949	73.06
311.179	84.06
311.409	76.06
311.639	82.06
311.868	100.06
312.098	80.06
312.328	72.06
312.557	78.06
312.787	72.06
313.017	88.06
313.246	78.06
313.476	86.06
313.706	86.06
313.935	70.06
314.165	86.06
314.394	91.06
314.624	88.06
314.853	85.06
315.083	92.06
315.312	80.06
315.542	86.06
315.771	85.06
316.001	99.06
316.23	80.06
316.46	76.06
316.689	86.06
316.919	93.06
317.148	88.06
317.377	99.06
317.607	91.06
317.836	77.06
318.065	83.06
318.295	79.06
318.524	71.06
318.753	92.06
318.983	79.06
319.212	85.06
319.441	89.06
319.67	90.06
319.9	89.06
320.129	66.06
320.358	77.06
320.587	73.06
320.816	82.06
321.046	94.06
321.275	73.06
321.504	79.06
321.733	88.06
321.962	95.06
322.191	88.06
322.42	81.06
322.649	82.06
322.878	97.06
323.108	98.06
323.337	82.06
323.566	93.06
323.795	92.06
324.024	81.06
324.253	81.06
324.482	84.06
324.71	87.06
324.939	91.06
325.168	73.06
325.397	83.06
325.626	93.06
325.855	91.06
326.084	82.06
326.313	73.06
326.542	81.06
326.77	81.06
326.999	79.06
327.228	82.06
327.457	79.06
327.686	103.06
327.914	89.06
328.143	88.06
328.372	88.06
328.6	83.06
328.829	96.06
329.058	91.06
329.287	78.06
329.515	90.06
329.744	83.06
329.972	71.06
330.201	91.06
330.43	72.06
330.658	77.06
330.887	69.06
331.115	78.06
331.344	80.06
331.572	84.06
331.801	70.06
332.03	86.06
332.258	76.06
332.486	80.06
332.715	75.06
332.943	86.06
333.172	92.06
333.4	76.06
333.629	87.06
333.857	75.06
334.085	75.06
334.314	86.06
334.542	82.06
334.771	79.06
334.999	66.06
335.227	82.06
335.455	89.06
335.684	79.06
335.912	83.06
336.14	85.06
336.369	82.06
336.597	79.06
336.825	78.06
337.053	95.06
337.281	91.06
337.51	79.06
337.738	89.06
337.966	90.06
338.194	70.06
338.422	93.06
338.65	83.06
338.878	82.06
339.106	76.06
339.334	81.06
339.562	80.06
339.79	77.06
340.018	87.06
340.246	75.06
340.474	77.06
340.702	81.06
340.93	76.06
341.158	63.06
341.386	78.06
341.614	94.06
341.842	88.06
342.07	92.06
342.298	85.06
342.526	88.06
342.754	89.06
342.981	89.06
343.209	90.06
343.437	100.06
343.665	90.06
343.893	81.06
344.12	89.06
344.348	94.06
344.576	82.06
344.804	86.06
345.031	92.06
345.259	89.06
345.487	88.06
345.714	87.06
345.942	75.06
346.17	75.06
346.397	73.06
346.625	78.06
346.853	82.06
347.08	75.06
347.308	78.06
347.535	91.06
347.763	82.06
347.99	84.06
348.218	101.06
348.445	96.06
348.673	78.06
348.9	87.06
349.128	87.06
349.355	82.06
349.583	73.06
349.81	78.06
350.037	91.06
350.265	77.06
350.492	73.06
350.72	85.06
350.947	83.06
351.174	79.06
351.402	73.06
351.629	79.06
351.856	95.06
352.083	69.06
352.311	92.06
352.538	91.06
352.765	87.06
352.992	84.06
353.22	73.06
353.447	75.06
353.674	79.06
353.901	73.06
354.128	73.06
354.355	88.06
354.583	100.06
354.81	81.06
355.037	87.06
355.264	85.06
355.491	85.06
355.718	86.06
355.945	77.06
356.172	83.06
356.399	87.06
356.626	83.06
356.853	93.06
357.08	99.06
357.307	78.06
357.534	108.06
357.761	79.06
357.988	88.06
358.215	93.06
358.441	89.06
358.668	79.06
358.895	96.06
359.122	91.06
359.349	90.06
359.576	85.06
359.802	83.06
360.029	90.06
360.256	78.06
360.483	93.06
360.709	81.06
360.936	92.06
361.163	77.06
361.39	95.06
361.616	80.06
361.843	77.06
362.07	73.06
362.296	82.06
362.523	79.06
362.749	71.06
362.976	82.06
363.203	97.06
363.429	59.06
363.656	64.06
363.882	75.06
364.109	84.06
364.335	95.06
364.562	68.06
364.788	75.06
365.015	78.06
365.241	101.06
365.468	75.06
365.694	73.06
365.92	78.06
366.147	65.06
366.373	79.06
366.599	85.06
366.826	79.06
367.052	79.06
367.278	88.06
367.505	69.06
367.731	83.06
367.957	93.06
368.184	82.06
368.41	87.06
368.636	95.06
368.862	93.06
369.089	71.06
369.315	91.06
369.541	82.06
369.767	85.06
369.993	88.06
370.219	83.06
370.445	92.06
370.672	93.06
370.898	73.06
371.124	71.06
371.35	80.06
371.576	80.06
371.802	81.06
372.028	82.06
372.254	89.06
372.48	85.06
372.706	93.06
372.932	84.06
373.158	74.06
373.384	73.06
373.61	81.06
373.835	102.06
374.061	77.06
374.287	87.06
374.513	75.06
374.739	94.06
374.965	69.06
375.191	85.06
375.416	97.06
375.642	89.06
375.868	79.06
376.094	68.06
376.319	93.06
376.545	79.06
376.771	81.06
376.997	82.06
377.222	103.06
377.448	83.06
377.674	87.06
377.899	91.06
378.125	92.06
378.35	93.06
378.576	75.06
378.802	88.06
379.027	78.06
379.253	78.06
379.478	67.06
379.704	86.06
379.929	84.06
380.155	94.06
380.38	87.06
380.606	91.06
380.831	73.06
381.057	97.06
381.282	96.06
381.507	93.06
381.733	89.06
381.958	90.06
382.184	93.06
382.409	67.06
382.634	91.06
382.86	90.06
383.085	89.06
383.31	87.06
383.535	92.06
383.761	97.06
383.986	100.06
384.211	69.06
384.436	93.06
384.662	96.06
384.887	86.06
385.112	86.06
385.337	94.06
385.562	71.06
385.787	88.06
386.013	92.06
386.238	85.06
386.463	80.06
386.688	75.06
386.913	82.06
387.138	89.06
387.363	95.06
387.588	71.06
387.813	72.06
388.038	78.06
388.263	88.06
388.488	78.06
388.713	93.06
388.938	85.06
389.163	72.06
389.387	83.06
389.612	83.06
389.837	80.06
390.062	93.06
390.287	71.06
390.512	87.06
390.736	91.06
390.961	86.06
391.186	89.06
391.411	81.06
391.636	86.06
391.86	76.06
392.085	70.06
392.31	79.06
392.534	87.06
392.759	99.06
392.984	87.06
393.208	75.06
393.433	103.06
393.658	100.06
393.882	90.06
394.107	115.06
394.331	151.06
394.556	159.06
394.78	119.06
395.005	83.06
395.229	81.06
395.454	89.06
395.678	83.06
395.903	140.06
396.127	176.06
396.352	175.06
396.576	107.06
396.801	94.06
397.025	93.06
397.249	86.06
397.474	87.06
397.698	94.06
397.922	77.06
398.147	82.06
398.371	73.06
398.595	87.06
398.82	75.06
399.044	77.06
399.268	94.06
399.492	78.06
399.717	88.06
399.941	74.06
400.165	77.06
400.389	78.06
400.613	92.06
400.837	83.06
401.062	78.06
401.286	90.06
401.51	87.06
401.734	99.06
401.958	73.06
402.182	79.06
402.406	94.06
402.63	77.06
402.854	81.06
403.078	82.06
403.302	70.06
403.526	95.06
403.75	98.06
403.974	89.06
404.198	86.06
404.422	88.06
404.645	84.06
404.869	72.06
405.093	64.06
405.317	73.06
405.541	67.06
405.765	83.06
405.988	88.06
406.212	83.06
406.436	69.06
406.66	60.06
406.883	88.06
407.107	92.06
407.331	83.06
407.555	81.06
407.778	79.06
408.002	91.06
408.226	78.06
408.449	86.06
408.673	92.06
408.896	85.06
409.12	79.06
409.344	97.06
409.567	92.06
409.791	97.06
410.014	88.06
410.238	97.06
410.461	79.06
410.685	83.06
410.908	81.06
411.132	83.06
411.355	83.06
411.578	85.06
411.802	93.06
412.025	86.06
412.249	88.06
412.472	87.06
412.695	86.06
412.919	94.06
413.142	86.06
413.365	84.06
413.589	90.06
413.812	73.06
414.035	75.06
414.258	87.06
414.482	76.06
414.705	81.06
414.928	71.06
415.151	79.06
415.374	78.06
415.597	78.06
415.821	79.06
416.044	78.06
416.267	83.06
416.49	87.06
416.713	87.06
416.936	81.06
417.159	82.06
417.382	73.06
417.605	77.06
417.828	96.06
418.051	86.06
418.274	87.06
418.497	64.06
418.72	85.06
418.943	81.06
419.166	81.06
419.389	88.06
419.611	84.06
419.834	81.06
420.057	82.06
420.28	91.06
420.503	89.06
420.726	89.06
420.948	90.06
421.171	85.06
421.394	80.06
421.617	82.06
421.839	71.06
422.062	86.06
422.285	75.06
422.507	74.06
422.73	90.06
422.953	85.06
423.175	77.06
423.398	88.06
423.621	87.06
423.843	72.06
424.066	73.06
424.288	84.06
424.511	81.06
424.733	81.06
424.956	77.06
425.178	92.06
425.401	88.06
425.623	88.06
425.846	72.06
426.068	80.06
426.291	70.06
426.513	63.06
426.735	79.06
426.958	76.06
427.18	74.06
427.402	87.06
427.625	92.06
427.847	80.06
428.069	71.06
428.292	89.06
428.514	87.06
428.736	82.06
428.958	89.06
429.181	82.06
429.403	63.06
429.625	78.06
429.847	73.06
430.069	88.06
430.292	77.06
430.514	92.06
430.736	73.06
430.958	71.06
431.18	76.06
431.402	74.06
431.624	76.06
431.846	84.06
432.068	88.06
432.29	95.06
432.512	60.06
432.734	92.06
432.956	79.06
433.178	75.06
433.4	82.06
433.622	83.06
433.844	67.06
434.066	75.06
434.287	68.06
434.509	79.06
434.731	73.06
434.953	84.06
435.175	95.06
435.397	96.06
435.618	84.06
435.84	77.06
436.062	97.06
436.284	81.06
436.505	77.06
436.727	89.06
436.949	93.06
437.17	67.06
437.392	85.06
437.614	77.06
437.835	76.06
438.057	77.06
438.278	87.06
438.5	85.06
438.721	77.06
438.943	62.06
439.165	78.06
439.386	79.06
439.608	104.06
439.829	89.06
440.05	72.06
440.272	92.06
440.493	93.06
440.715	83.06
440.936	80.06
441.158	77.06
441.379	65.06
441.6	81.06
441.822	93.06
442.043	75.06
442.264	94.06
442.486	82.06
442.707	93.06
442.928	79.06
443.149	94.06
443.371	86.06
443.592	84.06
443.813	86.06
444.034	86.06
444.255	88.06
444.476	77.06
444.698	83.06
444.919	72.06
445.14	165.06
445.361	119.06
445.582	74.06
445.803	85.06
446.024	88.06
446.245	94.06
446.466	89.06
446.687	83.06
446.908	83.06
447.129	75.06
447.35	88.06
447.571	67.06
447.792	78.06
448.013	76.06
448.234	95.06
448.455	82.06
448.675	75.06
448.896	77.06
449.117	82.06
449.338	87.06
449.559	79.06
449.779	81.06
450	84.06
450.221	77.06
450.442	74.06
450.662	81.06
450.883	87.06
451.104	87.06
451.324	85.06
451.545	91.06
451.766	88.06
451.986	73.06
452.207	86.06
452.428	79.06
452.648	69.06
452.869	81.06
453.089	94.06
453.31	82.06
453.53	87.06
453.751	81.06
453.971	93.06
454.192	86.06
454.412	88.06
454.633	88.06
454.853	90.06
455.073	92.06
455.294	76.06
455.514	77.06
455.734	80.06
455.955	82.06
456.175	73.06
456.395	71.06
456.616	86.06
456.836	71.06
457.056	80.06
457.276	84.06
457.497	85.06
457.717	73.06
457.937	88.06
458.157	87.06
458.377	81.06
458.598	95.06
458.818	75.06
459.038	76.06
459.258	73.06
459.478	63.06
459.698	84.06
459.918	87.06
460.138	78.06
460.358	90.06
460.578	87.06
460.798	85.06
461.018	91.06
461.238	85.06
461.458	94.06
461.678	89.06
461.898	77.06
462.118	93.06
462.338	74.06
462.558	96.06
462.777	81.06
462.997	86.06
463.217	77.06
463.437	81.06
463.657	79.06
463.876	90.06
464.096	71.06
464.316	71.06
464.536	71.06
464.755	84.06
464.975	95.06
465.195	87.06
465.414	85.06
465.634	80.06
465.854	79.06
466.073	88.06
466.293	86.06
466.512	92.06
466.732	83.06
466.951	89.06
467.171	89.06
467.391	92.06
467.61	85.06
467.829	82.06
468.049	99.06
468.268	87.06
468.488	67.06
468.707	87.06
468.927	86.06
469.146	83.06
469.365	97.06
469.585	79.06
469.804	92.06
470.023	79.06
470.243	96.06
470.462	95.06
470.681	86.06
470.901	94.06
471.12	95.06
471.339	76.06
471.558	87.06
471.777	95.06
471.997	81.06
472.216	76.06
472.435	79.06
472.654	74.06
472.873	96.06
473.092	95.06
473.311	82.06
473.53	90.06
473.749	68.06
473.968	91.06
474.187	89.06
474.406	87.06
474.625	87.06
474.844	89.06
475.063	71.06
475.282	78.06
475.501	77.06
475.72	84.06
475.939	96.06
476.158	78.06
476.377	87.06
476.596	91.06
476.814	93.06
477.033	92.06
477.252	76.06
477.471	83.06
477.69	84.06
477.908	71.06
478.127	90.06
478.346	75.06
478.564	87.06
478.783	78.06
479.002	80.06
479.22	94.06
479.439	93.06
479.658	75.06
479.876	79.06
480.095	83.06
480.313	81.06
480.532	89.06
480.751	89.06
480.969	92.06
481.188	87.06
481.406	87.06
481.624	59.06
481.843	82.06
482.061	84.06
482.28	95.06
482.498	81.06
482.717	90.06
482.935	77.06
483.153	85.06
483.372	89.06
483.59	72.06
483.808	92.06
484.027	92.06
484.245	84.06
484.463	79.06
484.681	71.06
484.9	80.06
485.118	78.06
485.336	91.06
485.554	88.06
485.772	76.06
485.99	73.06
486.209	89.06
486.427	81.06
486.645	85.06
486.863	82.06
487.081	103.06
487.299	85.06
487.517	69.06
487.735	84.06
487.953	107.06
488.171	78.06
488.389	90.06
488.607	87.06
488.825	85.06
489.043	86.06
489.261	91.06
489.479	81.06
489.696	86.06
489.914	93.06
490.132	93.06
490.35	90.06
490.568	83.06
490.786	97.06
491.003	95.06
491.221	86.06
491.439	94.06
491.657	95.06
491.874	80.06
492.092	85.06
492.31	91.06
492.527	87.06
492.745	89.06
492.963	88.06
493.18	79.06
493.398	95.06
493.615	90.06
493.833	84.06
494.05	82.06
494.268	81.06
494.485	96.06
494.703	99.06
494.92	95.06
495.138	93.06
495.355	85.06
495.573	78.06
495.79	85.06
496.008	98.06
496.225	102.06
496.442	88.06
496.66	92.06
496.877	87.06
497.094	91.06
497.312	82.06
497.529	87.06
497.746	87.06
497.963	93.06
498.181	81.06
498.398	109.06
498.615	85.06
498.832	92.06
499.049	81.06
499.267	88.06
499.484	84.06
499.701	95.06
499.918	88.06
500.135	94.06
500.352	81.06
500.569	88.06
500.786	79.06
501.003	92.06
501.22	84.06
501.437	93.06
501.654	90.06
501.871	81.06
502.088	81.06
502.305	94.06
502.522	94.06
502.739	83.06
502.956	83.06
503.172	95.06
503.389	73.06
503.606	73.06
503.823	96.06
504.04	97.06
504.256	76.06
504.473	76.06
504.69	80.06
504.907	84.06
505.123	91.06
505.34	83.06
505.557	86.06
505.773	89.06
505.99	92.06
506.207	85.06
506.423	69.06
506.64	66.06
506.856	90.06
507.073	86.06
507.289	89.06
507.506	83.06
507.722	83.06
507.939	80.06
508.155	87.06
508.372	81.06
508.588	80.06
508.805	81.06
509.021	92.06
509.238	85.06
509.454	92.06
509.67	94.06
509.887	72.06
510.103	81.06
510.319	82.06
510.536	101.06
510.752	72.06
510.968	87.06
511.184	74.06
511.401	101.06
511.617	90.06
511.833	82.06
512.049	79.06
512.265	89.06
512.481	87.06
512.698	77.06
512.914	85.06
513.13	87.06
513.346	79.06
513.562	79.06
513.778	89.06
513.994	94.06
514.21	82.06
514.426	94.06
514.642	99.06
514.858	88.06
515.074	86.06
515.29	85.06
515.506	71.06
515.721	85.06
515.937	103.06
516.153	88.06
516.369	85.06
516.585	83.06
516.801	90.06
517.016	81.06
517.232	87.06
517.448	108.06
517.664	82.06
517.879	76.06
518.095	74.06
518.311	77.06
518.527	108.06
518.742	92.06
518.958	80.06
519.173	81.06
519.389	79.06
519.605	85.06
