Data from Coke_Can_Tab_HRD10591_00012.txt Node
Date: Wed Nov 05 15:50:33 EST 2025
User: Yrep
Spectrometer: HR+D1059
Trigger mode: 1
Integration Time (sec): 1.000000E-1
Scans to average: 1
Electric dark correction enabled: true
Nonlinearity correction enabled: false
Boxcar width: 0
XAxis mode: Wavelengths
Number of Pixels in Spectrum: 2048
>>>>>Begin Spectral Data<<<<<
223.165	-26.25
223.4	-26.25
223.635	-26.25
223.869	-18.25
224.104	-17.25
224.338	-18.25
224.573	-21.25
224.808	-9.25
225.042	-8.25
225.277	-7.25
225.511	-3.25
225.746	-4.25
225.98	9.75
226.215	16.75
226.449	17.75
226.683	25.75
226.918	39.75
227.152	23.75
227.387	30.75
227.621	40.75
227.856	43.75
228.09	42.75
228.324	56.75
228.559	53.75
228.793	54.75
229.027	61.75
229.262	57.75
229.496	62.75
229.73	65.75
229.964	56.75
230.199	68.75
230.433	82.75
230.667	69.75
230.901	73.75
231.136	74.75
231.37	65.75
231.604	91.75
231.838	79.75
232.072	88.75
232.306	85.75
232.541	85.75
232.775	91.75
233.009	82.75
233.243	79.75
233.477	82.75
233.711	77.75
233.945	75.75
234.179	76.75
234.413	77.75
234.647	78.75
234.881	72.75
235.115	81.75
235.349	61.75
235.583	71.75
235.817	74.75
236.051	71.75
236.285	69.75
236.519	79.75
236.753	70.75
236.987	81.75
237.221	84.75
237.455	79.75
237.689	78.75
237.922	75.75
238.156	75.75
238.39	70.75
238.624	84.75
238.858	90.75
239.091	76.75
239.325	82.75
239.559	75.75
239.793	77.75
240.027	66.75
240.26	76.75
240.494	76.75
240.728	68.75
240.961	71.75
241.195	78.75
241.429	95.75
241.662	69.75
241.896	79.75
242.13	77.75
242.363	90.75
242.597	71.75
242.83	90.75
243.064	77.75
243.298	82.75
243.531	60.75
243.765	66.75
243.998	76.75
244.232	63.75
244.465	73.75
244.699	93.75
244.932	79.75
245.166	87.75
245.399	82.75
245.633	82.75
245.866	86.75
246.099	72.75
246.333	72.75
246.566	82.75
246.8	88.75
247.033	78.75
247.266	69.75
247.5	78.75
247.733	86.75
247.966	81.75
248.2	85.75
248.433	73.75
248.666	74.75
248.899	89.75
249.133	83.75
249.366	72.75
249.599	75.75
249.832	75.75
250.066	78.75
250.299	96.75
250.532	93.75
250.765	74.75
250.998	88.75
251.231	81.75
251.465	71.75
251.698	79.75
251.931	85.75
252.164	78.75
252.397	75.75
252.63	72.75
252.863	70.75
253.096	67.75
253.329	79.75
253.562	79.75
253.795	78.75
254.028	66.75
254.261	69.75
254.494	85.75
254.727	97.75
254.96	83.75
255.193	80.75
255.426	80.75
255.659	80.75
255.892	88.75
256.124	75.75
256.357	79.75
256.59	82.75
256.823	81.75
257.056	77.75
257.289	88.75
257.521	76.75
257.754	93.75
257.987	75.75
258.22	85.75
258.452	89.75
258.685	88.75
258.918	78.75
259.151	78.75
259.383	72.75
259.616	68.75
259.849	75.75
260.081	85.75
260.314	75.75
260.547	71.75
260.779	74.75
261.012	71.75
261.244	63.75
261.477	86.75
261.71	80.75
261.942	96.75
262.175	75.75
262.407	89.75
262.64	84.75
262.872	79.75
263.105	76.75
263.337	85.75
263.57	72.75
263.802	89.75
264.035	78.75
264.267	72.75
264.499	89.75
264.732	91.75
264.964	70.75
265.197	75.75
265.429	83.75
265.661	87.75
265.894	93.75
266.126	91.75
266.358	82.75
266.591	89.75
266.823	72.75
267.055	76.75
267.287	72.75
267.52	81.75
267.752	92.75
267.984	87.75
268.216	69.75
268.448	92.75
268.681	84.75
268.913	80.75
269.145	83.75
269.377	79.75
269.609	84.75
269.841	81.75
270.073	85.75
270.306	84.75
270.538	88.75
270.77	76.75
271.002	81.75
271.234	85.75
271.466	76.75
271.698	79.75
271.93	89.75
272.162	94.75
272.394	77.75
272.626	90.75
272.858	86.75
273.09	89.75
273.322	93.75
273.553	64.75
273.785	89.75
274.017	78.75
274.249	77.75
274.481	85.75
274.713	87.75
274.945	69.75
275.176	91.75
275.408	80.75
275.64	86.75
275.872	84.75
276.104	75.75
276.335	74.75
276.567	77.75
276.799	82.75
277.031	77.75
277.262	87.75
277.494	86.75
277.726	85.75
277.957	65.75
278.189	73.75
278.421	87.75
278.652	88.75
278.884	79.75
279.115	91.75
279.347	105.75
279.579	93.75
279.81	85.75
280.042	86.75
280.273	94.75
280.505	89.75
280.736	78.75
280.968	90.75
281.199	95.75
281.431	76.75
281.662	81.75
281.894	51.75
282.125	76.75
282.356	95.75
282.588	83.75
282.819	88.75
283.051	87.75
283.282	69.75
283.513	94.75
283.745	83.75
283.976	77.75
284.207	74.75
284.439	85.75
284.67	91.75
284.901	92.75
285.132	95.75
285.364	81.75
285.595	78.75
285.826	77.75
286.057	86.75
286.288	73.75
286.52	73.75
286.751	81.75
286.982	75.75
287.213	72.75
287.444	82.75
287.675	85.75
287.906	71.75
288.138	76.75
288.369	93.75
288.6	74.75
288.831	90.75
289.062	82.75
289.293	84.75
289.524	96.75
289.755	87.75
289.986	89.75
290.217	66.75
290.448	85.75
290.679	85.75
290.91	94.75
291.141	76.75
291.371	95.75
291.602	86.75
291.833	85.75
292.064	84.75
292.295	90.75
292.526	79.75
292.757	84.75
292.987	99.75
293.218	76.75
293.449	80.75
293.68	77.75
293.91	83.75
294.141	74.75
294.372	78.75
294.603	73.75
294.833	84.75
295.064	86.75
295.295	94.75
295.525	79.75
295.756	77.75
295.987	74.75
296.217	91.75
296.448	99.75
296.679	86.75
296.909	76.75
297.14	87.75
297.37	77.75
297.601	75.75
297.831	84.75
298.062	81.75
298.292	95.75
298.523	96.75
298.753	79.75
298.984	86.75
299.214	85.75
299.445	84.75
299.675	81.75
299.905	90.75
300.136	82.75
300.366	106.75
300.597	93.75
300.827	92.75
301.057	79.75
301.288	86.75
301.518	84.75
301.748	75.75
301.979	104.75
302.209	76.75
302.439	76.75
302.669	89.75
302.9	88.75
303.13	86.75
303.36	80.75
303.59	85.75
303.82	79.75
304.051	83.75
304.281	88.75
304.511	100.75
304.741	82.75
304.971	64.75
305.201	84.75
305.431	80.75
305.661	80.75
305.891	80.75
306.121	86.75
306.352	84.75
306.582	75.75
306.812	85.75
307.042	80.75
307.272	82.75
307.502	91.75
307.731	91.75
307.961	97.75
308.191	96.75
308.421	98.75
308.651	89.75
308.881	102.75
309.111	105.75
309.341	103.75
309.571	106.75
309.8	81.75
310.03	88.75
310.26	83.75
310.49	73.75
310.72	85.75
310.949	81.75
311.179	73.75
311.409	72.75
311.639	91.75
311.868	93.75
312.098	68.75
312.328	75.75
312.557	81.75
312.787	81.75
313.017	86.75
313.246	89.75
313.476	72.75
313.706	78.75
313.935	88.75
314.165	86.75
314.394	74.75
314.624	95.75
314.853	98.75
315.083	83.75
315.312	83.75
315.542	87.75
315.771	82.75
316.001	87.75
316.23	85.75
316.46	79.75
316.689	85.75
316.919	75.75
317.148	94.75
317.377	80.75
317.607	72.75
317.836	81.75
318.065	84.75
318.295	83.75
318.524	93.75
318.753	72.75
318.983	80.75
319.212	91.75
319.441	78.75
319.67	87.75
319.9	84.75
320.129	81.75
320.358	88.75
320.587	86.75
320.816	84.75
321.046	76.75
321.275	84.75
321.504	86.75
321.733	101.75
321.962	82.75
322.191	78.75
322.42	78.75
322.649	92.75
322.878	82.75
323.108	85.75
323.337	82.75
323.566	99.75
323.795	72.75
324.024	87.75
324.253	90.75
324.482	77.75
324.71	99.75
324.939	92.75
325.168	85.75
325.397	86.75
325.626	72.75
325.855	76.75
326.084	94.75
326.313	95.75
326.542	88.75
326.77	94.75
326.999	82.75
327.228	78.75
327.457	75.75
327.686	85.75
327.914	90.75
328.143	90.75
328.372	85.75
328.6	84.75
328.829	83.75
329.058	86.75
329.287	88.75
329.515	81.75
329.744	97.75
329.972	80.75
330.201	89.75
330.43	77.75
330.658	74.75
330.887	91.75
331.115	87.75
331.344	73.75
331.572	97.75
331.801	89.75
332.03	93.75
332.258	80.75
332.486	88.75
332.715	78.75
332.943	101.75
333.172	93.75
333.4	80.75
333.629	91.75
333.857	85.75
334.085	74.75
334.314	83.75
334.542	79.75
334.771	74.75
334.999	81.75
335.227	81.75
335.455	90.75
335.684	92.75
335.912	92.75
336.14	81.75
336.369	88.75
336.597	79.75
336.825	79.75
337.053	93.75
337.281	76.75
337.51	63.75
337.738	71.75
337.966	86.75
338.194	92.75
338.422	85.75
338.65	88.75
338.878	71.75
339.106	87.75
339.334	96.75
339.562	71.75
339.79	81.75
340.018	83.75
340.246	79.75
340.474	73.75
340.702	72.75
340.93	81.75
341.158	78.75
341.386	67.75
341.614	81.75
341.842	91.75
342.07	79.75
342.298	74.75
342.526	70.75
342.754	71.75
342.981	91.75
343.209	65.75
343.437	79.75
343.665	79.75
343.893	72.75
344.12	79.75
344.348	70.75
344.576	73.75
344.804	82.75
345.031	73.75
345.259	78.75
345.487	74.75
345.714	79.75
345.942	86.75
346.17	77.75
346.397	80.75
346.625	85.75
346.853	103.75
347.08	84.75
347.308	82.75
347.535	77.75
347.763	91.75
347.99	77.75
348.218	81.75
348.445	88.75
348.673	99.75
348.9	65.75
349.128	89.75
349.355	88.75
349.583	86.75
349.81	89.75
350.037	93.75
350.265	89.75
350.492	80.75
350.72	79.75
350.947	67.75
351.174	86.75
351.402	85.75
351.629	64.75
351.856	82.75
352.083	73.75
352.311	81.75
352.538	88.75
352.765	91.75
352.992	80.75
353.22	91.75
353.447	93.75
353.674	88.75
353.901	84.75
354.128	85.75
354.355	87.75
354.583	80.75
354.81	92.75
355.037	85.75
355.264	84.75
355.491	90.75
355.718	74.75
355.945	95.75
356.172	73.75
356.399	69.75
356.626	80.75
356.853	78.75
357.08	80.75
357.307	82.75
357.534	73.75
357.761	87.75
357.988	97.75
358.215	88.75
358.441	87.75
358.668	71.75
358.895	74.75
359.122	72.75
359.349	87.75
359.576	87.75
359.802	81.75
360.029	70.75
360.256	71.75
360.483	93.75
360.709	75.75
360.936	87.75
361.163	83.75
361.39	76.75
361.616	78.75
361.843	86.75
362.07	85.75
362.296	74.75
362.523	78.75
362.749	87.75
362.976	78.75
363.203	80.75
363.429	94.75
363.656	78.75
363.882	89.75
364.109	64.75
364.335	85.75
364.562	80.75
364.788	87.75
365.015	76.75
365.241	87.75
365.468	99.75
365.694	77.75
365.92	85.75
366.147	85.75
366.373	85.75
366.599	75.75
366.826	96.75
367.052	79.75
367.278	84.75
367.505	85.75
367.731	89.75
367.957	88.75
368.184	87.75
368.41	79.75
368.636	82.75
368.862	82.75
369.089	79.75
369.315	61.75
369.541	82.75
369.767	71.75
369.993	91.75
370.219	79.75
370.445	67.75
370.672	80.75
370.898	79.75
371.124	93.75
371.35	86.75
371.576	83.75
371.802	75.75
372.028	71.75
372.254	91.75
372.48	82.75
372.706	76.75
372.932	93.75
373.158	79.75
373.384	91.75
373.61	83.75
373.835	70.75
374.061	86.75
374.287	80.75
374.513	92.75
374.739	79.75
374.965	90.75
375.191	76.75
375.416	70.75
375.642	92.75
375.868	91.75
376.094	91.75
376.319	74.75
376.545	80.75
376.771	99.75
376.997	75.75
377.222	77.75
377.448	86.75
377.674	79.75
377.899	96.75
378.125	76.75
378.35	97.75
378.576	82.75
378.802	78.75
379.027	93.75
379.253	91.75
379.478	86.75
379.704	99.75
379.929	77.75
380.155	90.75
380.38	88.75
380.606	81.75
380.831	89.75
381.057	85.75
381.282	76.75
381.507	66.75
381.733	71.75
381.958	76.75
382.184	81.75
382.409	86.75
382.634	86.75
382.86	75.75
383.085	91.75
383.31	88.75
383.535	93.75
383.761	96.75
383.986	102.75
384.211	82.75
384.436	92.75
384.662	81.75
384.887	108.75
385.112	81.75
385.337	88.75
385.562	96.75
385.787	93.75
386.013	85.75
386.238	73.75
386.463	80.75
386.688	93.75
386.913	79.75
387.138	97.75
387.363	78.75
387.588	76.75
387.813	93.75
388.038	81.75
388.263	76.75
388.488	84.75
388.713	84.75
388.938	97.75
389.163	76.75
389.387	77.75
389.612	89.75
389.837	73.75
390.062	91.75
390.287	94.75
390.512	93.75
390.736	79.75
390.961	70.75
391.186	87.75
391.411	83.75
391.636	90.75
391.86	81.75
392.085	88.75
392.31	71.75
392.534	75.75
392.759	97.75
392.984	79.75
393.208	103.75
393.433	73.75
393.658	92.75
393.882	90.75
394.107	108.75
394.331	152.75
394.556	152.75
394.78	109.75
395.005	101.75
395.229	94.75
395.454	83.75
395.678	104.75
395.903	120.75
396.127	172.75
396.352	174.75
396.576	107.75
396.801	79.75
397.025	68.75
397.249	89.75
397.474	89.75
397.698	84.75
397.922	89.75
398.147	83.75
398.371	75.75
398.595	75.75
398.82	79.75
399.044	88.75
399.268	83.75
399.492	77.75
399.717	77.75
399.941	72.75
400.165	79.75
400.389	83.75
400.613	82.75
400.837	79.75
401.062	73.75
401.286	70.75
401.51	89.75
401.734	102.75
401.958	80.75
402.182	79.75
402.406	82.75
402.63	88.75
402.854	93.75
403.078	79.75
403.302	76.75
403.526	88.75
403.75	94.75
403.974	82.75
404.198	76.75
404.422	79.75
404.645	78.75
404.869	80.75
405.093	85.75
405.317	82.75
405.541	86.75
405.765	87.75
405.988	84.75
406.212	83.75
406.436	92.75
406.66	81.75
406.883	72.75
407.107	96.75
407.331	97.75
407.555	92.75
407.778	89.75
408.002	70.75
408.226	79.75
408.449	90.75
408.673	83.75
408.896	73.75
409.12	88.75
409.344	93.75
409.567	81.75
409.791	83.75
410.014	86.75
410.238	88.75
410.461	98.75
410.685	89.75
410.908	88.75
411.132	82.75
411.355	93.75
411.578	76.75
411.802	74.75
412.025	67.75
412.249	84.75
412.472	79.75
412.695	75.75
412.919	89.75
413.142	88.75
413.365	80.75
413.589	70.75
413.812	94.75
414.035	88.75
414.258	90.75
414.482	86.75
414.705	91.75
414.928	80.75
415.151	91.75
415.374	87.75
415.597	96.75
415.821	101.75
416.044	74.75
416.267	87.75
416.49	75.75
416.713	84.75
416.936	79.75
417.159	80.75
417.382	76.75
417.605	82.75
417.828	81.75
418.051	73.75
418.274	95.75
418.497	93.75
418.72	82.75
418.943	72.75
419.166	81.75
419.389	85.75
419.611	85.75
419.834	96.75
420.057	87.75
420.28	91.75
420.503	87.75
420.726	84.75
420.948	84.75
421.171	79.75
421.394	74.75
421.617	102.75
421.839	85.75
422.062	73.75
422.285	77.75
422.507	81.75
422.73	76.75
422.953	87.75
423.175	71.75
423.398	67.75
423.621	94.75
423.843	90.75
424.066	77.75
424.288	79.75
424.511	69.75
424.733	76.75
424.956	85.75
425.178	84.75
425.401	97.75
425.623	90.75
425.846	88.75
426.068	70.75
426.291	83.75
426.513	89.75
426.735	66.75
426.958	82.75
427.18	89.75
427.402	85.75
427.625	77.75
427.847	83.75
428.069	85.75
428.292	79.75
428.514	80.75
428.736	82.75
428.958	79.75
429.181	93.75
429.403	101.75
429.625	81.75
429.847	81.75
430.069	84.75
430.292	96.75
430.514	85.75
430.736	77.75
430.958	83.75
431.18	77.75
431.402	81.75
431.624	79.75
431.846	68.75
432.068	84.75
432.29	75.75
432.512	87.75
432.734	85.75
432.956	92.75
433.178	88.75
433.4	72.75
433.622	77.75
433.844	80.75
434.066	87.75
434.287	88.75
434.509	84.75
434.731	76.75
434.953	77.75
435.175	78.75
435.397	94.75
435.618	92.75
435.84	76.75
436.062	79.75
436.284	77.75
436.505	75.75
436.727	74.75
436.949	72.75
437.17	76.75
437.392	94.75
437.614	83.75
437.835	82.75
438.057	80.75
438.278	84.75
438.5	85.75
438.721	71.75
438.943	68.75
439.165	98.75
439.386	81.75
439.608	88.75
439.829	94.75
440.05	85.75
440.272	95.75
440.493	88.75
440.715	78.75
440.936	94.75
441.158	82.75
441.379	81.75
441.6	85.75
441.822	88.75
442.043	76.75
442.264	82.75
442.486	77.75
442.707	85.75
442.928	80.75
443.149	75.75
443.371	94.75
443.592	91.75
443.813	95.75
444.034	76.75
444.255	83.75
444.476	89.75
444.698	83.75
444.919	82.75
445.14	134.75
445.361	105.75
445.582	78.75
445.803	88.75
446.024	87.75
446.245	78.75
446.466	83.75
446.687	75.75
446.908	83.75
447.129	81.75
447.35	79.75
447.571	72.75
447.792	75.75
448.013	92.75
448.234	88.75
448.455	91.75
448.675	96.75
448.896	84.75
449.117	87.75
449.338	83.75
449.559	76.75
449.779	70.75
450	90.75
450.221	88.75
450.442	73.75
450.662	69.75
450.883	95.75
451.104	80.75
451.324	75.75
451.545	87.75
451.766	71.75
451.986	71.75
452.207	85.75
452.428	85.75
452.648	83.75
452.869	79.75
453.089	79.75
453.31	86.75
453.53	80.75
453.751	75.75
453.971	89.75
454.192	71.75
454.412	86.75
454.633	84.75
454.853	73.75
455.073	85.75
455.294	75.75
455.514	86.75
455.734	79.75
455.955	69.75
456.175	85.75
456.395	94.75
456.616	87.75
456.836	81.75
457.056	69.75
457.276	82.75
457.497	82.75
457.717	78.75
457.937	87.75
458.157	87.75
458.377	88.75
458.598	90.75
458.818	83.75
459.038	63.75
459.258	78.75
459.478	91.75
459.698	95.75
459.918	75.75
460.138	88.75
460.358	83.75
460.578	87.75
460.798	74.75
461.018	65.75
461.238	72.75
461.458	79.75
461.678	78.75
461.898	83.75
462.118	89.75
462.338	72.75
462.558	72.75
462.777	78.75
462.997	92.75
463.217	87.75
463.437	82.75
463.657	78.75
463.876	88.75
464.096	89.75
464.316	93.75
464.536	92.75
464.755	86.75
464.975	73.75
465.195	83.75
465.414	89.75
465.634	90.75
465.854	82.75
466.073	84.75
466.293	74.75
466.512	75.75
466.732	80.75
466.951	77.75
467.171	80.75
467.391	91.75
467.61	89.75
467.829	100.75
468.049	94.75
468.268	97.75
468.488	87.75
468.707	86.75
468.927	81.75
469.146	89.75
469.365	91.75
469.585	93.75
469.804	94.75
470.023	95.75
470.243	94.75
470.462	84.75
470.681	82.75
470.901	77.75
471.12	76.75
471.339	86.75
471.558	88.75
471.777	103.75
471.997	79.75
472.216	79.75
472.435	77.75
472.654	77.75
472.873	92.75
473.092	87.75
473.311	84.75
473.53	97.75
473.749	94.75
473.968	78.75
474.187	92.75
474.406	93.75
474.625	78.75
474.844	90.75
475.063	88.75
475.282	78.75
475.501	81.75
475.72	106.75
475.939	80.75
476.158	94.75
476.377	90.75
476.596	95.75
476.814	91.75
477.033	79.75
477.252	87.75
477.471	74.75
477.69	82.75
477.908	92.75
478.127	90.75
478.346	85.75
478.564	79.75
478.783	73.75
479.002	89.75
479.22	92.75
479.439	74.75
479.658	76.75
479.876	77.75
480.095	69.75
480.313	67.75
480.532	90.75
480.751	91.75
480.969	90.75
481.188	68.75
481.406	74.75
481.624	89.75
481.843	73.75
482.061	72.75
482.28	87.75
482.498	85.75
482.717	81.75
482.935	86.75
483.153	94.75
483.372	94.75
483.59	86.75
483.808	90.75
484.027	83.75
484.245	86.75
484.463	75.75
484.681	96.75
484.9	96.75
485.118	99.75
485.336	88.75
485.554	88.75
485.772	88.75
485.99	93.75
486.209	77.75
486.427	104.75
486.645	88.75
486.863	82.75
487.081	79.75
487.299	78.75
487.517	88.75
487.735	89.75
487.953	87.75
488.171	101.75
488.389	90.75
488.607	85.75
488.825	78.75
489.043	77.75
489.261	84.75
489.479	93.75
489.696	88.75
489.914	79.75
490.132	82.75
490.35	82.75
490.568	79.75
490.786	91.75
491.003	105.75
491.221	91.75
491.439	77.75
491.657	83.75
491.874	97.75
492.092	87.75
492.31	98.75
492.527	101.75
492.745	96.75
492.963	90.75
493.18	99.75
493.398	110.75
493.615	87.75
493.833	95.75
494.05	95.75
494.268	95.75
494.485	81.75
494.703	83.75
494.92	77.75
495.138	87.75
495.355	89.75
495.573	105.75
495.79	97.75
496.008	91.75
496.225	95.75
496.442	94.75
496.66	98.75
496.877	90.75
497.094	92.75
497.312	84.75
497.529	91.75
497.746	85.75
497.963	90.75
498.181	84.75
498.398	91.75
498.615	91.75
498.832	76.75
499.049	83.75
499.267	86.75
499.484	94.75
499.701	88.75
499.918	104.75
500.135	94.75
500.352	94.75
500.569	91.75
500.786	84.75
501.003	92.75
501.22	92.75
501.437	89.75
501.654	91.75
501.871	89.75
502.088	85.75
502.305	84.75
502.522	78.75
502.739	77.75
502.956	88.75
503.172	92.75
503.389	85.75
503.606	88.75
503.823	89.75
504.04	95.75
504.256	82.75
504.473	87.75
504.69	88.75
504.907	79.75
505.123	76.75
505.34	81.75
505.557	87.75
505.773	93.75
505.99	79.75
506.207	75.75
506.423	83.75
506.64	90.75
506.856	94.75
507.073	76.75
507.289	84.75
507.506	94.75
507.722	90.75
507.939	77.75
508.155	70.75
508.372	85.75
508.588	84.75
508.805	80.75
509.021	86.75
509.238	99.75
509.454	68.75
509.67	73.75
509.887	102.75
510.103	79.75
510.319	76.75
510.536	79.75
510.752	93.75
510.968	72.75
511.184	96.75
511.401	90.75
511.617	90.75
511.833	78.75
512.049	82.75
512.265	95.75
512.481	88.75
512.698	103.75
512.914	72.75
513.13	80.75
513.346	93.75
513.562	89.75
513.778	87.75
513.994	79.75
514.21	78.75
514.426	89.75
514.642	85.75
514.858	72.75
515.074	88.75
515.29	83.75
515.506	77.75
515.721	83.75
515.937	93.75
516.153	88.75
516.369	87.75
516.585	90.75
516.801	88.75
517.016	85.75
517.232	98.75
517.448	97.75
517.664	92.75
517.879	84.75
518.095	92.75
518.311	105.75
518.527	111.75
518.742	87.75
518.958	85.75
519.173	89.75
519.389	74.75
519.605	73.75
