Data from Coke_Can_Tab_HRD10591_00015.txt Node
Date: Wed Nov 05 15:50:34 EST 2025
User: Yrep
Spectrometer: HR+D1059
Trigger mode: 1
Integration Time (sec): 1.000000E-1
Scans to average: 1
Electric dark correction enabled: true
Nonlinearity correction enabled: false
Boxcar width: 0
XAxis mode: Wavelengths
Number of Pixels in Spectrum: 2048
>>>>>Begin Spectral Data<<<<<
223.165	-17.12
223.4	-17.12
223.635	-17.12
223.869	-23.12
224.104	-12.12
224.338	-12.12
224.573	-2.12
224.808	-1.12
225.042	-18.12
225.277	-8.12
225.511	-4.12
225.746	-2.12
225.98	-3.12
226.215	15.88
226.449	14.88
226.683	29.88
226.918	6.88
227.152	35.88
227.387	50.88
227.621	24.88
227.856	46.88
228.09	51.88
228.324	46.88
228.559	47.88
228.793	62.88
229.027	72.88
229.262	57.88
229.496	57.88
229.73	64.88
229.964	58.88
230.199	80.88
230.433	83.88
230.667	72.88
230.901	80.88
231.136	81.88
231.37	74.88
231.604	71.88
231.838	71.88
232.072	88.88
232.306	88.88
232.541	82.88
232.775	70.88
233.009	87.88
233.243	80.88
233.477	73.88
233.711	88.88
233.945	70.88
234.179	74.88
234.413	89.88
234.647	82.88
234.881	78.88
235.115	81.88
235.349	74.88
235.583	76.88
235.817	75.88
236.051	77.88
236.285	77.88
236.519	85.88
236.753	72.88
236.987	84.88
237.221	86.88
237.455	76.88
237.689	74.88
237.922	86.88
238.156	60.88
238.39	75.88
238.624	72.88
238.858	80.88
239.091	65.88
239.325	77.88
239.559	71.88
239.793	78.88
240.027	81.88
240.26	72.88
240.494	88.88
240.728	85.88
240.961	101.88
241.195	95.88
241.429	82.88
241.662	87.88
241.896	79.88
242.13	87.88
242.363	78.88
242.597	76.88
242.83	89.88
243.064	92.88
243.298	94.88
243.531	79.88
243.765	86.88
243.998	91.88
244.232	83.88
244.465	80.88
244.699	79.88
244.932	90.88
245.166	92.88
245.399	83.88
245.633	82.88
245.866	79.88
246.099	82.88
246.333	82.88
246.566	83.88
246.8	81.88
247.033	84.88
247.266	88.88
247.5	70.88
247.733	82.88
247.966	92.88
248.2	78.88
248.433	69.88
248.666	72.88
248.899	68.88
249.133	79.88
249.366	69.88
249.599	72.88
249.832	78.88
250.066	79.88
250.299	83.88
250.532	78.88
250.765	83.88
250.998	80.88
251.231	86.88
251.465	86.88
251.698	78.88
251.931	82.88
252.164	89.88
252.397	73.88
252.63	72.88
252.863	75.88
253.096	75.88
253.329	69.88
253.562	76.88
253.795	90.88
254.028	81.88
254.261	72.88
254.494	82.88
254.727	86.88
254.96	92.88
255.193	62.88
255.426	72.88
255.659	87.88
255.892	73.88
256.124	76.88
256.357	93.88
256.59	82.88
256.823	93.88
257.056	70.88
257.289	68.88
257.521	82.88
257.754	78.88
257.987	88.88
258.22	83.88
258.452	88.88
258.685	85.88
258.918	96.88
259.151	88.88
259.383	91.88
259.616	83.88
259.849	80.88
260.081	94.88
260.314	102.88
260.547	94.88
260.779	91.88
261.012	80.88
261.244	72.88
261.477	84.88
261.71	88.88
261.942	83.88
262.175	80.88
262.407	80.88
262.64	84.88
262.872	90.88
263.105	73.88
263.337	76.88
263.57	96.88
263.802	85.88
264.035	79.88
264.267	90.88
264.499	82.88
264.732	78.88
264.964	85.88
265.197	78.88
265.429	80.88
265.661	84.88
265.894	63.88
266.126	84.88
266.358	96.88
266.591	94.88
266.823	75.88
267.055	90.88
267.287	89.88
267.52	94.88
267.752	82.88
267.984	91.88
268.216	79.88
268.448	94.88
268.681	91.88
268.913	103.88
269.145	78.88
269.377	96.88
269.609	100.88
269.841	85.88
270.073	88.88
270.306	88.88
270.538	88.88
270.77	77.88
271.002	76.88
271.234	77.88
271.466	78.88
271.698	87.88
271.93	96.88
272.162	93.88
272.394	82.88
272.626	96.88
272.858	105.88
273.09	70.88
273.322	74.88
273.553	74.88
273.785	94.88
274.017	72.88
274.249	79.88
274.481	87.88
274.713	73.88
274.945	75.88
275.176	78.88
275.408	72.88
275.64	83.88
275.872	86.88
276.104	87.88
276.335	82.88
276.567	89.88
276.799	94.88
277.031	83.88
277.262	83.88
277.494	85.88
277.726	88.88
277.957	82.88
278.189	87.88
278.421	91.88
278.652	95.88
278.884	79.88
279.115	79.88
279.347	83.88
279.579	95.88
279.81	89.88
280.042	101.88
280.273	96.88
280.505	83.88
280.736	83.88
280.968	79.88
281.199	86.88
281.431	82.88
281.662	86.88
281.894	78.88
282.125	88.88
282.356	91.88
282.588	73.88
282.819	82.88
283.051	85.88
283.282	98.88
283.513	90.88
283.745	85.88
283.976	90.88
284.207	84.88
284.439	98.88
284.67	84.88
284.901	80.88
285.132	80.88
285.364	101.88
285.595	90.88
285.826	96.88
286.057	93.88
286.288	76.88
286.52	82.88
286.751	94.88
286.982	99.88
287.213	86.88
287.444	84.88
287.675	76.88
287.906	87.88
288.138	75.88
288.369	86.88
288.6	85.88
288.831	76.88
289.062	94.88
289.293	94.88
289.524	98.88
289.755	92.88
289.986	83.88
290.217	88.88
290.448	79.88
290.679	91.88
290.91	80.88
291.141	84.88
291.371	79.88
291.602	88.88
291.833	82.88
292.064	85.88
292.295	82.88
292.526	78.88
292.757	82.88
292.987	72.88
293.218	79.88
293.449	78.88
293.68	85.88
293.91	91.88
294.141	79.88
294.372	76.88
294.603	85.88
294.833	79.88
295.064	90.88
295.295	83.88
295.525	84.88
295.756	82.88
295.987	92.88
296.217	83.88
296.448	101.88
296.679	89.88
296.909	85.88
297.14	71.88
297.37	91.88
297.601	91.88
297.831	87.88
298.062	88.88
298.292	93.88
298.523	95.88
298.753	89.88
298.984	74.88
299.214	84.88
299.445	96.88
299.675	103.88
299.905	103.88
300.136	66.88
300.366	84.88
300.597	96.88
300.827	89.88
301.057	87.88
301.288	79.88
301.518	73.88
301.748	79.88
301.979	99.88
302.209	83.88
302.439	96.88
302.669	83.88
302.9	82.88
303.13	92.88
303.36	88.88
303.59	92.88
303.82	99.88
304.051	91.88
304.281	91.88
304.511	92.88
304.741	83.88
304.971	88.88
305.201	83.88
305.431	92.88
305.661	81.88
305.891	103.88
306.121	95.88
306.352	94.88
306.582	87.88
306.812	78.88
307.042	86.88
307.272	89.88
307.502	83.88
307.731	92.88
307.961	101.88
308.191	103.88
308.421	105.88
308.651	91.88
308.881	107.88
309.111	111.88
309.341	120.88
309.571	92.88
309.8	95.88
310.03	82.88
310.26	79.88
310.49	83.88
310.72	85.88
310.949	87.88
311.179	77.88
311.409	90.88
311.639	73.88
311.868	88.88
312.098	76.88
312.328	90.88
312.557	93.88
312.787	90.88
313.017	96.88
313.246	98.88
313.476	79.88
313.706	92.88
313.935	85.88
314.165	82.88
314.394	92.88
314.624	90.88
314.853	75.88
315.083	85.88
315.312	95.88
315.542	88.88
315.771	77.88
316.001	90.88
316.23	90.88
316.46	81.88
316.689	75.88
316.919	106.88
317.148	99.88
317.377	96.88
317.607	83.88
317.836	74.88
318.065	78.88
318.295	78.88
318.524	81.88
318.753	97.88
318.983	89.88
319.212	88.88
319.441	91.88
319.67	98.88
319.9	90.88
320.129	82.88
320.358	100.88
320.587	89.88
320.816	79.88
321.046	96.88
321.275	84.88
321.504	94.88
321.733	94.88
321.962	78.88
322.191	87.88
322.42	72.88
322.649	82.88
322.878	81.88
323.108	81.88
323.337	70.88
323.566	102.88
323.795	95.88
324.024	90.88
324.253	94.88
324.482	82.88
324.71	78.88
324.939	89.88
325.168	73.88
325.397	82.88
325.626	87.88
325.855	88.88
326.084	87.88
326.313	89.88
326.542	84.88
326.77	86.88
326.999	92.88
327.228	102.88
327.457	69.88
327.686	98.88
327.914	84.88
328.143	90.88
328.372	89.88
328.6	79.88
328.829	90.88
329.058	88.88
329.287	103.88
329.515	100.88
329.744	91.88
329.972	85.88
330.201	80.88
330.43	92.88
330.658	88.88
330.887	89.88
331.115	108.88
331.344	80.88
331.572	83.88
331.801	90.88
332.03	96.88
332.258	88.88
332.486	83.88
332.715	89.88
332.943	82.88
333.172	74.88
333.4	74.88
333.629	95.88
333.857	79.88
334.085	92.88
334.314	92.88
334.542	91.88
334.771	85.88
334.999	90.88
335.227	78.88
335.455	79.88
335.684	74.88
335.912	74.88
336.14	80.88
336.369	89.88
336.597	88.88
336.825	80.88
337.053	98.88
337.281	82.88
337.51	76.88
337.738	80.88
337.966	94.88
338.194	88.88
338.422	84.88
338.65	94.88
338.878	96.88
339.106	95.88
339.334	89.88
339.562	83.88
339.79	71.88
340.018	75.88
340.246	100.88
340.474	84.88
340.702	70.88
340.93	81.88
341.158	84.88
341.386	85.88
341.614	96.88
341.842	85.88
342.07	86.88
342.298	83.88
342.526	85.88
342.754	94.88
342.981	102.88
343.209	97.88
343.437	104.88
343.665	99.88
343.893	84.88
344.12	88.88
344.348	90.88
344.576	87.88
344.804	98.88
345.031	86.88
345.259	90.88
345.487	81.88
345.714	77.88
345.942	80.88
346.17	79.88
346.397	87.88
346.625	82.88
346.853	84.88
347.08	78.88
347.308	88.88
347.535	96.88
347.763	80.88
347.99	102.88
348.218	90.88
348.445	86.88
348.673	83.88
348.9	80.88
349.128	66.88
349.355	76.88
349.583	92.88
349.81	90.88
350.037	74.88
350.265	79.88
350.492	76.88
350.72	71.88
350.947	86.88
351.174	94.88
351.402	84.88
351.629	77.88
351.856	68.88
352.083	92.88
352.311	75.88
352.538	86.88
352.765	81.88
352.992	77.88
353.22	80.88
353.447	84.88
353.674	83.88
353.901	82.88
354.128	75.88
354.355	72.88
354.583	79.88
354.81	93.88
355.037	81.88
355.264	79.88
355.491	92.88
355.718	98.88
355.945	92.88
356.172	100.88
356.399	79.88
356.626	102.88
356.853	88.88
357.08	88.88
357.307	103.88
357.534	81.88
357.761	74.88
357.988	82.88
358.215	93.88
358.441	81.88
358.668	84.88
358.895	81.88
359.122	100.88
359.349	89.88
359.576	72.88
359.802	90.88
360.029	78.88
360.256	74.88
360.483	70.88
360.709	77.88
360.936	95.88
361.163	87.88
361.39	87.88
361.616	88.88
361.843	72.88
362.07	78.88
362.296	90.88
362.523	91.88
362.749	74.88
362.976	99.88
363.203	92.88
363.429	85.88
363.656	82.88
363.882	91.88
364.109	90.88
364.335	77.88
364.562	94.88
364.788	90.88
365.015	85.88
365.241	73.88
365.468	90.88
365.694	87.88
365.92	77.88
366.147	89.88
366.373	90.88
366.599	91.88
366.826	88.88
367.052	91.88
367.278	91.88
367.505	80.88
367.731	88.88
367.957	85.88
368.184	79.88
368.41	106.88
368.636	96.88
368.862	63.88
369.089	99.88
369.315	79.88
369.541	84.88
369.767	85.88
369.993	84.88
370.219	87.88
370.445	74.88
370.672	87.88
370.898	89.88
371.124	89.88
371.35	76.88
371.576	82.88
371.802	90.88
372.028	84.88
372.254	82.88
372.48	91.88
372.706	91.88
372.932	83.88
373.158	79.88
373.384	80.88
373.61	80.88
373.835	88.88
374.061	74.88
374.287	78.88
374.513	77.88
374.739	83.88
374.965	86.88
375.191	82.88
375.416	74.88
375.642	86.88
375.868	79.88
376.094	74.88
376.319	89.88
376.545	92.88
376.771	88.88
376.997	90.88
377.222	88.88
377.448	75.88
377.674	90.88
377.899	81.88
378.125	98.88
378.35	89.88
378.576	84.88
378.802	66.88
379.027	88.88
379.253	83.88
379.478	87.88
379.704	94.88
379.929	91.88
380.155	83.88
380.38	88.88
380.606	80.88
380.831	88.88
381.057	99.88
381.282	95.88
381.507	79.88
381.733	77.88
381.958	68.88
382.184	86.88
382.409	103.88
382.634	80.88
382.86	93.88
383.085	100.88
383.31	79.88
383.535	99.88
383.761	113.88
383.986	89.88
384.211	85.88
384.436	88.88
384.662	106.88
384.887	79.88
385.112	83.88
385.337	94.88
385.562	92.88
385.787	89.88
386.013	83.88
386.238	84.88
386.463	91.88
386.688	110.88
386.913	74.88
387.138	101.88
387.363	87.88
387.588	100.88
387.813	86.88
388.038	88.88
388.263	82.88
388.488	76.88
388.713	82.88
388.938	92.88
389.163	93.88
389.387	90.88
389.612	82.88
389.837	70.88
390.062	79.88
390.287	80.88
390.512	78.88
390.736	77.88
390.961	96.88
391.186	80.88
391.411	95.88
391.636	90.88
391.86	97.88
392.085	88.88
392.31	93.88
392.534	78.88
392.759	90.88
392.984	97.88
393.208	104.88
393.433	97.88
393.658	86.88
393.882	98.88
394.107	112.88
394.331	140.88
394.556	158.88
394.78	113.88
395.005	104.88
395.229	92.88
395.454	96.88
395.678	100.88
395.903	144.88
396.127	186.88
396.352	150.88
396.576	88.88
396.801	80.88
397.025	85.88
397.249	90.88
397.474	78.88
397.698	81.88
397.922	79.88
398.147	79.88
398.371	91.88
398.595	85.88
398.82	78.88
399.044	87.88
399.268	75.88
399.492	96.88
399.717	99.88
399.941	79.88
400.165	88.88
400.389	93.88
400.613	80.88
400.837	71.88
401.062	84.88
401.286	89.88
401.51	84.88
401.734	79.88
401.958	90.88
402.182	90.88
402.406	80.88
402.63	99.88
402.854	79.88
403.078	79.88
403.302	79.88
403.526	89.88
403.75	97.88
403.974	82.88
404.198	84.88
404.422	70.88
404.645	92.88
404.869	78.88
405.093	87.88
405.317	85.88
405.541	77.88
405.765	82.88
405.988	99.88
406.212	91.88
406.436	95.88
406.66	96.88
406.883	82.88
407.107	88.88
407.331	100.88
407.555	97.88
407.778	78.88
408.002	81.88
408.226	83.88
408.449	89.88
408.673	85.88
408.896	89.88
409.12	84.88
409.344	83.88
409.567	88.88
409.791	96.88
410.014	101.88
410.238	84.88
410.461	79.88
410.685	83.88
410.908	72.88
411.132	100.88
411.355	80.88
411.578	81.88
411.802	79.88
412.025	94.88
412.249	93.88
412.472	85.88
412.695	87.88
412.919	78.88
413.142	79.88
413.365	91.88
413.589	85.88
413.812	79.88
414.035	90.88
414.258	92.88
414.482	97.88
414.705	102.88
414.928	82.88
415.151	85.88
415.374	85.88
415.597	94.88
415.821	99.88
416.044	79.88
416.267	70.88
416.49	83.88
416.713	102.88
416.936	88.88
417.159	100.88
417.382	89.88
417.605	74.88
417.828	102.88
418.051	73.88
418.274	92.88
418.497	89.88
418.72	80.88
418.943	86.88
419.166	83.88
419.389	83.88
419.611	76.88
419.834	93.88
420.057	81.88
420.28	88.88
420.503	84.88
420.726	89.88
420.948	83.88
421.171	84.88
421.394	87.88
421.617	90.88
421.839	79.88
422.062	87.88
422.285	95.88
422.507	90.88
422.73	93.88
422.953	80.88
423.175	82.88
423.398	78.88
423.621	92.88
423.843	74.88
424.066	83.88
424.288	84.88
424.511	94.88
424.733	90.88
424.956	80.88
425.178	94.88
425.401	98.88
425.623	85.88
425.846	85.88
426.068	90.88
426.291	90.88
426.513	102.88
426.735	78.88
426.958	71.88
427.18	84.88
427.402	85.88
427.625	86.88
427.847	77.88
428.069	83.88
428.292	87.88
428.514	90.88
428.736	98.88
428.958	92.88
429.181	90.88
429.403	83.88
429.625	78.88
429.847	89.88
430.069	91.88
430.292	82.88
430.514	80.88
430.736	74.88
430.958	95.88
431.18	83.88
431.402	76.88
431.624	85.88
431.846	74.88
432.068	80.88
432.29	96.88
432.512	89.88
432.734	83.88
432.956	88.88
433.178	90.88
433.4	96.88
433.622	74.88
433.844	102.88
434.066	71.88
434.287	67.88
434.509	106.88
434.731	78.88
434.953	83.88
435.175	80.88
435.397	77.88
435.618	79.88
435.84	83.88
436.062	88.88
436.284	89.88
436.505	105.88
436.727	89.88
436.949	87.88
437.17	90.88
437.392	90.88
437.614	83.88
437.835	86.88
438.057	84.88
438.278	82.88
438.5	88.88
438.721	82.88
438.943	94.88
439.165	97.88
439.386	90.88
439.608	93.88
439.829	80.88
440.05	98.88
440.272	76.88
440.493	97.88
440.715	90.88
440.936	82.88
441.158	86.88
441.379	80.88
441.6	77.88
441.822	101.88
442.043	82.88
442.264	95.88
442.486	83.88
442.707	91.88
442.928	81.88
443.149	96.88
443.371	91.88
443.592	95.88
443.813	82.88
444.034	89.88
444.255	87.88
444.476	90.88
444.698	91.88
444.919	84.88
445.14	152.88
445.361	101.88
445.582	93.88
445.803	98.88
446.024	76.88
446.245	92.88
446.466	96.88
446.687	76.88
446.908	101.88
447.129	97.88
447.35	85.88
447.571	87.88
447.792	98.88
448.013	89.88
448.234	89.88
448.455	88.88
448.675	104.88
448.896	92.88
449.117	78.88
449.338	54.88
449.559	84.88
449.779	82.88
450	81.88
450.221	81.88
450.442	99.88
450.662	83.88
450.883	87.88
451.104	99.88
451.324	82.88
451.545	96.88
451.766	80.88
451.986	78.88
452.207	73.88
452.428	94.88
452.648	88.88
452.869	90.88
453.089	78.88
453.31	85.88
453.53	77.88
453.751	96.88
453.971	92.88
454.192	86.88
454.412	93.88
454.633	80.88
454.853	76.88
455.073	78.88
455.294	87.88
455.514	92.88
455.734	81.88
455.955	100.88
456.175	76.88
456.395	86.88
456.616	88.88
456.836	88.88
457.056	84.88
457.276	71.88
457.497	78.88
457.717	84.88
457.937	90.88
458.157	89.88
458.377	76.88
458.598	73.88
458.818	93.88
459.038	92.88
459.258	68.88
459.478	82.88
459.698	89.88
459.918	80.88
460.138	89.88
460.358	106.88
460.578	87.88
460.798	85.88
461.018	79.88
461.238	84.88
461.458	88.88
461.678	93.88
461.898	86.88
462.118	88.88
462.338	85.88
462.558	90.88
462.777	86.88
462.997	80.88
463.217	84.88
463.437	85.88
463.657	89.88
463.876	88.88
464.096	96.88
464.316	86.88
464.536	92.88
464.755	90.88
464.975	71.88
465.195	92.88
465.414	81.88
465.634	84.88
465.854	97.88
466.073	83.88
466.293	104.88
466.512	81.88
466.732	80.88
466.951	90.88
467.171	87.88
467.391	98.88
467.61	75.88
467.829	102.88
468.049	86.88
468.268	92.88
468.488	93.88
468.707	92.88
468.927	100.88
469.146	87.88
469.365	90.88
469.585	96.88
469.804	95.88
470.023	89.88
470.243	91.88
470.462	88.88
470.681	92.88
470.901	90.88
471.12	81.88
471.339	98.88
471.558	90.88
471.777	93.88
471.997	84.88
472.216	90.88
472.435	95.88
472.654	99.88
472.873	91.88
473.092	89.88
473.311	99.88
473.53	92.88
473.749	81.88
473.968	106.88
474.187	84.88
474.406	84.88
474.625	101.88
474.844	80.88
475.063	90.88
475.282	93.88
475.501	80.88
475.72	87.88
475.939	74.88
476.158	86.88
476.377	93.88
476.596	64.88
476.814	80.88
477.033	91.88
477.252	92.88
477.471	81.88
477.69	91.88
477.908	90.88
478.127	90.88
478.346	90.88
478.564	85.88
478.783	97.88
479.002	95.88
479.22	93.88
479.439	86.88
479.658	78.88
479.876	73.88
480.095	78.88
480.313	87.88
480.532	95.88
480.751	92.88
480.969	75.88
481.188	78.88
481.406	94.88
481.624	84.88
481.843	105.88
482.061	92.88
482.28	83.88
482.498	104.88
482.717	93.88
482.935	95.88
483.153	86.88
483.372	77.88
483.59	85.88
483.808	90.88
484.027	93.88
484.245	76.88
484.463	88.88
484.681	88.88
484.9	78.88
485.118	80.88
485.336	86.88
485.554	86.88
485.772	82.88
485.99	71.88
486.209	89.88
486.427	106.88
486.645	98.88
486.863	78.88
487.081	104.88
487.299	89.88
487.517	96.88
487.735	90.88
487.953	95.88
488.171	96.88
488.389	97.88
488.607	89.88
488.825	85.88
489.043	90.88
489.261	92.88
489.479	92.88
489.696	92.88
489.914	74.88
490.132	89.88
490.35	110.88
490.568	81.88
490.786	104.88
491.003	89.88
491.221	84.88
491.439	88.88
491.657	95.88
491.874	99.88
492.092	97.88
492.31	92.88
492.527	74.88
492.745	92.88
492.963	98.88
493.18	92.88
493.398	93.88
493.615	92.88
493.833	84.88
494.05	90.88
494.268	92.88
494.485	95.88
494.703	110.88
494.92	106.88
495.138	84.88
495.355	85.88
495.573	102.88
495.79	95.88
496.008	89.88
496.225	85.88
496.442	95.88
496.66	100.88
496.877	112.88
497.094	100.88
497.312	94.88
497.529	85.88
497.746	82.88
497.963	83.88
498.181	89.88
498.398	92.88
498.615	92.88
498.832	66.88
499.049	77.88
499.267	95.88
499.484	101.88
499.701	93.88
499.918	91.88
500.135	82.88
500.352	86.88
500.569	76.88
500.786	98.88
501.003	84.88
501.22	93.88
501.437	79.88
501.654	88.88
501.871	67.88
502.088	78.88
502.305	106.88
502.522	77.88
502.739	82.88
502.956	98.88
503.172	85.88
503.389	75.88
503.606	90.88
503.823	85.88
504.04	86.88
504.256	94.88
504.473	81.88
504.69	100.88
504.907	83.88
505.123	98.88
505.34	78.88
505.557	77.88
505.773	76.88
505.99	94.88
506.207	93.88
506.423	90.88
506.64	78.88
506.856	100.88
507.073	96.88
507.289	93.88
507.506	84.88
507.722	96.88
507.939	84.88
508.155	87.88
508.372	90.88
508.588	79.88
508.805	91.88
509.021	90.88
509.238	84.88
509.454	95.88
509.67	96.88
509.887	88.88
510.103	87.88
510.319	89.88
510.536	79.88
510.752	94.88
510.968	91.88
511.184	74.88
511.401	93.88
511.617	84.88
511.833	92.88
512.049	97.88
512.265	80.88
512.481	98.88
512.698	98.88
512.914	89.88
513.13	88.88
513.346	112.88
513.562	100.88
513.778	92.88
513.994	90.88
514.21	79.88
514.426	95.88
514.642	103.88
514.858	94.88
515.074	90.88
515.29	100.88
515.506	90.88
515.721	95.88
515.937	79.88
516.153	92.88
516.369	88.88
516.585	76.88
516.801	79.88
517.016	80.88
517.232	92.88
517.448	100.88
517.664	100.88
517.879	82.88
518.095	88.88
518.311	84.88
518.527	110.88
518.742	99.88
