Data from Coke_Can_Tab_HRD10591_00016.txt Node
Date: Wed Nov 05 15:50:35 EST 2025
User: Yrep
Spectrometer: HR+D1059
Trigger mode: 1
Integration Time (sec): 1.000000E-1
Scans to average: 1
Electric dark correction enabled: true
Nonlinearity correction enabled: false
Boxcar width: 0
XAxis mode: Wavelengths
Number of Pixels in Spectrum: 2048
>>>>>Begin Spectral Data<<<<<
223.165	-22.44
223.4	-22.44
223.635	-22.44
223.869	-16.44
224.104	-19.44
224.338	-22.44
224.573	-7.44
224.808	-8.44
225.042	-21.44
225.277	13.56
225.511	-11.44
225.746	1.56
225.98	9.56
226.215	14.56
226.449	24.56
226.683	11.56
226.918	22.56
227.152	31.56
227.387	48.56
227.621	38.56
227.856	56.56
228.09	53.56
228.324	52.56
228.559	60.56
228.793	68.56
229.027	73.56
229.262	64.56
229.496	68.56
229.73	65.56
229.964	81.56
230.199	69.56
230.433	76.56
230.667	74.56
230.901	66.56
231.136	91.56
231.37	83.56
231.604	74.56
231.838	88.56
232.072	67.56
232.306	86.56
232.541	66.56
232.775	79.56
233.009	69.56
233.243	92.56
233.477	88.56
233.711	85.56
233.945	82.56
234.179	87.56
234.413	88.56
234.647	83.56
234.881	93.56
235.115	91.56
235.349	86.56
235.583	91.56
235.817	77.56
236.051	82.56
236.285	76.56
236.519	91.56
236.753	80.56
236.987	87.56
237.221	87.56
237.455	89.56
237.689	84.56
237.922	71.56
238.156	64.56
238.39	68.56
238.624	79.56
238.858	91.56
239.091	81.56
239.325	65.56
239.559	84.56
239.793	81.56
240.027	76.56
240.26	77.56
240.494	73.56
240.728	74.56
240.961	67.56
241.195	71.56
241.429	84.56
241.662	71.56
241.896	75.56
242.13	73.56
242.363	77.56
242.597	63.56
242.83	81.56
243.064	80.56
243.298	84.56
243.531	83.56
243.765	73.56
243.998	67.56
244.232	93.56
244.465	86.56
244.699	72.56
244.932	90.56
245.166	85.56
245.399	67.56
245.633	71.56
245.866	64.56
246.099	85.56
246.333	73.56
246.566	65.56
246.8	76.56
247.033	81.56
247.266	89.56
247.5	81.56
247.733	79.56
247.966	72.56
248.2	85.56
248.433	67.56
248.666	85.56
248.899	82.56
249.133	83.56
249.366	83.56
249.599	81.56
249.832	77.56
250.066	89.56
250.299	77.56
250.532	83.56
250.765	77.56
250.998	85.56
251.231	78.56
251.465	92.56
251.698	54.56
251.931	84.56
252.164	94.56
252.397	80.56
252.63	78.56
252.863	88.56
253.096	84.56
253.329	74.56
253.562	75.56
253.795	81.56
254.028	63.56
254.261	76.56
254.494	76.56
254.727	77.56
254.96	71.56
255.193	80.56
255.426	81.56
255.659	81.56
255.892	87.56
256.124	81.56
256.357	83.56
256.59	80.56
256.823	75.56
257.056	82.56
257.289	76.56
257.521	81.56
257.754	84.56
257.987	67.56
258.22	81.56
258.452	71.56
258.685	72.56
258.918	75.56
259.151	79.56
259.383	71.56
259.616	81.56
259.849	80.56
260.081	85.56
260.314	83.56
260.547	74.56
260.779	84.56
261.012	79.56
261.244	82.56
261.477	87.56
261.71	79.56
261.942	77.56
262.175	82.56
262.407	95.56
262.64	72.56
262.872	78.56
263.105	85.56
263.337	79.56
263.57	81.56
263.802	80.56
264.035	79.56
264.267	90.56
264.499	77.56
264.732	84.56
264.964	88.56
265.197	86.56
265.429	89.56
265.661	83.56
265.894	80.56
266.126	77.56
266.358	82.56
266.591	79.56
266.823	75.56
267.055	81.56
267.287	87.56
267.52	64.56
267.752	103.56
267.984	87.56
268.216	80.56
268.448	87.56
268.681	79.56
268.913	77.56
269.145	79.56
269.377	81.56
269.609	103.56
269.841	75.56
270.073	81.56
270.306	81.56
270.538	87.56
270.77	79.56
271.002	88.56
271.234	78.56
271.466	95.56
271.698	101.56
271.93	77.56
272.162	87.56
272.394	85.56
272.626	95.56
272.858	85.56
273.09	83.56
273.322	81.56
273.553	77.56
273.785	89.56
274.017	74.56
274.249	92.56
274.481	88.56
274.713	67.56
274.945	83.56
275.176	77.56
275.408	89.56
275.64	71.56
275.872	79.56
276.104	70.56
276.335	73.56
276.567	81.56
276.799	98.56
277.031	87.56
277.262	72.56
277.494	81.56
277.726	93.56
277.957	85.56
278.189	92.56
278.421	68.56
278.652	74.56
278.884	90.56
279.115	88.56
279.347	90.56
279.579	92.56
279.81	95.56
280.042	92.56
280.273	86.56
280.505	90.56
280.736	88.56
280.968	85.56
281.199	79.56
281.431	90.56
281.662	80.56
281.894	80.56
282.125	96.56
282.356	90.56
282.588	91.56
282.819	88.56
283.051	84.56
283.282	82.56
283.513	90.56
283.745	79.56
283.976	88.56
284.207	81.56
284.439	96.56
284.67	86.56
284.901	88.56
285.132	101.56
285.364	94.56
285.595	87.56
285.826	62.56
286.057	87.56
286.288	90.56
286.52	84.56
286.751	88.56
286.982	79.56
287.213	88.56
287.444	85.56
287.675	83.56
287.906	95.56
288.138	81.56
288.369	85.56
288.6	79.56
288.831	76.56
289.062	94.56
289.293	91.56
289.524	66.56
289.755	87.56
289.986	80.56
290.217	99.56
290.448	92.56
290.679	95.56
290.91	67.56
291.141	83.56
291.371	78.56
291.602	83.56
291.833	76.56
292.064	87.56
292.295	80.56
292.526	87.56
292.757	83.56
292.987	87.56
293.218	74.56
293.449	99.56
293.68	86.56
293.91	95.56
294.141	89.56
294.372	81.56
294.603	70.56
294.833	95.56
295.064	95.56
295.295	73.56
295.525	74.56
295.756	85.56
295.987	75.56
296.217	81.56
296.448	92.56
296.679	89.56
296.909	96.56
297.14	87.56
297.37	84.56
297.601	93.56
297.831	89.56
298.062	101.56
298.292	97.56
298.523	79.56
298.753	86.56
298.984	85.56
299.214	76.56
299.445	81.56
299.675	98.56
299.905	81.56
300.136	81.56
300.366	80.56
300.597	91.56
300.827	92.56
301.057	90.56
301.288	96.56
301.518	89.56
301.748	85.56
301.979	100.56
302.209	99.56
302.439	67.56
302.669	87.56
302.9	78.56
303.13	95.56
303.36	85.56
303.59	89.56
303.82	80.56
304.051	73.56
304.281	100.56
304.511	85.56
304.741	73.56
304.971	71.56
305.201	91.56
305.431	75.56
305.661	79.56
305.891	81.56
306.121	74.56
306.352	89.56
306.582	77.56
306.812	94.56
307.042	91.56
307.272	69.56
307.502	89.56
307.731	89.56
307.961	92.56
308.191	111.56
308.421	102.56
308.651	97.56
308.881	90.56
309.111	94.56
309.341	94.56
309.571	90.56
309.8	81.56
310.03	79.56
310.26	72.56
310.49	79.56
310.72	90.56
310.949	93.56
311.179	88.56
311.409	81.56
311.639	86.56
311.868	87.56
312.098	83.56
312.328	85.56
312.557	91.56
312.787	86.56
313.017	87.56
313.246	92.56
313.476	105.56
313.706	88.56
313.935	80.56
314.165	87.56
314.394	81.56
314.624	83.56
314.853	92.56
315.083	82.56
315.312	89.56
315.542	88.56
315.771	81.56
316.001	69.56
316.23	89.56
316.46	101.56
316.689	99.56
316.919	88.56
317.148	78.56
317.377	91.56
317.607	100.56
317.836	74.56
318.065	79.56
318.295	96.56
318.524	83.56
318.753	79.56
318.983	83.56
319.212	85.56
319.441	79.56
319.67	83.56
319.9	87.56
320.129	83.56
320.358	90.56
320.587	81.56
320.816	80.56
321.046	91.56
321.275	75.56
321.504	87.56
321.733	79.56
321.962	75.56
322.191	75.56
322.42	90.56
322.649	91.56
322.878	82.56
323.108	86.56
323.337	76.56
323.566	78.56
323.795	97.56
324.024	85.56
324.253	102.56
324.482	82.56
324.71	88.56
324.939	92.56
325.168	73.56
325.397	71.56
325.626	88.56
325.855	85.56
326.084	78.56
326.313	81.56
326.542	72.56
326.77	77.56
326.999	91.56
327.228	78.56
327.457	78.56
327.686	92.56
327.914	96.56
328.143	90.56
328.372	85.56
328.6	71.56
328.829	76.56
329.058	82.56
329.287	65.56
329.515	81.56
329.744	87.56
329.972	74.56
330.201	77.56
330.43	73.56
330.658	86.56
330.887	86.56
331.115	97.56
331.344	83.56
331.572	91.56
331.801	88.56
332.03	78.56
332.258	99.56
332.486	87.56
332.715	80.56
332.943	82.56
333.172	79.56
333.4	80.56
333.629	80.56
333.857	85.56
334.085	79.56
334.314	76.56
334.542	87.56
334.771	95.56
334.999	81.56
335.227	87.56
335.455	78.56
335.684	72.56
335.912	77.56
336.14	80.56
336.369	81.56
336.597	83.56
336.825	97.56
337.053	91.56
337.281	79.56
337.51	86.56
337.738	67.56
337.966	74.56
338.194	81.56
338.422	98.56
338.65	87.56
338.878	83.56
339.106	91.56
339.334	103.56
339.562	79.56
339.79	94.56
340.018	87.56
340.246	85.56
340.474	78.56
340.702	93.56
340.93	91.56
341.158	76.56
341.386	80.56
341.614	75.56
341.842	75.56
342.07	75.56
342.298	92.56
342.526	85.56
342.754	88.56
342.981	83.56
343.209	93.56
343.437	91.56
343.665	89.56
343.893	83.56
344.12	96.56
344.348	80.56
344.576	89.56
344.804	95.56
345.031	83.56
345.259	87.56
345.487	73.56
345.714	76.56
345.942	87.56
346.17	100.56
346.397	78.56
346.625	85.56
346.853	93.56
347.08	84.56
347.308	85.56
347.535	75.56
347.763	89.56
347.99	90.56
348.218	77.56
348.445	72.56
348.673	65.56
348.9	75.56
349.128	88.56
349.355	87.56
349.583	79.56
349.81	77.56
350.037	92.56
350.265	89.56
350.492	82.56
350.72	81.56
350.947	92.56
351.174	82.56
351.402	99.56
351.629	88.56
351.856	81.56
352.083	71.56
352.311	85.56
352.538	81.56
352.765	99.56
352.992	91.56
353.22	85.56
353.447	86.56
353.674	78.56
353.901	92.56
354.128	84.56
354.355	85.56
354.583	87.56
354.81	80.56
355.037	89.56
355.264	80.56
355.491	71.56
355.718	85.56
355.945	89.56
356.172	87.56
356.399	90.56
356.626	76.56
356.853	94.56
357.08	82.56
357.307	86.56
357.534	85.56
357.761	85.56
357.988	78.56
358.215	89.56
358.441	87.56
358.668	92.56
358.895	87.56
359.122	99.56
359.349	76.56
359.576	78.56
359.802	102.56
360.029	103.56
360.256	87.56
360.483	72.56
360.709	75.56
360.936	93.56
361.163	80.56
361.39	91.56
361.616	103.56
361.843	87.56
362.07	95.56
362.296	89.56
362.523	71.56
362.749	79.56
362.976	79.56
363.203	84.56
363.429	79.56
363.656	79.56
363.882	86.56
364.109	79.56
364.335	90.56
364.562	63.56
364.788	92.56
365.015	73.56
365.241	83.56
365.468	82.56
365.694	95.56
365.92	77.56
366.147	91.56
366.373	86.56
366.599	92.56
366.826	72.56
367.052	76.56
367.278	80.56
367.505	81.56
367.731	85.56
367.957	82.56
368.184	85.56
368.41	80.56
368.636	79.56
368.862	76.56
369.089	86.56
369.315	75.56
369.541	83.56
369.767	91.56
369.993	78.56
370.219	89.56
370.445	79.56
370.672	79.56
370.898	85.56
371.124	76.56
371.35	80.56
371.576	83.56
371.802	87.56
372.028	104.56
372.254	91.56
372.48	84.56
372.706	59.56
372.932	83.56
373.158	76.56
373.384	82.56
373.61	79.56
373.835	87.56
374.061	77.56
374.287	84.56
374.513	89.56
374.739	78.56
374.965	93.56
375.191	101.56
375.416	81.56
375.642	88.56
375.868	88.56
376.094	86.56
376.319	87.56
376.545	85.56
376.771	88.56
376.997	79.56
377.222	85.56
377.448	76.56
377.674	96.56
377.899	87.56
378.125	82.56
378.35	82.56
378.576	88.56
378.802	72.56
379.027	87.56
379.253	87.56
379.478	81.56
379.704	87.56
379.929	89.56
380.155	93.56
380.38	92.56
380.606	88.56
380.831	88.56
381.057	88.56
381.282	106.56
381.507	85.56
381.733	78.56
381.958	87.56
382.184	80.56
382.409	103.56
382.634	92.56
382.86	101.56
383.085	96.56
383.31	99.56
383.535	96.56
383.761	99.56
383.986	101.56
384.211	90.56
384.436	75.56
384.662	79.56
384.887	82.56
385.112	82.56
385.337	91.56
385.562	90.56
385.787	88.56
386.013	86.56
386.238	85.56
386.463	88.56
386.688	97.56
386.913	77.56
387.138	88.56
387.363	72.56
387.588	75.56
387.813	74.56
388.038	76.56
388.263	75.56
388.488	84.56
388.713	91.56
388.938	95.56
389.163	94.56
389.387	75.56
389.612	81.56
389.837	81.56
390.062	79.56
390.287	86.56
390.512	96.56
390.736	86.56
390.961	79.56
391.186	83.56
391.411	79.56
391.636	89.56
391.86	78.56
392.085	97.56
392.31	80.56
392.534	89.56
392.759	78.56
392.984	93.56
393.208	79.56
393.433	89.56
393.658	94.56
393.882	95.56
394.107	105.56
394.331	145.56
394.556	155.56
394.78	103.56
395.005	91.56
395.229	84.56
395.454	89.56
395.678	104.56
395.903	119.56
396.127	179.56
396.352	169.56
396.576	103.56
396.801	97.56
397.025	80.56
397.249	82.56
397.474	77.56
397.698	74.56
397.922	81.56
398.147	85.56
398.371	91.56
398.595	90.56
398.82	94.56
399.044	81.56
399.268	90.56
399.492	63.56
399.717	89.56
399.941	99.56
400.165	89.56
400.389	88.56
400.613	79.56
400.837	94.56
401.062	86.56
401.286	83.56
401.51	93.56
401.734	86.56
401.958	83.56
402.182	60.56
402.406	84.56
402.63	93.56
402.854	81.56
403.078	91.56
403.302	92.56
403.526	67.56
403.75	79.56
403.974	78.56
404.198	85.56
404.422	86.56
404.645	95.56
404.869	75.56
405.093	76.56
405.317	87.56
405.541	93.56
405.765	95.56
405.988	82.56
406.212	79.56
406.436	85.56
406.66	85.56
406.883	80.56
407.107	92.56
407.331	73.56
407.555	79.56
407.778	94.56
408.002	83.56
408.226	85.56
408.449	90.56
408.673	83.56
408.896	80.56
409.12	87.56
409.344	87.56
409.567	73.56
409.791	84.56
410.014	99.56
410.238	87.56
410.461	91.56
410.685	85.56
410.908	76.56
411.132	81.56
411.355	90.56
411.578	81.56
411.802	98.56
412.025	85.56
412.249	83.56
412.472	87.56
412.695	80.56
412.919	85.56
413.142	87.56
413.365	87.56
413.589	86.56
413.812	88.56
414.035	85.56
414.258	82.56
414.482	81.56
414.705	98.56
414.928	106.56
415.151	94.56
415.374	97.56
415.597	87.56
415.821	81.56
416.044	87.56
416.267	94.56
416.49	87.56
416.713	86.56
416.936	75.56
417.159	79.56
417.382	93.56
417.605	80.56
417.828	92.56
418.051	91.56
418.274	81.56
418.497	82.56
418.72	77.56
418.943	85.56
419.166	89.56
419.389	78.56
419.611	95.56
419.834	84.56
420.057	95.56
420.28	96.56
420.503	83.56
420.726	85.56
420.948	78.56
421.171	85.56
421.394	94.56
421.617	79.56
421.839	85.56
422.062	89.56
422.285	78.56
422.507	75.56
422.73	94.56
422.953	97.56
423.175	93.56
423.398	81.56
423.621	69.56
423.843	86.56
424.066	69.56
424.288	87.56
424.511	91.56
424.733	90.56
424.956	89.56
425.178	94.56
425.401	98.56
425.623	100.56
425.846	89.56
426.068	78.56
426.291	86.56
426.513	85.56
426.735	74.56
426.958	85.56
427.18	87.56
427.402	81.56
427.625	89.56
427.847	91.56
428.069	77.56
428.292	105.56
428.514	92.56
428.736	79.56
428.958	69.56
429.181	93.56
429.403	81.56
429.625	91.56
429.847	69.56
430.069	86.56
430.292	94.56
430.514	85.56
430.736	90.56
430.958	79.56
431.18	85.56
431.402	89.56
431.624	76.56
431.846	87.56
432.068	77.56
432.29	87.56
432.512	102.56
432.734	94.56
432.956	89.56
433.178	88.56
433.4	94.56
433.622	89.56
433.844	85.56
434.066	80.56
434.287	63.56
434.509	78.56
434.731	85.56
434.953	79.56
435.175	73.56
435.397	72.56
435.618	88.56
435.84	86.56
436.062	77.56
436.284	90.56
436.505	85.56
436.727	93.56
436.949	79.56
437.17	73.56
437.392	92.56
437.614	79.56
437.835	94.56
438.057	83.56
438.278	79.56
438.5	85.56
438.721	80.56
438.943	79.56
439.165	87.56
439.386	71.56
439.608	105.56
439.829	88.56
440.05	92.56
440.272	83.56
440.493	81.56
440.715	91.56
440.936	84.56
441.158	95.56
441.379	78.56
441.6	85.56
441.822	94.56
442.043	84.56
442.264	92.56
442.486	95.56
442.707	79.56
442.928	88.56
443.149	82.56
443.371	86.56
443.592	78.56
443.813	87.56
444.034	88.56
444.255	80.56
444.476	96.56
444.698	87.56
444.919	92.56
445.14	135.56
445.361	111.56
445.582	91.56
445.803	97.56
446.024	90.56
446.245	80.56
446.466	101.56
446.687	73.56
446.908	90.56
447.129	89.56
447.35	67.56
447.571	99.56
447.792	84.56
448.013	77.56
448.234	82.56
448.455	87.56
448.675	74.56
448.896	80.56
449.117	70.56
449.338	86.56
449.559	76.56
449.779	94.56
450	89.56
450.221	89.56
450.442	90.56
450.662	89.56
450.883	77.56
451.104	85.56
451.324	75.56
451.545	91.56
451.766	98.56
451.986	95.56
452.207	91.56
452.428	75.56
452.648	86.56
452.869	76.56
453.089	76.56
453.31	82.56
453.53	81.56
453.751	92.56
453.971	89.56
454.192	76.56
454.412	94.56
454.633	85.56
454.853	73.56
455.073	80.56
455.294	76.56
455.514	94.56
455.734	100.56
455.955	73.56
456.175	89.56
456.395	85.56
456.616	65.56
456.836	80.56
457.056	87.56
457.276	86.56
457.497	87.56
457.717	85.56
457.937	69.56
458.157	84.56
458.377	80.56
458.598	87.56
458.818	90.56
459.038	95.56
459.258	80.56
459.478	87.56
459.698	88.56
459.918	80.56
460.138	85.56
460.358	87.56
460.578	102.56
460.798	80.56
461.018	92.56
461.238	84.56
461.458	77.56
461.678	80.56
461.898	95.56
462.118	88.56
462.338	86.56
462.558	81.56
462.777	81.56
462.997	87.56
463.217	76.56
463.437	73.56
463.657	86.56
463.876	100.56
464.096	87.56
464.316	83.56
464.536	91.56
464.755	92.56
464.975	79.56
465.195	95.56
465.414	91.56
465.634	81.56
465.854	87.56
466.073	87.56
466.293	89.56
466.512	86.56
466.732	85.56
466.951	76.56
467.171	83.56
467.391	85.56
467.61	89.56
467.829	76.56
468.049	91.56
468.268	75.56
468.488	80.56
468.707	92.56
468.927	95.56
469.146	96.56
469.365	76.56
469.585	76.56
469.804	93.56
470.023	83.56
470.243	89.56
470.462	92.56
470.681	83.56
470.901	89.56
471.12	95.56
471.339	82.56
471.558	70.56
471.777	94.56
471.997	91.56
472.216	59.56
472.435	76.56
472.654	81.56
472.873	87.56
473.092	79.56
473.311	88.56
473.53	81.56
473.749	110.56
473.968	101.56
474.187	79.56
474.406	89.56
474.625	89.56
474.844	76.56
475.063	85.56
475.282	79.56
475.501	93.56
475.72	84.56
475.939	92.56
476.158	87.56
476.377	95.56
476.596	88.56
476.814	85.56
477.033	94.56
477.252	75.56
477.471	87.56
477.69	88.56
477.908	91.56
478.127	85.56
478.346	85.56
478.564	97.56
478.783	89.56
479.002	88.56
479.22	97.56
479.439	90.56
479.658	87.56
479.876	79.56
480.095	74.56
480.313	97.56
480.532	80.56
480.751	89.56
480.969	84.56
481.188	82.56
481.406	88.56
481.624	94.56
481.843	81.56
482.061	86.56
482.28	100.56
482.498	74.56
482.717	91.56
482.935	105.56
483.153	96.56
483.372	78.56
483.59	92.56
483.808	88.56
484.027	80.56
484.245	81.56
484.463	92.56
484.681	100.56
484.9	95.56
485.118	96.56
485.336	80.56
485.554	90.56
485.772	79.56
485.99	98.56
486.209	80.56
486.427	71.56
486.645	85.56
486.863	88.56
487.081	99.56
487.299	95.56
487.517	96.56
487.735	94.56
487.953	80.56
488.171	88.56
488.389	92.56
488.607	84.56
488.825	95.56
489.043	85.56
489.261	93.56
489.479	81.56
489.696	87.56
489.914	83.56
490.132	97.56
490.35	97.56
490.568	86.56
490.786	109.56
491.003	95.56
491.221	81.56
491.439	103.56
491.657	91.56
491.874	94.56
492.092	93.56
492.31	104.56
492.527	85.56
492.745	93.56
492.963	100.56
493.18	85.56
493.398	95.56
493.615	89.56
493.833	99.56
494.05	90.56
494.268	86.56
494.485	95.56
494.703	88.56
494.92	103.56
495.138	84.56
495.355	92.56
495.573	93.56
495.79	91.56
496.008	78.56
496.225	99.56
496.442	82.56
496.66	85.56
496.877	83.56
497.094	82.56
497.312	87.56
497.529	73.56
497.746	95.56
497.963	79.56
498.181	86.56
498.398	79.56
498.615	91.56
498.832	81.56
499.049	69.56
499.267	81.56
499.484	84.56
499.701	99.56
499.918	97.56
500.135	93.56
500.352	91.56
500.569	80.56
500.786	88.56
501.003	97.56
501.22	87.56
501.437	90.56
501.654	89.56
501.871	82.56
502.088	87.56
502.305	90.56
502.522	75.56
502.739	87.56
502.956	93.56
503.172	94.56
503.389	81.56
503.606	83.56
503.823	77.56
504.04	79.56
504.256	96.56
504.473	93.56
504.69	99.56
504.907	79.56
505.123	95.56
505.34	90.56
505.557	73.56
505.773	79.56
505.99	69.56
506.207	81.56
506.423	73.56
506.64	96.56
506.856	77.56
507.073	84.56
507.289	93.56
507.506	80.56
507.722	81.56
507.939	92.56
508.155	81.56
508.372	77.56
508.588	92.56
508.805	70.56
509.021	82.56
509.238	81.56
509.454	75.56
509.67	91.56
509.887	85.56
510.103	81.56
510.319	89.56
510.536	103.56
510.752	80.56
510.968	78.56
511.184	89.56
511.401	99.56
511.617	87.56
511.833	86.56
512.049	85.56
512.265	94.56
512.481	78.56
512.698	87.56
512.914	81.56
513.13	81.56
513.346	87.56
513.562	87.56
513.778	80.56
513.994	95.56
514.21	89.56
514.426	86.56
514.642	98.56
514.858	100.56
515.074	86.56
515.29	91.56
515.506	90.56
515.721	68.56
515.937	76.56
516.153	81.56
516.369	83.56
516.585	105.56
516.801	87.56
517.016	91.56
517.232	99.56
517.448	96.56
517.664	94.56
517.879	92.56
518.095	90.56
518.311	89.56
518.527	99.56
518.742	106.56
518.958	92.56
519.173	86.56
519.389	88.56
