Data from Coke_Can_Tab_HRD10591_00011.txt Node
Date: Wed Nov 05 15:50:32 EST 2025
User: Yrep
Spectrometer: HR+D1059
Trigger mode: 1
Integration Time (sec): 1.000000E-1
Scans to average: 1
Electric dark correction enabled: true
Nonlinearity correction enabled: false
Boxcar width: 0
XAxis mode: Wavelengths
Number of Pixels in Spectrum: 2048
>>>>>Begin Spectral Data<<<<<
223.165	-23.31
223.4	-23.31
223.635	-23.31
223.869	-10.31
224.104	-36.31
224.338	-20.31
224.573	-14.31
224.808	-15.31
225.042	-0.31
225.277	0.69
225.511	8.69
225.746	12.69
225.98	0.69
226.215	10.69
226.449	20.69
226.683	20.69
226.918	24.69
227.152	20.69
227.387	37.69
227.621	41.69
227.856	45.69
228.09	44.69
228.324	46.69
228.559	53.69
228.793	45.69
229.027	62.69
229.262	55.69
229.496	61.69
229.73	65.69
229.964	60.69
230.199	69.69
230.433	78.69
230.667	71.69
230.901	74.69
231.136	70.69
231.37	71.69
231.604	78.69
231.838	77.69
232.072	78.69
232.306	78.69
232.541	73.69
232.775	72.69
233.009	81.69
233.243	82.69
233.477	81.69
233.711	84.69
233.945	78.69
234.179	92.69
234.413	82.69
234.647	82.69
234.881	64.69
235.115	72.69
235.349	70.69
235.583	75.69
235.817	83.69
236.051	70.69
236.285	74.69
236.519	86.69
236.753	75.69
236.987	76.69
237.221	62.69
237.455	71.69
237.689	68.69
237.922	68.69
238.156	73.69
238.39	76.69
238.624	74.69
238.858	88.69
239.091	68.69
239.325	59.69
239.559	66.69
239.793	72.69
240.027	81.69
240.26	87.69
240.494	73.69
240.728	80.69
240.961	76.69
241.195	70.69
241.429	80.69
241.662	84.69
241.896	68.69
242.13	67.69
242.363	80.69
242.597	69.69
242.83	74.69
243.064	78.69
243.298	79.69
243.531	78.69
243.765	75.69
243.998	85.69
244.232	86.69
244.465	88.69
244.699	81.69
244.932	78.69
245.166	70.69
245.399	73.69
245.633	64.69
245.866	93.69
246.099	74.69
246.333	73.69
246.566	70.69
246.8	71.69
247.033	84.69
247.266	65.69
247.5	79.69
247.733	77.69
247.966	72.69
248.2	80.69
248.433	70.69
248.666	71.69
248.899	71.69
249.133	84.69
249.366	76.69
249.599	86.69
249.832	63.69
250.066	76.69
250.299	73.69
250.532	71.69
250.765	72.69
250.998	74.69
251.231	76.69
251.465	87.69
251.698	85.69
251.931	86.69
252.164	69.69
252.397	69.69
252.63	61.69
252.863	88.69
253.096	76.69
253.329	68.69
253.562	78.69
253.795	79.69
254.028	84.69
254.261	65.69
254.494	74.69
254.727	76.69
254.96	79.69
255.193	70.69
255.426	85.69
255.659	92.69
255.892	72.69
256.124	84.69
256.357	73.69
256.59	72.69
256.823	79.69
257.056	87.69
257.289	78.69
257.521	83.69
257.754	74.69
257.987	75.69
258.22	84.69
258.452	90.69
258.685	83.69
258.918	74.69
259.151	76.69
259.383	91.69
259.616	78.69
259.849	80.69
260.081	78.69
260.314	80.69
260.547	70.69
260.779	82.69
261.012	94.69
261.244	71.69
261.477	86.69
261.71	78.69
261.942	76.69
262.175	92.69
262.407	69.69
262.64	83.69
262.872	68.69
263.105	86.69
263.337	76.69
263.57	84.69
263.802	84.69
264.035	88.69
264.267	88.69
264.499	91.69
264.732	79.69
264.964	77.69
265.197	71.69
265.429	89.69
265.661	76.69
265.894	91.69
266.126	84.69
266.358	74.69
266.591	78.69
266.823	74.69
267.055	78.69
267.287	77.69
267.52	71.69
267.752	78.69
267.984	86.69
268.216	92.69
268.448	101.69
268.681	90.69
268.913	72.69
269.145	72.69
269.377	87.69
269.609	83.69
269.841	84.69
270.073	92.69
270.306	75.69
270.538	73.69
270.77	63.69
271.002	84.69
271.234	78.69
271.466	87.69
271.698	74.69
271.93	70.69
272.162	81.69
272.394	70.69
272.626	76.69
272.858	70.69
273.09	80.69
273.322	81.69
273.553	73.69
273.785	85.69
274.017	67.69
274.249	94.69
274.481	82.69
274.713	75.69
274.945	89.69
275.176	78.69
275.408	90.69
275.64	76.69
275.872	83.69
276.104	83.69
276.335	71.69
276.567	80.69
276.799	92.69
277.031	85.69
277.262	82.69
277.494	76.69
277.726	72.69
277.957	85.69
278.189	84.69
278.421	76.69
278.652	88.69
278.884	83.69
279.115	91.69
279.347	84.69
279.579	96.69
279.81	94.69
280.042	104.69
280.273	88.69
280.505	91.69
280.736	88.69
280.968	69.69
281.199	98.69
281.431	74.69
281.662	90.69
281.894	74.69
282.125	84.69
282.356	86.69
282.588	87.69
282.819	77.69
283.051	75.69
283.282	81.69
283.513	80.69
283.745	76.69
283.976	76.69
284.207	77.69
284.439	90.69
284.67	76.69
284.901	90.69
285.132	68.69
285.364	86.69
285.595	82.69
285.826	76.69
286.057	86.69
286.288	76.69
286.52	87.69
286.751	87.69
286.982	93.69
287.213	82.69
287.444	74.69
287.675	79.69
287.906	84.69
288.138	91.69
288.369	84.69
288.6	84.69
288.831	86.69
289.062	76.69
289.293	84.69
289.524	82.69
289.755	88.69
289.986	79.69
290.217	78.69
290.448	79.69
290.679	64.69
290.91	95.69
291.141	68.69
291.371	80.69
291.602	74.69
291.833	84.69
292.064	73.69
292.295	83.69
292.526	86.69
292.757	93.69
292.987	77.69
293.218	89.69
293.449	84.69
293.68	90.69
293.91	73.69
294.141	82.69
294.372	81.69
294.603	78.69
294.833	91.69
295.064	92.69
295.295	87.69
295.525	87.69
295.756	96.69
295.987	69.69
296.217	84.69
296.448	82.69
296.679	86.69
296.909	83.69
297.14	96.69
297.37	98.69
297.601	84.69
297.831	85.69
298.062	84.69
298.292	87.69
298.523	78.69
298.753	84.69
298.984	68.69
299.214	72.69
299.445	65.69
299.675	69.69
299.905	90.69
300.136	84.69
300.366	93.69
300.597	78.69
300.827	82.69
301.057	88.69
301.288	92.69
301.518	83.69
301.748	74.69
301.979	93.69
302.209	86.69
302.439	78.69
302.669	75.69
302.9	70.69
303.13	71.69
303.36	73.69
303.59	69.69
303.82	80.69
304.051	75.69
304.281	81.69
304.511	94.69
304.741	78.69
304.971	82.69
305.201	84.69
305.431	88.69
305.661	83.69
305.891	76.69
306.121	78.69
306.352	85.69
306.582	84.69
306.812	76.69
307.042	71.69
307.272	76.69
307.502	82.69
307.731	91.69
307.961	80.69
308.191	92.69
308.421	93.69
308.651	84.69
308.881	98.69
309.111	93.69
309.341	100.69
309.571	99.69
309.8	93.69
310.03	76.69
310.26	82.69
310.49	74.69
310.72	85.69
310.949	91.69
311.179	78.69
311.409	84.69
311.639	72.69
311.868	81.69
312.098	72.69
312.328	77.69
312.557	80.69
312.787	91.69
313.017	103.69
313.246	90.69
313.476	93.69
313.706	86.69
313.935	74.69
314.165	76.69
314.394	71.69
314.624	87.69
314.853	96.69
315.083	78.69
315.312	78.69
315.542	89.69
315.771	86.69
316.001	73.69
316.23	91.69
316.46	86.69
316.689	69.69
316.919	81.69
317.148	72.69
317.377	71.69
317.607	89.69
317.836	88.69
318.065	88.69
318.295	80.69
318.524	86.69
318.753	77.69
318.983	69.69
319.212	86.69
319.441	84.69
319.67	92.69
319.9	95.69
320.129	82.69
320.358	71.69
320.587	74.69
320.816	85.69
321.046	79.69
321.275	89.69
321.504	76.69
321.733	75.69
321.962	72.69
322.191	93.69
322.42	87.69
322.649	84.69
322.878	88.69
323.108	89.69
323.337	85.69
323.566	75.69
323.795	95.69
324.024	81.69
324.253	78.69
324.482	78.69
324.71	98.69
324.939	90.69
325.168	89.69
325.397	94.69
325.626	83.69
325.855	76.69
326.084	90.69
326.313	92.69
326.542	91.69
326.77	90.69
326.999	74.69
327.228	88.69
327.457	85.69
327.686	80.69
327.914	84.69
328.143	89.69
328.372	85.69
328.6	86.69
328.829	80.69
329.058	91.69
329.287	79.69
329.515	82.69
329.744	89.69
329.972	69.69
330.201	79.69
330.43	84.69
330.658	89.69
330.887	89.69
331.115	90.69
331.344	85.69
331.572	78.69
331.801	82.69
332.03	80.69
332.258	76.69
332.486	68.69
332.715	87.69
332.943	79.69
333.172	70.69
333.4	70.69
333.629	85.69
333.857	70.69
334.085	84.69
334.314	79.69
334.542	96.69
334.771	78.69
334.999	85.69
335.227	76.69
335.455	76.69
335.684	85.69
335.912	104.69
336.14	78.69
336.369	83.69
336.597	84.69
336.825	90.69
337.053	83.69
337.281	99.69
337.51	95.69
337.738	77.69
337.966	86.69
338.194	81.69
338.422	77.69
338.65	103.69
338.878	87.69
339.106	78.69
339.334	75.69
339.562	73.69
339.79	76.69
340.018	80.69
340.246	90.69
340.474	85.69
340.702	70.69
340.93	78.69
341.158	86.69
341.386	74.69
341.614	90.69
341.842	86.69
342.07	90.69
342.298	91.69
342.526	90.69
342.754	85.69
342.981	68.69
343.209	96.69
343.437	92.69
343.665	92.69
343.893	82.69
344.12	71.69
344.348	85.69
344.576	74.69
344.804	76.69
345.031	86.69
345.259	85.69
345.487	86.69
345.714	75.69
345.942	76.69
346.17	84.69
346.397	74.69
346.625	72.69
346.853	72.69
347.08	85.69
347.308	84.69
347.535	81.69
347.763	89.69
347.99	84.69
348.218	86.69
348.445	73.69
348.673	93.69
348.9	68.69
349.128	84.69
349.355	84.69
349.583	68.69
349.81	84.69
350.037	97.69
350.265	96.69
350.492	86.69
350.72	99.69
350.947	96.69
351.174	77.69
351.402	84.69
351.629	92.69
351.856	85.69
352.083	82.69
352.311	85.69
352.538	91.69
352.765	80.69
352.992	80.69
353.22	95.69
353.447	79.69
353.674	75.69
353.901	83.69
354.128	81.69
354.355	89.69
354.583	79.69
354.81	68.69
355.037	84.69
355.264	92.69
355.491	89.69
355.718	74.69
355.945	91.69
356.172	88.69
356.399	76.69
356.626	78.69
356.853	65.69
357.08	84.69
357.307	85.69
357.534	92.69
357.761	89.69
357.988	88.69
358.215	83.69
358.441	72.69
358.668	76.69
358.895	84.69
359.122	84.69
359.349	77.69
359.576	66.69
359.802	77.69
360.029	89.69
360.256	88.69
360.483	76.69
360.709	80.69
360.936	94.69
361.163	77.69
361.39	70.69
361.616	84.69
361.843	77.69
362.07	71.69
362.296	84.69
362.523	86.69
362.749	77.69
362.976	79.69
363.203	86.69
363.429	93.69
363.656	84.69
363.882	87.69
364.109	78.69
364.335	81.69
364.562	68.69
364.788	70.69
365.015	72.69
365.241	85.69
365.468	68.69
365.694	81.69
365.92	76.69
366.147	74.69
366.373	74.69
366.599	77.69
366.826	72.69
367.052	84.69
367.278	85.69
367.505	77.69
367.731	89.69
367.957	90.69
368.184	78.69
368.41	89.69
368.636	93.69
368.862	83.69
369.089	74.69
369.315	84.69
369.541	90.69
369.767	82.69
369.993	75.69
370.219	92.69
370.445	76.69
370.672	68.69
370.898	83.69
371.124	85.69
371.35	93.69
371.576	75.69
371.802	77.69
372.028	81.69
372.254	86.69
372.48	77.69
372.706	84.69
372.932	78.69
373.158	78.69
373.384	78.69
373.61	80.69
373.835	86.69
374.061	90.69
374.287	75.69
374.513	72.69
374.739	76.69
374.965	89.69
375.191	96.69
375.416	87.69
375.642	87.69
375.868	81.69
376.094	76.69
376.319	68.69
376.545	81.69
376.771	82.69
376.997	91.69
377.222	76.69
377.448	91.69
377.674	85.69
377.899	79.69
378.125	81.69
378.35	82.69
378.576	80.69
378.802	80.69
379.027	76.69
379.253	84.69
379.478	82.69
379.704	74.69
379.929	73.69
380.155	74.69
380.38	71.69
380.606	86.69
380.831	75.69
381.057	82.69
381.282	79.69
381.507	81.69
381.733	92.69
381.958	92.69
382.184	82.69
382.409	84.69
382.634	63.69
382.86	89.69
383.085	91.69
383.31	93.69
383.535	77.69
383.761	98.69
383.986	98.69
384.211	86.69
384.436	93.69
384.662	75.69
384.887	83.69
385.112	84.69
385.337	86.69
385.562	95.69
385.787	76.69
386.013	86.69
386.238	101.69
386.463	90.69
386.688	99.69
386.913	84.69
387.138	96.69
387.363	71.69
387.588	81.69
387.813	85.69
388.038	82.69
388.263	89.69
388.488	91.69
388.713	82.69
388.938	100.69
389.163	76.69
389.387	76.69
389.612	89.69
389.837	86.69
390.062	84.69
390.287	81.69
390.512	76.69
390.736	74.69
390.961	76.69
391.186	78.69
391.411	95.69
391.636	93.69
391.86	90.69
392.085	75.69
392.31	68.69
392.534	85.69
392.759	94.69
392.984	86.69
393.208	72.69
393.433	87.69
393.658	82.69
393.882	101.69
394.107	104.69
394.331	149.69
394.556	140.69
394.78	92.69
395.005	96.69
395.229	80.69
395.454	88.69
395.678	92.69
395.903	118.69
396.127	180.69
396.352	176.69
396.576	118.69
396.801	84.69
397.025	89.69
397.249	78.69
397.474	90.69
397.698	73.69
397.922	64.69
398.147	82.69
398.371	72.69
398.595	91.69
398.82	78.69
399.044	96.69
399.268	80.69
399.492	79.69
399.717	85.69
399.941	82.69
400.165	85.69
400.389	88.69
400.613	91.69
400.837	93.69
401.062	82.69
401.286	86.69
401.51	85.69
401.734	67.69
401.958	76.69
402.182	82.69
402.406	89.69
402.63	86.69
402.854	86.69
403.078	81.69
403.302	88.69
403.526	96.69
403.75	87.69
403.974	69.69
404.198	74.69
404.422	87.69
404.645	83.69
404.869	96.69
405.093	91.69
405.317	91.69
405.541	102.69
405.765	72.69
405.988	85.69
406.212	84.69
406.436	85.69
406.66	77.69
406.883	77.69
407.107	84.69
407.331	81.69
407.555	77.69
407.778	79.69
408.002	90.69
408.226	82.69
408.449	92.69
408.673	81.69
408.896	91.69
409.12	65.69
409.344	84.69
409.567	100.69
409.791	84.69
410.014	74.69
410.238	84.69
410.461	95.69
410.685	72.69
410.908	88.69
411.132	70.69
411.355	104.69
411.578	84.69
411.802	92.69
412.025	79.69
412.249	84.69
412.472	75.69
412.695	89.69
412.919	84.69
413.142	86.69
413.365	86.69
413.589	89.69
413.812	77.69
414.035	89.69
414.258	67.69
414.482	80.69
414.705	86.69
414.928	75.69
415.151	82.69
415.374	78.69
415.597	84.69
415.821	73.69
416.044	78.69
416.267	76.69
416.49	74.69
416.713	77.69
416.936	72.69
417.159	88.69
417.382	78.69
417.605	83.69
417.828	81.69
418.051	92.69
418.274	77.69
418.497	80.69
418.72	81.69
418.943	83.69
419.166	83.69
419.389	81.69
419.611	85.69
419.834	93.69
420.057	101.69
420.28	85.69
420.503	88.69
420.726	85.69
420.948	79.69
421.171	83.69
421.394	85.69
421.617	95.69
421.839	89.69
422.062	76.69
422.285	93.69
422.507	77.69
422.73	71.69
422.953	86.69
423.175	78.69
423.398	86.69
423.621	85.69
423.843	67.69
424.066	93.69
424.288	81.69
424.511	83.69
424.733	77.69
424.956	84.69
425.178	89.69
425.401	76.69
425.623	93.69
425.846	78.69
426.068	77.69
426.291	92.69
426.513	91.69
426.735	64.69
426.958	73.69
427.18	97.69
427.402	79.69
427.625	78.69
427.847	78.69
428.069	86.69
428.292	67.69
428.514	84.69
428.736	74.69
428.958	81.69
429.181	68.69
429.403	98.69
429.625	78.69
429.847	82.69
430.069	93.69
430.292	98.69
430.514	77.69
430.736	84.69
430.958	81.69
431.18	86.69
431.402	101.69
431.624	84.69
431.846	65.69
432.068	75.69
432.29	85.69
432.512	82.69
432.734	94.69
432.956	89.69
433.178	77.69
433.4	70.69
433.622	82.69
433.844	83.69
434.066	88.69
434.287	78.69
434.509	70.69
434.731	94.69
434.953	84.69
435.175	77.69
435.397	75.69
435.618	77.69
435.84	75.69
436.062	75.69
436.284	75.69
436.505	79.69
436.727	91.69
436.949	76.69
437.17	86.69
437.392	81.69
437.614	85.69
437.835	72.69
438.057	95.69
438.278	88.69
438.5	72.69
438.721	75.69
438.943	66.69
439.165	86.69
439.386	84.69
439.608	83.69
439.829	73.69
440.05	76.69
440.272	86.69
440.493	82.69
440.715	104.69
440.936	80.69
441.158	79.69
441.379	90.69
441.6	84.69
441.822	94.69
442.043	84.69
442.264	86.69
442.486	82.69
442.707	82.69
442.928	89.69
443.149	88.69
443.371	85.69
443.592	89.69
443.813	90.69
444.034	90.69
444.255	67.69
444.476	74.69
444.698	82.69
444.919	91.69
445.14	146.69
445.361	121.69
445.582	88.69
445.803	103.69
446.024	89.69
446.245	99.69
446.466	91.69
446.687	93.69
446.908	81.69
447.129	84.69
447.35	88.69
447.571	86.69
447.792	76.69
448.013	84.69
448.234	78.69
448.455	79.69
448.675	90.69
448.896	93.69
449.117	85.69
449.338	89.69
449.559	79.69
449.779	71.69
450	82.69
450.221	79.69
450.442	89.69
450.662	76.69
450.883	94.69
451.104	76.69
451.324	90.69
451.545	91.69
451.766	87.69
451.986	88.69
452.207	84.69
452.428	84.69
452.648	68.69
452.869	90.69
453.089	76.69
453.31	72.69
453.53	75.69
453.751	86.69
453.971	74.69
454.192	86.69
454.412	72.69
454.633	78.69
454.853	76.69
455.073	85.69
455.294	82.69
455.514	91.69
455.734	77.69
455.955	88.69
456.175	72.69
456.395	93.69
456.616	86.69
456.836	91.69
457.056	86.69
457.276	75.69
457.497	88.69
457.717	77.69
457.937	82.69
458.157	74.69
458.377	81.69
458.598	74.69
458.818	77.69
459.038	86.69
459.258	74.69
459.478	70.69
459.698	82.69
459.918	80.69
460.138	71.69
460.358	84.69
460.578	86.69
460.798	88.69
461.018	84.69
461.238	81.69
461.458	88.69
461.678	92.69
461.898	92.69
462.118	80.69
462.338	68.69
462.558	85.69
462.777	72.69
462.997	77.69
463.217	68.69
463.437	75.69
463.657	62.69
463.876	79.69
464.096	68.69
464.316	72.69
464.536	80.69
464.755	84.69
464.975	72.69
465.195	85.69
465.414	88.69
465.634	75.69
465.854	82.69
466.073	76.69
466.293	71.69
466.512	91.69
466.732	77.69
466.951	77.69
467.171	89.69
467.391	92.69
467.61	83.69
467.829	88.69
468.049	83.69
468.268	71.69
468.488	78.69
468.707	81.69
468.927	79.69
469.146	78.69
469.365	92.69
469.585	89.69
469.804	98.69
470.023	81.69
470.243	89.69
470.462	90.69
470.681	84.69
470.901	88.69
471.12	100.69
471.339	91.69
471.558	84.69
471.777	101.69
471.997	95.69
472.216	96.69
472.435	90.69
472.654	69.69
472.873	82.69
473.092	88.69
473.311	91.69
473.53	89.69
473.749	79.69
473.968	76.69
474.187	77.69
474.406	88.69
474.625	70.69
474.844	78.69
475.063	72.69
475.282	82.69
475.501	66.69
475.72	83.69
475.939	79.69
476.158	87.69
476.377	81.69
476.596	89.69
476.814	90.69
477.033	82.69
477.252	89.69
477.471	91.69
477.69	90.69
477.908	95.69
478.127	94.69
478.346	82.69
478.564	74.69
478.783	77.69
479.002	85.69
479.22	81.69
479.439	84.69
479.658	76.69
479.876	81.69
480.095	80.69
480.313	92.69
480.532	79.69
480.751	81.69
480.969	79.69
481.188	89.69
481.406	77.69
481.624	84.69
481.843	88.69
482.061	83.69
482.28	83.69
482.498	99.69
482.717	85.69
482.935	81.69
483.153	83.69
483.372	91.69
483.59	103.69
483.808	90.69
484.027	86.69
484.245	80.69
484.463	90.69
484.681	94.69
484.9	97.69
485.118	90.69
485.336	98.69
485.554	81.69
485.772	83.69
485.99	91.69
486.209	76.69
486.427	73.69
486.645	82.69
486.863	89.69
487.081	83.69
487.299	93.69
487.517	83.69
487.735	94.69
487.953	100.69
488.171	96.69
488.389	81.69
488.607	76.69
488.825	83.69
489.043	73.69
489.261	92.69
489.479	72.69
489.696	84.69
489.914	87.69
490.132	97.69
490.35	78.69
490.568	86.69
490.786	87.69
491.003	92.69
491.221	93.69
491.439	93.69
491.657	77.69
491.874	95.69
492.092	97.69
492.31	86.69
492.527	82.69
492.745	90.69
492.963	105.69
493.18	96.69
493.398	83.69
493.615	99.69
493.833	89.69
494.05	88.69
494.268	94.69
494.485	83.69
494.703	89.69
494.92	89.69
495.138	93.69
495.355	72.69
495.573	103.69
495.79	95.69
496.008	90.69
496.225	92.69
496.442	71.69
496.66	90.69
496.877	85.69
497.094	96.69
497.312	92.69
497.529	86.69
497.746	86.69
497.963	88.69
498.181	89.69
498.398	102.69
498.615	84.69
498.832	85.69
499.049	92.69
499.267	101.69
499.484	84.69
499.701	93.69
499.918	86.69
500.135	75.69
500.352	80.69
500.569	84.69
500.786	80.69
501.003	93.69
501.22	82.69
501.437	80.69
501.654	90.69
501.871	93.69
502.088	90.69
502.305	94.69
502.522	90.69
502.739	82.69
502.956	78.69
503.172	75.69
503.389	73.69
503.606	82.69
503.823	84.69
504.04	84.69
504.256	84.69
504.473	81.69
504.69	68.69
504.907	84.69
505.123	81.69
505.34	64.69
505.557	86.69
505.773	78.69
505.99	74.69
506.207	79.69
506.423	82.69
506.64	62.69
506.856	71.69
507.073	92.69
507.289	88.69
507.506	81.69
507.722	80.69
507.939	77.69
508.155	87.69
508.372	86.69
508.588	69.69
508.805	92.69
509.021	82.69
509.238	79.69
509.454	89.69
509.67	93.69
509.887	80.69
510.103	89.69
510.319	82.69
510.536	79.69
510.752	94.69
510.968	84.69
511.184	76.69
511.401	82.69
511.617	69.69
511.833	88.69
512.049	75.69
512.265	82.69
512.481	88.69
512.698	78.69
512.914	89.69
513.13	88.69
513.346	97.69
513.562	86.69
513.778	75.69
513.994	72.69
514.21	77.69
514.426	87.69
514.642	77.69
514.858	84.69
515.074	86.69
515.29	91.69
515.506	85.69
515.721	85.69
515.937	83.69
516.153	91.69
516.369	79.69
516.585	92.69
516.801	90.69
517.016	84.69
517.232	84.69
517.448	89.69
517.664	86.69
517.879	74.69
518.095	98.69
518.311	89.69
518.527	120.69
518.742	89.69
518.958	67.69
519.173	92.69
519.389	93.69
519.605	84.69
519.82	82.69
