Data from Coke_Can_Tab_HRD10591_00002.txt Node
Date: Wed Nov 05 15:50:28 EST 2025
User: Yrep
Spectrometer: HR+D1059
Trigger mode: 1
Integration Time (sec): 1.000000E-1
Scans to average: 1
Electric dark correction enabled: true
Nonlinearity correction enabled: false
Boxcar width: 0
XAxis mode: Wavelengths
Number of Pixels in Spectrum: 2048
>>>>>Begin Spectral Data<<<<<
223.165	-10.88
223.4	-10.88
223.635	-10.88
223.869	-14.88
224.104	-21.88
224.338	-11.88
224.573	-21.88
224.808	1.12
225.042	-8.88
225.277	4.12
225.511	-5.88
225.746	6.12
225.98	8.12
226.215	16.12
226.449	10.12
226.683	17.12
226.918	13.12
227.152	20.12
227.387	34.12
227.621	36.12
227.856	49.12
228.09	55.12
228.324	52.12
228.559	54.12
228.793	58.12
229.027	79.12
229.262	60.12
229.496	70.12
229.73	64.12
229.964	74.12
230.199	72.12
230.433	59.12
230.667	82.12
230.901	78.12
231.136	72.12
231.37	80.12
231.604	90.12
231.838	88.12
232.072	78.12
232.306	82.12
232.541	78.12
232.775	77.12
233.009	80.12
233.243	93.12
233.477	94.12
233.711	79.12
233.945	90.12
234.179	86.12
234.413	85.12
234.647	96.12
234.881	85.12
235.115	79.12
235.349	94.12
235.583	79.12
235.817	94.12
236.051	86.12
236.285	78.12
236.519	78.12
236.753	89.12
236.987	81.12
237.221	88.12
237.455	79.12
237.689	82.12
237.922	89.12
238.156	78.12
238.39	74.12
238.624	85.12
238.858	89.12
239.091	75.12
239.325	73.12
239.559	80.12
239.793	80.12
240.027	75.12
240.26	83.12
240.494	86.12
240.728	79.12
240.961	81.12
241.195	75.12
241.429	73.12
241.662	67.12
241.896	77.12
242.13	87.12
242.363	82.12
242.597	74.12
242.83	86.12
243.064	85.12
243.298	85.12
243.531	78.12
243.765	86.12
243.998	72.12
244.232	91.12
244.465	75.12
244.699	85.12
244.932	78.12
245.166	86.12
245.399	75.12
245.633	87.12
245.866	65.12
246.099	77.12
246.333	81.12
246.566	78.12
246.8	72.12
247.033	96.12
247.266	78.12
247.5	74.12
247.733	80.12
247.966	98.12
248.2	85.12
248.433	76.12
248.666	86.12
248.899	87.12
249.133	77.12
249.366	82.12
249.599	74.12
249.832	85.12
250.066	70.12
250.299	86.12
250.532	91.12
250.765	91.12
250.998	90.12
251.231	75.12
251.465	93.12
251.698	82.12
251.931	86.12
252.164	78.12
252.397	78.12
252.63	90.12
252.863	88.12
253.096	72.12
253.329	85.12
253.562	80.12
253.795	81.12
254.028	86.12
254.261	93.12
254.494	94.12
254.727	79.12
254.96	89.12
255.193	82.12
255.426	70.12
255.659	87.12
255.892	92.12
256.124	91.12
256.357	92.12
256.59	92.12
256.823	88.12
257.056	93.12
257.289	98.12
257.521	72.12
257.754	78.12
257.987	68.12
258.22	86.12
258.452	74.12
258.685	82.12
258.918	88.12
259.151	83.12
259.383	99.12
259.616	86.12
259.849	78.12
260.081	76.12
260.314	85.12
260.547	82.12
260.779	82.12
261.012	88.12
261.244	86.12
261.477	90.12
261.71	82.12
261.942	84.12
262.175	60.12
262.407	87.12
262.64	107.12
262.872	92.12
263.105	86.12
263.337	91.12
263.57	72.12
263.802	85.12
264.035	85.12
264.267	89.12
264.499	80.12
264.732	89.12
264.964	89.12
265.197	85.12
265.429	84.12
265.661	79.12
265.894	85.12
266.126	78.12
266.358	90.12
266.591	86.12
266.823	84.12
267.055	76.12
267.287	92.12
267.52	71.12
267.752	76.12
267.984	87.12
268.216	98.12
268.448	83.12
268.681	79.12
268.913	76.12
269.145	90.12
269.377	79.12
269.609	82.12
269.841	85.12
270.073	91.12
270.306	94.12
270.538	88.12
270.77	67.12
271.002	76.12
271.234	86.12
271.466	90.12
271.698	85.12
271.93	72.12
272.162	78.12
272.394	92.12
272.626	87.12
272.858	81.12
273.09	74.12
273.322	92.12
273.553	89.12
273.785	83.12
274.017	88.12
274.249	96.12
274.481	96.12
274.713	68.12
274.945	91.12
275.176	80.12
275.408	81.12
275.64	86.12
275.872	91.12
276.104	90.12
276.335	91.12
276.567	85.12
276.799	92.12
277.031	77.12
277.262	76.12
277.494	90.12
277.726	96.12
277.957	81.12
278.189	85.12
278.421	86.12
278.652	95.12
278.884	94.12
279.115	91.12
279.347	89.12
279.579	101.12
279.81	106.12
280.042	94.12
280.273	72.12
280.505	99.12
280.736	94.12
280.968	87.12
281.199	77.12
281.431	87.12
281.662	83.12
281.894	86.12
282.125	88.12
282.356	99.12
282.588	95.12
282.819	93.12
283.051	95.12
283.282	82.12
283.513	80.12
283.745	93.12
283.976	74.12
284.207	84.12
284.439	82.12
284.67	86.12
284.901	95.12
285.132	90.12
285.364	93.12
285.595	85.12
285.826	91.12
286.057	79.12
286.288	83.12
286.52	79.12
286.751	89.12
286.982	76.12
287.213	86.12
287.444	86.12
287.675	85.12
287.906	92.12
288.138	81.12
288.369	80.12
288.6	85.12
288.831	84.12
289.062	94.12
289.293	105.12
289.524	74.12
289.755	93.12
289.986	92.12
290.217	87.12
290.448	95.12
290.679	86.12
290.91	99.12
291.141	85.12
291.371	87.12
291.602	75.12
291.833	85.12
292.064	93.12
292.295	88.12
292.526	87.12
292.757	80.12
292.987	93.12
293.218	95.12
293.449	96.12
293.68	81.12
293.91	94.12
294.141	95.12
294.372	83.12
294.603	97.12
294.833	81.12
295.064	94.12
295.295	109.12
295.525	86.12
295.756	87.12
295.987	81.12
296.217	93.12
296.448	95.12
296.679	94.12
296.909	92.12
297.14	89.12
297.37	83.12
297.601	96.12
297.831	101.12
298.062	81.12
298.292	89.12
298.523	71.12
298.753	88.12
298.984	74.12
299.214	94.12
299.445	76.12
299.675	94.12
299.905	90.12
300.136	89.12
300.366	77.12
300.597	90.12
300.827	77.12
301.057	84.12
301.288	89.12
301.518	95.12
301.748	82.12
301.979	90.12
302.209	82.12
302.439	88.12
302.669	96.12
302.9	89.12
303.13	96.12
303.36	85.12
303.59	80.12
303.82	91.12
304.051	92.12
304.281	84.12
304.511	86.12
304.741	86.12
304.971	95.12
305.201	98.12
305.431	88.12
305.661	89.12
305.891	99.12
306.121	78.12
306.352	72.12
306.582	84.12
306.812	75.12
307.042	90.12
307.272	90.12
307.502	81.12
307.731	88.12
307.961	107.12
308.191	111.12
308.421	100.12
308.651	99.12
308.881	92.12
309.111	98.12
309.341	130.12
309.571	84.12
309.8	94.12
310.03	92.12
310.26	84.12
310.49	89.12
310.72	82.12
310.949	89.12
311.179	79.12
311.409	80.12
311.639	96.12
311.868	93.12
312.098	94.12
312.328	85.12
312.557	86.12
312.787	85.12
313.017	89.12
313.246	92.12
313.476	102.12
313.706	91.12
313.935	83.12
314.165	84.12
314.394	95.12
314.624	96.12
314.853	77.12
315.083	86.12
315.312	69.12
315.542	72.12
315.771	82.12
316.001	88.12
316.23	92.12
316.46	95.12
316.689	94.12
316.919	95.12
317.148	72.12
317.377	85.12
317.607	94.12
317.836	85.12
318.065	96.12
318.295	89.12
318.524	70.12
318.753	84.12
318.983	82.12
319.212	82.12
319.441	86.12
319.67	104.12
319.9	88.12
320.129	91.12
320.358	80.12
320.587	92.12
320.816	98.12
321.046	73.12
321.275	95.12
321.504	86.12
321.733	92.12
321.962	91.12
322.191	75.12
322.42	87.12
322.649	96.12
322.878	91.12
323.108	91.12
323.337	79.12
323.566	94.12
323.795	80.12
324.024	98.12
324.253	87.12
324.482	81.12
324.71	91.12
324.939	102.12
325.168	86.12
325.397	97.12
325.626	101.12
325.855	85.12
326.084	87.12
326.313	86.12
326.542	87.12
326.77	85.12
326.999	74.12
327.228	94.12
327.457	96.12
327.686	82.12
327.914	93.12
328.143	96.12
328.372	80.12
328.6	90.12
328.829	81.12
329.058	82.12
329.287	86.12
329.515	86.12
329.744	97.12
329.972	84.12
330.201	96.12
330.43	90.12
330.658	97.12
330.887	79.12
331.115	68.12
331.344	85.12
331.572	92.12
331.801	93.12
332.03	92.12
332.258	69.12
332.486	85.12
332.715	97.12
332.943	82.12
333.172	91.12
333.4	94.12
333.629	99.12
333.857	105.12
334.085	93.12
334.314	95.12
334.542	85.12
334.771	91.12
334.999	84.12
335.227	86.12
335.455	90.12
335.684	93.12
335.912	91.12
336.14	97.12
336.369	95.12
336.597	91.12
336.825	91.12
337.053	97.12
337.281	61.12
337.51	99.12
337.738	85.12
337.966	89.12
338.194	86.12
338.422	87.12
338.65	84.12
338.878	88.12
339.106	86.12
339.334	100.12
339.562	76.12
339.79	91.12
340.018	91.12
340.246	86.12
340.474	76.12
340.702	102.12
340.93	104.12
341.158	92.12
341.386	89.12
341.614	99.12
341.842	94.12
342.07	82.12
342.298	100.12
342.526	88.12
342.754	90.12
342.981	89.12
343.209	87.12
343.437	104.12
343.665	92.12
343.893	99.12
344.12	96.12
344.348	90.12
344.576	77.12
344.804	99.12
345.031	89.12
345.259	102.12
345.487	78.12
345.714	86.12
345.942	67.12
346.17	91.12
346.397	92.12
346.625	88.12
346.853	91.12
347.08	78.12
347.308	79.12
347.535	94.12
347.763	100.12
347.99	81.12
348.218	81.12
348.445	82.12
348.673	77.12
348.9	90.12
349.128	95.12
349.355	85.12
349.583	82.12
349.81	86.12
350.037	81.12
350.265	94.12
350.492	78.12
350.72	89.12
350.947	89.12
351.174	73.12
351.402	83.12
351.629	90.12
351.856	84.12
352.083	78.12
352.311	83.12
352.538	72.12
352.765	67.12
352.992	78.12
353.22	87.12
353.447	102.12
353.674	98.12
353.901	85.12
354.128	78.12
354.355	79.12
354.583	80.12
354.81	80.12
355.037	91.12
355.264	100.12
355.491	82.12
355.718	88.12
355.945	94.12
356.172	82.12
356.399	90.12
356.626	91.12
356.853	98.12
357.08	91.12
357.307	92.12
357.534	93.12
357.761	97.12
357.988	78.12
358.215	94.12
358.441	95.12
358.668	104.12
358.895	96.12
359.122	95.12
359.349	94.12
359.576	84.12
359.802	76.12
360.029	75.12
360.256	90.12
360.483	87.12
360.709	90.12
360.936	99.12
361.163	83.12
361.39	94.12
361.616	95.12
361.843	92.12
362.07	92.12
362.296	86.12
362.523	79.12
362.749	82.12
362.976	71.12
363.203	90.12
363.429	79.12
363.656	97.12
363.882	82.12
364.109	91.12
364.335	94.12
364.562	93.12
364.788	85.12
365.015	81.12
365.241	84.12
365.468	89.12
365.694	78.12
365.92	92.12
366.147	82.12
366.373	96.12
366.599	80.12
366.826	95.12
367.052	89.12
367.278	86.12
367.505	86.12
367.731	104.12
367.957	83.12
368.184	80.12
368.41	83.12
368.636	72.12
368.862	101.12
369.089	92.12
369.315	94.12
369.541	88.12
369.767	93.12
369.993	76.12
370.219	84.12
370.445	86.12
370.672	98.12
370.898	86.12
371.124	90.12
371.35	87.12
371.576	84.12
371.802	88.12
372.028	109.12
372.254	99.12
372.48	90.12
372.706	78.12
372.932	72.12
373.158	93.12
373.384	93.12
373.61	81.12
373.835	96.12
374.061	84.12
374.287	79.12
374.513	88.12
374.739	98.12
374.965	104.12
375.191	102.12
375.416	100.12
375.642	87.12
375.868	92.12
376.094	84.12
376.319	84.12
376.545	89.12
376.771	84.12
376.997	83.12
377.222	84.12
377.448	87.12
377.674	85.12
377.899	91.12
378.125	98.12
378.35	86.12
378.576	83.12
378.802	85.12
379.027	85.12
379.253	87.12
379.478	88.12
379.704	85.12
379.929	90.12
380.155	93.12
380.38	94.12
380.606	86.12
380.831	84.12
381.057	93.12
381.282	96.12
381.507	86.12
381.733	101.12
381.958	84.12
382.184	101.12
382.409	78.12
382.634	92.12
382.86	91.12
383.085	95.12
383.31	98.12
383.535	104.12
383.761	103.12
383.986	106.12
384.211	100.12
384.436	92.12
384.662	94.12
384.887	86.12
385.112	77.12
385.337	90.12
385.562	101.12
385.787	75.12
386.013	85.12
386.238	106.12
386.463	82.12
386.688	112.12
386.913	84.12
387.138	92.12
387.363	89.12
387.588	101.12
387.813	87.12
388.038	92.12
388.263	90.12
388.488	90.12
388.713	85.12
388.938	90.12
389.163	78.12
389.387	90.12
389.612	90.12
389.837	89.12
390.062	87.12
390.287	91.12
390.512	94.12
390.736	97.12
390.961	83.12
391.186	84.12
391.411	96.12
391.636	91.12
391.86	82.12
392.085	92.12
392.31	92.12
392.534	92.12
392.759	92.12
392.984	85.12
393.208	92.12
393.433	80.12
393.658	98.12
393.882	105.12
394.107	138.12
394.331	166.12
394.556	185.12
394.78	106.12
395.005	100.12
395.229	94.12
395.454	106.12
395.678	97.12
395.903	131.12
396.127	176.12
396.352	177.12
396.576	116.12
396.801	99.12
397.025	86.12
397.249	96.12
397.474	98.12
397.698	91.12
397.922	95.12
398.147	85.12
398.371	85.12
398.595	78.12
398.82	84.12
399.044	68.12
399.268	90.12
399.492	91.12
399.717	90.12
399.941	83.12
400.165	94.12
400.389	82.12
400.613	90.12
400.837	81.12
401.062	76.12
401.286	96.12
401.51	98.12
401.734	78.12
401.958	89.12
402.182	74.12
402.406	87.12
402.63	106.12
402.854	92.12
403.078	90.12
403.302	90.12
403.526	98.12
403.75	80.12
403.974	83.12
404.198	85.12
404.422	98.12
404.645	94.12
404.869	90.12
405.093	98.12
405.317	82.12
405.541	91.12
405.765	98.12
405.988	96.12
406.212	86.12
406.436	84.12
406.66	94.12
406.883	79.12
407.107	82.12
407.331	92.12
407.555	96.12
407.778	74.12
408.002	80.12
408.226	91.12
408.449	95.12
408.673	86.12
408.896	86.12
409.12	101.12
409.344	92.12
409.567	87.12
409.791	81.12
410.014	92.12
410.238	81.12
410.461	86.12
410.685	78.12
410.908	88.12
411.132	78.12
411.355	82.12
411.578	83.12
411.802	69.12
412.025	86.12
412.249	78.12
412.472	96.12
412.695	77.12
412.919	94.12
413.142	68.12
413.365	91.12
413.589	93.12
413.812	93.12
414.035	91.12
414.258	99.12
414.482	87.12
414.705	89.12
414.928	105.12
415.151	96.12
415.374	89.12
415.597	94.12
415.821	101.12
416.044	99.12
416.267	90.12
416.49	80.12
416.713	85.12
416.936	85.12
417.159	85.12
417.382	92.12
417.605	84.12
417.828	96.12
418.051	88.12
418.274	96.12
418.497	87.12
418.72	106.12
418.943	100.12
419.166	92.12
419.389	84.12
419.611	95.12
419.834	84.12
420.057	89.12
420.28	93.12
420.503	90.12
420.726	89.12
420.948	91.12
421.171	82.12
421.394	101.12
421.617	96.12
421.839	99.12
422.062	100.12
422.285	81.12
422.507	106.12
422.73	92.12
422.953	93.12
423.175	78.12
423.398	92.12
423.621	90.12
423.843	92.12
424.066	100.12
424.288	99.12
424.511	80.12
424.733	80.12
424.956	90.12
425.178	98.12
425.401	105.12
425.623	90.12
425.846	83.12
426.068	81.12
426.291	91.12
426.513	97.12
426.735	85.12
426.958	90.12
427.18	90.12
427.402	87.12
427.625	77.12
427.847	92.12
428.069	79.12
428.292	76.12
428.514	93.12
428.736	87.12
428.958	90.12
429.181	76.12
429.403	89.12
429.625	88.12
429.847	84.12
430.069	88.12
430.292	92.12
430.514	96.12
430.736	81.12
430.958	88.12
431.18	98.12
431.402	98.12
431.624	97.12
431.846	89.12
432.068	86.12
432.29	76.12
432.512	85.12
432.734	86.12
432.956	81.12
433.178	82.12
433.4	91.12
433.622	94.12
433.844	81.12
434.066	102.12
434.287	96.12
434.509	92.12
434.731	85.12
434.953	80.12
435.175	85.12
435.397	95.12
435.618	81.12
435.84	79.12
436.062	85.12
436.284	94.12
436.505	91.12
436.727	92.12
436.949	99.12
437.17	80.12
437.392	82.12
437.614	86.12
437.835	78.12
438.057	80.12
438.278	87.12
438.5	78.12
438.721	84.12
438.943	87.12
439.165	83.12
439.386	96.12
439.608	86.12
439.829	91.12
440.05	93.12
440.272	88.12
440.493	90.12
440.715	94.12
440.936	93.12
441.158	93.12
441.379	92.12
441.6	80.12
441.822	89.12
442.043	107.12
442.264	97.12
442.486	97.12
442.707	92.12
442.928	86.12
443.149	87.12
443.371	96.12
443.592	92.12
443.813	89.12
444.034	77.12
444.255	94.12
444.476	92.12
444.698	77.12
444.919	89.12
445.14	157.12
445.361	133.12
445.582	90.12
445.803	78.12
446.024	91.12
446.245	91.12
446.466	96.12
446.687	92.12
446.908	79.12
447.129	88.12
447.35	96.12
447.571	100.12
447.792	80.12
448.013	93.12
448.234	88.12
448.455	93.12
448.675	84.12
448.896	91.12
449.117	101.12
449.338	95.12
449.559	77.12
449.779	83.12
450	83.12
450.221	76.12
450.442	78.12
450.662	94.12
450.883	78.12
451.104	101.12
451.324	90.12
451.545	95.12
451.766	92.12
451.986	108.12
452.207	83.12
452.428	97.12
452.648	85.12
452.869	84.12
453.089	91.12
453.31	82.12
453.53	94.12
453.751	96.12
453.971	88.12
454.192	87.12
454.412	89.12
454.633	81.12
454.853	93.12
455.073	86.12
455.294	94.12
455.514	94.12
455.734	80.12
455.955	94.12
456.175	90.12
456.395	96.12
456.616	87.12
456.836	85.12
457.056	93.12
457.276	90.12
457.497	96.12
457.717	86.12
457.937	88.12
458.157	84.12
458.377	93.12
458.598	72.12
458.818	94.12
459.038	86.12
459.258	89.12
459.478	86.12
459.698	84.12
459.918	93.12
460.138	98.12
460.358	87.12
460.578	86.12
460.798	81.12
461.018	91.12
461.238	85.12
461.458	93.12
461.678	99.12
461.898	90.12
462.118	86.12
462.338	102.12
462.558	83.12
462.777	93.12
462.997	79.12
463.217	85.12
463.437	88.12
463.657	98.12
463.876	103.12
464.096	84.12
464.316	93.12
464.536	87.12
464.755	97.12
464.975	86.12
465.195	86.12
465.414	82.12
465.634	79.12
465.854	94.12
466.073	98.12
466.293	83.12
466.512	72.12
466.732	95.12
466.951	112.12
467.171	98.12
467.391	96.12
467.61	75.12
467.829	109.12
468.049	96.12
468.268	94.12
468.488	90.12
468.707	97.12
468.927	78.12
469.146	92.12
469.365	79.12
469.585	93.12
469.804	98.12
470.023	92.12
470.243	98.12
470.462	86.12
470.681	77.12
470.901	93.12
471.12	93.12
471.339	94.12
471.558	93.12
471.777	89.12
471.997	96.12
472.216	100.12
472.435	77.12
472.654	81.12
472.873	85.12
473.092	92.12
473.311	100.12
473.53	100.12
473.749	96.12
473.968	101.12
474.187	94.12
474.406	87.12
474.625	90.12
474.844	81.12
475.063	90.12
475.282	96.12
475.501	85.12
475.72	88.12
475.939	91.12
476.158	91.12
476.377	78.12
476.596	72.12
476.814	82.12
477.033	87.12
477.252	90.12
477.471	96.12
477.69	95.12
477.908	98.12
478.127	97.12
478.346	88.12
478.564	105.12
478.783	85.12
479.002	85.12
479.22	93.12
479.439	92.12
479.658	94.12
479.876	86.12
480.095	91.12
480.313	86.12
480.532	98.12
480.751	98.12
480.969	76.12
481.188	80.12
481.406	84.12
481.624	94.12
481.843	91.12
482.061	89.12
482.28	89.12
482.498	91.12
482.717	86.12
482.935	89.12
483.153	102.12
483.372	83.12
483.59	91.12
483.808	74.12
484.027	86.12
484.245	91.12
484.463	97.12
484.681	92.12
484.9	94.12
485.118	85.12
485.336	96.12
485.554	94.12
485.772	85.12
485.99	92.12
486.209	92.12
486.427	97.12
486.645	100.12
486.863	85.12
487.081	95.12
487.299	94.12
487.517	101.12
487.735	95.12
487.953	85.12
488.171	85.12
488.389	97.12
488.607	94.12
488.825	97.12
489.043	103.12
489.261	92.12
489.479	82.12
489.696	102.12
489.914	85.12
490.132	88.12
490.35	81.12
490.568	97.12
490.786	97.12
491.003	85.12
491.221	104.12
491.439	89.12
491.657	93.12
491.874	104.12
492.092	79.12
492.31	108.12
492.527	94.12
492.745	117.12
492.963	96.12
493.18	92.12
493.398	83.12
493.615	107.12
493.833	111.12
494.05	87.12
494.268	82.12
494.485	92.12
494.703	108.12
494.92	89.12
495.138	98.12
495.355	105.12
495.573	96.12
495.79	93.12
496.008	86.12
496.225	94.12
496.442	99.12
496.66	98.12
496.877	88.12
497.094	85.12
497.312	84.12
497.529	96.12
497.746	98.12
497.963	98.12
498.181	96.12
498.398	83.12
498.615	104.12
498.832	98.12
499.049	81.12
499.267	87.12
499.484	90.12
499.701	85.12
499.918	93.12
500.135	86.12
500.352	96.12
500.569	90.12
500.786	85.12
501.003	84.12
501.22	86.12
501.437	100.12
501.654	76.12
501.871	78.12
502.088	92.12
502.305	90.12
502.522	100.12
502.739	89.12
502.956	94.12
503.172	97.12
503.389	96.12
503.606	82.12
503.823	88.12
504.04	86.12
504.256	82.12
504.473	77.12
504.69	82.12
504.907	112.12
505.123	86.12
505.34	96.12
505.557	100.12
505.773	82.12
505.99	111.12
506.207	91.12
506.423	91.12
506.64	69.12
506.856	98.12
507.073	93.12
507.289	85.12
507.506	81.12
507.722	90.12
507.939	90.12
508.155	101.12
508.372	83.12
508.588	96.12
508.805	88.12
509.021	92.12
509.238	93.12
509.454	85.12
509.67	86.12
509.887	84.12
510.103	84.12
510.319	85.12
510.536	92.12
510.752	88.12
510.968	90.12
511.184	83.12
511.401	92.12
511.617	92.12
511.833	106.12
512.049	79.12
512.265	86.12
512.481	86.12
512.698	101.12
512.914	101.12
513.13	83.12
513.346	95.12
513.562	96.12
513.778	84.12
513.994	81.12
514.21	82.12
514.426	77.12
514.642	82.12
514.858	90.12
515.074	96.12
515.29	87.12
515.506	86.12
515.721	97.12
515.937	92.12
516.153	87.12
516.369	86.12
516.585	90.12
516.801	87.12
517.016	106.12
517.232	109.12
517.448	109.12
517.664	97.12
517.879	104.12
518.095	88.12
518.311	87.12
518.527	114.12
518.742	91.12
