Data from Coke_Can_Tab_HRD10591_00020.txt Node
Date: Wed Nov 05 15:50:37 EST 2025
User: Yrep
Spectrometer: HR+D1059
Trigger mode: 1
Integration Time (sec): 1.000000E-1
Scans to average: 1
Electric dark correction enabled: true
Nonlinearity correction enabled: false
Boxcar width: 0
XAxis mode: Wavelengths
Number of Pixels in Spectrum: 2048
>>>>>Begin Spectral Data<<<<<
223.165	-10.25
223.4	-10.25
223.635	-10.25
223.869	-22.25
224.104	-17.25
224.338	-17.25
224.573	-7.25
224.808	-17.25
225.042	-6.25
225.277	-9.25
225.511	-0.25
225.746	2.75
225.98	7.75
226.215	10.75
226.449	12.75
226.683	16.75
226.918	26.75
227.152	29.75
227.387	32.75
227.621	41.75
227.856	55.75
228.09	53.75
228.324	56.75
228.559	61.75
228.793	58.75
229.027	42.75
229.262	59.75
229.496	63.75
229.73	53.75
229.964	67.75
230.199	79.75
230.433	80.75
230.667	80.75
230.901	63.75
231.136	81.75
231.37	94.75
231.604	89.75
231.838	99.75
232.072	76.75
232.306	73.75
232.541	73.75
232.775	72.75
233.009	80.75
233.243	75.75
233.477	83.75
233.711	79.75
233.945	76.75
234.179	87.75
234.413	80.75
234.647	78.75
234.881	75.75
235.115	72.75
235.349	64.75
235.583	87.75
235.817	74.75
236.051	88.75
236.285	80.75
236.519	75.75
236.753	75.75
236.987	79.75
237.221	93.75
237.455	69.75
237.689	70.75
237.922	78.75
238.156	78.75
238.39	76.75
238.624	80.75
238.858	65.75
239.091	73.75
239.325	70.75
239.559	81.75
239.793	61.75
240.027	82.75
240.26	59.75
240.494	68.75
240.728	69.75
240.961	72.75
241.195	81.75
241.429	78.75
241.662	65.75
241.896	74.75
242.13	81.75
242.363	63.75
242.597	77.75
242.83	83.75
243.064	64.75
243.298	86.75
243.531	78.75
243.765	72.75
243.998	59.75
244.232	85.75
244.465	75.75
244.699	78.75
244.932	70.75
245.166	67.75
245.399	87.75
245.633	64.75
245.866	70.75
246.099	80.75
246.333	80.75
246.566	77.75
246.8	77.75
247.033	66.75
247.266	75.75
247.5	69.75
247.733	58.75
247.966	70.75
248.2	71.75
248.433	68.75
248.666	76.75
248.899	84.75
249.133	76.75
249.366	80.75
249.599	67.75
249.832	73.75
250.066	89.75
250.299	77.75
250.532	79.75
250.765	65.75
250.998	79.75
251.231	68.75
251.465	78.75
251.698	73.75
251.931	80.75
252.164	74.75
252.397	74.75
252.63	89.75
252.863	67.75
253.096	81.75
253.329	83.75
253.562	87.75
253.795	78.75
254.028	80.75
254.261	82.75
254.494	67.75
254.727	77.75
254.96	84.75
255.193	76.75
255.426	81.75
255.659	74.75
255.892	65.75
256.124	69.75
256.357	89.75
256.59	83.75
256.823	75.75
257.056	88.75
257.289	91.75
257.521	69.75
257.754	99.75
257.987	76.75
258.22	90.75
258.452	80.75
258.685	86.75
258.918	73.75
259.151	67.75
259.383	69.75
259.616	75.75
259.849	85.75
260.081	77.75
260.314	77.75
260.547	60.75
260.779	89.75
261.012	71.75
261.244	74.75
261.477	75.75
261.71	74.75
261.942	86.75
262.175	88.75
262.407	73.75
262.64	89.75
262.872	77.75
263.105	71.75
263.337	85.75
263.57	87.75
263.802	88.75
264.035	80.75
264.267	85.75
264.499	75.75
264.732	83.75
264.964	78.75
265.197	77.75
265.429	79.75
265.661	79.75
265.894	77.75
266.126	82.75
266.358	96.75
266.591	70.75
266.823	90.75
267.055	89.75
267.287	79.75
267.52	84.75
267.752	86.75
267.984	66.75
268.216	91.75
268.448	83.75
268.681	87.75
268.913	76.75
269.145	81.75
269.377	68.75
269.609	99.75
269.841	70.75
270.073	82.75
270.306	79.75
270.538	78.75
270.77	74.75
271.002	76.75
271.234	83.75
271.466	79.75
271.698	76.75
271.93	80.75
272.162	62.75
272.394	87.75
272.626	83.75
272.858	87.75
273.09	77.75
273.322	77.75
273.553	77.75
273.785	74.75
274.017	80.75
274.249	90.75
274.481	97.75
274.713	81.75
274.945	77.75
275.176	80.75
275.408	85.75
275.64	92.75
275.872	89.75
276.104	67.75
276.335	70.75
276.567	84.75
276.799	80.75
277.031	79.75
277.262	85.75
277.494	91.75
277.726	75.75
277.957	94.75
278.189	87.75
278.421	74.75
278.652	86.75
278.884	72.75
279.115	84.75
279.347	93.75
279.579	96.75
279.81	90.75
280.042	71.75
280.273	75.75
280.505	83.75
280.736	89.75
280.968	90.75
281.199	78.75
281.431	90.75
281.662	76.75
281.894	95.75
282.125	85.75
282.356	81.75
282.588	78.75
282.819	85.75
283.051	83.75
283.282	88.75
283.513	95.75
283.745	81.75
283.976	66.75
284.207	83.75
284.439	90.75
284.67	70.75
284.901	77.75
285.132	90.75
285.364	83.75
285.595	90.75
285.826	73.75
286.057	86.75
286.288	76.75
286.52	77.75
286.751	77.75
286.982	84.75
287.213	86.75
287.444	83.75
287.675	85.75
287.906	78.75
288.138	80.75
288.369	76.75
288.6	88.75
288.831	77.75
289.062	87.75
289.293	84.75
289.524	89.75
289.755	90.75
289.986	72.75
290.217	75.75
290.448	83.75
290.679	85.75
290.91	86.75
291.141	67.75
291.371	90.75
291.602	83.75
291.833	86.75
292.064	73.75
292.295	86.75
292.526	89.75
292.757	89.75
292.987	80.75
293.218	86.75
293.449	85.75
293.68	85.75
293.91	76.75
294.141	84.75
294.372	87.75
294.603	81.75
294.833	76.75
295.064	86.75
295.295	88.75
295.525	93.75
295.756	79.75
295.987	88.75
296.217	90.75
296.448	98.75
296.679	76.75
296.909	84.75
297.14	91.75
297.37	81.75
297.601	86.75
297.831	81.75
298.062	83.75
298.292	85.75
298.523	95.75
298.753	84.75
298.984	86.75
299.214	90.75
299.445	79.75
299.675	97.75
299.905	93.75
300.136	79.75
300.366	81.75
300.597	87.75
300.827	83.75
301.057	82.75
301.288	97.75
301.518	88.75
301.748	89.75
301.979	102.75
302.209	93.75
302.439	83.75
302.669	85.75
302.9	86.75
303.13	97.75
303.36	70.75
303.59	85.75
303.82	91.75
304.051	86.75
304.281	88.75
304.511	99.75
304.741	87.75
304.971	88.75
305.201	77.75
305.431	70.75
305.661	78.75
305.891	90.75
306.121	78.75
306.352	81.75
306.582	82.75
306.812	86.75
307.042	79.75
307.272	87.75
307.502	78.75
307.731	92.75
307.961	96.75
308.191	89.75
308.421	110.75
308.651	87.75
308.881	96.75
309.111	108.75
309.341	131.75
309.571	113.75
309.8	85.75
310.03	82.75
310.26	97.75
310.49	93.75
310.72	92.75
310.949	81.75
311.179	79.75
311.409	87.75
311.639	79.75
311.868	94.75
312.098	86.75
312.328	90.75
312.557	73.75
312.787	84.75
313.017	89.75
313.246	89.75
313.476	78.75
313.706	77.75
313.935	73.75
314.165	77.75
314.394	86.75
314.624	83.75
314.853	92.75
315.083	87.75
315.312	81.75
315.542	87.75
315.771	91.75
316.001	92.75
316.23	78.75
316.46	83.75
316.689	80.75
316.919	81.75
317.148	85.75
317.377	91.75
317.607	76.75
317.836	88.75
318.065	70.75
318.295	87.75
318.524	71.75
318.753	88.75
318.983	91.75
319.212	84.75
319.441	83.75
319.67	75.75
319.9	87.75
320.129	70.75
320.358	77.75
320.587	100.75
320.816	84.75
321.046	79.75
321.275	75.75
321.504	77.75
321.733	84.75
321.962	87.75
322.191	77.75
322.42	90.75
322.649	83.75
322.878	88.75
323.108	84.75
323.337	86.75
323.566	77.75
323.795	83.75
324.024	83.75
324.253	85.75
324.482	79.75
324.71	85.75
324.939	88.75
325.168	78.75
325.397	86.75
325.626	92.75
325.855	86.75
326.084	85.75
326.313	73.75
326.542	90.75
326.77	90.75
326.999	80.75
327.228	92.75
327.457	59.75
327.686	69.75
327.914	67.75
328.143	91.75
328.372	81.75
328.6	105.75
328.829	86.75
329.058	88.75
329.287	93.75
329.515	76.75
329.744	86.75
329.972	69.75
330.201	77.75
330.43	69.75
330.658	94.75
330.887	85.75
331.115	75.75
331.344	74.75
331.572	78.75
331.801	82.75
332.03	79.75
332.258	78.75
332.486	81.75
332.715	79.75
332.943	89.75
333.172	71.75
333.4	82.75
333.629	91.75
333.857	76.75
334.085	78.75
334.314	82.75
334.542	79.75
334.771	80.75
334.999	81.75
335.227	94.75
335.455	85.75
335.684	85.75
335.912	75.75
336.14	76.75
336.369	77.75
336.597	88.75
336.825	84.75
337.053	79.75
337.281	78.75
337.51	72.75
337.738	75.75
337.966	69.75
338.194	82.75
338.422	62.75
338.65	90.75
338.878	82.75
339.106	87.75
339.334	93.75
339.562	86.75
339.79	76.75
340.018	77.75
340.246	80.75
340.474	78.75
340.702	74.75
340.93	79.75
341.158	72.75
341.386	76.75
341.614	82.75
341.842	72.75
342.07	73.75
342.298	78.75
342.526	92.75
342.754	97.75
342.981	84.75
343.209	96.75
343.437	99.75
343.665	73.75
343.893	83.75
344.12	90.75
344.348	90.75
344.576	81.75
344.804	83.75
345.031	85.75
345.259	94.75
345.487	87.75
345.714	73.75
345.942	81.75
346.17	74.75
346.397	83.75
346.625	76.75
346.853	81.75
347.08	75.75
347.308	83.75
347.535	80.75
347.763	80.75
347.99	84.75
348.218	86.75
348.445	89.75
348.673	79.75
348.9	85.75
349.128	83.75
349.355	82.75
349.583	92.75
349.81	76.75
350.037	75.75
350.265	85.75
350.492	69.75
350.72	78.75
350.947	69.75
351.174	87.75
351.402	86.75
351.629	91.75
351.856	78.75
352.083	70.75
352.311	90.75
352.538	83.75
352.765	75.75
352.992	86.75
353.22	81.75
353.447	76.75
353.674	83.75
353.901	63.75
354.128	76.75
354.355	78.75
354.583	77.75
354.81	79.75
355.037	65.75
355.264	85.75
355.491	76.75
355.718	87.75
355.945	79.75
356.172	67.75
356.399	85.75
356.626	73.75
356.853	68.75
357.08	85.75
357.307	93.75
357.534	89.75
357.761	94.75
357.988	82.75
358.215	72.75
358.441	87.75
358.668	80.75
358.895	80.75
359.122	65.75
359.349	83.75
359.576	80.75
359.802	72.75
360.029	79.75
360.256	94.75
360.483	88.75
360.709	67.75
360.936	85.75
361.163	78.75
361.39	79.75
361.616	78.75
361.843	86.75
362.07	95.75
362.296	81.75
362.523	65.75
362.749	68.75
362.976	91.75
363.203	93.75
363.429	67.75
363.656	49.75
363.882	64.75
364.109	83.75
364.335	85.75
364.562	84.75
364.788	73.75
365.015	69.75
365.241	87.75
365.468	84.75
365.694	76.75
365.92	90.75
366.147	96.75
366.373	89.75
366.599	92.75
366.826	80.75
367.052	77.75
367.278	84.75
367.505	81.75
367.731	87.75
367.957	67.75
368.184	83.75
368.41	86.75
368.636	89.75
368.862	82.75
369.089	78.75
369.315	75.75
369.541	75.75
369.767	79.75
369.993	65.75
370.219	74.75
370.445	75.75
370.672	69.75
370.898	72.75
371.124	83.75
371.35	89.75
371.576	79.75
371.802	75.75
372.028	75.75
372.254	90.75
372.48	79.75
372.706	73.75
372.932	66.75
373.158	77.75
373.384	87.75
373.61	75.75
373.835	80.75
374.061	85.75
374.287	91.75
374.513	79.75
374.739	79.75
374.965	90.75
375.191	78.75
375.416	88.75
375.642	71.75
375.868	79.75
376.094	69.75
376.319	77.75
376.545	90.75
376.771	75.75
376.997	93.75
377.222	83.75
377.448	80.75
377.674	74.75
377.899	86.75
378.125	75.75
378.35	85.75
378.576	75.75
378.802	87.75
379.027	61.75
379.253	81.75
379.478	80.75
379.704	71.75
379.929	75.75
380.155	73.75
380.38	77.75
380.606	80.75
380.831	83.75
381.057	89.75
381.282	74.75
381.507	97.75
381.733	83.75
381.958	99.75
382.184	83.75
382.409	79.75
382.634	81.75
382.86	72.75
383.085	80.75
383.31	102.75
383.535	93.75
383.761	85.75
383.986	84.75
384.211	86.75
384.436	79.75
384.662	86.75
384.887	80.75
385.112	69.75
385.337	79.75
385.562	72.75
385.787	72.75
386.013	76.75
386.238	72.75
386.463	91.75
386.688	101.75
386.913	85.75
387.138	86.75
387.363	82.75
387.588	98.75
387.813	88.75
388.038	89.75
388.263	83.75
388.488	72.75
388.713	79.75
388.938	79.75
389.163	85.75
389.387	81.75
389.612	91.75
389.837	59.75
390.062	67.75
390.287	76.75
390.512	70.75
390.736	85.75
390.961	77.75
391.186	69.75
391.411	94.75
391.636	86.75
391.86	78.75
392.085	93.75
392.31	86.75
392.534	93.75
392.759	78.75
392.984	76.75
393.208	68.75
393.433	89.75
393.658	83.75
393.882	80.75
394.107	107.75
394.331	140.75
394.556	154.75
394.78	95.75
395.005	95.75
395.229	79.75
395.454	96.75
395.678	101.75
395.903	117.75
396.127	176.75
396.352	162.75
396.576	82.75
396.801	88.75
397.025	80.75
397.249	73.75
397.474	79.75
397.698	77.75
397.922	85.75
398.147	67.75
398.371	87.75
398.595	97.75
398.82	79.75
399.044	66.75
399.268	65.75
399.492	77.75
399.717	78.75
399.941	77.75
400.165	76.75
400.389	72.75
400.613	71.75
400.837	84.75
401.062	91.75
401.286	80.75
401.51	89.75
401.734	78.75
401.958	71.75
402.182	74.75
402.406	79.75
402.63	73.75
402.854	72.75
403.078	81.75
403.302	90.75
403.526	87.75
403.75	84.75
403.974	85.75
404.198	83.75
404.422	92.75
404.645	85.75
404.869	78.75
405.093	85.75
405.317	105.75
405.541	91.75
405.765	83.75
405.988	73.75
406.212	83.75
406.436	78.75
406.66	84.75
406.883	80.75
407.107	75.75
407.331	89.75
407.555	76.75
407.778	78.75
408.002	86.75
408.226	84.75
408.449	79.75
408.673	69.75
408.896	71.75
409.12	94.75
409.344	71.75
409.567	70.75
409.791	82.75
410.014	81.75
410.238	82.75
410.461	83.75
410.685	75.75
410.908	73.75
411.132	76.75
411.355	85.75
411.578	95.75
411.802	95.75
412.025	69.75
412.249	82.75
412.472	87.75
412.695	81.75
412.919	69.75
413.142	94.75
413.365	86.75
413.589	74.75
413.812	91.75
414.035	85.75
414.258	87.75
414.482	73.75
414.705	81.75
414.928	81.75
415.151	85.75
415.374	85.75
415.597	83.75
415.821	90.75
416.044	85.75
416.267	84.75
416.49	86.75
416.713	83.75
416.936	90.75
417.159	86.75
417.382	97.75
417.605	78.75
417.828	71.75
418.051	78.75
418.274	80.75
418.497	84.75
418.72	79.75
418.943	79.75
419.166	84.75
419.389	67.75
419.611	88.75
419.834	87.75
420.057	71.75
420.28	80.75
420.503	59.75
420.726	73.75
420.948	88.75
421.171	82.75
421.394	87.75
421.617	85.75
421.839	79.75
422.062	83.75
422.285	73.75
422.507	79.75
422.73	82.75
422.953	70.75
423.175	80.75
423.398	85.75
423.621	93.75
423.843	90.75
424.066	104.75
424.288	75.75
424.511	74.75
424.733	85.75
424.956	87.75
425.178	74.75
425.401	76.75
425.623	88.75
425.846	75.75
426.068	80.75
426.291	77.75
426.513	81.75
426.735	88.75
426.958	78.75
427.18	81.75
427.402	77.75
427.625	85.75
427.847	84.75
428.069	89.75
428.292	77.75
428.514	69.75
428.736	80.75
428.958	77.75
429.181	89.75
429.403	86.75
429.625	59.75
429.847	73.75
430.069	86.75
430.292	91.75
430.514	85.75
430.736	87.75
430.958	91.75
431.18	74.75
431.402	89.75
431.624	65.75
431.846	79.75
432.068	60.75
432.29	94.75
432.512	76.75
432.734	78.75
432.956	98.75
433.178	83.75
433.4	73.75
433.622	83.75
433.844	61.75
434.066	89.75
434.287	76.75
434.509	73.75
434.731	77.75
434.953	78.75
435.175	81.75
435.397	85.75
435.618	86.75
435.84	84.75
436.062	75.75
436.284	88.75
436.505	95.75
436.727	91.75
436.949	72.75
437.17	90.75
437.392	79.75
437.614	96.75
437.835	83.75
438.057	74.75
438.278	70.75
438.5	77.75
438.721	80.75
438.943	79.75
439.165	87.75
439.386	78.75
439.608	79.75
439.829	95.75
440.05	88.75
440.272	72.75
440.493	77.75
440.715	70.75
440.936	78.75
441.158	89.75
441.379	69.75
441.6	66.75
441.822	79.75
442.043	77.75
442.264	82.75
442.486	86.75
442.707	82.75
442.928	63.75
443.149	92.75
443.371	78.75
443.592	89.75
443.813	75.75
444.034	83.75
444.255	76.75
444.476	71.75
444.698	79.75
444.919	79.75
445.14	146.75
445.361	116.75
445.582	97.75
445.803	67.75
446.024	90.75
446.245	89.75
446.466	87.75
446.687	92.75
446.908	90.75
447.129	72.75
447.35	79.75
447.571	95.75
447.792	68.75
448.013	76.75
448.234	82.75
448.455	91.75
448.675	93.75
448.896	85.75
449.117	91.75
449.338	78.75
449.559	77.75
449.779	70.75
450	75.75
450.221	79.75
450.442	69.75
450.662	78.75
450.883	78.75
451.104	82.75
451.324	83.75
451.545	79.75
451.766	88.75
451.986	80.75
452.207	77.75
452.428	70.75
452.648	67.75
452.869	97.75
453.089	84.75
453.31	83.75
453.53	81.75
453.751	83.75
453.971	90.75
454.192	76.75
454.412	92.75
454.633	90.75
454.853	75.75
455.073	66.75
455.294	71.75
455.514	87.75
455.734	87.75
455.955	73.75
456.175	68.75
456.395	71.75
456.616	85.75
456.836	72.75
457.056	69.75
457.276	81.75
457.497	76.75
457.717	86.75
457.937	86.75
458.157	78.75
458.377	74.75
458.598	66.75
458.818	78.75
459.038	82.75
459.258	86.75
459.478	90.75
459.698	95.75
459.918	74.75
460.138	82.75
460.358	92.75
460.578	84.75
460.798	79.75
461.018	71.75
461.238	85.75
461.458	83.75
461.678	74.75
461.898	85.75
462.118	92.75
462.338	71.75
462.558	83.75
462.777	59.75
462.997	64.75
463.217	76.75
463.437	83.75
463.657	87.75
463.876	74.75
464.096	85.75
464.316	75.75
464.536	89.75
464.755	86.75
464.975	86.75
465.195	93.75
465.414	81.75
465.634	79.75
465.854	86.75
466.073	84.75
466.293	63.75
466.512	68.75
466.732	79.75
466.951	108.75
467.171	92.75
467.391	93.75
467.61	81.75
467.829	83.75
468.049	86.75
468.268	82.75
468.488	94.75
468.707	82.75
468.927	78.75
469.146	90.75
469.365	84.75
469.585	81.75
469.804	86.75
470.023	95.75
470.243	91.75
470.462	89.75
470.681	78.75
470.901	78.75
471.12	74.75
471.339	66.75
471.558	88.75
471.777	85.75
471.997	75.75
472.216	90.75
472.435	76.75
472.654	66.75
472.873	88.75
473.092	73.75
473.311	79.75
473.53	82.75
473.749	79.75
473.968	79.75
474.187	87.75
474.406	75.75
474.625	79.75
474.844	84.75
475.063	88.75
475.282	90.75
475.501	90.75
475.72	90.75
475.939	79.75
476.158	94.75
476.377	87.75
476.596	80.75
476.814	87.75
477.033	77.75
477.252	95.75
477.471	77.75
477.69	89.75
477.908	93.75
478.127	97.75
478.346	88.75
478.564	81.75
478.783	67.75
479.002	83.75
479.22	83.75
479.439	77.75
479.658	77.75
479.876	86.75
480.095	80.75
480.313	92.75
480.532	84.75
480.751	95.75
480.969	71.75
481.188	80.75
481.406	91.75
481.624	72.75
481.843	92.75
482.061	84.75
482.28	87.75
482.498	74.75
482.717	87.75
482.935	83.75
483.153	80.75
483.372	76.75
483.59	87.75
483.808	84.75
484.027	88.75
484.245	74.75
484.463	83.75
484.681	95.75
484.9	77.75
485.118	83.75
485.336	85.75
485.554	91.75
485.772	93.75
485.99	78.75
486.209	84.75
486.427	77.75
486.645	71.75
486.863	81.75
487.081	85.75
487.299	74.75
487.517	81.75
487.735	98.75
487.953	94.75
488.171	100.75
488.389	91.75
488.607	81.75
488.825	82.75
489.043	83.75
489.261	77.75
489.479	94.75
489.696	76.75
489.914	90.75
490.132	99.75
490.35	79.75
490.568	79.75
490.786	85.75
491.003	93.75
491.221	93.75
491.439	95.75
491.657	91.75
491.874	100.75
492.092	93.75
492.31	81.75
492.527	83.75
492.745	79.75
492.963	98.75
493.18	87.75
493.398	96.75
493.615	84.75
493.833	88.75
494.05	90.75
494.268	97.75
494.485	75.75
494.703	105.75
494.92	91.75
495.138	79.75
495.355	81.75
495.573	100.75
495.79	77.75
496.008	110.75
496.225	93.75
496.442	89.75
496.66	99.75
496.877	94.75
497.094	110.75
497.312	77.75
497.529	97.75
497.746	86.75
497.963	81.75
498.181	71.75
498.398	90.75
498.615	93.75
498.832	87.75
499.049	90.75
499.267	93.75
499.484	88.75
499.701	91.75
499.918	78.75
500.135	78.75
500.352	72.75
500.569	88.75
500.786	89.75
501.003	93.75
501.22	82.75
501.437	75.75
501.654	87.75
501.871	77.75
502.088	62.75
502.305	100.75
502.522	96.75
502.739	79.75
502.956	92.75
503.172	105.75
503.389	90.75
503.606	82.75
503.823	94.75
504.04	99.75
504.256	80.75
504.473	82.75
504.69	82.75
504.907	79.75
505.123	85.75
505.34	96.75
505.557	94.75
505.773	93.75
505.99	79.75
506.207	83.75
506.423	65.75
506.64	90.75
506.856	75.75
507.073	89.75
507.289	83.75
507.506	91.75
507.722	86.75
507.939	89.75
508.155	101.75
508.372	90.75
508.588	83.75
508.805	74.75
509.021	81.75
509.238	91.75
509.454	83.75
509.67	67.75
509.887	88.75
510.103	95.75
510.319	74.75
510.536	98.75
510.752	80.75
510.968	76.75
511.184	87.75
511.401	82.75
511.617	87.75
511.833	85.75
512.049	85.75
512.265	79.75
512.481	89.75
512.698	85.75
512.914	85.75
513.13	82.75
513.346	74.75
513.562	89.75
513.778	94.75
513.994	91.75
514.21	103.75
514.426	78.75
514.642	85.75
514.858	77.75
515.074	97.75
515.29	93.75
515.506	88.75
515.721	88.75
515.937	81.75
516.153	84.75
516.369	93.75
516.585	86.75
516.801	89.75
517.016	84.75
517.232	92.75
517.448	100.75
517.664	91.75
517.879	85.75
518.095	78.75
518.311	90.75
518.527	117.75
518.742	78.75
518.958	74.75
519.173	86.75
519.389	85.75
519.605	99.75
519.82	95.75
