Data from Coke_Can_Tab_HRD10591_00019.txt Node
Date: Wed Nov 05 15:50:36 EST 2025
User: Yrep
Spectrometer: HR+D1059
Trigger mode: 1
Integration Time (sec): 1.000000E-1
Scans to average: 1
Electric dark correction enabled: true
Nonlinearity correction enabled: false
Boxcar width: 0
XAxis mode: Wavelengths
Number of Pixels in Spectrum: 2048
>>>>>Begin Spectral Data<<<<<
223.165	-16.88
223.4	-16.88
223.635	-16.88
223.869	-11.88
224.104	-25.88
224.338	-21.88
224.573	-18.88
224.808	-1.88
225.042	0.12
225.277	12.12
225.511	2.12
225.746	13.12
225.98	-2.88
226.215	-0.88
226.449	10.12
226.683	12.12
226.918	17.12
227.152	34.12
227.387	26.12
227.621	32.12
227.856	29.12
228.09	49.12
228.324	47.12
228.559	46.12
228.793	45.12
229.027	46.12
229.262	61.12
229.496	73.12
229.73	67.12
229.964	83.12
230.199	80.12
230.433	75.12
230.667	77.12
230.901	69.12
231.136	70.12
231.37	63.12
231.604	77.12
231.838	77.12
232.072	75.12
232.306	83.12
232.541	71.12
232.775	69.12
233.009	96.12
233.243	86.12
233.477	88.12
233.711	78.12
233.945	85.12
234.179	80.12
234.413	95.12
234.647	81.12
234.881	73.12
235.115	86.12
235.349	80.12
235.583	79.12
235.817	78.12
236.051	69.12
236.285	60.12
236.519	71.12
236.753	73.12
236.987	89.12
237.221	61.12
237.455	71.12
237.689	61.12
237.922	79.12
238.156	65.12
238.39	67.12
238.624	68.12
238.858	71.12
239.091	77.12
239.325	74.12
239.559	92.12
239.793	75.12
240.027	83.12
240.26	74.12
240.494	75.12
240.728	74.12
240.961	72.12
241.195	68.12
241.429	80.12
241.662	79.12
241.896	75.12
242.13	78.12
242.363	64.12
242.597	83.12
242.83	79.12
243.064	58.12
243.298	85.12
243.531	75.12
243.765	90.12
243.998	81.12
244.232	87.12
244.465	71.12
244.699	78.12
244.932	66.12
245.166	85.12
245.399	83.12
245.633	85.12
245.866	77.12
246.099	72.12
246.333	61.12
246.566	69.12
246.8	76.12
247.033	62.12
247.266	62.12
247.5	76.12
247.733	67.12
247.966	100.12
248.2	76.12
248.433	75.12
248.666	67.12
248.899	74.12
249.133	68.12
249.366	74.12
249.599	65.12
249.832	89.12
250.066	85.12
250.299	76.12
250.532	78.12
250.765	89.12
250.998	83.12
251.231	70.12
251.465	80.12
251.698	74.12
251.931	77.12
252.164	80.12
252.397	61.12
252.63	87.12
252.863	96.12
253.096	79.12
253.329	81.12
253.562	71.12
253.795	69.12
254.028	79.12
254.261	77.12
254.494	70.12
254.727	70.12
254.96	78.12
255.193	91.12
255.426	78.12
255.659	86.12
255.892	92.12
256.124	88.12
256.357	98.12
256.59	70.12
256.823	73.12
257.056	86.12
257.289	99.12
257.521	90.12
257.754	78.12
257.987	66.12
258.22	86.12
258.452	60.12
258.685	71.12
258.918	82.12
259.151	82.12
259.383	76.12
259.616	84.12
259.849	91.12
260.081	65.12
260.314	72.12
260.547	76.12
260.779	80.12
261.012	76.12
261.244	83.12
261.477	87.12
261.71	87.12
261.942	81.12
262.175	80.12
262.407	86.12
262.64	77.12
262.872	93.12
263.105	82.12
263.337	76.12
263.57	79.12
263.802	78.12
264.035	81.12
264.267	77.12
264.499	89.12
264.732	89.12
264.964	78.12
265.197	84.12
265.429	90.12
265.661	77.12
265.894	93.12
266.126	101.12
266.358	84.12
266.591	92.12
266.823	83.12
267.055	81.12
267.287	78.12
267.52	91.12
267.752	77.12
267.984	79.12
268.216	80.12
268.448	81.12
268.681	63.12
268.913	85.12
269.145	83.12
269.377	70.12
269.609	79.12
269.841	88.12
270.073	93.12
270.306	85.12
270.538	89.12
270.77	95.12
271.002	73.12
271.234	73.12
271.466	83.12
271.698	85.12
271.93	78.12
272.162	89.12
272.394	95.12
272.626	103.12
272.858	95.12
273.09	94.12
273.322	77.12
273.553	76.12
273.785	88.12
274.017	96.12
274.249	90.12
274.481	93.12
274.713	75.12
274.945	85.12
275.176	74.12
275.408	99.12
275.64	85.12
275.872	91.12
276.104	82.12
276.335	76.12
276.567	73.12
276.799	86.12
277.031	69.12
277.262	74.12
277.494	81.12
277.726	76.12
277.957	80.12
278.189	77.12
278.421	89.12
278.652	91.12
278.884	86.12
279.115	90.12
279.347	92.12
279.579	87.12
279.81	77.12
280.042	95.12
280.273	81.12
280.505	80.12
280.736	85.12
280.968	81.12
281.199	78.12
281.431	77.12
281.662	81.12
281.894	83.12
282.125	86.12
282.356	89.12
282.588	67.12
282.819	88.12
283.051	89.12
283.282	72.12
283.513	82.12
283.745	86.12
283.976	81.12
284.207	79.12
284.439	92.12
284.67	79.12
284.901	77.12
285.132	88.12
285.364	99.12
285.595	81.12
285.826	79.12
286.057	67.12
286.288	81.12
286.52	72.12
286.751	69.12
286.982	85.12
287.213	80.12
287.444	83.12
287.675	75.12
287.906	84.12
288.138	79.12
288.369	75.12
288.6	88.12
288.831	79.12
289.062	71.12
289.293	77.12
289.524	74.12
289.755	90.12
289.986	77.12
290.217	72.12
290.448	79.12
290.679	76.12
290.91	88.12
291.141	77.12
291.371	75.12
291.602	85.12
291.833	87.12
292.064	71.12
292.295	90.12
292.526	85.12
292.757	78.12
292.987	87.12
293.218	86.12
293.449	86.12
293.68	93.12
293.91	69.12
294.141	95.12
294.372	74.12
294.603	82.12
294.833	85.12
295.064	87.12
295.295	84.12
295.525	85.12
295.756	92.12
295.987	93.12
296.217	71.12
296.448	79.12
296.679	78.12
296.909	76.12
297.14	74.12
297.37	90.12
297.601	76.12
297.831	90.12
298.062	83.12
298.292	71.12
298.523	84.12
298.753	96.12
298.984	100.12
299.214	82.12
299.445	85.12
299.675	83.12
299.905	92.12
300.136	83.12
300.366	85.12
300.597	95.12
300.827	77.12
301.057	94.12
301.288	90.12
301.518	90.12
301.748	89.12
301.979	77.12
302.209	89.12
302.439	87.12
302.669	80.12
302.9	81.12
303.13	79.12
303.36	87.12
303.59	85.12
303.82	79.12
304.051	90.12
304.281	85.12
304.511	85.12
304.741	80.12
304.971	91.12
305.201	78.12
305.431	87.12
305.661	91.12
305.891	87.12
306.121	82.12
306.352	87.12
306.582	97.12
306.812	78.12
307.042	90.12
307.272	83.12
307.502	86.12
307.731	89.12
307.961	96.12
308.191	94.12
308.421	106.12
308.651	83.12
308.881	104.12
309.111	107.12
309.341	103.12
309.571	113.12
309.8	87.12
310.03	85.12
310.26	76.12
310.49	77.12
310.72	80.12
310.949	87.12
311.179	77.12
311.409	89.12
311.639	95.12
311.868	94.12
312.098	93.12
312.328	79.12
312.557	84.12
312.787	78.12
313.017	89.12
313.246	81.12
313.476	71.12
313.706	87.12
313.935	85.12
314.165	88.12
314.394	90.12
314.624	68.12
314.853	78.12
315.083	85.12
315.312	78.12
315.542	87.12
315.771	73.12
316.001	79.12
316.23	87.12
316.46	83.12
316.689	91.12
316.919	86.12
317.148	84.12
317.377	85.12
317.607	93.12
317.836	101.12
318.065	84.12
318.295	78.12
318.524	102.12
318.753	85.12
318.983	90.12
319.212	88.12
319.441	85.12
319.67	73.12
319.9	77.12
320.129	97.12
320.358	80.12
320.587	87.12
320.816	97.12
321.046	69.12
321.275	93.12
321.504	79.12
321.733	78.12
321.962	84.12
322.191	79.12
322.42	91.12
322.649	72.12
322.878	72.12
323.108	79.12
323.337	80.12
323.566	89.12
323.795	85.12
324.024	80.12
324.253	74.12
324.482	98.12
324.71	77.12
324.939	89.12
325.168	95.12
325.397	88.12
325.626	81.12
325.855	83.12
326.084	93.12
326.313	83.12
326.542	98.12
326.77	83.12
326.999	88.12
327.228	88.12
327.457	78.12
327.686	91.12
327.914	85.12
328.143	100.12
328.372	90.12
328.6	81.12
328.829	79.12
329.058	101.12
329.287	73.12
329.515	67.12
329.744	93.12
329.972	88.12
330.201	86.12
330.43	78.12
330.658	81.12
330.887	83.12
331.115	78.12
331.344	75.12
331.572	70.12
331.801	77.12
332.03	90.12
332.258	91.12
332.486	81.12
332.715	87.12
332.943	82.12
333.172	92.12
333.4	91.12
333.629	85.12
333.857	79.12
334.085	77.12
334.314	72.12
334.542	71.12
334.771	87.12
334.999	87.12
335.227	68.12
335.455	78.12
335.684	91.12
335.912	98.12
336.14	78.12
336.369	92.12
336.597	91.12
336.825	86.12
337.053	85.12
337.281	82.12
337.51	88.12
337.738	85.12
337.966	72.12
338.194	67.12
338.422	77.12
338.65	82.12
338.878	91.12
339.106	74.12
339.334	91.12
339.562	85.12
339.79	66.12
340.018	80.12
340.246	73.12
340.474	71.12
340.702	92.12
340.93	91.12
341.158	91.12
341.386	89.12
341.614	70.12
341.842	81.12
342.07	85.12
342.298	91.12
342.526	82.12
342.754	82.12
342.981	87.12
343.209	88.12
343.437	105.12
343.665	78.12
343.893	82.12
344.12	94.12
344.348	83.12
344.576	86.12
344.804	74.12
345.031	79.12
345.259	81.12
345.487	87.12
345.714	81.12
345.942	85.12
346.17	86.12
346.397	67.12
346.625	83.12
346.853	83.12
347.08	89.12
347.308	85.12
347.535	82.12
347.763	79.12
347.99	97.12
348.218	77.12
348.445	70.12
348.673	83.12
348.9	71.12
349.128	84.12
349.355	90.12
349.583	86.12
349.81	86.12
350.037	91.12
350.265	82.12
350.492	77.12
350.72	74.12
350.947	79.12
351.174	88.12
351.402	94.12
351.629	83.12
351.856	80.12
352.083	90.12
352.311	99.12
352.538	79.12
352.765	85.12
352.992	81.12
353.22	77.12
353.447	89.12
353.674	83.12
353.901	78.12
354.128	95.12
354.355	79.12
354.583	75.12
354.81	83.12
355.037	76.12
355.264	77.12
355.491	67.12
355.718	81.12
355.945	77.12
356.172	81.12
356.399	76.12
356.626	80.12
356.853	91.12
357.08	83.12
357.307	77.12
357.534	90.12
357.761	74.12
357.988	88.12
358.215	103.12
358.441	83.12
358.668	77.12
358.895	94.12
359.122	102.12
359.349	74.12
359.576	83.12
359.802	84.12
360.029	83.12
360.256	78.12
360.483	85.12
360.709	77.12
360.936	97.12
361.163	86.12
361.39	81.12
361.616	71.12
361.843	83.12
362.07	84.12
362.296	85.12
362.523	76.12
362.749	75.12
362.976	69.12
363.203	89.12
363.429	77.12
363.656	100.12
363.882	77.12
364.109	83.12
364.335	93.12
364.562	75.12
364.788	79.12
365.015	70.12
365.241	83.12
365.468	79.12
365.694	65.12
365.92	88.12
366.147	88.12
366.373	83.12
366.599	83.12
366.826	78.12
367.052	72.12
367.278	75.12
367.505	94.12
367.731	94.12
367.957	74.12
368.184	95.12
368.41	87.12
368.636	90.12
368.862	79.12
369.089	81.12
369.315	71.12
369.541	83.12
369.767	79.12
369.993	73.12
370.219	88.12
370.445	76.12
370.672	71.12
370.898	91.12
371.124	101.12
371.35	99.12
371.576	78.12
371.802	85.12
372.028	83.12
372.254	85.12
372.48	75.12
372.706	71.12
372.932	84.12
373.158	83.12
373.384	87.12
373.61	83.12
373.835	82.12
374.061	78.12
374.287	77.12
374.513	77.12
374.739	77.12
374.965	87.12
375.191	84.12
375.416	93.12
375.642	84.12
375.868	91.12
376.094	85.12
376.319	88.12
376.545	65.12
376.771	85.12
376.997	92.12
377.222	86.12
377.448	60.12
377.674	75.12
377.899	76.12
378.125	83.12
378.35	90.12
378.576	78.12
378.802	73.12
379.027	79.12
379.253	78.12
379.478	66.12
379.704	79.12
379.929	67.12
380.155	96.12
380.38	94.12
380.606	83.12
380.831	79.12
381.057	97.12
381.282	62.12
381.507	81.12
381.733	74.12
381.958	71.12
382.184	63.12
382.409	77.12
382.634	71.12
382.86	86.12
383.085	84.12
383.31	76.12
383.535	88.12
383.761	101.12
383.986	89.12
384.211	76.12
384.436	83.12
384.662	78.12
384.887	87.12
385.112	79.12
385.337	86.12
385.562	92.12
385.787	85.12
386.013	94.12
386.238	79.12
386.463	71.12
386.688	84.12
386.913	85.12
387.138	92.12
387.363	77.12
387.588	76.12
387.813	86.12
388.038	85.12
388.263	83.12
388.488	77.12
388.713	78.12
388.938	99.12
389.163	87.12
389.387	79.12
389.612	89.12
389.837	73.12
390.062	84.12
390.287	100.12
390.512	98.12
390.736	74.12
390.961	81.12
391.186	89.12
391.411	73.12
391.636	76.12
391.86	88.12
392.085	79.12
392.31	79.12
392.534	63.12
392.759	73.12
392.984	85.12
393.208	73.12
393.433	93.12
393.658	89.12
393.882	92.12
394.107	123.12
394.331	156.12
394.556	170.12
394.78	118.12
395.005	84.12
395.229	74.12
395.454	106.12
395.678	113.12
395.903	129.12
396.127	185.12
396.352	163.12
396.576	113.12
396.801	81.12
397.025	76.12
397.249	83.12
397.474	75.12
397.698	83.12
397.922	98.12
398.147	91.12
398.371	65.12
398.595	80.12
398.82	85.12
399.044	75.12
399.268	78.12
399.492	81.12
399.717	91.12
399.941	83.12
400.165	92.12
400.389	79.12
400.613	88.12
400.837	74.12
401.062	79.12
401.286	82.12
401.51	79.12
401.734	84.12
401.958	81.12
402.182	76.12
402.406	93.12
402.63	70.12
402.854	86.12
403.078	87.12
403.302	91.12
403.526	83.12
403.75	98.12
403.974	79.12
404.198	66.12
404.422	69.12
404.645	81.12
404.869	94.12
405.093	83.12
405.317	69.12
405.541	81.12
405.765	75.12
405.988	77.12
406.212	96.12
406.436	87.12
406.66	79.12
406.883	94.12
407.107	83.12
407.331	86.12
407.555	79.12
407.778	84.12
408.002	83.12
408.226	68.12
408.449	71.12
408.673	85.12
408.896	90.12
409.12	92.12
409.344	86.12
409.567	79.12
409.791	90.12
410.014	90.12
410.238	80.12
410.461	79.12
410.685	69.12
410.908	81.12
411.132	73.12
411.355	85.12
411.578	97.12
411.802	79.12
412.025	81.12
412.249	62.12
412.472	86.12
412.695	66.12
412.919	75.12
413.142	83.12
413.365	73.12
413.589	82.12
413.812	85.12
414.035	78.12
414.258	78.12
414.482	77.12
414.705	79.12
414.928	91.12
415.151	85.12
415.374	87.12
415.597	89.12
415.821	87.12
416.044	91.12
416.267	84.12
416.49	85.12
416.713	74.12
416.936	83.12
417.159	89.12
417.382	88.12
417.605	86.12
417.828	98.12
418.051	88.12
418.274	85.12
418.497	78.12
418.72	73.12
418.943	75.12
419.166	83.12
419.389	91.12
419.611	76.12
419.834	78.12
420.057	76.12
420.28	81.12
420.503	76.12
420.726	87.12
420.948	89.12
421.171	76.12
421.394	63.12
421.617	80.12
421.839	86.12
422.062	90.12
422.285	72.12
422.507	91.12
422.73	82.12
422.953	78.12
423.175	98.12
423.398	89.12
423.621	91.12
423.843	68.12
424.066	80.12
424.288	65.12
424.511	78.12
424.733	82.12
424.956	93.12
425.178	76.12
425.401	87.12
425.623	85.12
425.846	85.12
426.068	92.12
426.291	86.12
426.513	85.12
426.735	82.12
426.958	78.12
427.18	75.12
427.402	89.12
427.625	90.12
427.847	69.12
428.069	93.12
428.292	79.12
428.514	85.12
428.736	93.12
428.958	79.12
429.181	79.12
429.403	85.12
429.625	75.12
429.847	85.12
430.069	80.12
430.292	77.12
430.514	85.12
430.736	90.12
430.958	87.12
431.18	90.12
431.402	93.12
431.624	85.12
431.846	93.12
432.068	87.12
432.29	76.12
432.512	85.12
432.734	71.12
432.956	83.12
433.178	92.12
433.4	88.12
433.622	86.12
433.844	70.12
434.066	78.12
434.287	79.12
434.509	74.12
434.731	103.12
434.953	63.12
435.175	88.12
435.397	96.12
435.618	90.12
435.84	84.12
436.062	78.12
436.284	95.12
436.505	71.12
436.727	78.12
436.949	76.12
437.17	91.12
437.392	90.12
437.614	75.12
437.835	74.12
438.057	68.12
438.278	81.12
438.5	77.12
438.721	73.12
438.943	99.12
439.165	83.12
439.386	79.12
439.608	90.12
439.829	78.12
440.05	81.12
440.272	77.12
440.493	96.12
440.715	98.12
440.936	76.12
441.158	92.12
441.379	83.12
441.6	87.12
441.822	67.12
442.043	83.12
442.264	84.12
442.486	87.12
442.707	71.12
442.928	79.12
443.149	88.12
443.371	103.12
443.592	88.12
443.813	95.12
444.034	82.12
444.255	80.12
444.476	98.12
444.698	80.12
444.919	83.12
445.14	143.12
445.361	122.12
445.582	85.12
445.803	92.12
446.024	91.12
446.245	83.12
446.466	89.12
446.687	72.12
446.908	85.12
447.129	81.12
447.35	81.12
447.571	85.12
447.792	70.12
448.013	85.12
448.234	81.12
448.455	84.12
448.675	83.12
448.896	77.12
449.117	91.12
449.338	75.12
449.559	78.12
449.779	92.12
450	101.12
450.221	78.12
450.442	90.12
450.662	93.12
450.883	83.12
451.104	85.12
451.324	87.12
451.545	98.12
451.766	80.12
451.986	77.12
452.207	94.12
452.428	87.12
452.648	83.12
452.869	84.12
453.089	93.12
453.31	91.12
453.53	91.12
453.751	83.12
453.971	76.12
454.192	79.12
454.412	89.12
454.633	71.12
454.853	83.12
455.073	81.12
455.294	86.12
455.514	74.12
455.734	78.12
455.955	86.12
456.175	78.12
456.395	89.12
456.616	81.12
456.836	87.12
457.056	97.12
457.276	89.12
457.497	91.12
457.717	79.12
457.937	90.12
458.157	85.12
458.377	85.12
458.598	84.12
458.818	85.12
459.038	76.12
459.258	78.12
459.478	78.12
459.698	84.12
459.918	80.12
460.138	80.12
460.358	92.12
460.578	84.12
460.798	98.12
461.018	87.12
461.238	80.12
461.458	82.12
461.678	92.12
461.898	95.12
462.118	76.12
462.338	60.12
462.558	83.12
462.777	76.12
462.997	82.12
463.217	77.12
463.437	77.12
463.657	91.12
463.876	77.12
464.096	74.12
464.316	86.12
464.536	86.12
464.755	94.12
464.975	86.12
465.195	62.12
465.414	92.12
465.634	86.12
465.854	89.12
466.073	87.12
466.293	87.12
466.512	97.12
466.732	91.12
466.951	76.12
467.171	97.12
467.391	90.12
467.61	89.12
467.829	88.12
468.049	77.12
468.268	83.12
468.488	73.12
468.707	81.12
468.927	87.12
469.146	74.12
469.365	93.12
469.585	99.12
469.804	78.12
470.023	89.12
470.243	77.12
470.462	87.12
470.681	87.12
470.901	83.12
471.12	94.12
471.339	75.12
471.558	78.12
471.777	75.12
471.997	93.12
472.216	77.12
472.435	77.12
472.654	87.12
472.873	83.12
473.092	86.12
473.311	83.12
473.53	97.12
473.749	85.12
473.968	95.12
474.187	83.12
474.406	89.12
474.625	91.12
474.844	76.12
475.063	78.12
475.282	82.12
475.501	79.12
475.72	84.12
475.939	90.12
476.158	85.12
476.377	79.12
476.596	99.12
476.814	88.12
477.033	72.12
477.252	100.12
477.471	86.12
477.69	95.12
477.908	88.12
478.127	97.12
478.346	92.12
478.564	80.12
478.783	90.12
479.002	84.12
479.22	89.12
479.439	84.12
479.658	83.12
479.876	91.12
480.095	102.12
480.313	77.12
480.532	89.12
480.751	65.12
480.969	88.12
481.188	72.12
481.406	87.12
481.624	85.12
481.843	77.12
482.061	91.12
482.28	93.12
482.498	90.12
482.717	77.12
482.935	87.12
483.153	73.12
483.372	97.12
483.59	90.12
483.808	74.12
484.027	88.12
484.245	101.12
484.463	86.12
484.681	80.12
484.9	99.12
485.118	79.12
485.336	91.12
485.554	83.12
485.772	71.12
485.99	89.12
486.209	84.12
486.427	75.12
486.645	79.12
486.863	87.12
487.081	83.12
487.299	88.12
487.517	99.12
487.735	76.12
487.953	91.12
488.171	91.12
488.389	74.12
488.607	79.12
488.825	85.12
489.043	87.12
489.261	91.12
489.479	92.12
489.696	83.12
489.914	91.12
490.132	94.12
490.35	85.12
490.568	93.12
490.786	86.12
491.003	93.12
491.221	78.12
491.439	96.12
491.657	99.12
491.874	95.12
492.092	89.12
492.31	89.12
492.527	86.12
492.745	77.12
492.963	91.12
493.18	100.12
493.398	97.12
493.615	99.12
493.833	99.12
494.05	93.12
494.268	79.12
494.485	89.12
494.703	99.12
494.92	102.12
495.138	86.12
495.355	82.12
495.573	95.12
495.79	79.12
496.008	98.12
496.225	93.12
496.442	79.12
496.66	93.12
496.877	90.12
497.094	93.12
497.312	90.12
497.529	79.12
497.746	93.12
497.963	91.12
498.181	100.12
498.398	94.12
498.615	85.12
498.832	87.12
499.049	85.12
499.267	71.12
499.484	69.12
499.701	91.12
499.918	97.12
500.135	90.12
500.352	83.12
500.569	93.12
500.786	87.12
501.003	86.12
501.22	84.12
501.437	79.12
501.654	91.12
501.871	77.12
502.088	82.12
502.305	90.12
502.522	99.12
502.739	73.12
502.956	74.12
503.172	89.12
503.389	79.12
503.606	93.12
503.823	89.12
504.04	104.12
504.256	85.12
504.473	81.12
504.69	86.12
504.907	95.12
505.123	92.12
505.34	89.12
505.557	82.12
505.773	79.12
505.99	86.12
506.207	69.12
506.423	90.12
506.64	85.12
506.856	86.12
507.073	77.12
507.289	84.12
507.506	87.12
507.722	101.12
507.939	83.12
508.155	85.12
508.372	84.12
508.588	85.12
508.805	88.12
509.021	105.12
509.238	98.12
509.454	67.12
509.67	76.12
509.887	95.12
510.103	86.12
510.319	93.12
510.536	88.12
510.752	92.12
510.968	73.12
511.184	89.12
511.401	89.12
511.617	94.12
511.833	79.12
512.049	89.12
512.265	81.12
512.481	81.12
512.698	80.12
512.914	82.12
513.13	91.12
513.346	83.12
513.562	94.12
513.778	85.12
513.994	75.12
514.21	86.12
514.426	78.12
514.642	78.12
514.858	86.12
515.074	84.12
515.29	90.12
515.506	86.12
515.721	83.12
515.937	93.12
516.153	90.12
516.369	69.12
516.585	83.12
516.801	93.12
517.016	79.12
517.232	94.12
517.448	109.12
517.664	75.12
517.879	84.12
518.095	89.12
518.311	70.12
518.527	96.12
518.742	85.12
518.958	81.12
519.173	86.12
519.389	74.12
519.605	81.12
