Data from Coke_Can_Tab_HRD10591_00001.txt Node
Date: Wed Nov 05 15:50:27 EST 2025
User: Yrep
Spectrometer: HR+D1059
Trigger mode: 1
Integration Time (sec): 1.000000E-1
Scans to average: 1
Electric dark correction enabled: true
Nonlinearity correction enabled: false
Boxcar width: 0
XAxis mode: Wavelengths
Number of Pixels in Spectrum: 2048
>>>>>Begin Spectral Data<<<<<
223.165	-20.06
223.4	-20.06
223.635	-20.06
223.869	-20.06
224.104	-24.06
224.338	-10.06
224.573	-12.06
224.808	-11.06
225.042	-16.06
225.277	-3.06
225.511	-11.06
225.746	8.94
225.98	11.94
226.215	20.94
226.449	12.94
226.683	24.94
226.918	21.94
227.152	25.94
227.387	32.94
227.621	38.94
227.856	39.94
228.09	41.94
228.324	55.94
228.559	68.94
228.793	54.94
229.027	47.94
229.262	57.94
229.496	56.94
229.73	74.94
229.964	76.94
230.199	67.94
230.433	76.94
230.667	83.94
230.901	80.94
231.136	79.94
231.37	68.94
231.604	91.94
231.838	75.94
232.072	68.94
232.306	84.94
232.541	78.94
232.775	72.94
233.009	80.94
233.243	75.94
233.477	76.94
233.711	90.94
233.945	61.94
234.179	71.94
234.413	88.94
234.647	95.94
234.881	78.94
235.115	82.94
235.349	71.94
235.583	92.94
235.817	92.94
236.051	68.94
236.285	76.94
236.519	69.94
236.753	84.94
236.987	82.94
237.221	76.94
237.455	83.94
237.689	78.94
237.922	84.94
238.156	78.94
238.39	66.94
238.624	73.94
238.858	69.94
239.091	72.94
239.325	70.94
239.559	77.94
239.793	73.94
240.027	89.94
240.26	81.94
240.494	68.94
240.728	83.94
240.961	66.94
241.195	63.94
241.429	84.94
241.662	78.94
241.896	72.94
242.13	83.94
242.363	78.94
242.597	81.94
242.83	62.94
243.064	86.94
243.298	83.94
243.531	79.94
243.765	67.94
243.998	83.94
244.232	87.94
244.465	77.94
244.699	92.94
244.932	84.94
245.166	78.94
245.399	79.94
245.633	78.94
245.866	91.94
246.099	91.94
246.333	62.94
246.566	70.94
246.8	70.94
247.033	76.94
247.266	77.94
247.5	84.94
247.733	61.94
247.966	69.94
248.2	84.94
248.433	87.94
248.666	61.94
248.899	82.94
249.133	79.94
249.366	79.94
249.599	77.94
249.832	91.94
250.066	77.94
250.299	79.94
250.532	71.94
250.765	81.94
250.998	94.94
251.231	67.94
251.465	91.94
251.698	85.94
251.931	76.94
252.164	80.94
252.397	86.94
252.63	79.94
252.863	73.94
253.096	76.94
253.329	92.94
253.562	89.94
253.795	95.94
254.028	86.94
254.261	93.94
254.494	73.94
254.727	84.94
254.96	68.94
255.193	58.94
255.426	89.94
255.659	64.94
255.892	70.94
256.124	98.94
256.357	85.94
256.59	74.94
256.823	79.94
257.056	76.94
257.289	80.94
257.521	86.94
257.754	81.94
257.987	80.94
258.22	83.94
258.452	74.94
258.685	72.94
258.918	81.94
259.151	66.94
259.383	80.94
259.616	88.94
259.849	83.94
260.081	99.94
260.314	74.94
260.547	71.94
260.779	77.94
261.012	82.94
261.244	80.94
261.477	92.94
261.71	80.94
261.942	78.94
262.175	80.94
262.407	75.94
262.64	76.94
262.872	79.94
263.105	80.94
263.337	95.94
263.57	94.94
263.802	79.94
264.035	86.94
264.267	87.94
264.499	80.94
264.732	80.94
264.964	67.94
265.197	86.94
265.429	93.94
265.661	85.94
265.894	94.94
266.126	72.94
266.358	73.94
266.591	95.94
266.823	77.94
267.055	86.94
267.287	71.94
267.52	79.94
267.752	83.94
267.984	88.94
268.216	75.94
268.448	81.94
268.681	90.94
268.913	84.94
269.145	75.94
269.377	82.94
269.609	99.94
269.841	86.94
270.073	81.94
270.306	81.94
270.538	73.94
270.77	81.94
271.002	75.94
271.234	86.94
271.466	90.94
271.698	87.94
271.93	88.94
272.162	83.94
272.394	93.94
272.626	85.94
272.858	93.94
273.09	89.94
273.322	70.94
273.553	80.94
273.785	91.94
274.017	75.94
274.249	72.94
274.481	86.94
274.713	76.94
274.945	84.94
275.176	93.94
275.408	80.94
275.64	75.94
275.872	71.94
276.104	78.94
276.335	86.94
276.567	72.94
276.799	86.94
277.031	86.94
277.262	79.94
277.494	85.94
277.726	96.94
277.957	76.94
278.189	81.94
278.421	74.94
278.652	82.94
278.884	88.94
279.115	83.94
279.347	91.94
279.579	98.94
279.81	105.94
280.042	91.94
280.273	88.94
280.505	90.94
280.736	81.94
280.968	79.94
281.199	90.94
281.431	71.94
281.662	87.94
281.894	82.94
282.125	83.94
282.356	77.94
282.588	84.94
282.819	82.94
283.051	79.94
283.282	77.94
283.513	87.94
283.745	91.94
283.976	74.94
284.207	82.94
284.439	78.94
284.67	86.94
284.901	90.94
285.132	80.94
285.364	92.94
285.595	84.94
285.826	87.94
286.057	61.94
286.288	86.94
286.52	98.94
286.751	83.94
286.982	75.94
287.213	82.94
287.444	87.94
287.675	99.94
287.906	74.94
288.138	81.94
288.369	84.94
288.6	82.94
288.831	93.94
289.062	86.94
289.293	95.94
289.524	80.94
289.755	81.94
289.986	98.94
290.217	73.94
290.448	98.94
290.679	74.94
290.91	88.94
291.141	83.94
291.371	77.94
291.602	72.94
291.833	78.94
292.064	81.94
292.295	84.94
292.526	96.94
292.757	73.94
292.987	77.94
293.218	75.94
293.449	75.94
293.68	80.94
293.91	63.94
294.141	83.94
294.372	89.94
294.603	94.94
294.833	77.94
295.064	88.94
295.295	70.94
295.525	78.94
295.756	80.94
295.987	88.94
296.217	80.94
296.448	86.94
296.679	98.94
296.909	81.94
297.14	85.94
297.37	88.94
297.601	74.94
297.831	78.94
298.062	81.94
298.292	78.94
298.523	97.94
298.753	77.94
298.984	79.94
299.214	76.94
299.445	89.94
299.675	73.94
299.905	83.94
300.136	87.94
300.366	79.94
300.597	83.94
300.827	77.94
301.057	89.94
301.288	74.94
301.518	80.94
301.748	93.94
301.979	96.94
302.209	79.94
302.439	79.94
302.669	84.94
302.9	70.94
303.13	80.94
303.36	82.94
303.59	77.94
303.82	85.94
304.051	73.94
304.281	87.94
304.511	85.94
304.741	78.94
304.971	78.94
305.201	85.94
305.431	86.94
305.661	97.94
305.891	102.94
306.121	89.94
306.352	79.94
306.582	87.94
306.812	80.94
307.042	92.94
307.272	78.94
307.502	91.94
307.731	90.94
307.961	101.94
308.191	101.94
308.421	102.94
308.651	84.94
308.881	94.94
309.111	113.94
309.341	100.94
309.571	120.94
309.8	86.94
310.03	98.94
310.26	82.94
310.49	104.94
310.72	83.94
310.949	93.94
311.179	77.94
311.409	63.94
311.639	88.94
311.868	90.94
312.098	84.94
312.328	78.94
312.557	89.94
312.787	92.94
313.017	75.94
313.246	97.94
313.476	79.94
313.706	88.94
313.935	91.94
314.165	87.94
314.394	94.94
314.624	86.94
314.853	75.94
315.083	82.94
315.312	72.94
315.542	81.94
315.771	92.94
316.001	91.94
316.23	75.94
316.46	74.94
316.689	80.94
316.919	90.94
317.148	88.94
317.377	78.94
317.607	86.94
317.836	84.94
318.065	83.94
318.295	88.94
318.524	79.94
318.753	83.94
318.983	80.94
319.212	80.94
319.441	91.94
319.67	90.94
319.9	92.94
320.129	79.94
320.358	66.94
320.587	88.94
320.816	82.94
321.046	80.94
321.275	78.94
321.504	76.94
321.733	81.94
321.962	82.94
322.191	100.94
322.42	82.94
322.649	83.94
322.878	91.94
323.108	77.94
323.337	71.94
323.566	74.94
323.795	71.94
324.024	78.94
324.253	86.94
324.482	78.94
324.71	86.94
324.939	75.94
325.168	77.94
325.397	75.94
325.626	74.94
325.855	79.94
326.084	76.94
326.313	94.94
326.542	84.94
326.77	90.94
326.999	96.94
327.228	99.94
327.457	87.94
327.686	85.94
327.914	84.94
328.143	93.94
328.372	88.94
328.6	75.94
328.829	86.94
329.058	68.94
329.287	90.94
329.515	82.94
329.744	97.94
329.972	87.94
330.201	77.94
330.43	71.94
330.658	76.94
330.887	87.94
331.115	91.94
331.344	79.94
331.572	70.94
331.801	70.94
332.03	83.94
332.258	80.94
332.486	74.94
332.715	77.94
332.943	86.94
333.172	72.94
333.4	93.94
333.629	92.94
333.857	81.94
334.085	78.94
334.314	79.94
334.542	70.94
334.771	69.94
334.999	88.94
335.227	89.94
335.455	78.94
335.684	88.94
335.912	86.94
336.14	76.94
336.369	67.94
336.597	74.94
336.825	98.94
337.053	99.94
337.281	90.94
337.51	86.94
337.738	98.94
337.966	77.94
338.194	74.94
338.422	90.94
338.65	79.94
338.878	80.94
339.106	81.94
339.334	76.94
339.562	96.94
339.79	88.94
340.018	81.94
340.246	83.94
340.474	82.94
340.702	79.94
340.93	92.94
341.158	84.94
341.386	87.94
341.614	94.94
341.842	84.94
342.07	78.94
342.298	74.94
342.526	90.94
342.754	81.94
342.981	76.94
343.209	76.94
343.437	80.94
343.665	72.94
343.893	88.94
344.12	86.94
344.348	73.94
344.576	84.94
344.804	82.94
345.031	77.94
345.259	87.94
345.487	88.94
345.714	91.94
345.942	91.94
346.17	80.94
346.397	86.94
346.625	82.94
346.853	84.94
347.08	84.94
347.308	86.94
347.535	90.94
347.763	84.94
347.99	72.94
348.218	76.94
348.445	84.94
348.673	86.94
348.9	77.94
349.128	86.94
349.355	83.94
349.583	75.94
349.81	83.94
350.037	76.94
350.265	84.94
350.492	88.94
350.72	68.94
350.947	86.94
351.174	79.94
351.402	88.94
351.629	94.94
351.856	81.94
352.083	91.94
352.311	84.94
352.538	76.94
352.765	92.94
352.992	92.94
353.22	88.94
353.447	78.94
353.674	94.94
353.901	90.94
354.128	81.94
354.355	78.94
354.583	80.94
354.81	81.94
355.037	75.94
355.264	101.94
355.491	77.94
355.718	94.94
355.945	86.94
356.172	89.94
356.399	92.94
356.626	83.94
356.853	78.94
357.08	72.94
357.307	79.94
357.534	75.94
357.761	79.94
357.988	66.94
358.215	91.94
358.441	74.94
358.668	81.94
358.895	90.94
359.122	85.94
359.349	76.94
359.576	80.94
359.802	83.94
360.029	74.94
360.256	78.94
360.483	86.94
360.709	85.94
360.936	90.94
361.163	81.94
361.39	75.94
361.616	84.94
361.843	90.94
362.07	90.94
362.296	87.94
362.523	84.94
362.749	85.94
362.976	75.94
363.203	91.94
363.429	79.94
363.656	85.94
363.882	89.94
364.109	85.94
364.335	89.94
364.562	93.94
364.788	77.94
365.015	86.94
365.241	75.94
365.468	76.94
365.694	86.94
365.92	77.94
366.147	77.94
366.373	89.94
366.599	87.94
366.826	92.94
367.052	82.94
367.278	96.94
367.505	90.94
367.731	84.94
367.957	83.94
368.184	67.94
368.41	78.94
368.636	80.94
368.862	80.94
369.089	72.94
369.315	86.94
369.541	74.94
369.767	79.94
369.993	70.94
370.219	93.94
370.445	93.94
370.672	90.94
370.898	86.94
371.124	79.94
371.35	81.94
371.576	84.94
371.802	102.94
372.028	78.94
372.254	87.94
372.48	82.94
372.706	74.94
372.932	83.94
373.158	79.94
373.384	64.94
373.61	91.94
373.835	83.94
374.061	76.94
374.287	80.94
374.513	82.94
374.739	82.94
374.965	66.94
375.191	78.94
375.416	88.94
375.642	88.94
375.868	72.94
376.094	76.94
376.319	79.94
376.545	92.94
376.771	93.94
376.997	82.94
377.222	86.94
377.448	76.94
377.674	82.94
377.899	78.94
378.125	67.94
378.35	90.94
378.576	98.94
378.802	77.94
379.027	82.94
379.253	82.94
379.478	73.94
379.704	95.94
379.929	93.94
380.155	91.94
380.38	84.94
380.606	88.94
380.831	86.94
381.057	79.94
381.282	90.94
381.507	69.94
381.733	88.94
381.958	74.94
382.184	84.94
382.409	84.94
382.634	83.94
382.86	79.94
383.085	99.94
383.31	98.94
383.535	111.94
383.761	98.94
383.986	96.94
384.211	76.94
384.436	78.94
384.662	96.94
384.887	89.94
385.112	95.94
385.337	82.94
385.562	79.94
385.787	76.94
386.013	93.94
386.238	92.94
386.463	80.94
386.688	98.94
386.913	94.94
387.138	88.94
387.363	88.94
387.588	79.94
387.813	80.94
388.038	62.94
388.263	94.94
388.488	92.94
388.713	80.94
388.938	84.94
389.163	89.94
389.387	93.94
389.612	99.94
389.837	83.94
390.062	82.94
390.287	84.94
390.512	86.94
390.736	90.94
390.961	84.94
391.186	88.94
391.411	91.94
391.636	72.94
391.86	83.94
392.085	82.94
392.31	78.94
392.534	84.94
392.759	94.94
392.984	80.94
393.208	84.94
393.433	94.94
393.658	90.94
393.882	92.94
394.107	110.94
394.331	137.94
394.556	158.94
394.78	108.94
395.005	84.94
395.229	81.94
395.454	92.94
395.678	111.94
395.903	132.94
396.127	179.94
396.352	165.94
396.576	95.94
396.801	90.94
397.025	86.94
397.249	97.94
397.474	78.94
397.698	96.94
397.922	79.94
398.147	84.94
398.371	93.94
398.595	89.94
398.82	90.94
399.044	87.94
399.268	89.94
399.492	83.94
399.717	86.94
399.941	81.94
400.165	80.94
400.389	85.94
400.613	78.94
400.837	86.94
401.062	80.94
401.286	93.94
401.51	87.94
401.734	68.94
401.958	76.94
402.182	93.94
402.406	94.94
402.63	85.94
402.854	90.94
403.078	94.94
403.302	94.94
403.526	99.94
403.75	92.94
403.974	76.94
404.198	73.94
404.422	91.94
404.645	93.94
404.869	92.94
405.093	84.94
405.317	88.94
405.541	80.94
405.765	72.94
405.988	83.94
406.212	85.94
406.436	66.94
406.66	88.94
406.883	78.94
407.107	90.94
407.331	88.94
407.555	94.94
407.778	95.94
408.002	86.94
408.226	61.94
408.449	79.94
408.673	78.94
408.896	89.94
409.12	82.94
409.344	79.94
409.567	85.94
409.791	94.94
410.014	86.94
410.238	79.94
410.461	72.94
410.685	88.94
410.908	96.94
411.132	67.94
411.355	80.94
411.578	80.94
411.802	91.94
412.025	82.94
412.249	61.94
412.472	90.94
412.695	76.94
412.919	83.94
413.142	78.94
413.365	76.94
413.589	73.94
413.812	96.94
414.035	95.94
414.258	88.94
414.482	91.94
414.705	88.94
414.928	102.94
415.151	79.94
415.374	91.94
415.597	92.94
415.821	79.94
416.044	80.94
416.267	81.94
416.49	86.94
416.713	83.94
416.936	82.94
417.159	79.94
417.382	70.94
417.605	78.94
417.828	74.94
418.051	78.94
418.274	90.94
418.497	90.94
418.72	95.94
418.943	91.94
419.166	93.94
419.389	82.94
419.611	76.94
419.834	84.94
420.057	90.94
420.28	81.94
420.503	72.94
420.726	84.94
420.948	88.94
421.171	89.94
421.394	92.94
421.617	88.94
421.839	86.94
422.062	80.94
422.285	70.94
422.507	90.94
422.73	73.94
422.953	90.94
423.175	69.94
423.398	78.94
423.621	85.94
423.843	81.94
424.066	86.94
424.288	84.94
424.511	77.94
424.733	74.94
424.956	88.94
425.178	92.94
425.401	91.94
425.623	88.94
425.846	85.94
426.068	87.94
426.291	93.94
426.513	91.94
426.735	76.94
426.958	80.94
427.18	81.94
427.402	77.94
427.625	92.94
427.847	81.94
428.069	85.94
428.292	74.94
428.514	83.94
428.736	79.94
428.958	89.94
429.181	88.94
429.403	73.94
429.625	75.94
429.847	81.94
430.069	84.94
430.292	78.94
430.514	71.94
430.736	81.94
430.958	86.94
431.18	76.94
431.402	80.94
431.624	71.94
431.846	90.94
432.068	80.94
432.29	83.94
432.512	84.94
432.734	84.94
432.956	86.94
433.178	93.94
433.4	85.94
433.622	96.94
433.844	75.94
434.066	88.94
434.287	77.94
434.509	82.94
434.731	88.94
434.953	85.94
435.175	78.94
435.397	71.94
435.618	82.94
435.84	100.94
436.062	77.94
436.284	84.94
436.505	91.94
436.727	84.94
436.949	74.94
437.17	86.94
437.392	81.94
437.614	80.94
437.835	73.94
438.057	94.94
438.278	86.94
438.5	77.94
438.721	89.94
438.943	85.94
439.165	90.94
439.386	85.94
439.608	76.94
439.829	91.94
440.05	84.94
440.272	77.94
440.493	88.94
440.715	86.94
440.936	90.94
441.158	96.94
441.379	93.94
441.6	83.94
441.822	82.94
442.043	92.94
442.264	86.94
442.486	81.94
442.707	78.94
442.928	90.94
443.149	91.94
443.371	88.94
443.592	94.94
443.813	95.94
444.034	91.94
444.255	84.94
444.476	80.94
444.698	82.94
444.919	94.94
445.14	158.94
445.361	132.94
445.582	94.94
445.803	96.94
446.024	98.94
446.245	103.94
446.466	75.94
446.687	85.94
446.908	80.94
447.129	94.94
447.35	75.94
447.571	88.94
447.792	85.94
448.013	93.94
448.234	88.94
448.455	80.94
448.675	98.94
448.896	67.94
449.117	94.94
449.338	78.94
449.559	92.94
449.779	94.94
450	94.94
450.221	90.94
450.442	95.94
450.662	76.94
450.883	97.94
451.104	88.94
451.324	78.94
451.545	81.94
451.766	95.94
451.986	74.94
452.207	78.94
452.428	75.94
452.648	84.94
452.869	80.94
453.089	88.94
453.31	74.94
453.53	84.94
453.751	85.94
453.971	88.94
454.192	86.94
454.412	72.94
454.633	86.94
454.853	85.94
455.073	71.94
455.294	74.94
455.514	86.94
455.734	86.94
455.955	91.94
456.175	85.94
456.395	85.94
456.616	88.94
456.836	87.94
457.056	88.94
457.276	87.94
457.497	86.94
457.717	82.94
457.937	92.94
458.157	95.94
458.377	81.94
458.598	81.94
458.818	86.94
459.038	77.94
459.258	85.94
459.478	79.94
459.698	79.94
459.918	87.94
460.138	88.94
460.358	81.94
460.578	72.94
460.798	90.94
461.018	79.94
461.238	75.94
461.458	88.94
461.678	80.94
461.898	84.94
462.118	93.94
462.338	91.94
462.558	85.94
462.777	86.94
462.997	79.94
463.217	70.94
463.437	78.94
463.657	86.94
463.876	85.94
464.096	81.94
464.316	93.94
464.536	92.94
464.755	75.94
464.975	80.94
465.195	76.94
465.414	87.94
465.634	84.94
465.854	90.94
466.073	94.94
466.293	75.94
466.512	88.94
466.732	87.94
466.951	96.94
467.171	91.94
467.391	92.94
467.61	86.94
467.829	90.94
468.049	88.94
468.268	77.94
468.488	78.94
468.707	91.94
468.927	78.94
469.146	81.94
469.365	88.94
469.585	87.94
469.804	94.94
470.023	80.94
470.243	92.94
470.462	85.94
470.681	98.94
470.901	95.94
471.12	91.94
471.339	73.94
471.558	86.94
471.777	92.94
471.997	82.94
472.216	99.94
472.435	79.94
472.654	83.94
472.873	84.94
473.092	94.94
473.311	76.94
473.53	91.94
473.749	78.94
473.968	90.94
474.187	80.94
474.406	95.94
474.625	100.94
474.844	97.94
475.063	85.94
475.282	99.94
475.501	82.94
475.72	100.94
475.939	92.94
476.158	71.94
476.377	82.94
476.596	88.94
476.814	66.94
477.033	84.94
477.252	75.94
477.471	83.94
477.69	82.94
477.908	76.94
478.127	89.94
478.346	78.94
478.564	76.94
478.783	85.94
479.002	84.94
479.22	88.94
479.439	84.94
479.658	85.94
479.876	87.94
480.095	95.94
480.313	87.94
480.532	80.94
480.751	89.94
480.969	84.94
481.188	86.94
481.406	84.94
481.624	82.94
481.843	89.94
482.061	85.94
482.28	87.94
482.498	88.94
482.717	90.94
482.935	81.94
483.153	82.94
483.372	80.94
483.59	102.94
483.808	86.94
484.027	90.94
484.245	80.94
484.463	84.94
484.681	102.94
484.9	94.94
485.118	95.94
485.336	78.94
485.554	82.94
485.772	93.94
485.99	77.94
486.209	83.94
486.427	88.94
486.645	86.94
486.863	87.94
487.081	94.94
487.299	87.94
487.517	88.94
487.735	95.94
487.953	88.94
488.171	106.94
488.389	87.94
488.607	82.94
488.825	95.94
489.043	75.94
489.261	90.94
489.479	88.94
489.696	84.94
489.914	98.94
490.132	85.94
490.35	98.94
490.568	95.94
490.786	74.94
491.003	70.94
491.221	92.94
491.439	96.94
491.657	97.94
491.874	95.94
492.092	90.94
492.31	105.94
492.527	95.94
492.745	97.94
492.963	96.94
493.18	89.94
493.398	101.94
493.615	79.94
493.833	81.94
494.05	102.94
494.268	100.94
494.485	93.94
494.703	91.94
494.92	93.94
495.138	75.94
495.355	86.94
495.573	100.94
495.79	91.94
496.008	104.94
496.225	95.94
496.442	82.94
496.66	98.94
496.877	88.94
497.094	97.94
497.312	94.94
497.529	95.94
497.746	84.94
497.963	98.94
498.181	86.94
498.398	72.94
498.615	95.94
498.832	90.94
499.049	83.94
499.267	81.94
499.484	88.94
499.701	84.94
499.918	84.94
500.135	80.94
500.352	88.94
500.569	96.94
500.786	86.94
501.003	89.94
501.22	95.94
501.437	85.94
501.654	81.94
501.871	88.94
502.088	89.94
502.305	81.94
502.522	85.94
502.739	69.94
502.956	84.94
503.172	84.94
503.389	82.94
503.606	91.94
503.823	97.94
504.04	92.94
504.256	85.94
504.473	94.94
504.69	81.94
504.907	100.94
505.123	85.94
505.34	79.94
505.557	84.94
505.773	76.94
505.99	82.94
506.207	72.94
506.423	73.94
506.64	71.94
506.856	74.94
507.073	100.94
507.289	94.94
507.506	75.94
507.722	78.94
507.939	87.94
508.155	92.94
508.372	86.94
508.588	80.94
508.805	80.94
509.021	87.94
509.238	91.94
509.454	95.94
509.67	92.94
509.887	80.94
510.103	74.94
510.319	101.94
510.536	76.94
510.752	77.94
510.968	66.94
511.184	76.94
511.401	88.94
511.617	96.94
511.833	76.94
512.049	83.94
512.265	93.94
512.481	87.94
512.698	84.94
512.914	81.94
513.13	94.94
513.346	78.94
513.562	82.94
513.778	82.94
513.994	73.94
514.21	80.94
514.426	76.94
514.642	76.94
514.858	99.94
515.074	71.94
515.29	82.94
515.506	87.94
515.721	79.94
515.937	94.94
516.153	79.94
516.369	76.94
516.585	85.94
516.801	78.94
517.016	79.94
517.232	98.94
517.448	112.94
517.664	94.94
517.879	88.94
518.095	87.94
518.311	84.94
518.527	95.94
518.742	95.94
518.958	83.94
519.173	80.94
519.389	98.94
519.605	84.94
