Data from Coke_Can_Tab_HRD10591_00018.txt Node
Date: Wed Nov 05 15:50:36 EST 2025
User: Yrep
Spectrometer: HR+D1059
Trigger mode: 1
Integration Time (sec): 1.000000E-1
Scans to average: 1
Electric dark correction enabled: true
Nonlinearity correction enabled: false
Boxcar width: 0
XAxis mode: Wavelengths
Number of Pixels in Spectrum: 2048
>>>>>Begin Spectral Data<<<<<
223.165	-24.75
223.4	-24.75
223.635	-24.75
223.869	-15.75
224.104	-5.75
224.338	-9.75
224.573	-20.75
224.808	-7.75
225.042	-4.75
225.277	-2.75
225.511	-2.75
225.746	-10.75
225.98	1.25
226.215	15.25
226.449	7.25
226.683	15.25
226.918	27.25
227.152	39.25
227.387	50.25
227.621	40.25
227.856	50.25
228.09	58.25
228.324	43.25
228.559	45.25
228.793	69.25
229.027	61.25
229.262	69.25
229.496	51.25
229.73	70.25
229.964	80.25
230.199	84.25
230.433	71.25
230.667	70.25
230.901	78.25
231.136	84.25
231.37	92.25
231.604	75.25
231.838	79.25
232.072	84.25
232.306	78.25
232.541	77.25
232.775	84.25
233.009	89.25
233.243	82.25
233.477	79.25
233.711	87.25
233.945	88.25
234.179	93.25
234.413	86.25
234.647	78.25
234.881	83.25
235.115	71.25
235.349	64.25
235.583	88.25
235.817	78.25
236.051	92.25
236.285	76.25
236.519	71.25
236.753	71.25
236.987	90.25
237.221	82.25
237.455	75.25
237.689	74.25
237.922	70.25
238.156	64.25
238.39	78.25
238.624	90.25
238.858	70.25
239.091	81.25
239.325	76.25
239.559	80.25
239.793	74.25
240.027	73.25
240.26	69.25
240.494	63.25
240.728	70.25
240.961	80.25
241.195	82.25
241.429	74.25
241.662	63.25
241.896	81.25
242.13	70.25
242.363	87.25
242.597	78.25
242.83	92.25
243.064	89.25
243.298	61.25
243.531	67.25
243.765	82.25
243.998	70.25
244.232	86.25
244.465	88.25
244.699	79.25
244.932	98.25
245.166	84.25
245.399	73.25
245.633	85.25
245.866	80.25
246.099	68.25
246.333	87.25
246.566	77.25
246.8	87.25
247.033	87.25
247.266	77.25
247.5	76.25
247.733	78.25
247.966	90.25
248.2	68.25
248.433	78.25
248.666	71.25
248.899	79.25
249.133	69.25
249.366	88.25
249.599	87.25
249.832	71.25
250.066	81.25
250.299	71.25
250.532	78.25
250.765	93.25
250.998	84.25
251.231	74.25
251.465	96.25
251.698	86.25
251.931	78.25
252.164	75.25
252.397	84.25
252.63	70.25
252.863	86.25
253.096	91.25
253.329	81.25
253.562	72.25
253.795	84.25
254.028	77.25
254.261	67.25
254.494	91.25
254.727	72.25
254.96	76.25
255.193	89.25
255.426	70.25
255.659	84.25
255.892	90.25
256.124	76.25
256.357	81.25
256.59	72.25
256.823	83.25
257.056	86.25
257.289	79.25
257.521	82.25
257.754	78.25
257.987	74.25
258.22	96.25
258.452	97.25
258.685	85.25
258.918	81.25
259.151	66.25
259.383	79.25
259.616	82.25
259.849	84.25
260.081	72.25
260.314	84.25
260.547	82.25
260.779	80.25
261.012	95.25
261.244	86.25
261.477	84.25
261.71	74.25
261.942	70.25
262.175	71.25
262.407	71.25
262.64	78.25
262.872	79.25
263.105	84.25
263.337	84.25
263.57	81.25
263.802	91.25
264.035	90.25
264.267	72.25
264.499	92.25
264.732	82.25
264.964	67.25
265.197	90.25
265.429	78.25
265.661	75.25
265.894	87.25
266.126	74.25
266.358	88.25
266.591	88.25
266.823	70.25
267.055	79.25
267.287	70.25
267.52	70.25
267.752	80.25
267.984	74.25
268.216	73.25
268.448	83.25
268.681	86.25
268.913	86.25
269.145	93.25
269.377	70.25
269.609	90.25
269.841	78.25
270.073	78.25
270.306	67.25
270.538	84.25
270.77	85.25
271.002	83.25
271.234	85.25
271.466	84.25
271.698	74.25
271.93	75.25
272.162	92.25
272.394	94.25
272.626	95.25
272.858	84.25
273.09	69.25
273.322	82.25
273.553	93.25
273.785	91.25
274.017	94.25
274.249	94.25
274.481	79.25
274.713	80.25
274.945	95.25
275.176	90.25
275.408	99.25
275.64	88.25
275.872	90.25
276.104	82.25
276.335	77.25
276.567	95.25
276.799	70.25
277.031	76.25
277.262	77.25
277.494	86.25
277.726	98.25
277.957	86.25
278.189	87.25
278.421	86.25
278.652	71.25
278.884	83.25
279.115	84.25
279.347	88.25
279.579	100.25
279.81	100.25
280.042	92.25
280.273	89.25
280.505	92.25
280.736	86.25
280.968	87.25
281.199	76.25
281.431	82.25
281.662	83.25
281.894	87.25
282.125	74.25
282.356	76.25
282.588	91.25
282.819	91.25
283.051	88.25
283.282	72.25
283.513	95.25
283.745	74.25
283.976	75.25
284.207	74.25
284.439	95.25
284.67	94.25
284.901	106.25
285.132	93.25
285.364	91.25
285.595	90.25
285.826	100.25
286.057	92.25
286.288	88.25
286.52	93.25
286.751	73.25
286.982	94.25
287.213	86.25
287.444	88.25
287.675	77.25
287.906	83.25
288.138	88.25
288.369	94.25
288.6	85.25
288.831	87.25
289.062	84.25
289.293	90.25
289.524	84.25
289.755	76.25
289.986	74.25
290.217	88.25
290.448	87.25
290.679	81.25
290.91	74.25
291.141	96.25
291.371	90.25
291.602	90.25
291.833	79.25
292.064	71.25
292.295	80.25
292.526	70.25
292.757	80.25
292.987	75.25
293.218	96.25
293.449	86.25
293.68	75.25
293.91	87.25
294.141	95.25
294.372	87.25
294.603	91.25
294.833	104.25
295.064	92.25
295.295	100.25
295.525	88.25
295.756	91.25
295.987	85.25
296.217	90.25
296.448	85.25
296.679	83.25
296.909	89.25
297.14	87.25
297.37	87.25
297.601	95.25
297.831	75.25
298.062	86.25
298.292	82.25
298.523	99.25
298.753	94.25
298.984	80.25
299.214	96.25
299.445	87.25
299.675	100.25
299.905	84.25
300.136	88.25
300.366	90.25
300.597	90.25
300.827	91.25
301.057	76.25
301.288	84.25
301.518	95.25
301.748	91.25
301.979	87.25
302.209	78.25
302.439	86.25
302.669	94.25
302.9	81.25
303.13	79.25
303.36	77.25
303.59	87.25
303.82	91.25
304.051	91.25
304.281	88.25
304.511	98.25
304.741	89.25
304.971	78.25
305.201	76.25
305.431	86.25
305.661	73.25
305.891	74.25
306.121	92.25
306.352	80.25
306.582	90.25
306.812	82.25
307.042	78.25
307.272	95.25
307.502	93.25
307.731	102.25
307.961	98.25
308.191	90.25
308.421	101.25
308.651	103.25
308.881	88.25
309.111	102.25
309.341	116.25
309.571	108.25
309.8	92.25
310.03	75.25
310.26	75.25
310.49	99.25
310.72	102.25
310.949	88.25
311.179	94.25
311.409	90.25
311.639	83.25
311.868	86.25
312.098	80.25
312.328	74.25
312.557	90.25
312.787	73.25
313.017	93.25
313.246	91.25
313.476	83.25
313.706	79.25
313.935	79.25
314.165	87.25
314.394	74.25
314.624	78.25
314.853	80.25
315.083	92.25
315.312	94.25
315.542	86.25
315.771	89.25
316.001	78.25
316.23	99.25
316.46	83.25
316.689	75.25
316.919	74.25
317.148	80.25
317.377	95.25
317.607	92.25
317.836	98.25
318.065	73.25
318.295	90.25
318.524	94.25
318.753	95.25
318.983	90.25
319.212	85.25
319.441	79.25
319.67	85.25
319.9	91.25
320.129	84.25
320.358	85.25
320.587	88.25
320.816	89.25
321.046	81.25
321.275	90.25
321.504	71.25
321.733	76.25
321.962	74.25
322.191	94.25
322.42	78.25
322.649	86.25
322.878	84.25
323.108	89.25
323.337	93.25
323.566	83.25
323.795	82.25
324.024	81.25
324.253	88.25
324.482	80.25
324.71	83.25
324.939	91.25
325.168	84.25
325.397	88.25
325.626	76.25
325.855	80.25
326.084	79.25
326.313	93.25
326.542	77.25
326.77	89.25
326.999	87.25
327.228	70.25
327.457	93.25
327.686	90.25
327.914	83.25
328.143	96.25
328.372	83.25
328.6	74.25
328.829	94.25
329.058	71.25
329.287	79.25
329.515	91.25
329.744	84.25
329.972	70.25
330.201	73.25
330.43	78.25
330.658	78.25
330.887	66.25
331.115	83.25
331.344	84.25
331.572	89.25
331.801	79.25
332.03	78.25
332.258	78.25
332.486	70.25
332.715	72.25
332.943	84.25
333.172	89.25
333.4	77.25
333.629	78.25
333.857	73.25
334.085	77.25
334.314	85.25
334.542	90.25
334.771	97.25
334.999	77.25
335.227	86.25
335.455	95.25
335.684	97.25
335.912	83.25
336.14	86.25
336.369	61.25
336.597	72.25
336.825	73.25
337.053	88.25
337.281	80.25
337.51	78.25
337.738	81.25
337.966	77.25
338.194	86.25
338.422	87.25
338.65	88.25
338.878	87.25
339.106	84.25
339.334	84.25
339.562	78.25
339.79	87.25
340.018	78.25
340.246	85.25
340.474	90.25
340.702	78.25
340.93	71.25
341.158	79.25
341.386	70.25
341.614	79.25
341.842	85.25
342.07	80.25
342.298	78.25
342.526	85.25
342.754	92.25
342.981	73.25
343.209	84.25
343.437	102.25
343.665	70.25
343.893	78.25
344.12	81.25
344.348	78.25
344.576	90.25
344.804	94.25
345.031	77.25
345.259	66.25
345.487	84.25
345.714	80.25
345.942	86.25
346.17	80.25
346.397	78.25
346.625	74.25
346.853	93.25
347.08	82.25
347.308	82.25
347.535	83.25
347.763	81.25
347.99	92.25
348.218	90.25
348.445	73.25
348.673	84.25
348.9	90.25
349.128	89.25
349.355	94.25
349.583	76.25
349.81	88.25
350.037	78.25
350.265	77.25
350.492	89.25
350.72	76.25
350.947	78.25
351.174	85.25
351.402	76.25
351.629	86.25
351.856	91.25
352.083	83.25
352.311	79.25
352.538	85.25
352.765	75.25
352.992	76.25
353.22	94.25
353.447	90.25
353.674	92.25
353.901	80.25
354.128	91.25
354.355	84.25
354.583	75.25
354.81	87.25
355.037	79.25
355.264	80.25
355.491	92.25
355.718	86.25
355.945	78.25
356.172	86.25
356.399	70.25
356.626	87.25
356.853	82.25
357.08	86.25
357.307	71.25
357.534	92.25
357.761	82.25
357.988	82.25
358.215	79.25
358.441	88.25
358.668	87.25
358.895	92.25
359.122	82.25
359.349	82.25
359.576	78.25
359.802	87.25
360.029	86.25
360.256	85.25
360.483	94.25
360.709	75.25
360.936	87.25
361.163	89.25
361.39	85.25
361.616	95.25
361.843	82.25
362.07	78.25
362.296	90.25
362.523	73.25
362.749	89.25
362.976	78.25
363.203	89.25
363.429	80.25
363.656	86.25
363.882	79.25
364.109	82.25
364.335	90.25
364.562	75.25
364.788	84.25
365.015	86.25
365.241	87.25
365.468	86.25
365.694	91.25
365.92	71.25
366.147	90.25
366.373	72.25
366.599	76.25
366.826	85.25
367.052	89.25
367.278	73.25
367.505	77.25
367.731	87.25
367.957	89.25
368.184	83.25
368.41	102.25
368.636	75.25
368.862	78.25
369.089	79.25
369.315	88.25
369.541	88.25
369.767	87.25
369.993	70.25
370.219	56.25
370.445	79.25
370.672	70.25
370.898	75.25
371.124	87.25
371.35	80.25
371.576	91.25
371.802	87.25
372.028	85.25
372.254	80.25
372.48	88.25
372.706	81.25
372.932	82.25
373.158	82.25
373.384	91.25
373.61	71.25
373.835	87.25
374.061	83.25
374.287	87.25
374.513	85.25
374.739	96.25
374.965	100.25
375.191	86.25
375.416	90.25
375.642	84.25
375.868	88.25
376.094	77.25
376.319	80.25
376.545	71.25
376.771	78.25
376.997	66.25
377.222	73.25
377.448	79.25
377.674	81.25
377.899	74.25
378.125	80.25
378.35	75.25
378.576	76.25
378.802	74.25
379.027	83.25
379.253	86.25
379.478	72.25
379.704	89.25
379.929	92.25
380.155	74.25
380.38	89.25
380.606	79.25
380.831	68.25
381.057	80.25
381.282	80.25
381.507	87.25
381.733	82.25
381.958	80.25
382.184	84.25
382.409	82.25
382.634	80.25
382.86	91.25
383.085	86.25
383.31	85.25
383.535	95.25
383.761	106.25
383.986	95.25
384.211	91.25
384.436	87.25
384.662	88.25
384.887	82.25
385.112	80.25
385.337	76.25
385.562	93.25
385.787	83.25
386.013	78.25
386.238	86.25
386.463	87.25
386.688	88.25
386.913	77.25
387.138	90.25
387.363	85.25
387.588	88.25
387.813	87.25
388.038	87.25
388.263	76.25
388.488	82.25
388.713	80.25
388.938	62.25
389.163	84.25
389.387	75.25
389.612	85.25
389.837	86.25
390.062	83.25
390.287	96.25
390.512	101.25
390.736	87.25
390.961	81.25
391.186	87.25
391.411	77.25
391.636	74.25
391.86	90.25
392.085	67.25
392.31	85.25
392.534	81.25
392.759	81.25
392.984	81.25
393.208	79.25
393.433	81.25
393.658	87.25
393.882	92.25
394.107	118.25
394.331	157.25
394.556	172.25
394.78	108.25
395.005	74.25
395.229	81.25
395.454	91.25
395.678	104.25
395.903	133.25
396.127	173.25
396.352	181.25
396.576	111.25
396.801	90.25
397.025	80.25
397.249	85.25
397.474	94.25
397.698	77.25
397.922	80.25
398.147	71.25
398.371	88.25
398.595	72.25
398.82	78.25
399.044	73.25
399.268	71.25
399.492	90.25
399.717	66.25
399.941	73.25
400.165	72.25
400.389	80.25
400.613	82.25
400.837	89.25
401.062	74.25
401.286	79.25
401.51	84.25
401.734	76.25
401.958	71.25
402.182	67.25
402.406	88.25
402.63	94.25
402.854	82.25
403.078	79.25
403.302	80.25
403.526	84.25
403.75	76.25
403.974	65.25
404.198	80.25
404.422	87.25
404.645	82.25
404.869	71.25
405.093	83.25
405.317	94.25
405.541	87.25
405.765	78.25
405.988	86.25
406.212	74.25
406.436	74.25
406.66	81.25
406.883	84.25
407.107	83.25
407.331	82.25
407.555	71.25
407.778	84.25
408.002	84.25
408.226	86.25
408.449	83.25
408.673	84.25
408.896	80.25
409.12	77.25
409.344	86.25
409.567	66.25
409.791	75.25
410.014	96.25
410.238	67.25
410.461	67.25
410.685	78.25
410.908	90.25
411.132	84.25
411.355	87.25
411.578	88.25
411.802	87.25
412.025	83.25
412.249	77.25
412.472	90.25
412.695	86.25
412.919	88.25
413.142	75.25
413.365	90.25
413.589	66.25
413.812	84.25
414.035	80.25
414.258	72.25
414.482	86.25
414.705	85.25
414.928	89.25
415.151	92.25
415.374	91.25
415.597	73.25
415.821	92.25
416.044	71.25
416.267	79.25
416.49	68.25
416.713	74.25
416.936	91.25
417.159	80.25
417.382	66.25
417.605	72.25
417.828	87.25
418.051	78.25
418.274	83.25
418.497	94.25
418.72	84.25
418.943	92.25
419.166	89.25
419.389	78.25
419.611	89.25
419.834	79.25
420.057	92.25
420.28	77.25
420.503	86.25
420.726	75.25
420.948	70.25
421.171	82.25
421.394	90.25
421.617	90.25
421.839	82.25
422.062	76.25
422.285	76.25
422.507	88.25
422.73	81.25
422.953	99.25
423.175	92.25
423.398	81.25
423.621	72.25
423.843	76.25
424.066	76.25
424.288	86.25
424.511	84.25
424.733	84.25
424.956	80.25
425.178	86.25
425.401	88.25
425.623	84.25
425.846	88.25
426.068	79.25
426.291	74.25
426.513	78.25
426.735	87.25
426.958	84.25
427.18	82.25
427.402	72.25
427.625	68.25
427.847	75.25
428.069	88.25
428.292	76.25
428.514	90.25
428.736	92.25
428.958	94.25
429.181	84.25
429.403	84.25
429.625	76.25
429.847	96.25
430.069	86.25
430.292	80.25
430.514	96.25
430.736	81.25
430.958	77.25
431.18	86.25
431.402	99.25
431.624	86.25
431.846	79.25
432.068	89.25
432.29	62.25
432.512	79.25
432.734	82.25
432.956	78.25
433.178	94.25
433.4	88.25
433.622	89.25
433.844	76.25
434.066	77.25
434.287	95.25
434.509	89.25
434.731	78.25
434.953	74.25
435.175	82.25
435.397	92.25
435.618	96.25
435.84	86.25
436.062	78.25
436.284	86.25
436.505	80.25
436.727	70.25
436.949	88.25
437.17	87.25
437.392	82.25
437.614	72.25
437.835	52.25
438.057	77.25
438.278	86.25
438.5	88.25
438.721	89.25
438.943	94.25
439.165	91.25
439.386	73.25
439.608	75.25
439.829	87.25
440.05	87.25
440.272	73.25
440.493	78.25
440.715	87.25
440.936	84.25
441.158	89.25
441.379	82.25
441.6	89.25
441.822	88.25
442.043	94.25
442.264	73.25
442.486	86.25
442.707	82.25
442.928	70.25
443.149	92.25
443.371	78.25
443.592	91.25
443.813	86.25
444.034	70.25
444.255	88.25
444.476	84.25
444.698	86.25
444.919	87.25
445.14	143.25
445.361	110.25
445.582	70.25
445.803	84.25
446.024	72.25
446.245	90.25
446.466	86.25
446.687	86.25
446.908	79.25
447.129	80.25
447.35	74.25
447.571	91.25
447.792	98.25
448.013	99.25
448.234	87.25
448.455	70.25
448.675	82.25
448.896	84.25
449.117	78.25
449.338	73.25
449.559	89.25
449.779	82.25
450	95.25
450.221	83.25
450.442	74.25
450.662	94.25
450.883	91.25
451.104	77.25
451.324	75.25
451.545	74.25
451.766	80.25
451.986	85.25
452.207	90.25
452.428	91.25
452.648	78.25
452.869	75.25
453.089	83.25
453.31	88.25
453.53	80.25
453.751	90.25
453.971	82.25
454.192	83.25
454.412	88.25
454.633	99.25
454.853	81.25
455.073	70.25
455.294	75.25
455.514	94.25
455.734	87.25
455.955	70.25
456.175	85.25
456.395	94.25
456.616	95.25
456.836	99.25
457.056	96.25
457.276	80.25
457.497	83.25
457.717	79.25
457.937	95.25
458.157	78.25
458.377	70.25
458.598	78.25
458.818	87.25
459.038	70.25
459.258	64.25
459.478	85.25
459.698	78.25
459.918	78.25
460.138	73.25
460.358	83.25
460.578	75.25
460.798	90.25
461.018	89.25
461.238	84.25
461.458	76.25
461.678	82.25
461.898	65.25
462.118	70.25
462.338	79.25
462.558	94.25
462.777	85.25
462.997	70.25
463.217	75.25
463.437	92.25
463.657	84.25
463.876	87.25
464.096	79.25
464.316	68.25
464.536	68.25
464.755	77.25
464.975	93.25
465.195	80.25
465.414	84.25
465.634	82.25
465.854	76.25
466.073	84.25
466.293	78.25
466.512	77.25
466.732	100.25
466.951	92.25
467.171	90.25
467.391	88.25
467.61	96.25
467.829	79.25
468.049	89.25
468.268	96.25
468.488	72.25
468.707	93.25
468.927	106.25
469.146	82.25
469.365	76.25
469.585	87.25
469.804	82.25
470.023	87.25
470.243	93.25
470.462	91.25
470.681	86.25
470.901	69.25
471.12	100.25
471.339	90.25
471.558	91.25
471.777	85.25
471.997	92.25
472.216	85.25
472.435	84.25
472.654	86.25
472.873	98.25
473.092	95.25
473.311	86.25
473.53	84.25
473.749	83.25
473.968	95.25
474.187	79.25
474.406	77.25
474.625	72.25
474.844	85.25
475.063	96.25
475.282	92.25
475.501	90.25
475.72	87.25
475.939	84.25
476.158	78.25
476.377	95.25
476.596	94.25
476.814	89.25
477.033	78.25
477.252	73.25
477.471	71.25
477.69	84.25
477.908	95.25
478.127	86.25
478.346	97.25
478.564	88.25
478.783	83.25
479.002	64.25
479.22	93.25
479.439	81.25
479.658	81.25
479.876	96.25
480.095	78.25
480.313	92.25
480.532	76.25
480.751	61.25
480.969	76.25
481.188	72.25
481.406	78.25
481.624	72.25
481.843	83.25
482.061	74.25
482.28	95.25
482.498	84.25
482.717	79.25
482.935	82.25
483.153	93.25
483.372	94.25
483.59	98.25
483.808	94.25
484.027	87.25
484.245	87.25
484.463	83.25
484.681	94.25
484.9	97.25
485.118	86.25
485.336	86.25
485.554	87.25
485.772	92.25
485.99	81.25
486.209	97.25
486.427	81.25
486.645	70.25
486.863	86.25
487.081	83.25
487.299	89.25
487.517	80.25
487.735	78.25
487.953	89.25
488.171	93.25
488.389	88.25
488.607	90.25
488.825	84.25
489.043	76.25
489.261	79.25
489.479	96.25
489.696	84.25
489.914	77.25
490.132	96.25
490.35	92.25
490.568	78.25
490.786	88.25
491.003	88.25
491.221	102.25
491.439	95.25
491.657	83.25
491.874	93.25
492.092	104.25
492.31	84.25
492.527	92.25
492.745	93.25
492.963	91.25
493.18	101.25
493.398	97.25
493.615	84.25
493.833	89.25
494.05	90.25
494.268	90.25
494.485	100.25
494.703	98.25
494.92	100.25
495.138	96.25
495.355	106.25
495.573	86.25
495.79	83.25
496.008	93.25
496.225	90.25
496.442	90.25
496.66	101.25
496.877	93.25
497.094	86.25
497.312	102.25
497.529	79.25
497.746	75.25
497.963	89.25
498.181	97.25
498.398	96.25
498.615	74.25
498.832	85.25
499.049	80.25
499.267	93.25
499.484	92.25
499.701	67.25
499.918	94.25
500.135	84.25
500.352	79.25
500.569	98.25
500.786	80.25
501.003	77.25
501.22	94.25
501.437	79.25
501.654	90.25
501.871	81.25
502.088	76.25
502.305	79.25
502.522	67.25
502.739	75.25
502.956	83.25
503.172	84.25
503.389	91.25
503.606	74.25
503.823	86.25
504.04	94.25
504.256	89.25
504.473	82.25
504.69	73.25
504.907	75.25
505.123	83.25
505.34	86.25
505.557	85.25
505.773	92.25
505.99	86.25
506.207	72.25
506.423	74.25
506.64	90.25
506.856	86.25
507.073	77.25
507.289	65.25
507.506	75.25
507.722	80.25
507.939	79.25
508.155	73.25
508.372	85.25
508.588	85.25
508.805	78.25
509.021	85.25
509.238	86.25
509.454	69.25
509.67	80.25
509.887	73.25
510.103	95.25
510.319	100.25
510.536	91.25
510.752	83.25
510.968	96.25
511.184	87.25
511.401	87.25
511.617	79.25
511.833	79.25
512.049	90.25
512.265	82.25
512.481	85.25
512.698	80.25
512.914	76.25
513.13	86.25
513.346	90.25
513.562	85.25
513.778	84.25
513.994	98.25
514.21	79.25
514.426	85.25
514.642	86.25
514.858	85.25
515.074	86.25
515.29	90.25
515.506	78.25
515.721	69.25
515.937	91.25
516.153	87.25
516.369	76.25
516.585	85.25
516.801	91.25
517.016	87.25
517.232	85.25
517.448	103.25
517.664	74.25
517.879	80.25
518.095	80.25
518.311	83.25
518.527	106.25
518.742	93.25
518.958	107.25
519.173	88.25
519.389	84.25
519.605	82.25
