Data from Coke_Can_Tab_HRD10591_00010.txt Node
Date: Wed Nov 05 15:50:32 EST 2025
User: Yrep
Spectrometer: HR+D1059
Trigger mode: 1
Integration Time (sec): 1.000000E-1
Scans to average: 1
Electric dark correction enabled: true
Nonlinearity correction enabled: false
Boxcar width: 0
XAxis mode: Wavelengths
Number of Pixels in Spectrum: 2048
>>>>>Begin Spectral Data<<<<<
223.165	-17.44
223.4	-17.44
223.635	-17.44
223.869	-19.44
224.104	-13.44
224.338	-22.44
224.573	-7.44
224.808	-22.44
225.042	2.56
225.277	-3.44
225.511	-9.44
225.746	5.56
225.98	5.56
226.215	13.56
226.449	26.56
226.683	17.56
226.918	17.56
227.152	26.56
227.387	28.56
227.621	38.56
227.856	56.56
228.09	39.56
228.324	50.56
228.559	51.56
228.793	59.56
229.027	81.56
229.262	62.56
229.496	64.56
229.73	66.56
229.964	87.56
230.199	74.56
230.433	72.56
230.667	70.56
230.901	64.56
231.136	63.56
231.37	68.56
231.604	78.56
231.838	76.56
232.072	83.56
232.306	76.56
232.541	70.56
232.775	85.56
233.009	74.56
233.243	76.56
233.477	77.56
233.711	76.56
233.945	74.56
234.179	83.56
234.413	80.56
234.647	84.56
234.881	69.56
235.115	68.56
235.349	87.56
235.583	72.56
235.817	66.56
236.051	74.56
236.285	64.56
236.519	71.56
236.753	71.56
236.987	79.56
237.221	75.56
237.455	77.56
237.689	80.56
237.922	78.56
238.156	76.56
238.39	65.56
238.624	69.56
238.858	84.56
239.091	82.56
239.325	85.56
239.559	78.56
239.793	70.56
240.027	74.56
240.26	68.56
240.494	73.56
240.728	77.56
240.961	78.56
241.195	61.56
241.429	60.56
241.662	84.56
241.896	75.56
242.13	74.56
242.363	72.56
242.597	77.56
242.83	85.56
243.064	95.56
243.298	81.56
243.531	69.56
243.765	71.56
243.998	76.56
244.232	78.56
244.465	83.56
244.699	72.56
244.932	77.56
245.166	82.56
245.399	66.56
245.633	64.56
245.866	77.56
246.099	69.56
246.333	60.56
246.566	76.56
246.8	82.56
247.033	64.56
247.266	72.56
247.5	84.56
247.733	72.56
247.966	68.56
248.2	72.56
248.433	64.56
248.666	67.56
248.899	83.56
249.133	79.56
249.366	82.56
249.599	72.56
249.832	81.56
250.066	87.56
250.299	73.56
250.532	78.56
250.765	75.56
250.998	70.56
251.231	65.56
251.465	89.56
251.698	72.56
251.931	59.56
252.164	74.56
252.397	73.56
252.63	79.56
252.863	70.56
253.096	76.56
253.329	68.56
253.562	74.56
253.795	72.56
254.028	59.56
254.261	81.56
254.494	87.56
254.727	74.56
254.96	83.56
255.193	84.56
255.426	72.56
255.659	90.56
255.892	74.56
256.124	84.56
256.357	76.56
256.59	75.56
256.823	83.56
257.056	93.56
257.289	86.56
257.521	88.56
257.754	84.56
257.987	82.56
258.22	66.56
258.452	69.56
258.685	72.56
258.918	66.56
259.151	81.56
259.383	87.56
259.616	77.56
259.849	78.56
260.081	85.56
260.314	77.56
260.547	75.56
260.779	81.56
261.012	86.56
261.244	69.56
261.477	81.56
261.71	67.56
261.942	90.56
262.175	80.56
262.407	70.56
262.64	87.56
262.872	70.56
263.105	94.56
263.337	84.56
263.57	72.56
263.802	79.56
264.035	77.56
264.267	91.56
264.499	77.56
264.732	78.56
264.964	75.56
265.197	72.56
265.429	82.56
265.661	83.56
265.894	74.56
266.126	74.56
266.358	78.56
266.591	90.56
266.823	72.56
267.055	75.56
267.287	74.56
267.52	71.56
267.752	86.56
267.984	84.56
268.216	62.56
268.448	77.56
268.681	86.56
268.913	107.56
269.145	92.56
269.377	68.56
269.609	71.56
269.841	72.56
270.073	73.56
270.306	74.56
270.538	86.56
270.77	84.56
271.002	73.56
271.234	74.56
271.466	76.56
271.698	74.56
271.93	61.56
272.162	76.56
272.394	69.56
272.626	80.56
272.858	86.56
273.09	80.56
273.322	73.56
273.553	74.56
273.785	78.56
274.017	82.56
274.249	61.56
274.481	80.56
274.713	96.56
274.945	88.56
275.176	74.56
275.408	88.56
275.64	88.56
275.872	80.56
276.104	66.56
276.335	76.56
276.567	68.56
276.799	86.56
277.031	90.56
277.262	74.56
277.494	75.56
277.726	76.56
277.957	82.56
278.189	84.56
278.421	84.56
278.652	72.56
278.884	71.56
279.115	94.56
279.347	88.56
279.579	93.56
279.81	102.56
280.042	96.56
280.273	99.56
280.505	86.56
280.736	85.56
280.968	86.56
281.199	86.56
281.431	82.56
281.662	85.56
281.894	91.56
282.125	83.56
282.356	78.56
282.588	65.56
282.819	92.56
283.051	89.56
283.282	75.56
283.513	79.56
283.745	78.56
283.976	71.56
284.207	85.56
284.439	81.56
284.67	84.56
284.901	85.56
285.132	82.56
285.364	90.56
285.595	94.56
285.826	82.56
286.057	96.56
286.288	85.56
286.52	68.56
286.751	68.56
286.982	78.56
287.213	84.56
287.444	77.56
287.675	70.56
287.906	82.56
288.138	95.56
288.369	83.56
288.6	83.56
288.831	94.56
289.062	81.56
289.293	71.56
289.524	83.56
289.755	71.56
289.986	74.56
290.217	69.56
290.448	81.56
290.679	81.56
290.91	69.56
291.141	80.56
291.371	74.56
291.602	72.56
291.833	83.56
292.064	70.56
292.295	70.56
292.526	83.56
292.757	86.56
292.987	93.56
293.218	72.56
293.449	85.56
293.68	88.56
293.91	80.56
294.141	81.56
294.372	79.56
294.603	92.56
294.833	78.56
295.064	66.56
295.295	78.56
295.525	79.56
295.756	78.56
295.987	84.56
296.217	82.56
296.448	79.56
296.679	72.56
296.909	81.56
297.14	81.56
297.37	83.56
297.601	84.56
297.831	90.56
298.062	79.56
298.292	73.56
298.523	96.56
298.753	73.56
298.984	77.56
299.214	77.56
299.445	78.56
299.675	84.56
299.905	74.56
300.136	80.56
300.366	77.56
300.597	90.56
300.827	84.56
301.057	91.56
301.288	78.56
301.518	74.56
301.748	83.56
301.979	102.56
302.209	77.56
302.439	85.56
302.669	100.56
302.9	69.56
303.13	69.56
303.36	78.56
303.59	76.56
303.82	87.56
304.051	88.56
304.281	84.56
304.511	87.56
304.741	76.56
304.971	80.56
305.201	82.56
305.431	83.56
305.661	96.56
305.891	84.56
306.121	91.56
306.352	77.56
306.582	77.56
306.812	93.56
307.042	77.56
307.272	95.56
307.502	82.56
307.731	96.56
307.961	81.56
308.191	92.56
308.421	104.56
308.651	84.56
308.881	102.56
309.111	95.56
309.341	121.56
309.571	106.56
309.8	88.56
310.03	91.56
310.26	81.56
310.49	86.56
310.72	77.56
310.949	81.56
311.179	74.56
311.409	81.56
311.639	80.56
311.868	84.56
312.098	80.56
312.328	88.56
312.557	84.56
312.787	77.56
313.017	74.56
313.246	83.56
313.476	98.56
313.706	78.56
313.935	78.56
314.165	81.56
314.394	96.56
314.624	77.56
314.853	76.56
315.083	78.56
315.312	73.56
315.542	70.56
315.771	74.56
316.001	75.56
316.23	89.56
316.46	72.56
316.689	80.56
316.919	83.56
317.148	87.56
317.377	77.56
317.607	102.56
317.836	88.56
318.065	89.56
318.295	85.56
318.524	87.56
318.753	98.56
318.983	98.56
319.212	78.56
319.441	81.56
319.67	77.56
319.9	78.56
320.129	88.56
320.358	93.56
320.587	82.56
320.816	69.56
321.046	86.56
321.275	86.56
321.504	77.56
321.733	94.56
321.962	90.56
322.191	81.56
322.42	79.56
322.649	92.56
322.878	82.56
323.108	82.56
323.337	74.56
323.566	93.56
323.795	90.56
324.024	91.56
324.253	72.56
324.482	78.56
324.71	78.56
324.939	76.56
325.168	86.56
325.397	85.56
325.626	84.56
325.855	83.56
326.084	81.56
326.313	80.56
326.542	77.56
326.77	75.56
326.999	69.56
327.228	89.56
327.457	79.56
327.686	88.56
327.914	83.56
328.143	86.56
328.372	84.56
328.6	84.56
328.829	74.56
329.058	82.56
329.287	76.56
329.515	73.56
329.744	74.56
329.972	67.56
330.201	76.56
330.43	73.56
330.658	74.56
330.887	90.56
331.115	87.56
331.344	83.56
331.572	74.56
331.801	96.56
332.03	69.56
332.258	76.56
332.486	95.56
332.715	96.56
332.943	88.56
333.172	86.56
333.4	87.56
333.629	84.56
333.857	78.56
334.085	82.56
334.314	93.56
334.542	76.56
334.771	71.56
334.999	76.56
335.227	90.56
335.455	81.56
335.684	76.56
335.912	84.56
336.14	81.56
336.369	65.56
336.597	83.56
336.825	69.56
337.053	84.56
337.281	73.56
337.51	78.56
337.738	80.56
337.966	84.56
338.194	82.56
338.422	68.56
338.65	72.56
338.878	81.56
339.106	85.56
339.334	78.56
339.562	92.56
339.79	87.56
340.018	94.56
340.246	79.56
340.474	84.56
340.702	75.56
340.93	96.56
341.158	80.56
341.386	82.56
341.614	92.56
341.842	78.56
342.07	89.56
342.298	94.56
342.526	59.56
342.754	72.56
342.981	93.56
343.209	96.56
343.437	90.56
343.665	75.56
343.893	66.56
344.12	76.56
344.348	82.56
344.576	61.56
344.804	97.56
345.031	82.56
345.259	85.56
345.487	85.56
345.714	90.56
345.942	89.56
346.17	73.56
346.397	90.56
346.625	74.56
346.853	72.56
347.08	77.56
347.308	73.56
347.535	92.56
347.763	73.56
347.99	88.56
348.218	86.56
348.445	82.56
348.673	82.56
348.9	82.56
349.128	75.56
349.355	76.56
349.583	81.56
349.81	85.56
350.037	68.56
350.265	73.56
350.492	85.56
350.72	84.56
350.947	87.56
351.174	81.56
351.402	68.56
351.629	64.56
351.856	65.56
352.083	74.56
352.311	85.56
352.538	74.56
352.765	85.56
352.992	92.56
353.22	80.56
353.447	74.56
353.674	65.56
353.901	78.56
354.128	80.56
354.355	81.56
354.583	93.56
354.81	84.56
355.037	80.56
355.264	77.56
355.491	68.56
355.718	78.56
355.945	76.56
356.172	75.56
356.399	73.56
356.626	90.56
356.853	90.56
357.08	88.56
357.307	69.56
357.534	79.56
357.761	94.56
357.988	102.56
358.215	94.56
358.441	77.56
358.668	82.56
358.895	73.56
359.122	73.56
359.349	78.56
359.576	67.56
359.802	69.56
360.029	74.56
360.256	70.56
360.483	74.56
360.709	77.56
360.936	88.56
361.163	94.56
361.39	84.56
361.616	79.56
361.843	73.56
362.07	70.56
362.296	89.56
362.523	91.56
362.749	74.56
362.976	76.56
363.203	77.56
363.429	66.56
363.656	70.56
363.882	92.56
364.109	75.56
364.335	76.56
364.562	76.56
364.788	85.56
365.015	86.56
365.241	88.56
365.468	80.56
365.694	76.56
365.92	73.56
366.147	70.56
366.373	83.56
366.599	81.56
366.826	78.56
367.052	80.56
367.278	72.56
367.505	65.56
367.731	103.56
367.957	82.56
368.184	65.56
368.41	81.56
368.636	75.56
368.862	84.56
369.089	72.56
369.315	69.56
369.541	76.56
369.767	78.56
369.993	79.56
370.219	86.56
370.445	89.56
370.672	78.56
370.898	88.56
371.124	84.56
371.35	75.56
371.576	64.56
371.802	79.56
372.028	86.56
372.254	86.56
372.48	86.56
372.706	83.56
372.932	81.56
373.158	77.56
373.384	66.56
373.61	86.56
373.835	74.56
374.061	71.56
374.287	79.56
374.513	82.56
374.739	69.56
374.965	78.56
375.191	68.56
375.416	62.56
375.642	87.56
375.868	88.56
376.094	82.56
376.319	76.56
376.545	72.56
376.771	85.56
376.997	74.56
377.222	73.56
377.448	83.56
377.674	77.56
377.899	89.56
378.125	70.56
378.35	92.56
378.576	76.56
378.802	71.56
379.027	90.56
379.253	78.56
379.478	79.56
379.704	80.56
379.929	88.56
380.155	71.56
380.38	87.56
380.606	77.56
380.831	81.56
381.057	81.56
381.282	91.56
381.507	77.56
381.733	71.56
381.958	87.56
382.184	88.56
382.409	88.56
382.634	89.56
382.86	92.56
383.085	96.56
383.31	98.56
383.535	93.56
383.761	79.56
383.986	103.56
384.211	90.56
384.436	78.56
384.662	63.56
384.887	84.56
385.112	75.56
385.337	96.56
385.562	68.56
385.787	70.56
386.013	87.56
386.238	86.56
386.463	78.56
386.688	88.56
386.913	81.56
387.138	82.56
387.363	88.56
387.588	85.56
387.813	81.56
388.038	77.56
388.263	102.56
388.488	86.56
388.713	76.56
388.938	70.56
389.163	92.56
389.387	75.56
389.612	76.56
389.837	83.56
390.062	74.56
390.287	81.56
390.512	72.56
390.736	78.56
390.961	93.56
391.186	87.56
391.411	77.56
391.636	82.56
391.86	75.56
392.085	63.56
392.31	87.56
392.534	77.56
392.759	85.56
392.984	91.56
393.208	73.56
393.433	75.56
393.658	93.56
393.882	74.56
394.107	104.56
394.331	145.56
394.556	144.56
394.78	102.56
395.005	87.56
395.229	85.56
395.454	76.56
395.678	85.56
395.903	117.56
396.127	171.56
396.352	178.56
396.576	104.56
396.801	92.56
397.025	90.56
397.249	92.56
397.474	71.56
397.698	90.56
397.922	76.56
398.147	76.56
398.371	75.56
398.595	68.56
398.82	83.56
399.044	92.56
399.268	85.56
399.492	81.56
399.717	77.56
399.941	81.56
400.165	71.56
400.389	69.56
400.613	70.56
400.837	79.56
401.062	75.56
401.286	83.56
401.51	75.56
401.734	71.56
401.958	82.56
402.182	78.56
402.406	82.56
402.63	76.56
402.854	81.56
403.078	90.56
403.302	60.56
403.526	79.56
403.75	83.56
403.974	87.56
404.198	75.56
404.422	74.56
404.645	82.56
404.869	75.56
405.093	88.56
405.317	88.56
405.541	90.56
405.765	73.56
405.988	78.56
406.212	78.56
406.436	73.56
406.66	75.56
406.883	83.56
407.107	81.56
407.331	80.56
407.555	98.56
407.778	101.56
408.002	88.56
408.226	79.56
408.449	94.56
408.673	83.56
408.896	76.56
409.12	69.56
409.344	74.56
409.567	76.56
409.791	64.56
410.014	76.56
410.238	63.56
410.461	69.56
410.685	85.56
410.908	85.56
411.132	73.56
411.355	86.56
411.578	93.56
411.802	74.56
412.025	80.56
412.249	78.56
412.472	84.56
412.695	71.56
412.919	76.56
413.142	76.56
413.365	77.56
413.589	77.56
413.812	65.56
414.035	85.56
414.258	79.56
414.482	83.56
414.705	68.56
414.928	77.56
415.151	72.56
415.374	76.56
415.597	66.56
415.821	88.56
416.044	64.56
416.267	80.56
416.49	82.56
416.713	92.56
416.936	79.56
417.159	91.56
417.382	81.56
417.605	90.56
417.828	87.56
418.051	93.56
418.274	78.56
418.497	74.56
418.72	67.56
418.943	92.56
419.166	79.56
419.389	65.56
419.611	74.56
419.834	83.56
420.057	78.56
420.28	95.56
420.503	71.56
420.726	86.56
420.948	81.56
421.171	88.56
421.394	83.56
421.617	84.56
421.839	84.56
422.062	85.56
422.285	69.56
422.507	71.56
422.73	75.56
422.953	67.56
423.175	68.56
423.398	82.56
423.621	61.56
423.843	64.56
424.066	72.56
424.288	73.56
424.511	61.56
424.733	79.56
424.956	69.56
425.178	77.56
425.401	86.56
425.623	73.56
425.846	96.56
426.068	76.56
426.291	75.56
426.513	77.56
426.735	78.56
426.958	89.56
427.18	73.56
427.402	82.56
427.625	76.56
427.847	79.56
428.069	99.56
428.292	79.56
428.514	75.56
428.736	74.56
428.958	78.56
429.181	79.56
429.403	74.56
429.625	71.56
429.847	76.56
430.069	84.56
430.292	85.56
430.514	73.56
430.736	103.56
430.958	80.56
431.18	77.56
431.402	84.56
431.624	66.56
431.846	79.56
432.068	61.56
432.29	73.56
432.512	81.56
432.734	64.56
432.956	82.56
433.178	85.56
433.4	89.56
433.622	89.56
433.844	78.56
434.066	70.56
434.287	73.56
434.509	80.56
434.731	84.56
434.953	89.56
435.175	76.56
435.397	68.56
435.618	83.56
435.84	93.56
436.062	89.56
436.284	92.56
436.505	76.56
436.727	81.56
436.949	80.56
437.17	76.56
437.392	70.56
437.614	85.56
437.835	72.56
438.057	84.56
438.278	78.56
438.5	79.56
438.721	86.56
438.943	83.56
439.165	86.56
439.386	79.56
439.608	76.56
439.829	80.56
440.05	74.56
440.272	91.56
440.493	62.56
440.715	76.56
440.936	83.56
441.158	93.56
441.379	103.56
441.6	75.56
441.822	76.56
442.043	77.56
442.264	82.56
442.486	76.56
442.707	90.56
442.928	74.56
443.149	70.56
443.371	81.56
443.592	75.56
443.813	92.56
444.034	73.56
444.255	77.56
444.476	73.56
444.698	68.56
444.919	71.56
445.14	149.56
445.361	103.56
445.582	91.56
445.803	89.56
446.024	79.56
446.245	85.56
446.466	91.56
446.687	86.56
446.908	77.56
447.129	75.56
447.35	83.56
447.571	67.56
447.792	87.56
448.013	84.56
448.234	73.56
448.455	64.56
448.675	86.56
448.896	74.56
449.117	78.56
449.338	108.56
449.559	90.56
449.779	87.56
450	90.56
450.221	78.56
450.442	80.56
450.662	82.56
450.883	84.56
451.104	84.56
451.324	74.56
451.545	57.56
451.766	81.56
451.986	79.56
452.207	69.56
452.428	78.56
452.648	88.56
452.869	57.56
453.089	70.56
453.31	77.56
453.53	65.56
453.751	75.56
453.971	82.56
454.192	86.56
454.412	70.56
454.633	81.56
454.853	78.56
455.073	78.56
455.294	73.56
455.514	77.56
455.734	77.56
455.955	90.56
456.175	84.56
456.395	75.56
456.616	81.56
456.836	77.56
457.056	77.56
457.276	73.56
457.497	77.56
457.717	70.56
457.937	68.56
458.157	73.56
458.377	74.56
458.598	73.56
458.818	78.56
459.038	93.56
459.258	90.56
459.478	74.56
459.698	78.56
459.918	73.56
460.138	78.56
460.358	73.56
460.578	66.56
460.798	70.56
461.018	96.56
461.238	71.56
461.458	86.56
461.678	75.56
461.898	77.56
462.118	83.56
462.338	84.56
462.558	79.56
462.777	70.56
462.997	76.56
463.217	65.56
463.437	66.56
463.657	77.56
463.876	69.56
464.096	77.56
464.316	84.56
464.536	86.56
464.755	82.56
464.975	78.56
465.195	95.56
465.414	73.56
465.634	82.56
465.854	76.56
466.073	97.56
466.293	90.56
466.512	90.56
466.732	62.56
466.951	89.56
467.171	91.56
467.391	82.56
467.61	86.56
467.829	83.56
468.049	85.56
468.268	83.56
468.488	82.56
468.707	92.56
468.927	93.56
469.146	92.56
469.365	76.56
469.585	81.56
469.804	89.56
470.023	78.56
470.243	90.56
470.462	84.56
470.681	80.56
470.901	85.56
471.12	91.56
471.339	91.56
471.558	75.56
471.777	75.56
471.997	76.56
472.216	78.56
472.435	67.56
472.654	82.56
472.873	83.56
473.092	74.56
473.311	82.56
473.53	81.56
473.749	95.56
473.968	87.56
474.187	90.56
474.406	79.56
474.625	82.56
474.844	82.56
475.063	72.56
475.282	92.56
475.501	80.56
475.72	87.56
475.939	88.56
476.158	91.56
476.377	77.56
476.596	80.56
476.814	77.56
477.033	79.56
477.252	78.56
477.471	76.56
477.69	76.56
477.908	89.56
478.127	101.56
478.346	78.56
478.564	67.56
478.783	75.56
479.002	94.56
479.22	82.56
479.439	85.56
479.658	72.56
479.876	66.56
480.095	70.56
480.313	77.56
480.532	88.56
480.751	90.56
480.969	64.56
481.188	77.56
481.406	90.56
481.624	77.56
481.843	83.56
482.061	86.56
482.28	66.56
482.498	89.56
482.717	92.56
482.935	84.56
483.153	74.56
483.372	80.56
483.59	74.56
483.808	76.56
484.027	85.56
484.245	90.56
484.463	100.56
484.681	84.56
484.9	84.56
485.118	89.56
485.336	76.56
485.554	85.56
485.772	90.56
485.99	78.56
486.209	88.56
486.427	73.56
486.645	86.56
486.863	87.56
487.081	92.56
487.299	77.56
487.517	90.56
487.735	70.56
487.953	91.56
488.171	82.56
488.389	75.56
488.607	83.56
488.825	76.56
489.043	90.56
489.261	92.56
489.479	92.56
489.696	98.56
489.914	87.56
490.132	81.56
490.35	75.56
490.568	76.56
490.786	83.56
491.003	78.56
491.221	80.56
491.439	79.56
491.657	89.56
491.874	87.56
492.092	90.56
492.31	101.56
492.527	96.56
492.745	86.56
492.963	71.56
493.18	112.56
493.398	74.56
493.615	91.56
493.833	91.56
494.05	81.56
494.268	76.56
494.485	82.56
494.703	87.56
494.92	85.56
495.138	91.56
495.355	91.56
495.573	83.56
495.79	88.56
496.008	89.56
496.225	93.56
496.442	79.56
496.66	74.56
496.877	84.56
497.094	76.56
497.312	83.56
497.529	83.56
497.746	86.56
497.963	84.56
498.181	89.56
498.398	78.56
498.615	79.56
498.832	83.56
499.049	77.56
499.267	70.56
499.484	85.56
499.701	92.56
499.918	82.56
500.135	82.56
500.352	74.56
500.569	80.56
500.786	70.56
501.003	91.56
501.22	77.56
501.437	69.56
501.654	80.56
501.871	85.56
502.088	89.56
502.305	89.56
502.522	84.56
502.739	93.56
502.956	85.56
503.172	84.56
503.389	84.56
503.606	73.56
503.823	67.56
504.04	77.56
504.256	81.56
504.473	82.56
504.69	78.56
504.907	82.56
505.123	80.56
505.34	89.56
505.557	75.56
505.773	88.56
505.99	97.56
506.207	96.56
506.423	60.56
506.64	68.56
506.856	85.56
507.073	78.56
507.289	96.56
507.506	80.56
507.722	75.56
507.939	85.56
508.155	83.56
508.372	79.56
508.588	89.56
508.805	77.56
509.021	60.56
509.238	64.56
509.454	93.56
509.67	90.56
509.887	85.56
510.103	92.56
510.319	87.56
510.536	87.56
510.752	93.56
510.968	77.56
511.184	89.56
511.401	80.56
511.617	78.56
511.833	90.56
512.049	77.56
512.265	83.56
512.481	71.56
512.698	76.56
512.914	84.56
513.13	77.56
513.346	62.56
513.562	78.56
513.778	75.56
513.994	93.56
514.21	73.56
514.426	76.56
514.642	77.56
514.858	77.56
515.074	82.56
515.29	94.56
515.506	81.56
515.721	64.56
515.937	102.56
516.153	72.56
516.369	79.56
516.585	77.56
516.801	82.56
517.016	82.56
517.232	83.56
517.448	94.56
517.664	96.56
517.879	75.56
518.095	82.56
518.311	82.56
518.527	85.56
518.742	94.56
518.958	83.56
519.173	85.56
519.389	81.56
519.605	83.56
519.82	80.56
