Data from Uncirc_1991_H10_HRD10591_00016.txt Node
Date: Wed Jan 03 11:50:41 EST 2024
User: Yrep
Spectrometer: HR+D1059
Trigger mode: 1
Integration Time (sec): 1.000000E-1
Scans to average: 1
Electric dark correction enabled: true
Nonlinearity correction enabled: false
Boxcar width: 0
XAxis mode: Wavelengths
Number of Pixels in Spectrum: 2048
>>>>>Begin Spectral Data<<<<<
223.165	-5.44
223.4	-5.44
223.635	-5.44
223.869	-24.44
224.104	-19.44
224.338	-17.44
224.573	-14.44
224.808	-18.44
225.042	-7.44
225.277	-3.44
225.511	-7.44
225.746	1.56
225.98	2.56
226.215	10.56
226.449	16.56
226.683	28.56
226.918	27.56
227.152	30.56
227.387	36.56
227.621	28.56
227.856	51.56
228.09	45.56
228.324	43.56
228.559	56.56
228.793	47.56
229.027	43.56
229.262	73.56
229.496	80.56
229.73	81.56
229.964	78.56
230.199	88.56
230.433	67.56
230.667	78.56
230.901	72.56
231.136	71.56
231.37	80.56
231.604	70.56
231.838	81.56
232.072	67.56
232.306	78.56
232.541	80.56
232.775	78.56
233.009	79.56
233.243	86.56
233.477	77.56
233.711	80.56
233.945	74.56
234.179	72.56
234.413	82.56
234.647	87.56
234.881	77.56
235.115	79.56
235.349	82.56
235.583	66.56
235.817	79.56
236.051	67.56
236.285	90.56
236.519	67.56
236.753	85.56
236.987	80.56
237.221	86.56
237.455	86.56
237.689	73.56
237.922	67.56
238.156	62.56
238.39	63.56
238.624	84.56
238.858	60.56
239.091	70.56
239.325	76.56
239.559	71.56
239.793	77.56
240.027	76.56
240.26	77.56
240.494	84.56
240.728	61.56
240.961	65.56
241.195	76.56
241.429	78.56
241.662	65.56
241.896	79.56
242.13	72.56
242.363	83.56
242.597	75.56
242.83	71.56
243.064	71.56
243.298	67.56
243.531	56.56
243.765	76.56
243.998	74.56
244.232	81.56
244.465	74.56
244.699	66.56
244.932	82.56
245.166	65.56
245.399	72.56
245.633	80.56
245.866	75.56
246.099	76.56
246.333	75.56
246.566	84.56
246.8	86.56
247.033	79.56
247.266	75.56
247.5	94.56
247.733	79.56
247.966	71.56
248.2	86.56
248.433	90.56
248.666	66.56
248.899	73.56
249.133	67.56
249.366	90.56
249.599	89.56
249.832	72.56
250.066	77.56
250.299	75.56
250.532	77.56
250.765	79.56
250.998	76.56
251.231	76.56
251.465	75.56
251.698	87.56
251.931	70.56
252.164	81.56
252.397	66.56
252.63	74.56
252.863	58.56
253.096	92.56
253.329	92.56
253.562	75.56
253.795	66.56
254.028	96.56
254.261	78.56
254.494	81.56
254.727	66.56
254.96	83.56
255.193	85.56
255.426	90.56
255.659	99.56
255.892	94.56
256.124	79.56
256.357	75.56
256.59	78.56
256.823	74.56
257.056	80.56
257.289	78.56
257.521	83.56
257.754	94.56
257.987	76.56
258.22	76.56
258.452	86.56
258.685	87.56
258.918	91.56
259.151	69.56
259.383	64.56
259.616	75.56
259.849	88.56
260.081	78.56
260.314	73.56
260.547	87.56
260.779	92.56
261.012	87.56
261.244	71.56
261.477	89.56
261.71	100.56
261.942	112.56
262.175	99.56
262.407	75.56
262.64	88.56
262.872	72.56
263.105	83.56
263.337	77.56
263.57	76.56
263.802	82.56
264.035	87.56
264.267	74.56
264.499	72.56
264.732	84.56
264.964	79.56
265.197	73.56
265.429	76.56
265.661	80.56
265.894	77.56
266.126	80.56
266.358	83.56
266.591	75.56
266.823	84.56
267.055	81.56
267.287	83.56
267.52	83.56
267.752	84.56
267.984	68.56
268.216	81.56
268.448	70.56
268.681	86.56
268.913	77.56
269.145	98.56
269.377	75.56
269.609	93.56
269.841	76.56
270.073	88.56
270.306	84.56
270.538	66.56
270.77	73.56
271.002	77.56
271.234	78.56
271.466	96.56
271.698	86.56
271.93	92.56
272.162	90.56
272.394	89.56
272.626	96.56
272.858	88.56
273.09	84.56
273.322	87.56
273.553	78.56
273.785	72.56
274.017	77.56
274.249	93.56
274.481	76.56
274.713	81.56
274.945	88.56
275.176	77.56
275.408	89.56
275.64	98.56
275.872	86.56
276.104	86.56
276.335	84.56
276.567	93.56
276.799	108.56
277.031	91.56
277.262	84.56
277.494	81.56
277.726	94.56
277.957	77.56
278.189	104.56
278.421	95.56
278.652	82.56
278.884	94.56
279.115	83.56
279.347	87.56
279.579	94.56
279.81	94.56
280.042	87.56
280.273	94.56
280.505	75.56
280.736	88.56
280.968	92.56
281.199	98.56
281.431	84.56
281.662	87.56
281.894	83.56
282.125	89.56
282.356	89.56
282.588	110.56
282.819	93.56
283.051	94.56
283.282	76.56
283.513	85.56
283.745	88.56
283.976	88.56
284.207	86.56
284.439	78.56
284.67	85.56
284.901	72.56
285.132	95.56
285.364	97.56
285.595	92.56
285.826	73.56
286.057	83.56
286.288	82.56
286.52	87.56
286.751	89.56
286.982	68.56
287.213	77.56
287.444	90.56
287.675	75.56
287.906	83.56
288.138	88.56
288.369	93.56
288.6	92.56
288.831	82.56
289.062	84.56
289.293	84.56
289.524	82.56
289.755	76.56
289.986	90.56
290.217	82.56
290.448	90.56
290.679	96.56
290.91	87.56
291.141	83.56
291.371	78.56
291.602	76.56
291.833	77.56
292.064	98.56
292.295	89.56
292.526	89.56
292.757	71.56
292.987	84.56
293.218	64.56
293.449	92.56
293.68	80.56
293.91	86.56
294.141	67.56
294.372	98.56
294.603	83.56
294.833	86.56
295.064	89.56
295.295	88.56
295.525	89.56
295.756	103.56
295.987	94.56
296.217	121.56
296.448	113.56
296.679	92.56
296.909	82.56
297.14	73.56
297.37	73.56
297.601	96.56
297.831	83.56
298.062	80.56
298.292	82.56
298.523	93.56
298.753	87.56
298.984	80.56
299.214	83.56
299.445	85.56
299.675	88.56
299.905	94.56
300.136	93.56
300.366	83.56
300.597	86.56
300.827	91.56
301.057	92.56
301.288	89.56
301.518	81.56
301.748	85.56
301.979	106.56
302.209	89.56
302.439	89.56
302.669	88.56
302.9	93.56
303.13	72.56
303.36	98.56
303.59	91.56
303.82	89.56
304.051	89.56
304.281	80.56
304.511	85.56
304.741	77.56
304.971	91.56
305.201	82.56
305.431	84.56
305.661	76.56
305.891	95.56
306.121	80.56
306.352	89.56
306.582	100.56
306.812	95.56
307.042	94.56
307.272	90.56
307.502	82.56
307.731	84.56
307.961	94.56
308.191	86.56
308.421	82.56
308.651	95.56
308.881	75.56
309.111	77.56
309.341	92.56
309.571	83.56
309.8	97.56
310.03	91.56
310.26	92.56
310.49	82.56
310.72	89.56
310.949	87.56
311.179	102.56
311.409	83.56
311.639	80.56
311.868	89.56
312.098	87.56
312.328	84.56
312.557	99.56
312.787	82.56
313.017	99.56
313.246	92.56
313.476	94.56
313.706	87.56
313.935	95.56
314.165	83.56
314.394	83.56
314.624	93.56
314.853	103.56
315.083	79.56
315.312	84.56
315.542	85.56
315.771	81.56
316.001	93.56
316.23	86.56
316.46	87.56
316.689	86.56
316.919	87.56
317.148	87.56
317.377	90.56
317.607	88.56
317.836	86.56
318.065	78.56
318.295	80.56
318.524	82.56
318.753	84.56
318.983	90.56
319.212	104.56
319.441	96.56
319.67	94.56
319.9	96.56
320.129	84.56
320.358	97.56
320.587	84.56
320.816	91.56
321.046	103.56
321.275	82.56
321.504	90.56
321.733	76.56
321.962	97.56
322.191	84.56
322.42	95.56
322.649	106.56
322.878	111.56
323.108	118.56
323.337	106.56
323.566	126.56
323.795	152.56
324.024	187.56
324.253	358.56
324.482	816.56
324.71	1698.56
324.939	2321.56
325.168	825.56
325.397	222.56
325.626	136.56
325.855	115.56
326.084	114.56
326.313	145.56
326.542	147.56
326.77	232.56
326.999	441.56
327.228	939.56
327.457	1787.56
327.686	1402.56
327.914	369.56
328.143	167.56
328.372	128.56
328.6	108.56
328.829	113.56
329.058	114.56
329.287	114.56
329.515	92.56
329.744	105.56
329.972	95.56
330.201	98.56
330.43	107.56
330.658	113.56
330.887	123.56
331.115	109.56
331.344	98.56
331.572	84.56
331.801	99.56
332.03	99.56
332.258	95.56
332.486	86.56
332.715	100.56
332.943	105.56
333.172	81.56
333.4	97.56
333.629	94.56
333.857	107.56
334.085	110.56
334.314	94.56
334.542	99.56
334.771	86.56
334.999	99.56
335.227	84.56
335.455	88.56
335.684	89.56
335.912	99.56
336.14	88.56
336.369	99.56
336.597	93.56
336.825	100.56
337.053	98.56
337.281	80.56
337.51	93.56
337.738	80.56
337.966	91.56
338.194	99.56
338.422	79.56
338.65	86.56
338.878	98.56
339.106	78.56
339.334	90.56
339.562	74.56
339.79	88.56
340.018	73.56
340.246	78.56
340.474	91.56
340.702	81.56
340.93	91.56
341.158	100.56
341.386	83.56
341.614	86.56
341.842	106.56
342.07	89.56
342.298	83.56
342.526	84.56
342.754	82.56
342.981	96.56
343.209	82.56
343.437	95.56
343.665	96.56
343.893	86.56
344.12	68.56
344.348	87.56
344.576	91.56
344.804	99.56
345.031	98.56
345.259	86.56
345.487	89.56
345.714	96.56
345.942	88.56
346.17	96.56
346.397	94.56
346.625	89.56
346.853	94.56
347.08	83.56
347.308	93.56
347.535	77.56
347.763	100.56
347.99	102.56
348.218	102.56
348.445	98.56
348.673	95.56
348.9	88.56
349.128	93.56
349.355	94.56
349.583	100.56
349.81	82.56
350.037	103.56
350.265	85.56
350.492	96.56
350.72	90.56
350.947	98.56
351.174	98.56
351.402	99.56
351.629	104.56
351.856	93.56
352.083	98.56
352.311	104.56
352.538	99.56
352.765	101.56
352.992	105.56
353.22	91.56
353.447	87.56
353.674	83.56
353.901	88.56
354.128	95.56
354.355	100.56
354.583	86.56
354.81	99.56
355.037	102.56
355.264	90.56
355.491	83.56
355.718	83.56
355.945	97.56
356.172	94.56
356.399	92.56
356.626	94.56
356.853	74.56
357.08	94.56
357.307	80.56
357.534	70.56
357.761	94.56
357.988	90.56
358.215	96.56
358.441	79.56
358.668	96.56
358.895	79.56
359.122	82.56
359.349	91.56
359.576	96.56
359.802	99.56
360.029	108.56
360.256	97.56
360.483	95.56
360.709	79.56
360.936	78.56
361.163	93.56
361.39	82.56
361.616	78.56
361.843	74.56
362.07	95.56
362.296	77.56
362.523	92.56
362.749	67.56
362.976	81.56
363.203	85.56
363.429	86.56
363.656	86.56
363.882	76.56
364.109	74.56
364.335	88.56
364.562	82.56
364.788	100.56
365.015	101.56
365.241	76.56
365.468	94.56
365.694	92.56
365.92	90.56
366.147	80.56
366.373	95.56
366.599	93.56
366.826	81.56
367.052	81.56
367.278	86.56
367.505	84.56
367.731	76.56
367.957	100.56
368.184	83.56
368.41	92.56
368.636	99.56
368.862	108.56
369.089	105.56
369.315	81.56
369.541	90.56
369.767	80.56
369.993	92.56
370.219	102.56
370.445	85.56
370.672	87.56
370.898	86.56
371.124	95.56
371.35	83.56
371.576	80.56
371.802	98.56
372.028	81.56
372.254	86.56
372.48	80.56
372.706	73.56
372.932	88.56
373.158	84.56
373.384	79.56
373.61	93.56
373.835	89.56
374.061	81.56
374.287	73.56
374.513	66.56
374.739	88.56
374.965	90.56
375.191	75.56
375.416	82.56
375.642	87.56
375.868	92.56
376.094	80.56
376.319	81.56
376.545	86.56
376.771	98.56
376.997	83.56
377.222	78.56
377.448	84.56
377.674	103.56
377.899	87.56
378.125	74.56
378.35	95.56
378.576	98.56
378.802	93.56
379.027	94.56
379.253	99.56
379.478	85.56
379.704	75.56
379.929	73.56
380.155	90.56
380.38	95.56
380.606	101.56
380.831	83.56
381.057	86.56
381.282	93.56
381.507	75.56
381.733	99.56
381.958	86.56
382.184	93.56
382.409	93.56
382.634	77.56
382.86	99.56
383.085	75.56
383.31	75.56
383.535	89.56
383.761	89.56
383.986	100.56
384.211	85.56
384.436	81.56
384.662	90.56
384.887	95.56
385.112	94.56
385.337	87.56
385.562	92.56
385.787	101.56
386.013	94.56
386.238	98.56
386.463	115.56
386.688	107.56
386.913	107.56
387.138	88.56
387.363	98.56
387.588	96.56
387.813	103.56
388.038	109.56
388.263	97.56
388.488	86.56
388.713	83.56
388.938	67.56
389.163	83.56
389.387	93.56
389.612	82.56
389.837	93.56
390.062	102.56
390.287	83.56
390.512	82.56
390.736	95.56
390.961	75.56
391.186	72.56
391.411	90.56
391.636	89.56
391.86	79.56
392.085	88.56
392.31	83.56
392.534	70.56
392.759	81.56
392.984	75.56
393.208	75.56
393.433	80.56
393.658	83.56
393.882	77.56
394.107	80.56
394.331	82.56
394.556	97.56
394.78	87.56
395.005	89.56
395.229	87.56
395.454	92.56
395.678	84.56
395.903	89.56
396.127	85.56
396.352	96.56
396.576	86.56
396.801	79.56
397.025	83.56
397.249	89.56
397.474	82.56
397.698	74.56
397.922	78.56
398.147	76.56
398.371	100.56
398.595	76.56
398.82	75.56
399.044	86.56
399.268	80.56
399.492	80.56
399.717	86.56
399.941	94.56
400.165	100.56
400.389	86.56
400.613	88.56
400.837	79.56
401.062	84.56
401.286	74.56
401.51	80.56
401.734	92.56
401.958	89.56
402.182	110.56
402.406	141.56
402.63	99.56
402.854	86.56
403.078	96.56
403.302	77.56
403.526	79.56
403.75	99.56
403.974	76.56
404.198	95.56
404.422	91.56
404.645	80.56
404.869	93.56
405.093	92.56
405.317	94.56
405.541	104.56
405.765	108.56
405.988	111.56
406.212	155.56
406.436	190.56
406.66	118.56
406.883	98.56
407.107	99.56
407.331	86.56
407.555	90.56
407.778	94.56
408.002	78.56
408.226	85.56
408.449	67.56
408.673	74.56
408.896	90.56
409.12	92.56
409.344	88.56
409.567	88.56
409.791	92.56
410.014	72.56
410.238	85.56
410.461	98.56
410.685	76.56
410.908	87.56
411.132	99.56
411.355	89.56
411.578	88.56
411.802	105.56
412.025	91.56
412.249	87.56
412.472	88.56
412.695	78.56
412.919	83.56
413.142	92.56
413.365	94.56
413.589	65.56
413.812	90.56
414.035	90.56
414.258	86.56
414.482	89.56
414.705	104.56
414.928	87.56
415.151	57.56
415.374	103.56
415.597	88.56
415.821	86.56
416.044	87.56
416.267	87.56
416.49	80.56
416.713	99.56
416.936	97.56
417.159	78.56
417.382	90.56
417.605	99.56
417.828	92.56
418.051	98.56
418.274	87.56
418.497	91.56
418.72	83.56
418.943	79.56
419.166	75.56
419.389	75.56
419.611	98.56
419.834	90.56
420.057	86.56
420.28	73.56
420.503	91.56
420.726	89.56
420.948	103.56
421.171	95.56
421.394	76.56
421.617	67.56
421.839	83.56
422.062	95.56
422.285	80.56
422.507	100.56
422.73	95.56
422.953	83.56
423.175	81.56
423.398	77.56
423.621	76.56
423.843	93.56
424.066	84.56
424.288	71.56
424.511	76.56
424.733	94.56
424.956	96.56
425.178	99.56
425.401	87.56
425.623	93.56
425.846	82.56
426.068	88.56
426.291	99.56
426.513	78.56
426.735	87.56
426.958	83.56
427.18	105.56
427.402	146.56
427.625	134.56
427.847	115.56
428.069	100.56
428.292	77.56
428.514	80.56
428.736	73.56
428.958	88.56
429.181	94.56
429.403	93.56
429.625	84.56
429.847	99.56
430.069	93.56
430.292	80.56
430.514	75.56
430.736	72.56
430.958	83.56
431.18	80.56
431.402	92.56
431.624	82.56
431.846	81.56
432.068	94.56
432.29	78.56
432.512	89.56
432.734	86.56
432.956	80.56
433.178	96.56
433.4	109.56
433.622	85.56
433.844	90.56
434.066	78.56
434.287	72.56
434.509	79.56
434.731	84.56
434.953	89.56
435.175	92.56
435.397	85.56
435.618	92.56
435.84	93.56
436.062	113.56
436.284	116.56
436.505	100.56
436.727	97.56
436.949	96.56
437.17	83.56
437.392	97.56
437.614	81.56
437.835	110.56
438.057	111.56
438.278	99.56
438.5	97.56
438.721	129.56
438.943	97.56
439.165	94.56
439.386	89.56
439.608	87.56
439.829	103.56
440.05	112.56
440.272	129.56
440.493	98.56
440.715	88.56
440.936	95.56
441.158	81.56
441.379	90.56
441.6	86.56
441.822	89.56
442.043	92.56
442.264	114.56
442.486	100.56
442.707	82.56
442.928	99.56
443.149	124.56
443.371	137.56
443.592	109.56
443.813	106.56
444.034	93.56
444.255	87.56
444.476	84.56
444.698	80.56
444.919	89.56
445.14	142.56
445.361	117.56
445.582	111.56
445.803	133.56
446.024	127.56
446.245	124.56
446.466	111.56
446.687	93.56
446.908	82.56
447.129	81.56
447.35	92.56
447.571	83.56
447.792	88.56
448.013	94.56
448.234	84.56
448.455	97.56
448.675	108.56
448.896	123.56
449.117	78.56
449.338	91.56
449.559	119.56
449.779	122.56
450	83.56
450.221	91.56
450.442	94.56
450.662	82.56
450.883	106.56
451.104	89.56
451.324	74.56
451.545	86.56
451.766	78.56
451.986	92.56
452.207	80.56
452.428	93.56
452.648	96.56
452.869	101.56
453.089	86.56
453.31	108.56
453.53	85.56
453.751	78.56
453.971	88.56
454.192	104.56
454.412	90.56
454.633	83.56
454.853	72.56
455.073	80.56
455.294	90.56
455.514	88.56
455.734	88.56
455.955	82.56
456.175	65.56
456.395	76.56
456.616	83.56
456.836	86.56
457.056	86.56
457.276	83.56
457.497	75.56
457.717	80.56
457.937	87.56
458.157	78.56
458.377	79.56
458.598	83.56
458.818	135.56
459.038	152.56
459.258	95.56
459.478	91.56
459.698	93.56
459.918	89.56
460.138	85.56
460.358	95.56
460.578	76.56
460.798	89.56
461.018	103.56
461.238	95.56
461.458	95.56
461.678	86.56
461.898	83.56
462.118	86.56
462.338	74.56
462.558	82.56
462.777	77.56
462.997	93.56
463.217	74.56
463.437	63.56
463.657	83.56
463.876	83.56
464.096	87.56
464.316	76.56
464.536	86.56
464.755	90.56
464.975	107.56
465.195	148.56
465.414	134.56
465.634	89.56
465.854	79.56
466.073	90.56
466.293	80.56
466.512	89.56
466.732	81.56
466.951	84.56
467.171	86.56
467.391	88.56
467.61	95.56
467.829	99.56
468.049	89.56
468.268	83.56
468.488	86.56
468.707	67.56
468.927	87.56
469.146	78.56
469.365	69.56
469.585	86.56
469.804	90.56
470.023	87.56
470.243	83.56
470.462	103.56
470.681	108.56
470.901	86.56
471.12	86.56
471.339	95.56
471.558	74.56
471.777	76.56
471.997	87.56
472.216	76.56
472.435	81.56
472.654	87.56
472.873	74.56
473.092	80.56
473.311	84.56
473.53	85.56
473.749	76.56
473.968	90.56
474.187	93.56
474.406	80.56
474.625	73.56
474.844	89.56
475.063	81.56
475.282	91.56
475.501	90.56
475.72	96.56
475.939	94.56
476.158	78.56
476.377	73.56
476.596	72.56
476.814	90.56
477.033	86.56
477.252	92.56
477.471	82.56
477.69	97.56
477.908	87.56
478.127	92.56
478.346	92.56
478.564	95.56
478.783	86.56
479.002	87.56
479.22	91.56
479.439	88.56
479.658	81.56
479.876	82.56
480.095	78.56
480.313	87.56
480.532	91.56
480.751	74.56
480.969	88.56
481.188	91.56
481.406	90.56
481.624	90.56
481.843	100.56
482.061	86.56
482.28	86.56
482.498	83.56
482.717	86.56
482.935	89.56
483.153	86.56
483.372	77.56
483.59	83.56
483.808	86.56
484.027	95.56
484.245	82.56
484.463	100.56
484.681	103.56
484.9	78.56
485.118	84.56
485.336	102.56
485.554	98.56
485.772	92.56
485.99	84.56
486.209	99.56
486.427	99.56
486.645	106.56
486.863	118.56
487.081	98.56
487.299	91.56
487.517	84.56
487.735	77.56
487.953	76.56
488.171	96.56
488.389	91.56
488.607	87.56
488.825	78.56
489.043	78.56
489.261	89.56
489.479	85.56
489.696	92.56
489.914	90.56
490.132	91.56
490.35	99.56
490.568	66.56
490.786	89.56
491.003	86.56
491.221	79.56
491.439	91.56
491.657	94.56
491.874	83.56
492.092	83.56
492.31	83.56
492.527	105.56
492.745	91.56
492.963	92.56
493.18	78.56
493.398	86.56
493.615	85.56
493.833	71.56
494.05	82.56
494.268	77.56
494.485	78.56
494.703	88.56
494.92	88.56
495.138	106.56
495.355	76.56
495.573	82.56
495.79	79.56
496.008	93.56
496.225	90.56
496.442	96.56
496.66	73.56
496.877	90.56
497.094	91.56
497.312	78.56
497.529	80.56
497.746	75.56
497.963	82.56
498.181	98.56
498.398	86.56
498.615	103.56
498.832	95.56
499.049	89.56
499.267	87.56
499.484	73.56
499.701	103.56
499.918	75.56
500.135	87.56
500.352	83.56
500.569	70.56
500.786	90.56
501.003	95.56
501.22	75.56
501.437	87.56
501.654	89.56
501.871	83.56
502.088	79.56
502.305	84.56
502.522	88.56
502.739	81.56
502.956	76.56
503.172	88.56
503.389	107.56
503.606	108.56
503.823	98.56
504.04	95.56
504.256	98.56
504.473	89.56
504.69	82.56
504.907	86.56
505.123	94.56
505.34	86.56
505.557	73.56
505.773	90.56
505.99	89.56
506.207	91.56
506.423	79.56
506.64	80.56
506.856	94.56
507.073	74.56
507.289	78.56
507.506	92.56
507.722	96.56
507.939	105.56
508.155	97.56
508.372	80.56
508.588	89.56
508.805	82.56
509.021	91.56
509.238	82.56
509.454	100.56
509.67	107.56
509.887	113.56
510.103	132.56
510.319	184.56
510.536	646.56
510.752	1913.56
510.968	560.56
511.184	134.56
511.401	96.56
511.617	99.56
511.833	90.56
512.049	87.56
512.265	87.56
512.481	81.56
512.698	71.56
512.914	93.56
513.13	97.56
513.346	91.56
513.562	102.56
513.778	94.56
513.994	103.56
514.21	88.56
514.426	101.56
514.642	113.56
514.858	105.56
515.074	126.56
515.29	377.56
515.506	1255.56
515.721	465.56
515.937	143.56
516.153	94.56
516.369	95.56
516.585	96.56
516.801	86.56
517.016	87.56
517.232	102.56
517.448	94.56
517.664	85.56
