Data from Uncirc_1991_H10_HRD10591_00040.txt Node
Date: Wed Jan 03 11:50:46 EST 2024
User: Yrep
Spectrometer: HR+D1059
Trigger mode: 1
Integration Time (sec): 1.000000E-1
Scans to average: 1
Electric dark correction enabled: true
Nonlinearity correction enabled: false
Boxcar width: 0
XAxis mode: Wavelengths
Number of Pixels in Spectrum: 2048
>>>>>Begin Spectral Data<<<<<
223.165	-6.69
223.4	-6.69
223.635	-6.69
223.869	-25.69
224.104	-28.69
224.338	-23.69
224.573	-13.69
224.808	-7.69
225.042	-10.69
225.277	-8.69
225.511	-1.69
225.746	4.31
225.98	3.31
226.215	29.31
226.449	24.31
226.683	15.31
226.918	27.31
227.152	23.31
227.387	51.31
227.621	24.31
227.856	40.31
228.09	56.31
228.324	61.31
228.559	57.31
228.793	54.31
229.027	67.31
229.262	69.31
229.496	75.31
229.73	89.31
229.964	85.31
230.199	75.31
230.433	67.31
230.667	74.31
230.901	76.31
231.136	80.31
231.37	80.31
231.604	87.31
231.838	81.31
232.072	76.31
232.306	83.31
232.541	89.31
232.775	78.31
233.009	83.31
233.243	78.31
233.477	78.31
233.711	82.31
233.945	78.31
234.179	80.31
234.413	85.31
234.647	81.31
234.881	96.31
235.115	93.31
235.349	71.31
235.583	91.31
235.817	73.31
236.051	83.31
236.285	71.31
236.519	69.31
236.753	73.31
236.987	99.31
237.221	88.31
237.455	96.31
237.689	65.31
237.922	69.31
238.156	85.31
238.39	71.31
238.624	69.31
238.858	75.31
239.091	66.31
239.325	75.31
239.559	72.31
239.793	75.31
240.027	84.31
240.26	84.31
240.494	70.31
240.728	81.31
240.961	86.31
241.195	80.31
241.429	75.31
241.662	81.31
241.896	91.31
242.13	85.31
242.363	84.31
242.597	72.31
242.83	83.31
243.064	80.31
243.298	77.31
243.531	79.31
243.765	93.31
243.998	87.31
244.232	92.31
244.465	78.31
244.699	89.31
244.932	90.31
245.166	88.31
245.399	83.31
245.633	72.31
245.866	87.31
246.099	73.31
246.333	73.31
246.566	92.31
246.8	83.31
247.033	82.31
247.266	82.31
247.5	65.31
247.733	80.31
247.966	86.31
248.2	75.31
248.433	80.31
248.666	68.31
248.899	90.31
249.133	75.31
249.366	95.31
249.599	91.31
249.832	79.31
250.066	75.31
250.299	64.31
250.532	84.31
250.765	78.31
250.998	83.31
251.231	77.31
251.465	87.31
251.698	87.31
251.931	60.31
252.164	65.31
252.397	79.31
252.63	80.31
252.863	75.31
253.096	94.31
253.329	80.31
253.562	90.31
253.795	72.31
254.028	72.31
254.261	95.31
254.494	90.31
254.727	87.31
254.96	87.31
255.193	87.31
255.426	93.31
255.659	81.31
255.892	96.31
256.124	82.31
256.357	81.31
256.59	79.31
256.823	87.31
257.056	77.31
257.289	86.31
257.521	82.31
257.754	78.31
257.987	75.31
258.22	94.31
258.452	87.31
258.685	82.31
258.918	81.31
259.151	76.31
259.383	84.31
259.616	84.31
259.849	88.31
260.081	83.31
260.314	81.31
260.547	82.31
260.779	82.31
261.012	94.31
261.244	75.31
261.477	103.31
261.71	89.31
261.942	113.31
262.175	134.31
262.407	99.31
262.64	83.31
262.872	91.31
263.105	83.31
263.337	80.31
263.57	72.31
263.802	69.31
264.035	96.31
264.267	86.31
264.499	78.31
264.732	79.31
264.964	97.31
265.197	82.31
265.429	86.31
265.661	85.31
265.894	88.31
266.126	78.31
266.358	94.31
266.591	93.31
266.823	88.31
267.055	85.31
267.287	87.31
267.52	91.31
267.752	79.31
267.984	90.31
268.216	81.31
268.448	73.31
268.681	66.31
268.913	79.31
269.145	92.31
269.377	83.31
269.609	79.31
269.841	85.31
270.073	83.31
270.306	80.31
270.538	94.31
270.77	97.31
271.002	85.31
271.234	85.31
271.466	102.31
271.698	83.31
271.93	92.31
272.162	85.31
272.394	86.31
272.626	88.31
272.858	82.31
273.09	93.31
273.322	80.31
273.553	96.31
273.785	90.31
274.017	90.31
274.249	84.31
274.481	78.31
274.713	79.31
274.945	80.31
275.176	103.31
275.408	86.31
275.64	96.31
275.872	94.31
276.104	89.31
276.335	84.31
276.567	113.31
276.799	116.31
277.031	106.31
277.262	75.31
277.494	102.31
277.726	90.31
277.957	81.31
278.189	83.31
278.421	86.31
278.652	97.31
278.884	70.31
279.115	90.31
279.347	97.31
279.579	87.31
279.81	99.31
280.042	84.31
280.273	92.31
280.505	78.31
280.736	86.31
280.968	92.31
281.199	95.31
281.431	96.31
281.662	101.31
281.894	94.31
282.125	91.31
282.356	115.31
282.588	161.31
282.819	126.31
283.051	102.31
283.282	94.31
283.513	91.31
283.745	99.31
283.976	104.31
284.207	76.31
284.439	93.31
284.67	88.31
284.901	85.31
285.132	87.31
285.364	93.31
285.595	92.31
285.826	79.31
286.057	84.31
286.288	83.31
286.52	87.31
286.751	100.31
286.982	91.31
287.213	81.31
287.444	105.31
287.675	91.31
287.906	89.31
288.138	91.31
288.369	87.31
288.6	78.31
288.831	85.31
289.062	98.31
289.293	82.31
289.524	102.31
289.755	91.31
289.986	96.31
290.217	91.31
290.448	100.31
290.679	101.31
290.91	99.31
291.141	73.31
291.371	80.31
291.602	97.31
291.833	91.31
292.064	104.31
292.295	83.31
292.526	93.31
292.757	68.31
292.987	93.31
293.218	97.31
293.449	90.31
293.68	80.31
293.91	84.31
294.141	79.31
294.372	85.31
294.603	85.31
294.833	86.31
295.064	106.31
295.295	87.31
295.525	97.31
295.756	97.31
295.987	115.31
296.217	121.31
296.448	121.31
296.679	98.31
296.909	94.31
297.14	80.31
297.37	95.31
297.601	92.31
297.831	95.31
298.062	87.31
298.292	95.31
298.523	90.31
298.753	109.31
298.984	102.31
299.214	89.31
299.445	93.31
299.675	91.31
299.905	87.31
300.136	91.31
300.366	91.31
300.597	103.31
300.827	91.31
301.057	82.31
301.288	115.31
301.518	91.31
301.748	84.31
301.979	99.31
302.209	87.31
302.439	78.31
302.669	101.31
302.9	94.31
303.13	85.31
303.36	100.31
303.59	112.31
303.82	119.31
304.051	100.31
304.281	92.31
304.511	95.31
304.741	93.31
304.971	87.31
305.201	100.31
305.431	89.31
305.661	101.31
305.891	77.31
306.121	90.31
306.352	115.31
306.582	111.31
306.812	76.31
307.042	100.31
307.272	83.31
307.502	91.31
307.731	94.31
307.961	91.31
308.191	80.31
308.421	99.31
308.651	97.31
308.881	92.31
309.111	94.31
309.341	103.31
309.571	91.31
309.8	83.31
310.03	100.31
310.26	105.31
310.49	95.31
310.72	92.31
310.949	101.31
311.179	99.31
311.409	93.31
311.639	83.31
311.868	113.31
312.098	93.31
312.328	99.31
312.557	109.31
312.787	120.31
313.017	108.31
313.246	103.31
313.476	93.31
313.706	94.31
313.935	87.31
314.165	117.31
314.394	101.31
314.624	92.31
314.853	101.31
315.083	83.31
315.312	99.31
315.542	97.31
315.771	101.31
316.001	86.31
316.23	95.31
316.46	78.31
316.689	102.31
316.919	91.31
317.148	109.31
317.377	95.31
317.607	96.31
317.836	92.31
318.065	94.31
318.295	96.31
318.524	95.31
318.753	88.31
318.983	97.31
319.212	114.31
319.441	104.31
319.67	113.31
319.9	110.31
320.129	99.31
320.358	104.31
320.587	113.31
320.816	94.31
321.046	108.31
321.275	107.31
321.504	100.31
321.733	105.31
321.962	108.31
322.191	119.31
322.42	117.31
322.649	124.31
322.878	117.31
323.108	132.31
323.337	133.31
323.566	143.31
323.795	187.31
324.024	218.31
324.253	484.31
324.482	1026.31
324.71	2122.31
324.939	2973.31
325.168	1035.31
325.397	306.31
325.626	159.31
325.855	139.31
326.084	136.31
326.313	153.31
326.542	179.31
326.77	260.31
326.999	546.31
327.228	1167.31
327.457	2192.31
327.686	1748.31
327.914	469.31
328.143	223.31
328.372	158.31
328.6	134.31
328.829	136.31
329.058	143.31
329.287	154.31
329.515	131.31
329.744	97.31
329.972	106.31
330.201	103.31
330.43	105.31
330.658	119.31
330.887	158.31
331.115	148.31
331.344	120.31
331.572	107.31
331.801	111.31
332.03	112.31
332.258	95.31
332.486	104.31
332.715	100.31
332.943	89.31
333.172	93.31
333.4	95.31
333.629	106.31
333.857	125.31
334.085	97.31
334.314	107.31
334.542	94.31
334.771	101.31
334.999	102.31
335.227	93.31
335.455	99.31
335.684	108.31
335.912	111.31
336.14	89.31
336.369	105.31
336.597	96.31
336.825	98.31
337.053	103.31
337.281	99.31
337.51	73.31
337.738	98.31
337.966	96.31
338.194	85.31
338.422	83.31
338.65	93.31
338.878	97.31
339.106	98.31
339.334	92.31
339.562	93.31
339.79	86.31
340.018	86.31
340.246	82.31
340.474	104.31
340.702	93.31
340.93	99.31
341.158	98.31
341.386	102.31
341.614	104.31
341.842	93.31
342.07	96.31
342.298	94.31
342.526	95.31
342.754	98.31
342.981	71.31
343.209	93.31
343.437	124.31
343.665	99.31
343.893	95.31
344.12	97.31
344.348	91.31
344.576	102.31
344.804	101.31
345.031	109.31
345.259	111.31
345.487	97.31
345.714	94.31
345.942	92.31
346.17	90.31
346.397	88.31
346.625	109.31
346.853	95.31
347.08	81.31
347.308	109.31
347.535	95.31
347.763	100.31
347.99	123.31
348.218	115.31
348.445	112.31
348.673	97.31
348.9	95.31
349.128	96.31
349.355	95.31
349.583	104.31
349.81	88.31
350.037	100.31
350.265	102.31
350.492	106.31
350.72	97.31
350.947	110.31
351.174	116.31
351.402	119.31
351.629	108.31
351.856	100.31
352.083	101.31
352.311	112.31
352.538	117.31
352.765	102.31
352.992	115.31
353.22	117.31
353.447	91.31
353.674	109.31
353.901	104.31
354.128	93.31
354.355	107.31
354.583	98.31
354.81	97.31
355.037	96.31
355.264	94.31
355.491	98.31
355.718	89.31
355.945	112.31
356.172	91.31
356.399	89.31
356.626	102.31
356.853	101.31
357.08	92.31
357.307	98.31
357.534	103.31
357.761	89.31
357.988	97.31
358.215	91.31
358.441	96.31
358.668	82.31
358.895	83.31
359.122	94.31
359.349	95.31
359.576	102.31
359.802	103.31
360.029	117.31
360.256	139.31
360.483	119.31
360.709	101.31
360.936	92.31
361.163	97.31
361.39	91.31
361.616	105.31
361.843	99.31
362.07	94.31
362.296	102.31
362.523	93.31
362.749	93.31
362.976	91.31
363.203	90.31
363.429	86.31
363.656	96.31
363.882	97.31
364.109	103.31
364.335	101.31
364.562	95.31
364.788	91.31
365.015	105.31
365.241	106.31
365.468	107.31
365.694	125.31
365.92	104.31
366.147	95.31
366.373	86.31
366.599	87.31
366.826	97.31
367.052	96.31
367.278	93.31
367.505	86.31
367.731	90.31
367.957	96.31
368.184	97.31
368.41	107.31
368.636	135.31
368.862	130.31
369.089	112.31
369.315	102.31
369.541	93.31
369.767	91.31
369.993	101.31
370.219	94.31
370.445	89.31
370.672	91.31
370.898	93.31
371.124	88.31
371.35	91.31
371.576	106.31
371.802	83.31
372.028	88.31
372.254	91.31
372.48	87.31
372.706	87.31
372.932	107.31
373.158	97.31
373.384	96.31
373.61	87.31
373.835	82.31
374.061	97.31
374.287	87.31
374.513	89.31
374.739	88.31
374.965	100.31
375.191	89.31
375.416	98.31
375.642	90.31
375.868	93.31
376.094	87.31
376.319	102.31
376.545	81.31
376.771	85.31
376.997	77.31
377.222	91.31
377.448	84.31
377.674	106.31
377.899	98.31
378.125	90.31
378.35	88.31
378.576	92.31
378.802	80.31
379.027	112.31
379.253	87.31
379.478	99.31
379.704	97.31
379.929	82.31
380.155	96.31
380.38	96.31
380.606	98.31
380.831	88.31
381.057	101.31
381.282	90.31
381.507	93.31
381.733	96.31
381.958	110.31
382.184	112.31
382.409	104.31
382.634	89.31
382.86	101.31
383.085	100.31
383.31	91.31
383.535	96.31
383.761	101.31
383.986	94.31
384.211	87.31
384.436	92.31
384.662	98.31
384.887	100.31
385.112	104.31
385.337	110.31
385.562	107.31
385.787	112.31
386.013	112.31
386.238	130.31
386.463	102.31
386.688	105.31
386.913	88.31
387.138	102.31
387.363	97.31
387.588	110.31
387.813	118.31
388.038	101.31
388.263	111.31
388.488	104.31
388.713	91.31
388.938	97.31
389.163	87.31
389.387	91.31
389.612	84.31
389.837	85.31
390.062	102.31
390.287	97.31
390.512	104.31
390.736	96.31
390.961	72.31
391.186	87.31
391.411	120.31
391.636	97.31
391.86	85.31
392.085	75.31
392.31	75.31
392.534	78.31
392.759	88.31
392.984	84.31
393.208	94.31
393.433	84.31
393.658	90.31
393.882	77.31
394.107	84.31
394.331	85.31
394.556	81.31
394.78	86.31
395.005	98.31
395.229	68.31
395.454	63.31
395.678	81.31
395.903	90.31
396.127	98.31
396.352	92.31
396.576	90.31
396.801	96.31
397.025	83.31
397.249	108.31
397.474	99.31
397.698	113.31
397.922	95.31
398.147	77.31
398.371	86.31
398.595	79.31
398.82	83.31
399.044	85.31
399.268	100.31
399.492	90.31
399.717	88.31
399.941	91.31
400.165	99.31
400.389	103.31
400.613	104.31
400.837	89.31
401.062	87.31
401.286	77.31
401.51	100.31
401.734	101.31
401.958	100.31
402.182	141.31
402.406	157.31
402.63	117.31
402.854	101.31
403.078	95.31
403.302	97.31
403.526	88.31
403.75	101.31
403.974	80.31
404.198	81.31
404.422	111.31
404.645	88.31
404.869	111.31
405.093	92.31
405.317	107.31
405.541	104.31
405.765	106.31
405.988	117.31
406.212	181.31
406.436	248.31
406.66	155.31
406.883	96.31
407.107	105.31
407.331	109.31
407.555	114.31
407.778	102.31
408.002	84.31
408.226	85.31
408.449	91.31
408.673	86.31
408.896	108.31
409.12	108.31
409.344	91.31
409.567	93.31
409.791	108.31
410.014	106.31
410.238	86.31
410.461	100.31
410.685	99.31
410.908	91.31
411.132	102.31
411.355	109.31
411.578	91.31
411.802	82.31
412.025	104.31
412.249	87.31
412.472	97.31
412.695	83.31
412.919	91.31
413.142	93.31
413.365	81.31
413.589	87.31
413.812	94.31
414.035	95.31
414.258	77.31
414.482	92.31
414.705	90.31
414.928	107.31
415.151	94.31
415.374	106.31
415.597	95.31
415.821	99.31
416.044	83.31
416.267	93.31
416.49	77.31
416.713	85.31
416.936	88.31
417.159	98.31
417.382	95.31
417.605	80.31
417.828	96.31
418.051	88.31
418.274	105.31
418.497	96.31
418.72	103.31
418.943	95.31
419.166	91.31
419.389	95.31
419.611	85.31
419.834	94.31
420.057	105.31
420.28	100.31
420.503	68.31
420.726	102.31
420.948	83.31
421.171	102.31
421.394	99.31
421.617	83.31
421.839	100.31
422.062	89.31
422.285	96.31
422.507	95.31
422.73	105.31
422.953	94.31
423.175	102.31
423.398	89.31
423.621	89.31
423.843	87.31
424.066	91.31
424.288	103.31
424.511	105.31
424.733	106.31
424.956	109.31
425.178	103.31
425.401	121.31
425.623	118.31
425.846	97.31
426.068	110.31
426.291	90.31
426.513	117.31
426.735	99.31
426.958	105.31
427.18	121.31
427.402	162.31
427.625	204.31
427.847	135.31
428.069	88.31
428.292	96.31
428.514	84.31
428.736	96.31
428.958	95.31
429.181	92.31
429.403	95.31
429.625	92.31
429.847	98.31
430.069	113.31
430.292	101.31
430.514	102.31
430.736	81.31
430.958	81.31
431.18	76.31
431.402	88.31
431.624	75.31
431.846	79.31
432.068	95.31
432.29	92.31
432.512	100.31
432.734	75.31
432.956	100.31
433.178	93.31
433.4	115.31
433.622	89.31
433.844	100.31
434.066	84.31
434.287	91.31
434.509	89.31
434.731	99.31
434.953	89.31
435.175	96.31
435.397	89.31
435.618	97.31
435.84	117.31
436.062	146.31
436.284	132.31
436.505	109.31
436.727	109.31
436.949	103.31
437.17	101.31
437.392	92.31
437.614	83.31
437.835	115.31
438.057	137.31
438.278	131.31
438.5	119.31
438.721	145.31
438.943	108.31
439.165	102.31
439.386	101.31
439.608	97.31
439.829	96.31
440.05	133.31
440.272	170.31
440.493	116.31
440.715	87.31
440.936	93.31
441.158	101.31
441.379	103.31
441.6	95.31
441.822	100.31
442.043	109.31
442.264	111.31
442.486	95.31
442.707	102.31
442.928	117.31
443.149	143.31
443.371	155.31
443.592	125.31
443.813	122.31
444.034	117.31
444.255	95.31
444.476	107.31
444.698	101.31
444.919	86.31
445.14	128.31
445.361	137.31
445.582	134.31
445.803	171.31
446.024	163.31
446.245	173.31
446.466	128.31
446.687	112.31
446.908	102.31
447.129	80.31
447.35	83.31
447.571	115.31
447.792	96.31
448.013	105.31
448.234	117.31
448.455	109.31
448.675	141.31
448.896	134.31
449.117	113.31
449.338	115.31
449.559	159.31
449.779	179.31
450	107.31
450.221	105.31
450.442	94.31
450.662	115.31
450.883	115.31
451.104	124.31
451.324	112.31
451.545	90.31
451.766	82.31
451.986	91.31
452.207	102.31
452.428	104.31
452.648	105.31
452.869	115.31
453.089	115.31
453.31	126.31
453.53	99.31
453.751	101.31
453.971	108.31
454.192	119.31
454.412	127.31
454.633	90.31
454.853	97.31
455.073	102.31
455.294	88.31
455.514	109.31
455.734	107.31
455.955	81.31
456.175	91.31
456.395	88.31
456.616	72.31
456.836	77.31
457.056	77.31
457.276	82.31
457.497	104.31
457.717	89.31
457.937	85.31
458.157	97.31
458.377	87.31
458.598	105.31
458.818	164.31
459.038	167.31
459.258	134.31
459.478	93.31
459.698	78.31
459.918	91.31
460.138	87.31
460.358	93.31
460.578	92.31
460.798	78.31
461.018	94.31
461.238	86.31
461.458	88.31
461.678	89.31
461.898	93.31
462.118	99.31
462.338	96.31
462.558	106.31
462.777	84.31
462.997	92.31
463.217	94.31
463.437	97.31
463.657	93.31
463.876	97.31
464.096	96.31
464.316	96.31
464.536	89.31
464.755	105.31
464.975	118.31
465.195	194.31
465.414	178.31
465.634	105.31
465.854	85.31
466.073	96.31
466.293	97.31
466.512	94.31
466.732	73.31
466.951	79.31
467.171	86.31
467.391	97.31
467.61	119.31
467.829	97.31
468.049	88.31
468.268	81.31
468.488	87.31
468.707	96.31
468.927	78.31
469.146	77.31
469.365	82.31
469.585	94.31
469.804	79.31
470.023	106.31
470.243	98.31
470.462	108.31
470.681	126.31
470.901	104.31
471.12	80.31
471.339	97.31
471.558	83.31
471.777	102.31
471.997	91.31
472.216	98.31
472.435	97.31
472.654	88.31
472.873	72.31
473.092	96.31
473.311	91.31
473.53	88.31
473.749	83.31
473.968	111.31
474.187	118.31
474.406	109.31
474.625	93.31
474.844	86.31
475.063	91.31
475.282	98.31
475.501	115.31
475.72	101.31
475.939	85.31
476.158	96.31
476.377	86.31
476.596	92.31
476.814	95.31
477.033	102.31
477.252	93.31
477.471	99.31
477.69	96.31
477.908	94.31
478.127	81.31
478.346	95.31
478.564	103.31
478.783	94.31
479.002	107.31
479.22	100.31
479.439	110.31
479.658	110.31
479.876	88.31
480.095	78.31
480.313	88.31
480.532	89.31
480.751	92.31
480.969	90.31
481.188	96.31
481.406	99.31
481.624	94.31
481.843	83.31
482.061	81.31
482.28	91.31
482.498	93.31
482.717	73.31
482.935	91.31
483.153	89.31
483.372	97.31
483.59	101.31
483.808	104.31
484.027	90.31
484.245	95.31
484.463	95.31
484.681	95.31
484.9	92.31
485.118	108.31
485.336	101.31
485.554	92.31
485.772	96.31
485.99	94.31
486.209	105.31
486.427	109.31
486.645	116.31
486.863	122.31
487.081	117.31
487.299	102.31
487.517	93.31
487.735	106.31
487.953	77.31
488.171	91.31
488.389	97.31
488.607	100.31
488.825	105.31
489.043	91.31
489.261	99.31
489.479	85.31
489.696	89.31
489.914	98.31
490.132	95.31
490.35	102.31
490.568	97.31
490.786	95.31
491.003	98.31
491.221	98.31
491.439	96.31
491.657	100.31
491.874	89.31
492.092	89.31
492.31	86.31
492.527	88.31
492.745	92.31
492.963	101.31
493.18	78.31
493.398	96.31
493.615	92.31
493.833	97.31
494.05	87.31
494.268	109.31
494.485	95.31
494.703	88.31
494.92	97.31
495.138	78.31
495.355	101.31
495.573	96.31
495.79	94.31
496.008	85.31
496.225	101.31
496.442	105.31
496.66	91.31
496.877	88.31
497.094	105.31
497.312	93.31
497.529	83.31
497.746	86.31
497.963	85.31
498.181	94.31
498.398	91.31
498.615	116.31
498.832	97.31
499.049	102.31
499.267	78.31
499.484	96.31
499.701	90.31
499.918	87.31
500.135	111.31
500.352	102.31
500.569	86.31
500.786	96.31
501.003	84.31
501.22	84.31
501.437	80.31
501.654	98.31
501.871	116.31
502.088	90.31
502.305	99.31
502.522	88.31
502.739	76.31
502.956	99.31
503.172	91.31
503.389	95.31
503.606	102.31
503.823	108.31
504.04	89.31
504.256	89.31
504.473	95.31
504.69	108.31
504.907	87.31
505.123	79.31
505.34	78.31
505.557	92.31
505.773	93.31
505.99	95.31
506.207	89.31
506.423	108.31
506.64	83.31
506.856	88.31
507.073	101.31
507.289	94.31
507.506	110.31
507.722	113.31
507.939	119.31
508.155	112.31
508.372	91.31
508.588	101.31
508.805	110.31
509.021	102.31
509.238	92.31
509.454	104.31
509.67	109.31
509.887	127.31
510.103	138.31
510.319	231.31
510.536	801.31
510.752	2553.31
510.968	717.31
511.184	163.31
511.401	131.31
511.617	87.31
511.833	93.31
512.049	106.31
512.265	105.31
512.481	96.31
512.698	89.31
512.914	86.31
513.13	103.31
513.346	101.31
513.562	109.31
513.778	115.31
513.994	116.31
