Data from Uncirc_1991_H10_HRD10591_00007.txt Node
Date: Wed Jan 03 11:50:39 EST 2024
User: Yrep
Spectrometer: HR+D1059
Trigger mode: 1
Integration Time (sec): 1.000000E-1
Scans to average: 1
Electric dark correction enabled: true
Nonlinearity correction enabled: false
Boxcar width: 0
XAxis mode: Wavelengths
Number of Pixels in Spectrum: 2048
>>>>>Begin Spectral Data<<<<<
223.165	-16.44
223.4	-16.44
223.635	-16.44
223.869	-15.44
224.104	-18.44
224.338	-27.44
224.573	-15.44
224.808	-5.44
225.042	-6.44
225.277	-6.44
225.511	-22.44
225.746	8.56
225.98	12.56
226.215	10.56
226.449	22.56
226.683	20.56
226.918	30.56
227.152	28.56
227.387	28.56
227.621	38.56
227.856	38.56
228.09	41.56
228.324	48.56
228.559	56.56
228.793	61.56
229.027	76.56
229.262	61.56
229.496	74.56
229.73	83.56
229.964	77.56
230.199	70.56
230.433	69.56
230.667	79.56
230.901	83.56
231.136	84.56
231.37	66.56
231.604	76.56
231.838	76.56
232.072	73.56
232.306	81.56
232.541	84.56
232.775	82.56
233.009	85.56
233.243	84.56
233.477	90.56
233.711	76.56
233.945	88.56
234.179	85.56
234.413	70.56
234.647	68.56
234.881	76.56
235.115	84.56
235.349	66.56
235.583	84.56
235.817	83.56
236.051	69.56
236.285	75.56
236.519	77.56
236.753	82.56
236.987	62.56
237.221	102.56
237.455	81.56
237.689	75.56
237.922	65.56
238.156	78.56
238.39	72.56
238.624	78.56
238.858	98.56
239.091	77.56
239.325	101.56
239.559	86.56
239.793	80.56
240.027	93.56
240.26	88.56
240.494	73.56
240.728	74.56
240.961	74.56
241.195	77.56
241.429	81.56
241.662	72.56
241.896	72.56
242.13	85.56
242.363	76.56
242.597	64.56
242.83	72.56
243.064	82.56
243.298	81.56
243.531	76.56
243.765	84.56
243.998	80.56
244.232	83.56
244.465	75.56
244.699	83.56
244.932	86.56
245.166	80.56
245.399	99.56
245.633	83.56
245.866	59.56
246.099	78.56
246.333	72.56
246.566	77.56
246.8	70.56
247.033	67.56
247.266	77.56
247.5	72.56
247.733	67.56
247.966	92.56
248.2	72.56
248.433	72.56
248.666	77.56
248.899	85.56
249.133	76.56
249.366	107.56
249.599	92.56
249.832	73.56
250.066	84.56
250.299	68.56
250.532	70.56
250.765	92.56
250.998	86.56
251.231	81.56
251.465	74.56
251.698	85.56
251.931	84.56
252.164	75.56
252.397	72.56
252.63	78.56
252.863	71.56
253.096	80.56
253.329	76.56
253.562	89.56
253.795	78.56
254.028	90.56
254.261	68.56
254.494	84.56
254.727	86.56
254.96	90.56
255.193	80.56
255.426	86.56
255.659	78.56
255.892	78.56
256.124	81.56
256.357	76.56
256.59	86.56
256.823	81.56
257.056	92.56
257.289	92.56
257.521	69.56
257.754	72.56
257.987	90.56
258.22	76.56
258.452	83.56
258.685	88.56
258.918	77.56
259.151	82.56
259.383	72.56
259.616	68.56
259.849	87.56
260.081	76.56
260.314	69.56
260.547	76.56
260.779	70.56
261.012	70.56
261.244	72.56
261.477	79.56
261.71	86.56
261.942	102.56
262.175	123.56
262.407	112.56
262.64	81.56
262.872	78.56
263.105	77.56
263.337	86.56
263.57	80.56
263.802	79.56
264.035	76.56
264.267	76.56
264.499	74.56
264.732	80.56
264.964	86.56
265.197	94.56
265.429	94.56
265.661	86.56
265.894	73.56
266.126	90.56
266.358	85.56
266.591	78.56
266.823	85.56
267.055	76.56
267.287	93.56
267.52	94.56
267.752	93.56
267.984	85.56
268.216	89.56
268.448	86.56
268.681	79.56
268.913	87.56
269.145	73.56
269.377	78.56
269.609	68.56
269.841	89.56
270.073	80.56
270.306	58.56
270.538	77.56
270.77	87.56
271.002	90.56
271.234	98.56
271.466	81.56
271.698	85.56
271.93	102.56
272.162	100.56
272.394	93.56
272.626	79.56
272.858	84.56
273.09	90.56
273.322	85.56
273.553	72.56
273.785	84.56
274.017	83.56
274.249	85.56
274.481	95.56
274.713	75.56
274.945	90.56
275.176	80.56
275.408	88.56
275.64	78.56
275.872	94.56
276.104	96.56
276.335	97.56
276.567	91.56
276.799	95.56
277.031	91.56
277.262	96.56
277.494	85.56
277.726	96.56
277.957	94.56
278.189	84.56
278.421	97.56
278.652	81.56
278.884	87.56
279.115	87.56
279.347	76.56
279.579	78.56
279.81	91.56
280.042	81.56
280.273	89.56
280.505	87.56
280.736	70.56
280.968	97.56
281.199	85.56
281.431	89.56
281.662	93.56
281.894	90.56
282.125	98.56
282.356	113.56
282.588	135.56
282.819	108.56
283.051	94.56
283.282	93.56
283.513	88.56
283.745	80.56
283.976	95.56
284.207	92.56
284.439	79.56
284.67	84.56
284.901	92.56
285.132	80.56
285.364	78.56
285.595	89.56
285.826	72.56
286.057	95.56
286.288	80.56
286.52	85.56
286.751	76.56
286.982	64.56
287.213	76.56
287.444	77.56
287.675	88.56
287.906	88.56
288.138	100.56
288.369	81.56
288.6	97.56
288.831	76.56
289.062	86.56
289.293	86.56
289.524	97.56
289.755	82.56
289.986	83.56
290.217	101.56
290.448	69.56
290.679	88.56
290.91	92.56
291.141	97.56
291.371	88.56
291.602	85.56
291.833	101.56
292.064	95.56
292.295	90.56
292.526	95.56
292.757	92.56
292.987	106.56
293.218	90.56
293.449	96.56
293.68	86.56
293.91	82.56
294.141	81.56
294.372	84.56
294.603	88.56
294.833	89.56
295.064	75.56
295.295	74.56
295.525	84.56
295.756	101.56
295.987	106.56
296.217	132.56
296.448	121.56
296.679	116.56
296.909	85.56
297.14	82.56
297.37	87.56
297.601	90.56
297.831	88.56
298.062	94.56
298.292	99.56
298.523	92.56
298.753	87.56
298.984	98.56
299.214	75.56
299.445	80.56
299.675	99.56
299.905	101.56
300.136	94.56
300.366	96.56
300.597	84.56
300.827	92.56
301.057	93.56
301.288	104.56
301.518	83.56
301.748	85.56
301.979	109.56
302.209	100.56
302.439	80.56
302.669	84.56
302.9	92.56
303.13	73.56
303.36	88.56
303.59	104.56
303.82	101.56
304.051	95.56
304.281	85.56
304.511	87.56
304.741	97.56
304.971	88.56
305.201	70.56
305.431	88.56
305.661	89.56
305.891	85.56
306.121	100.56
306.352	83.56
306.582	104.56
306.812	92.56
307.042	95.56
307.272	77.56
307.502	87.56
307.731	86.56
307.961	93.56
308.191	88.56
308.421	79.56
308.651	97.56
308.881	91.56
309.111	90.56
309.341	92.56
309.571	99.56
309.8	85.56
310.03	92.56
310.26	88.56
310.49	81.56
310.72	92.56
310.949	108.56
311.179	100.56
311.409	84.56
311.639	83.56
311.868	97.56
312.098	97.56
312.328	98.56
312.557	96.56
312.787	109.56
313.017	99.56
313.246	98.56
313.476	102.56
313.706	97.56
313.935	92.56
314.165	113.56
314.394	103.56
314.624	108.56
314.853	111.56
315.083	92.56
315.312	83.56
315.542	80.56
315.771	78.56
316.001	69.56
316.23	89.56
316.46	82.56
316.689	104.56
316.919	92.56
317.148	97.56
317.377	88.56
317.607	91.56
317.836	90.56
318.065	106.56
318.295	90.56
318.524	82.56
318.753	91.56
318.983	96.56
319.212	94.56
319.441	117.56
319.67	104.56
319.9	100.56
320.129	96.56
320.358	93.56
320.587	90.56
320.816	84.56
321.046	103.56
321.275	112.56
321.504	99.56
321.733	104.56
321.962	86.56
322.191	91.56
322.42	114.56
322.649	117.56
322.878	115.56
323.108	106.56
323.337	138.56
323.566	135.56
323.795	162.56
324.024	224.56
324.253	428.56
324.482	938.56
324.71	1943.56
324.939	2725.56
325.168	948.56
325.397	250.56
325.626	155.56
325.855	127.56
326.084	138.56
326.313	131.56
326.542	164.56
326.77	248.56
326.999	501.56
327.228	1068.56
327.457	2033.56
327.686	1635.56
327.914	404.56
328.143	196.56
328.372	161.56
328.6	142.56
328.829	113.56
329.058	134.56
329.287	146.56
329.515	113.56
329.744	106.56
329.972	100.56
330.201	96.56
330.43	115.56
330.658	130.56
330.887	139.56
331.115	114.56
331.344	98.56
331.572	107.56
331.801	97.56
332.03	106.56
332.258	97.56
332.486	105.56
332.715	97.56
332.943	95.56
333.172	90.56
333.4	94.56
333.629	93.56
333.857	103.56
334.085	105.56
334.314	90.56
334.542	99.56
334.771	93.56
334.999	97.56
335.227	83.56
335.455	96.56
335.684	105.56
335.912	92.56
336.14	100.56
336.369	94.56
336.597	105.56
336.825	98.56
337.053	85.56
337.281	96.56
337.51	84.56
337.738	91.56
337.966	89.56
338.194	104.56
338.422	99.56
338.65	81.56
338.878	97.56
339.106	88.56
339.334	85.56
339.562	82.56
339.79	91.56
340.018	82.56
340.246	106.56
340.474	116.56
340.702	90.56
340.93	104.56
341.158	82.56
341.386	92.56
341.614	96.56
341.842	77.56
342.07	102.56
342.298	90.56
342.526	85.56
342.754	83.56
342.981	73.56
343.209	90.56
343.437	90.56
343.665	84.56
343.893	91.56
344.12	98.56
344.348	90.56
344.576	81.56
344.804	97.56
345.031	97.56
345.259	93.56
345.487	94.56
345.714	87.56
345.942	88.56
346.17	80.56
346.397	62.56
346.625	92.56
346.853	86.56
347.08	85.56
347.308	98.56
347.535	84.56
347.763	86.56
347.99	90.56
348.218	107.56
348.445	102.56
348.673	98.56
348.9	108.56
349.128	110.56
349.355	120.56
349.583	81.56
349.81	91.56
350.037	84.56
350.265	97.56
350.492	102.56
350.72	97.56
350.947	106.56
351.174	120.56
351.402	106.56
351.629	103.56
351.856	95.56
352.083	98.56
352.311	117.56
352.538	95.56
352.765	115.56
352.992	106.56
353.22	114.56
353.447	108.56
353.674	99.56
353.901	93.56
354.128	104.56
354.355	94.56
354.583	111.56
354.81	101.56
355.037	95.56
355.264	101.56
355.491	96.56
355.718	84.56
355.945	102.56
356.172	92.56
356.399	88.56
356.626	93.56
356.853	92.56
357.08	102.56
357.307	92.56
357.534	94.56
357.761	97.56
357.988	95.56
358.215	88.56
358.441	77.56
358.668	92.56
358.895	100.56
359.122	103.56
359.349	95.56
359.576	107.56
359.802	87.56
360.029	100.56
360.256	104.56
360.483	99.56
360.709	88.56
360.936	95.56
361.163	95.56
361.39	81.56
361.616	99.56
361.843	87.56
362.07	90.56
362.296	89.56
362.523	90.56
362.749	89.56
362.976	101.56
363.203	93.56
363.429	93.56
363.656	92.56
363.882	84.56
364.109	90.56
364.335	93.56
364.562	99.56
364.788	87.56
365.015	98.56
365.241	103.56
365.468	112.56
365.694	97.56
365.92	101.56
366.147	86.56
366.373	86.56
366.599	92.56
366.826	81.56
367.052	106.56
367.278	79.56
367.505	72.56
367.731	94.56
367.957	76.56
368.184	82.56
368.41	82.56
368.636	107.56
368.862	117.56
369.089	100.56
369.315	87.56
369.541	91.56
369.767	92.56
369.993	87.56
370.219	84.56
370.445	86.56
370.672	92.56
370.898	86.56
371.124	83.56
371.35	87.56
371.576	95.56
371.802	70.56
372.028	84.56
372.254	83.56
372.48	105.56
372.706	98.56
372.932	86.56
373.158	73.56
373.384	101.56
373.61	78.56
373.835	102.56
374.061	84.56
374.287	93.56
374.513	102.56
374.739	105.56
374.965	72.56
375.191	81.56
375.416	100.56
375.642	92.56
375.868	78.56
376.094	85.56
376.319	100.56
376.545	79.56
376.771	100.56
376.997	84.56
377.222	76.56
377.448	80.56
377.674	106.56
377.899	85.56
378.125	85.56
378.35	86.56
378.576	82.56
378.802	77.56
379.027	100.56
379.253	79.56
379.478	81.56
379.704	88.56
379.929	92.56
380.155	98.56
380.38	92.56
380.606	85.56
380.831	91.56
381.057	115.56
381.282	94.56
381.507	102.56
381.733	99.56
381.958	105.56
382.184	97.56
382.409	79.56
382.634	96.56
382.86	93.56
383.085	97.56
383.31	99.56
383.535	90.56
383.761	95.56
383.986	104.56
384.211	89.56
384.436	98.56
384.662	90.56
384.887	104.56
385.112	109.56
385.337	104.56
385.562	91.56
385.787	98.56
386.013	102.56
386.238	106.56
386.463	99.56
386.688	106.56
386.913	93.56
387.138	106.56
387.363	106.56
387.588	101.56
387.813	94.56
388.038	99.56
388.263	108.56
388.488	93.56
388.713	104.56
388.938	92.56
389.163	88.56
389.387	93.56
389.612	95.56
389.837	97.56
390.062	95.56
390.287	95.56
390.512	91.56
390.736	91.56
390.961	84.56
391.186	104.56
391.411	94.56
391.636	108.56
391.86	89.56
392.085	85.56
392.31	106.56
392.534	89.56
392.759	86.56
392.984	84.56
393.208	90.56
393.433	100.56
393.658	86.56
393.882	79.56
394.107	80.56
394.331	90.56
394.556	74.56
394.78	97.56
395.005	64.56
395.229	76.56
395.454	96.56
395.678	102.56
395.903	86.56
396.127	91.56
396.352	92.56
396.576	75.56
396.801	104.56
397.025	94.56
397.249	90.56
397.474	99.56
397.698	101.56
397.922	105.56
398.147	84.56
398.371	97.56
398.595	83.56
398.82	83.56
399.044	98.56
399.268	105.56
399.492	85.56
399.717	86.56
399.941	93.56
400.165	102.56
400.389	84.56
400.613	88.56
400.837	94.56
401.062	98.56
401.286	92.56
401.51	92.56
401.734	86.56
401.958	101.56
402.182	115.56
402.406	169.56
402.63	116.56
402.854	94.56
403.078	96.56
403.302	87.56
403.526	89.56
403.75	88.56
403.974	90.56
404.198	89.56
404.422	83.56
404.645	90.56
404.869	91.56
405.093	93.56
405.317	98.56
405.541	107.56
405.765	82.56
405.988	113.56
406.212	164.56
406.436	237.56
406.66	154.56
406.883	106.56
407.107	98.56
407.331	96.56
407.555	116.56
407.778	105.56
408.002	89.56
408.226	83.56
408.449	89.56
408.673	83.56
408.896	104.56
409.12	116.56
409.344	105.56
409.567	88.56
409.791	101.56
410.014	94.56
410.238	87.56
410.461	85.56
410.685	100.56
410.908	92.56
411.132	108.56
411.355	89.56
411.578	96.56
411.802	76.56
412.025	93.56
412.249	96.56
412.472	84.56
412.695	89.56
412.919	84.56
413.142	84.56
413.365	81.56
413.589	76.56
413.812	90.56
414.035	88.56
414.258	84.56
414.482	82.56
414.705	93.56
414.928	82.56
415.151	101.56
415.374	86.56
415.597	100.56
415.821	102.56
416.044	87.56
416.267	91.56
416.49	83.56
416.713	91.56
416.936	76.56
417.159	83.56
417.382	106.56
417.605	84.56
417.828	97.56
418.051	92.56
418.274	92.56
418.497	76.56
418.72	99.56
418.943	93.56
419.166	83.56
419.389	102.56
419.611	96.56
419.834	90.56
420.057	93.56
420.28	90.56
420.503	90.56
420.726	90.56
420.948	91.56
421.171	96.56
421.394	102.56
421.617	80.56
421.839	93.56
422.062	91.56
422.285	94.56
422.507	109.56
422.73	103.56
422.953	94.56
423.175	83.56
423.398	88.56
423.621	85.56
423.843	85.56
424.066	95.56
424.288	89.56
424.511	90.56
424.733	92.56
424.956	112.56
425.178	119.56
425.401	106.56
425.623	104.56
425.846	108.56
426.068	101.56
426.291	91.56
426.513	103.56
426.735	90.56
426.958	91.56
427.18	116.56
427.402	161.56
427.625	198.56
427.847	148.56
428.069	107.56
428.292	75.56
428.514	90.56
428.736	92.56
428.958	94.56
429.181	90.56
429.403	106.56
429.625	84.56
429.847	97.56
430.069	99.56
430.292	88.56
430.514	85.56
430.736	85.56
430.958	92.56
431.18	84.56
431.402	82.56
431.624	85.56
431.846	84.56
432.068	88.56
432.29	82.56
432.512	93.56
432.734	89.56
432.956	80.56
433.178	101.56
433.4	113.56
433.622	97.56
433.844	83.56
434.066	95.56
434.287	85.56
434.509	86.56
434.731	96.56
434.953	85.56
435.175	96.56
435.397	104.56
435.618	94.56
435.84	110.56
436.062	141.56
436.284	119.56
436.505	123.56
436.727	115.56
436.949	91.56
437.17	83.56
437.392	91.56
437.614	97.56
437.835	101.56
438.057	128.56
438.278	132.56
438.5	123.56
438.721	166.56
438.943	107.56
439.165	91.56
439.386	86.56
439.608	103.56
439.829	89.56
440.05	128.56
440.272	167.56
440.493	108.56
440.715	72.56
440.936	90.56
441.158	95.56
441.379	104.56
441.6	98.56
441.822	89.56
442.043	92.56
442.264	111.56
442.486	116.56
442.707	109.56
442.928	112.56
443.149	156.56
443.371	156.56
443.592	103.56
443.813	125.56
444.034	116.56
444.255	83.56
444.476	78.56
444.698	99.56
444.919	97.56
445.14	121.56
445.361	128.56
445.582	126.56
445.803	173.56
446.024	158.56
446.245	148.56
446.466	120.56
446.687	99.56
446.908	84.56
447.129	83.56
447.35	96.56
447.571	105.56
447.792	88.56
448.013	108.56
448.234	108.56
448.455	108.56
448.675	131.56
448.896	124.56
449.117	106.56
449.338	100.56
449.559	152.56
449.779	160.56
450	89.56
450.221	90.56
450.442	81.56
450.662	86.56
450.883	108.56
451.104	122.56
451.324	91.56
451.545	98.56
451.766	79.56
451.986	97.56
452.207	80.56
452.428	105.56
452.648	110.56
452.869	117.56
453.089	106.56
453.31	113.56
453.53	95.56
453.751	100.56
453.971	102.56
454.192	123.56
454.412	90.56
454.633	86.56
454.853	91.56
455.073	92.56
455.294	92.56
455.514	107.56
455.734	107.56
455.955	87.56
456.175	82.56
456.395	88.56
456.616	96.56
456.836	94.56
457.056	95.56
457.276	78.56
457.497	84.56
457.717	76.56
457.937	91.56
458.157	93.56
458.377	90.56
458.598	112.56
458.818	143.56
459.038	181.56
459.258	123.56
459.478	91.56
459.698	84.56
459.918	84.56
460.138	85.56
460.358	96.56
460.578	106.56
460.798	89.56
461.018	90.56
461.238	99.56
461.458	79.56
461.678	83.56
461.898	93.56
462.118	97.56
462.338	94.56
462.558	85.56
462.777	91.56
462.997	92.56
463.217	86.56
463.437	93.56
463.657	86.56
463.876	85.56
464.096	79.56
464.316	95.56
464.536	96.56
464.755	97.56
464.975	104.56
465.195	164.56
465.414	169.56
465.634	100.56
465.854	93.56
466.073	100.56
466.293	86.56
466.512	100.56
466.732	82.56
466.951	84.56
467.171	104.56
467.391	84.56
467.61	102.56
467.829	114.56
468.049	86.56
468.268	84.56
468.488	81.56
468.707	82.56
468.927	86.56
469.146	96.56
469.365	86.56
469.585	90.56
469.804	106.56
470.023	86.56
470.243	102.56
470.462	94.56
470.681	109.56
470.901	99.56
471.12	80.56
471.339	95.56
471.558	100.56
471.777	77.56
471.997	77.56
472.216	90.56
472.435	90.56
472.654	72.56
472.873	98.56
473.092	89.56
473.311	75.56
473.53	96.56
473.749	97.56
473.968	95.56
474.187	123.56
474.406	88.56
474.625	97.56
474.844	92.56
475.063	89.56
475.282	88.56
475.501	98.56
475.72	88.56
475.939	78.56
476.158	86.56
476.377	93.56
476.596	87.56
476.814	90.56
477.033	100.56
477.252	94.56
477.471	111.56
477.69	84.56
477.908	70.56
478.127	88.56
478.346	78.56
478.564	88.56
478.783	94.56
479.002	95.56
479.22	83.56
479.439	99.56
479.658	108.56
479.876	93.56
480.095	85.56
480.313	100.56
480.532	89.56
480.751	81.56
480.969	96.56
481.188	106.56
481.406	102.56
481.624	96.56
481.843	87.56
482.061	98.56
482.28	90.56
482.498	78.56
482.717	93.56
482.935	89.56
483.153	88.56
483.372	88.56
483.59	85.56
483.808	91.56
484.027	109.56
484.245	99.56
484.463	89.56
484.681	109.56
484.9	74.56
485.118	84.56
485.336	90.56
485.554	118.56
485.772	101.56
485.99	98.56
486.209	108.56
486.427	98.56
486.645	101.56
486.863	108.56
487.081	108.56
487.299	114.56
487.517	98.56
487.735	91.56
487.953	92.56
488.171	84.56
488.389	90.56
488.607	97.56
488.825	95.56
489.043	95.56
489.261	90.56
489.479	91.56
489.696	89.56
489.914	83.56
490.132	87.56
490.35	88.56
490.568	89.56
490.786	79.56
491.003	96.56
491.221	99.56
491.439	95.56
491.657	77.56
491.874	89.56
492.092	91.56
492.31	82.56
492.527	94.56
492.745	91.56
492.963	90.56
493.18	85.56
493.398	90.56
493.615	99.56
493.833	100.56
494.05	90.56
494.268	101.56
494.485	91.56
494.703	92.56
494.92	100.56
495.138	94.56
495.355	84.56
495.573	84.56
495.79	96.56
496.008	94.56
496.225	93.56
496.442	91.56
496.66	77.56
496.877	88.56
497.094	84.56
497.312	92.56
497.529	94.56
497.746	89.56
497.963	89.56
498.181	92.56
498.398	99.56
498.615	114.56
498.832	102.56
499.049	93.56
499.267	97.56
499.484	83.56
499.701	80.56
499.918	81.56
500.135	81.56
500.352	80.56
500.569	79.56
500.786	87.56
501.003	99.56
501.22	94.56
501.437	97.56
501.654	78.56
501.871	106.56
502.088	99.56
502.305	90.56
502.522	92.56
502.739	92.56
502.956	78.56
503.172	115.56
503.389	96.56
503.606	92.56
503.823	101.56
504.04	82.56
504.256	98.56
504.473	85.56
504.69	94.56
504.907	94.56
505.123	94.56
505.34	101.56
505.557	82.56
505.773	108.56
505.99	101.56
506.207	99.56
506.423	90.56
506.64	80.56
506.856	95.56
507.073	91.56
507.289	85.56
507.506	85.56
507.722	99.56
507.939	108.56
508.155	104.56
508.372	93.56
508.588	97.56
508.805	86.56
509.021	112.56
509.238	90.56
509.454	110.56
509.67	95.56
509.887	108.56
510.103	125.56
510.319	203.56
510.536	709.56
510.752	2240.56
510.968	611.56
511.184	158.56
511.401	105.56
511.617	92.56
511.833	104.56
512.049	91.56
512.265	99.56
512.481	92.56
512.698	92.56
512.914	88.56
513.13	101.56
513.346	92.56
513.562	84.56
513.778	87.56
513.994	102.56
514.21	92.56
514.426	114.56
514.642	144.56
514.858	131.56
515.074	167.56
515.29	474.56
