Data from Uncirc_1991_H10_HRD10591_00086.txt Node
Date: Wed Jan 03 11:50:55 EST 2024
User: Yrep
Spectrometer: HR+D1059
Trigger mode: 1
Integration Time (sec): 1.000000E-1
Scans to average: 1
Electric dark correction enabled: true
Nonlinearity correction enabled: false
Boxcar width: 0
XAxis mode: Wavelengths
Number of Pixels in Spectrum: 2048
>>>>>Begin Spectral Data<<<<<
223.165	-13.81
223.4	-13.81
223.635	-13.81
223.869	-27.81
224.104	-25.81
224.338	-20.81
224.573	-22.81
224.808	-18.81
225.042	7.19
225.277	-5.81
225.511	-0.81
225.746	9.19
225.98	-0.81
226.215	13.19
226.449	22.19
226.683	17.19
226.918	28.19
227.152	40.19
227.387	39.19
227.621	45.19
227.856	36.19
228.09	42.19
228.324	47.19
228.559	56.19
228.793	70.19
229.027	82.19
229.262	81.19
229.496	77.19
229.73	81.19
229.964	77.19
230.199	80.19
230.433	88.19
230.667	86.19
230.901	78.19
231.136	87.19
231.37	83.19
231.604	88.19
231.838	75.19
232.072	80.19
232.306	65.19
232.541	79.19
232.775	84.19
233.009	87.19
233.243	86.19
233.477	93.19
233.711	88.19
233.945	88.19
234.179	85.19
234.413	75.19
234.647	82.19
234.881	72.19
235.115	82.19
235.349	82.19
235.583	89.19
235.817	90.19
236.051	80.19
236.285	70.19
236.519	76.19
236.753	70.19
236.987	76.19
237.221	82.19
237.455	79.19
237.689	82.19
237.922	93.19
238.156	74.19
238.39	66.19
238.624	77.19
238.858	79.19
239.091	94.19
239.325	72.19
239.559	78.19
239.793	87.19
240.027	83.19
240.26	64.19
240.494	61.19
240.728	77.19
240.961	80.19
241.195	91.19
241.429	65.19
241.662	69.19
241.896	88.19
242.13	79.19
242.363	63.19
242.597	64.19
242.83	93.19
243.064	87.19
243.298	81.19
243.531	80.19
243.765	88.19
243.998	72.19
244.232	88.19
244.465	83.19
244.699	86.19
244.932	77.19
245.166	82.19
245.399	73.19
245.633	85.19
245.866	84.19
246.099	80.19
246.333	82.19
246.566	100.19
246.8	78.19
247.033	71.19
247.266	84.19
247.5	81.19
247.733	82.19
247.966	84.19
248.2	73.19
248.433	94.19
248.666	78.19
248.899	96.19
249.133	89.19
249.366	88.19
249.599	89.19
249.832	86.19
250.066	81.19
250.299	92.19
250.532	67.19
250.765	91.19
250.998	81.19
251.231	82.19
251.465	68.19
251.698	67.19
251.931	84.19
252.164	80.19
252.397	69.19
252.63	83.19
252.863	83.19
253.096	81.19
253.329	84.19
253.562	83.19
253.795	86.19
254.028	83.19
254.261	84.19
254.494	71.19
254.727	99.19
254.96	84.19
255.193	83.19
255.426	86.19
255.659	86.19
255.892	86.19
256.124	83.19
256.357	82.19
256.59	81.19
256.823	77.19
257.056	76.19
257.289	78.19
257.521	82.19
257.754	87.19
257.987	79.19
258.22	71.19
258.452	82.19
258.685	79.19
258.918	72.19
259.151	83.19
259.383	72.19
259.616	94.19
259.849	86.19
260.081	74.19
260.314	84.19
260.547	81.19
260.779	88.19
261.012	83.19
261.244	78.19
261.477	96.19
261.71	96.19
261.942	109.19
262.175	107.19
262.407	89.19
262.64	87.19
262.872	87.19
263.105	89.19
263.337	92.19
263.57	93.19
263.802	85.19
264.035	93.19
264.267	86.19
264.499	85.19
264.732	92.19
264.964	85.19
265.197	84.19
265.429	77.19
265.661	78.19
265.894	82.19
266.126	90.19
266.358	100.19
266.591	95.19
266.823	77.19
267.055	99.19
267.287	88.19
267.52	72.19
267.752	78.19
267.984	92.19
268.216	104.19
268.448	88.19
268.681	88.19
268.913	78.19
269.145	83.19
269.377	84.19
269.609	72.19
269.841	81.19
270.073	94.19
270.306	85.19
270.538	82.19
270.77	89.19
271.002	89.19
271.234	94.19
271.466	77.19
271.698	99.19
271.93	84.19
272.162	89.19
272.394	97.19
272.626	67.19
272.858	95.19
273.09	89.19
273.322	71.19
273.553	79.19
273.785	86.19
274.017	85.19
274.249	94.19
274.481	95.19
274.713	89.19
274.945	77.19
275.176	99.19
275.408	95.19
275.64	85.19
275.872	102.19
276.104	96.19
276.335	81.19
276.567	110.19
276.799	107.19
277.031	98.19
277.262	88.19
277.494	91.19
277.726	84.19
277.957	96.19
278.189	94.19
278.421	91.19
278.652	92.19
278.884	94.19
279.115	87.19
279.347	87.19
279.579	88.19
279.81	86.19
280.042	96.19
280.273	78.19
280.505	94.19
280.736	94.19
280.968	79.19
281.199	93.19
281.431	95.19
281.662	86.19
281.894	95.19
282.125	112.19
282.356	123.19
282.588	129.19
282.819	111.19
283.051	88.19
283.282	82.19
283.513	96.19
283.745	91.19
283.976	87.19
284.207	87.19
284.439	89.19
284.67	92.19
284.901	91.19
285.132	90.19
285.364	79.19
285.595	99.19
285.826	100.19
286.057	99.19
286.288	98.19
286.52	88.19
286.751	94.19
286.982	101.19
287.213	87.19
287.444	91.19
287.675	79.19
287.906	88.19
288.138	87.19
288.369	108.19
288.6	95.19
288.831	95.19
289.062	96.19
289.293	92.19
289.524	88.19
289.755	99.19
289.986	88.19
290.217	85.19
290.448	87.19
290.679	94.19
290.91	94.19
291.141	83.19
291.371	85.19
291.602	84.19
291.833	71.19
292.064	95.19
292.295	86.19
292.526	81.19
292.757	92.19
292.987	104.19
293.218	91.19
293.449	91.19
293.68	84.19
293.91	81.19
294.141	85.19
294.372	96.19
294.603	89.19
294.833	100.19
295.064	90.19
295.295	77.19
295.525	91.19
295.756	102.19
295.987	104.19
296.217	142.19
296.448	123.19
296.679	107.19
296.909	91.19
297.14	87.19
297.37	97.19
297.601	94.19
297.831	86.19
298.062	91.19
298.292	100.19
298.523	100.19
298.753	96.19
298.984	100.19
299.214	98.19
299.445	77.19
299.675	95.19
299.905	85.19
300.136	104.19
300.366	83.19
300.597	99.19
300.827	94.19
301.057	103.19
301.288	103.19
301.518	97.19
301.748	102.19
301.979	103.19
302.209	88.19
302.439	96.19
302.669	87.19
302.9	81.19
303.13	99.19
303.36	97.19
303.59	100.19
303.82	115.19
304.051	102.19
304.281	90.19
304.511	103.19
304.741	83.19
304.971	92.19
305.201	84.19
305.431	83.19
305.661	85.19
305.891	95.19
306.121	109.19
306.352	118.19
306.582	81.19
306.812	94.19
307.042	102.19
307.272	86.19
307.502	97.19
307.731	78.19
307.961	86.19
308.191	82.19
308.421	105.19
308.651	99.19
308.881	96.19
309.111	94.19
309.341	97.19
309.571	96.19
309.8	100.19
310.03	97.19
310.26	110.19
310.49	97.19
310.72	92.19
310.949	96.19
311.179	96.19
311.409	99.19
311.639	91.19
311.868	101.19
312.098	104.19
312.328	103.19
312.557	109.19
312.787	96.19
313.017	95.19
313.246	101.19
313.476	105.19
313.706	111.19
313.935	105.19
314.165	108.19
314.394	105.19
314.624	103.19
314.853	91.19
315.083	97.19
315.312	94.19
315.542	88.19
315.771	102.19
316.001	89.19
316.23	91.19
316.46	86.19
316.689	98.19
316.919	92.19
317.148	106.19
317.377	98.19
317.607	79.19
317.836	88.19
318.065	92.19
318.295	91.19
318.524	106.19
318.753	99.19
318.983	95.19
319.212	106.19
319.441	116.19
319.67	96.19
319.9	101.19
320.129	102.19
320.358	100.19
320.587	97.19
320.816	106.19
321.046	107.19
321.275	106.19
321.504	84.19
321.733	104.19
321.962	101.19
322.191	109.19
322.42	102.19
322.649	99.19
322.878	120.19
323.108	113.19
323.337	125.19
323.566	132.19
323.795	158.19
324.024	218.19
324.253	414.19
324.482	871.19
324.71	1849.19
324.939	2476.19
325.168	883.19
325.397	262.19
325.626	150.19
325.855	139.19
326.084	139.19
326.313	145.19
326.542	160.19
326.77	235.19
326.999	469.19
327.228	1017.19
327.457	1861.19
327.686	1528.19
327.914	387.19
328.143	199.19
328.372	149.19
328.6	128.19
328.829	115.19
329.058	134.19
329.287	130.19
329.515	122.19
329.744	88.19
329.972	81.19
330.201	98.19
330.43	102.19
330.658	113.19
330.887	135.19
331.115	129.19
331.344	92.19
331.572	99.19
331.801	98.19
332.03	93.19
332.258	107.19
332.486	93.19
332.715	80.19
332.943	97.19
333.172	95.19
333.4	86.19
333.629	103.19
333.857	111.19
334.085	111.19
334.314	91.19
334.542	91.19
334.771	94.19
334.999	110.19
335.227	105.19
335.455	108.19
335.684	95.19
335.912	94.19
336.14	86.19
336.369	96.19
336.597	102.19
336.825	88.19
337.053	87.19
337.281	97.19
337.51	91.19
337.738	103.19
337.966	102.19
338.194	106.19
338.422	114.19
338.65	107.19
338.878	104.19
339.106	104.19
339.334	101.19
339.562	103.19
339.79	87.19
340.018	91.19
340.246	109.19
340.474	98.19
340.702	96.19
340.93	98.19
341.158	92.19
341.386	83.19
341.614	101.19
341.842	93.19
342.07	103.19
342.298	83.19
342.526	82.19
342.754	93.19
342.981	89.19
343.209	97.19
343.437	91.19
343.665	83.19
343.893	99.19
344.12	86.19
344.348	101.19
344.576	95.19
344.804	93.19
345.031	102.19
345.259	87.19
345.487	99.19
345.714	98.19
345.942	102.19
346.17	94.19
346.397	87.19
346.625	103.19
346.853	85.19
347.08	91.19
347.308	101.19
347.535	100.19
347.763	117.19
347.99	103.19
348.218	99.19
348.445	107.19
348.673	95.19
348.9	99.19
349.128	111.19
349.355	104.19
349.583	98.19
349.81	102.19
350.037	92.19
350.265	94.19
350.492	102.19
350.72	89.19
350.947	96.19
351.174	119.19
351.402	119.19
351.629	93.19
351.856	92.19
352.083	101.19
352.311	109.19
352.538	122.19
352.765	126.19
352.992	112.19
353.22	116.19
353.447	106.19
353.674	96.19
353.901	93.19
354.128	95.19
354.355	100.19
354.583	112.19
354.81	108.19
355.037	104.19
355.264	101.19
355.491	107.19
355.718	93.19
355.945	83.19
356.172	92.19
356.399	92.19
356.626	85.19
356.853	108.19
357.08	104.19
357.307	103.19
357.534	78.19
357.761	99.19
357.988	111.19
358.215	108.19
358.441	88.19
358.668	93.19
358.895	95.19
359.122	91.19
359.349	94.19
359.576	104.19
359.802	108.19
360.029	108.19
360.256	89.19
360.483	109.19
360.709	100.19
360.936	109.19
361.163	98.19
361.39	85.19
361.616	102.19
361.843	79.19
362.07	99.19
362.296	96.19
362.523	99.19
362.749	93.19
362.976	81.19
363.203	91.19
363.429	90.19
363.656	112.19
363.882	101.19
364.109	88.19
364.335	97.19
364.562	85.19
364.788	93.19
365.015	90.19
365.241	93.19
365.468	101.19
365.694	104.19
365.92	95.19
366.147	99.19
366.373	113.19
366.599	109.19
366.826	86.19
367.052	96.19
367.278	88.19
367.505	86.19
367.731	96.19
367.957	94.19
368.184	101.19
368.41	89.19
368.636	101.19
368.862	115.19
369.089	109.19
369.315	109.19
369.541	91.19
369.767	93.19
369.993	89.19
370.219	75.19
370.445	104.19
370.672	97.19
370.898	86.19
371.124	86.19
371.35	83.19
371.576	87.19
371.802	85.19
372.028	92.19
372.254	81.19
372.48	83.19
372.706	81.19
372.932	89.19
373.158	92.19
373.384	89.19
373.61	85.19
373.835	85.19
374.061	87.19
374.287	110.19
374.513	90.19
374.739	93.19
374.965	103.19
375.191	99.19
375.416	77.19
375.642	80.19
375.868	82.19
376.094	92.19
376.319	95.19
376.545	96.19
376.771	82.19
376.997	96.19
377.222	89.19
377.448	88.19
377.674	92.19
377.899	86.19
378.125	93.19
378.35	95.19
378.576	82.19
378.802	94.19
379.027	85.19
379.253	93.19
379.478	90.19
379.704	95.19
379.929	99.19
380.155	80.19
380.38	97.19
380.606	86.19
380.831	81.19
381.057	89.19
381.282	89.19
381.507	86.19
381.733	91.19
381.958	105.19
382.184	92.19
382.409	111.19
382.634	107.19
382.86	96.19
383.085	115.19
383.31	103.19
383.535	83.19
383.761	93.19
383.986	103.19
384.211	84.19
384.436	95.19
384.662	83.19
384.887	109.19
385.112	88.19
385.337	101.19
385.562	100.19
385.787	98.19
386.013	113.19
386.238	103.19
386.463	103.19
386.688	109.19
386.913	103.19
387.138	112.19
387.363	88.19
387.588	92.19
387.813	92.19
388.038	93.19
388.263	116.19
388.488	92.19
388.713	88.19
388.938	99.19
389.163	89.19
389.387	96.19
389.612	79.19
389.837	99.19
390.062	93.19
390.287	96.19
390.512	98.19
390.736	104.19
390.961	89.19
391.186	104.19
391.411	93.19
391.636	93.19
391.86	81.19
392.085	97.19
392.31	83.19
392.534	103.19
392.759	95.19
392.984	91.19
393.208	101.19
393.433	94.19
393.658	91.19
393.882	88.19
394.107	98.19
394.331	84.19
394.556	84.19
394.78	89.19
395.005	100.19
395.229	85.19
395.454	92.19
395.678	86.19
395.903	88.19
396.127	104.19
396.352	87.19
396.576	85.19
396.801	95.19
397.025	77.19
397.249	97.19
397.474	107.19
397.698	91.19
397.922	92.19
398.147	85.19
398.371	94.19
398.595	91.19
398.82	78.19
399.044	85.19
399.268	80.19
399.492	94.19
399.717	94.19
399.941	95.19
400.165	103.19
400.389	89.19
400.613	96.19
400.837	78.19
401.062	86.19
401.286	89.19
401.51	96.19
401.734	88.19
401.958	100.19
402.182	125.19
402.406	168.19
402.63	117.19
402.854	97.19
403.078	79.19
403.302	88.19
403.526	82.19
403.75	100.19
403.974	94.19
404.198	100.19
404.422	83.19
404.645	95.19
404.869	86.19
405.093	104.19
405.317	96.19
405.541	103.19
405.765	87.19
405.988	130.19
406.212	173.19
406.436	219.19
406.66	144.19
406.883	119.19
407.107	107.19
407.331	97.19
407.555	110.19
407.778	98.19
408.002	99.19
408.226	87.19
408.449	83.19
408.673	95.19
408.896	94.19
409.12	94.19
409.344	95.19
409.567	96.19
409.791	100.19
410.014	98.19
410.238	110.19
410.461	80.19
410.685	100.19
410.908	104.19
411.132	91.19
411.355	106.19
411.578	93.19
411.802	90.19
412.025	95.19
412.249	91.19
412.472	84.19
412.695	87.19
412.919	87.19
413.142	96.19
413.365	76.19
413.589	88.19
413.812	84.19
414.035	96.19
414.258	87.19
414.482	87.19
414.705	87.19
414.928	94.19
415.151	93.19
415.374	87.19
415.597	82.19
415.821	91.19
416.044	92.19
416.267	88.19
416.49	82.19
416.713	88.19
416.936	95.19
417.159	85.19
417.382	88.19
417.605	104.19
417.828	86.19
418.051	109.19
418.274	106.19
418.497	80.19
418.72	81.19
418.943	103.19
419.166	92.19
419.389	84.19
419.611	89.19
419.834	89.19
420.057	88.19
420.28	95.19
420.503	87.19
420.726	91.19
420.948	81.19
421.171	95.19
421.394	71.19
421.617	97.19
421.839	91.19
422.062	72.19
422.285	103.19
422.507	102.19
422.73	106.19
422.953	95.19
423.175	96.19
423.398	99.19
423.621	93.19
423.843	99.19
424.066	88.19
424.288	89.19
424.511	99.19
424.733	79.19
424.956	111.19
425.178	109.19
425.401	94.19
425.623	96.19
425.846	92.19
426.068	98.19
426.291	96.19
426.513	92.19
426.735	83.19
426.958	101.19
427.18	104.19
427.402	129.19
427.625	156.19
427.847	109.19
428.069	92.19
428.292	94.19
428.514	91.19
428.736	97.19
428.958	96.19
429.181	94.19
429.403	88.19
429.625	94.19
429.847	93.19
430.069	95.19
430.292	104.19
430.514	92.19
430.736	73.19
430.958	82.19
431.18	91.19
431.402	83.19
431.624	87.19
431.846	88.19
432.068	80.19
432.29	80.19
432.512	83.19
432.734	95.19
432.956	88.19
433.178	116.19
433.4	96.19
433.622	91.19
433.844	86.19
434.066	88.19
434.287	92.19
434.509	90.19
434.731	81.19
434.953	69.19
435.175	97.19
435.397	87.19
435.618	97.19
435.84	110.19
436.062	124.19
436.284	114.19
436.505	95.19
436.727	91.19
436.949	93.19
437.17	88.19
437.392	88.19
437.614	80.19
437.835	112.19
438.057	119.19
438.278	112.19
438.5	121.19
438.721	130.19
438.943	113.19
439.165	99.19
439.386	87.19
439.608	84.19
439.829	101.19
440.05	120.19
440.272	134.19
440.493	105.19
440.715	79.19
440.936	95.19
441.158	92.19
441.379	91.19
441.6	89.19
441.822	109.19
442.043	104.19
442.264	110.19
442.486	97.19
442.707	96.19
442.928	110.19
443.149	128.19
443.371	129.19
443.592	116.19
443.813	117.19
444.034	105.19
444.255	96.19
444.476	93.19
444.698	92.19
444.919	96.19
445.14	148.19
445.361	130.19
445.582	126.19
445.803	127.19
446.024	135.19
446.245	134.19
446.466	123.19
446.687	81.19
446.908	99.19
447.129	95.19
447.35	80.19
447.571	96.19
447.792	95.19
448.013	98.19
448.234	94.19
448.455	97.19
448.675	133.19
448.896	115.19
449.117	91.19
449.338	109.19
449.559	141.19
449.779	137.19
450	104.19
450.221	87.19
450.442	85.19
450.662	91.19
450.883	98.19
451.104	104.19
451.324	105.19
451.545	86.19
451.766	85.19
451.986	83.19
452.207	85.19
452.428	97.19
452.648	106.19
452.869	99.19
453.089	102.19
453.31	115.19
453.53	84.19
453.751	78.19
453.971	104.19
454.192	124.19
454.412	82.19
454.633	79.19
454.853	82.19
455.073	76.19
455.294	86.19
455.514	100.19
455.734	96.19
455.955	84.19
456.175	86.19
456.395	85.19
456.616	78.19
456.836	81.19
457.056	97.19
457.276	70.19
457.497	91.19
457.717	84.19
457.937	90.19
458.157	98.19
458.377	85.19
458.598	103.19
458.818	141.19
459.038	143.19
459.258	110.19
459.478	101.19
459.698	71.19
459.918	96.19
460.138	76.19
460.358	81.19
460.578	94.19
460.798	83.19
461.018	92.19
461.238	77.19
461.458	96.19
461.678	92.19
461.898	92.19
462.118	90.19
462.338	99.19
462.558	75.19
462.777	89.19
462.997	89.19
463.217	99.19
463.437	90.19
463.657	80.19
463.876	85.19
464.096	87.19
464.316	87.19
464.536	106.19
464.755	114.19
464.975	108.19
465.195	152.19
465.414	151.19
465.634	77.19
465.854	87.19
466.073	104.19
466.293	97.19
466.512	82.19
466.732	90.19
466.951	97.19
467.171	101.19
467.391	91.19
467.61	92.19
467.829	89.19
468.049	103.19
468.268	79.19
468.488	89.19
468.707	99.19
468.927	104.19
469.146	96.19
469.365	94.19
469.585	79.19
469.804	97.19
470.023	97.19
470.243	95.19
470.462	78.19
470.681	103.19
470.901	95.19
471.12	101.19
471.339	99.19
471.558	87.19
471.777	77.19
471.997	79.19
472.216	91.19
472.435	80.19
472.654	85.19
472.873	87.19
473.092	84.19
473.311	92.19
473.53	85.19
473.749	72.19
473.968	89.19
474.187	103.19
474.406	90.19
474.625	96.19
474.844	91.19
475.063	79.19
475.282	92.19
475.501	81.19
475.72	96.19
475.939	89.19
476.158	95.19
476.377	103.19
476.596	94.19
476.814	83.19
477.033	98.19
477.252	94.19
477.471	85.19
477.69	98.19
477.908	92.19
478.127	101.19
478.346	99.19
478.564	89.19
478.783	80.19
479.002	101.19
479.22	86.19
479.439	95.19
479.658	105.19
479.876	96.19
480.095	107.19
480.313	91.19
480.532	81.19
480.751	76.19
480.969	80.19
481.188	101.19
481.406	104.19
481.624	99.19
481.843	99.19
482.061	93.19
482.28	84.19
482.498	86.19
482.717	93.19
482.935	85.19
483.153	96.19
483.372	89.19
483.59	90.19
483.808	95.19
484.027	91.19
484.245	94.19
484.463	95.19
484.681	108.19
484.9	85.19
485.118	96.19
485.336	99.19
485.554	108.19
485.772	109.19
485.99	108.19
486.209	101.19
486.427	118.19
486.645	95.19
486.863	105.19
487.081	100.19
487.299	89.19
487.517	108.19
487.735	93.19
487.953	93.19
488.171	94.19
488.389	103.19
488.607	97.19
488.825	88.19
489.043	89.19
489.261	92.19
489.479	82.19
489.696	91.19
489.914	89.19
490.132	94.19
490.35	97.19
490.568	93.19
490.786	91.19
491.003	91.19
491.221	98.19
491.439	105.19
491.657	95.19
491.874	93.19
492.092	97.19
492.31	82.19
492.527	95.19
492.745	80.19
492.963	88.19
493.18	83.19
493.398	94.19
493.615	103.19
493.833	105.19
494.05	81.19
494.268	92.19
494.485	92.19
494.703	88.19
494.92	87.19
495.138	84.19
495.355	101.19
495.573	84.19
495.79	84.19
496.008	99.19
496.225	93.19
496.442	91.19
496.66	102.19
496.877	104.19
497.094	103.19
497.312	100.19
497.529	90.19
497.746	83.19
497.963	93.19
498.181	89.19
498.398	85.19
498.615	101.19
498.832	101.19
499.049	86.19
499.267	87.19
499.484	92.19
499.701	111.19
499.918	89.19
500.135	97.19
500.352	101.19
500.569	91.19
500.786	90.19
501.003	85.19
501.22	81.19
501.437	99.19
501.654	95.19
501.871	104.19
502.088	92.19
502.305	97.19
502.522	89.19
502.739	107.19
502.956	102.19
503.172	85.19
503.389	93.19
503.606	93.19
503.823	97.19
504.04	96.19
504.256	108.19
504.473	83.19
504.69	81.19
504.907	95.19
505.123	91.19
505.34	85.19
505.557	96.19
505.773	95.19
505.99	95.19
506.207	80.19
506.423	91.19
506.64	95.19
506.856	81.19
507.073	93.19
507.289	86.19
507.506	89.19
507.722	120.19
507.939	113.19
508.155	91.19
508.372	92.19
508.588	97.19
508.805	95.19
509.021	111.19
509.238	103.19
509.454	100.19
509.67	91.19
509.887	115.19
510.103	128.19
510.319	199.19
510.536	735.19
510.752	2213.19
510.968	620.19
511.184	157.19
511.401	112.19
511.617	95.19
511.833	94.19
512.049	88.19
512.265	104.19
512.481	99.19
512.698	79.19
512.914	78.19
513.13	93.19
513.346	91.19
513.562	101.19
513.778	95.19
513.994	100.19
514.21	105.19
514.426	120.19
514.642	139.19
514.858	131.19
515.074	155.19
