Data from Uncirc_1991_H10_HRD10591_00027.txt Node
Date: Wed Jan 03 11:50:43 EST 2024
User: Yrep
Spectrometer: HR+D1059
Trigger mode: 1
Integration Time (sec): 1.000000E-1
Scans to average: 1
Electric dark correction enabled: true
Nonlinearity correction enabled: false
Boxcar width: 0
XAxis mode: Wavelengths
Number of Pixels in Spectrum: 2048
>>>>>Begin Spectral Data<<<<<
223.165	-14.81
223.4	-14.81
223.635	-14.81
223.869	-23.81
224.104	-17.81
224.338	-7.81
224.573	-3.81
224.808	-16.81
225.042	-12.81
225.277	-4.81
225.511	2.19
225.746	-3.81
225.98	18.19
226.215	10.19
226.449	23.19
226.683	0.19
226.918	28.19
227.152	24.19
227.387	37.19
227.621	40.19
227.856	40.19
228.09	47.19
228.324	59.19
228.559	60.19
228.793	52.19
229.027	70.19
229.262	57.19
229.496	74.19
229.73	78.19
229.964	86.19
230.199	81.19
230.433	76.19
230.667	90.19
230.901	63.19
231.136	80.19
231.37	79.19
231.604	88.19
231.838	78.19
232.072	82.19
232.306	78.19
232.541	84.19
232.775	87.19
233.009	72.19
233.243	79.19
233.477	108.19
233.711	86.19
233.945	85.19
234.179	74.19
234.413	91.19
234.647	83.19
234.881	86.19
235.115	67.19
235.349	70.19
235.583	79.19
235.817	78.19
236.051	90.19
236.285	83.19
236.519	87.19
236.753	86.19
236.987	77.19
237.221	81.19
237.455	77.19
237.689	82.19
237.922	74.19
238.156	86.19
238.39	86.19
238.624	77.19
238.858	98.19
239.091	87.19
239.325	78.19
239.559	99.19
239.793	77.19
240.027	74.19
240.26	66.19
240.494	69.19
240.728	68.19
240.961	76.19
241.195	85.19
241.429	68.19
241.662	74.19
241.896	88.19
242.13	85.19
242.363	91.19
242.597	62.19
242.83	94.19
243.064	77.19
243.298	80.19
243.531	71.19
243.765	83.19
243.998	86.19
244.232	78.19
244.465	78.19
244.699	88.19
244.932	78.19
245.166	70.19
245.399	76.19
245.633	80.19
245.866	75.19
246.099	78.19
246.333	83.19
246.566	74.19
246.8	84.19
247.033	90.19
247.266	76.19
247.5	81.19
247.733	91.19
247.966	84.19
248.2	74.19
248.433	70.19
248.666	80.19
248.899	87.19
249.133	85.19
249.366	97.19
249.599	95.19
249.832	86.19
250.066	90.19
250.299	80.19
250.532	86.19
250.765	79.19
250.998	78.19
251.231	77.19
251.465	76.19
251.698	75.19
251.931	81.19
252.164	85.19
252.397	76.19
252.63	71.19
252.863	82.19
253.096	78.19
253.329	84.19
253.562	73.19
253.795	83.19
254.028	87.19
254.261	74.19
254.494	70.19
254.727	86.19
254.96	85.19
255.193	93.19
255.426	69.19
255.659	82.19
255.892	89.19
256.124	84.19
256.357	90.19
256.59	84.19
256.823	78.19
257.056	75.19
257.289	85.19
257.521	89.19
257.754	87.19
257.987	80.19
258.22	84.19
258.452	89.19
258.685	71.19
258.918	82.19
259.151	78.19
259.383	82.19
259.616	91.19
259.849	85.19
260.081	85.19
260.314	78.19
260.547	78.19
260.779	85.19
261.012	78.19
261.244	91.19
261.477	78.19
261.71	77.19
261.942	107.19
262.175	96.19
262.407	81.19
262.64	81.19
262.872	82.19
263.105	75.19
263.337	63.19
263.57	72.19
263.802	73.19
264.035	74.19
264.267	79.19
264.499	80.19
264.732	86.19
264.964	74.19
265.197	67.19
265.429	78.19
265.661	98.19
265.894	87.19
266.126	90.19
266.358	86.19
266.591	93.19
266.823	87.19
267.055	86.19
267.287	79.19
267.52	85.19
267.752	76.19
267.984	72.19
268.216	81.19
268.448	90.19
268.681	94.19
268.913	92.19
269.145	69.19
269.377	80.19
269.609	80.19
269.841	95.19
270.073	88.19
270.306	100.19
270.538	74.19
270.77	96.19
271.002	98.19
271.234	87.19
271.466	91.19
271.698	78.19
271.93	71.19
272.162	84.19
272.394	92.19
272.626	79.19
272.858	83.19
273.09	84.19
273.322	71.19
273.553	87.19
273.785	83.19
274.017	87.19
274.249	69.19
274.481	81.19
274.713	80.19
274.945	80.19
275.176	89.19
275.408	86.19
275.64	98.19
275.872	92.19
276.104	90.19
276.335	92.19
276.567	100.19
276.799	103.19
277.031	86.19
277.262	97.19
277.494	80.19
277.726	74.19
277.957	80.19
278.189	85.19
278.421	86.19
278.652	89.19
278.884	92.19
279.115	95.19
279.347	102.19
279.579	88.19
279.81	79.19
280.042	92.19
280.273	81.19
280.505	68.19
280.736	86.19
280.968	86.19
281.199	95.19
281.431	79.19
281.662	89.19
281.894	93.19
282.125	98.19
282.356	95.19
282.588	115.19
282.819	104.19
283.051	76.19
283.282	78.19
283.513	78.19
283.745	94.19
283.976	75.19
284.207	106.19
284.439	95.19
284.67	90.19
284.901	97.19
285.132	87.19
285.364	94.19
285.595	83.19
285.826	84.19
286.057	84.19
286.288	99.19
286.52	99.19
286.751	94.19
286.982	87.19
287.213	95.19
287.444	92.19
287.675	86.19
287.906	90.19
288.138	95.19
288.369	83.19
288.6	95.19
288.831	91.19
289.062	86.19
289.293	98.19
289.524	91.19
289.755	71.19
289.986	94.19
290.217	104.19
290.448	85.19
290.679	94.19
290.91	96.19
291.141	93.19
291.371	90.19
291.602	80.19
291.833	89.19
292.064	85.19
292.295	90.19
292.526	81.19
292.757	88.19
292.987	94.19
293.218	82.19
293.449	87.19
293.68	77.19
293.91	95.19
294.141	96.19
294.372	100.19
294.603	96.19
294.833	91.19
295.064	99.19
295.295	98.19
295.525	80.19
295.756	78.19
295.987	116.19
296.217	112.19
296.448	125.19
296.679	88.19
296.909	84.19
297.14	100.19
297.37	89.19
297.601	87.19
297.831	83.19
298.062	90.19
298.292	83.19
298.523	90.19
298.753	91.19
298.984	103.19
299.214	84.19
299.445	94.19
299.675	94.19
299.905	85.19
300.136	89.19
300.366	103.19
300.597	101.19
300.827	73.19
301.057	107.19
301.288	94.19
301.518	92.19
301.748	83.19
301.979	108.19
302.209	102.19
302.439	82.19
302.669	99.19
302.9	87.19
303.13	77.19
303.36	90.19
303.59	104.19
303.82	92.19
304.051	84.19
304.281	97.19
304.511	100.19
304.741	94.19
304.971	92.19
305.201	90.19
305.431	94.19
305.661	83.19
305.891	86.19
306.121	107.19
306.352	100.19
306.582	99.19
306.812	103.19
307.042	88.19
307.272	100.19
307.502	97.19
307.731	83.19
307.961	96.19
308.191	89.19
308.421	100.19
308.651	80.19
308.881	84.19
309.111	87.19
309.341	98.19
309.571	81.19
309.8	90.19
310.03	87.19
310.26	90.19
310.49	100.19
310.72	104.19
310.949	102.19
311.179	96.19
311.409	90.19
311.639	86.19
311.868	96.19
312.098	102.19
312.328	88.19
312.557	104.19
312.787	111.19
313.017	93.19
313.246	88.19
313.476	99.19
313.706	91.19
313.935	82.19
314.165	92.19
314.394	98.19
314.624	87.19
314.853	103.19
315.083	101.19
315.312	95.19
315.542	88.19
315.771	94.19
316.001	103.19
316.23	100.19
316.46	88.19
316.689	86.19
316.919	105.19
317.148	106.19
317.377	92.19
317.607	90.19
317.836	95.19
318.065	86.19
318.295	88.19
318.524	92.19
318.753	93.19
318.983	110.19
319.212	107.19
319.441	103.19
319.67	103.19
319.9	83.19
320.129	81.19
320.358	99.19
320.587	97.19
320.816	101.19
321.046	99.19
321.275	97.19
321.504	92.19
321.733	103.19
321.962	96.19
322.191	113.19
322.42	99.19
322.649	112.19
322.878	111.19
323.108	110.19
323.337	119.19
323.566	112.19
323.795	133.19
324.024	198.19
324.253	351.19
324.482	737.19
324.71	1594.19
324.939	2102.19
325.168	751.19
325.397	236.19
325.626	129.19
325.855	140.19
326.084	119.19
326.313	124.19
326.542	158.19
326.77	208.19
326.999	423.19
327.228	844.19
327.457	1605.19
327.686	1270.19
327.914	332.19
328.143	166.19
328.372	146.19
328.6	129.19
328.829	113.19
329.058	115.19
329.287	115.19
329.515	113.19
329.744	97.19
329.972	89.19
330.201	103.19
330.43	101.19
330.658	103.19
330.887	121.19
331.115	123.19
331.344	98.19
331.572	99.19
331.801	101.19
332.03	98.19
332.258	103.19
332.486	91.19
332.715	99.19
332.943	107.19
333.172	92.19
333.4	95.19
333.629	98.19
333.857	112.19
334.085	102.19
334.314	92.19
334.542	99.19
334.771	90.19
334.999	84.19
335.227	102.19
335.455	87.19
335.684	88.19
335.912	103.19
336.14	102.19
336.369	96.19
336.597	101.19
336.825	97.19
337.053	94.19
337.281	86.19
337.51	96.19
337.738	95.19
337.966	96.19
338.194	81.19
338.422	93.19
338.65	89.19
338.878	94.19
339.106	91.19
339.334	112.19
339.562	106.19
339.79	99.19
340.018	81.19
340.246	114.19
340.474	91.19
340.702	92.19
340.93	97.19
341.158	96.19
341.386	94.19
341.614	101.19
341.842	92.19
342.07	82.19
342.298	99.19
342.526	83.19
342.754	78.19
342.981	98.19
343.209	92.19
343.437	91.19
343.665	91.19
343.893	91.19
344.12	95.19
344.348	98.19
344.576	87.19
344.804	82.19
345.031	84.19
345.259	91.19
345.487	92.19
345.714	94.19
345.942	90.19
346.17	80.19
346.397	97.19
346.625	94.19
346.853	90.19
347.08	97.19
347.308	114.19
347.535	99.19
347.763	94.19
347.99	90.19
348.218	102.19
348.445	91.19
348.673	92.19
348.9	107.19
349.128	95.19
349.355	105.19
349.583	90.19
349.81	93.19
350.037	85.19
350.265	97.19
350.492	98.19
350.72	109.19
350.947	81.19
351.174	105.19
351.402	93.19
351.629	98.19
351.856	82.19
352.083	105.19
352.311	109.19
352.538	100.19
352.765	110.19
352.992	102.19
353.22	101.19
353.447	116.19
353.674	90.19
353.901	84.19
354.128	94.19
354.355	86.19
354.583	97.19
354.81	97.19
355.037	94.19
355.264	98.19
355.491	107.19
355.718	100.19
355.945	104.19
356.172	100.19
356.399	97.19
356.626	94.19
356.853	87.19
357.08	95.19
357.307	86.19
357.534	85.19
357.761	95.19
357.988	92.19
358.215	102.19
358.441	104.19
358.668	83.19
358.895	78.19
359.122	108.19
359.349	96.19
359.576	81.19
359.802	76.19
360.029	120.19
360.256	116.19
360.483	104.19
360.709	84.19
360.936	108.19
361.163	86.19
361.39	104.19
361.616	88.19
361.843	93.19
362.07	82.19
362.296	79.19
362.523	88.19
362.749	96.19
362.976	83.19
363.203	100.19
363.429	91.19
363.656	103.19
363.882	65.19
364.109	86.19
364.335	63.19
364.562	70.19
364.788	92.19
365.015	94.19
365.241	93.19
365.468	95.19
365.694	106.19
365.92	98.19
366.147	94.19
366.373	94.19
366.599	99.19
366.826	87.19
367.052	100.19
367.278	87.19
367.505	94.19
367.731	96.19
367.957	76.19
368.184	95.19
368.41	109.19
368.636	107.19
368.862	118.19
369.089	103.19
369.315	100.19
369.541	92.19
369.767	95.19
369.993	84.19
370.219	94.19
370.445	95.19
370.672	87.19
370.898	84.19
371.124	88.19
371.35	88.19
371.576	89.19
371.802	84.19
372.028	94.19
372.254	86.19
372.48	96.19
372.706	80.19
372.932	97.19
373.158	84.19
373.384	86.19
373.61	78.19
373.835	83.19
374.061	84.19
374.287	84.19
374.513	91.19
374.739	99.19
374.965	86.19
375.191	86.19
375.416	96.19
375.642	91.19
375.868	86.19
376.094	97.19
376.319	83.19
376.545	95.19
376.771	91.19
376.997	85.19
377.222	82.19
377.448	87.19
377.674	72.19
377.899	86.19
378.125	80.19
378.35	97.19
378.576	87.19
378.802	92.19
379.027	90.19
379.253	86.19
379.478	103.19
379.704	90.19
379.929	98.19
380.155	94.19
380.38	98.19
380.606	87.19
380.831	94.19
381.057	98.19
381.282	100.19
381.507	91.19
381.733	92.19
381.958	102.19
382.184	106.19
382.409	103.19
382.634	91.19
382.86	84.19
383.085	96.19
383.31	100.19
383.535	97.19
383.761	94.19
383.986	104.19
384.211	87.19
384.436	104.19
384.662	100.19
384.887	95.19
385.112	85.19
385.337	93.19
385.562	92.19
385.787	94.19
386.013	94.19
386.238	95.19
386.463	90.19
386.688	99.19
386.913	112.19
387.138	116.19
387.363	98.19
387.588	86.19
387.813	92.19
388.038	97.19
388.263	111.19
388.488	98.19
388.713	98.19
388.938	96.19
389.163	96.19
389.387	95.19
389.612	100.19
389.837	103.19
390.062	95.19
390.287	99.19
390.512	110.19
390.736	97.19
390.961	91.19
391.186	94.19
391.411	78.19
391.636	94.19
391.86	85.19
392.085	92.19
392.31	92.19
392.534	100.19
392.759	86.19
392.984	86.19
393.208	78.19
393.433	85.19
393.658	79.19
393.882	83.19
394.107	97.19
394.331	96.19
394.556	76.19
394.78	90.19
395.005	85.19
395.229	86.19
395.454	79.19
395.678	86.19
395.903	90.19
396.127	83.19
396.352	85.19
396.576	71.19
396.801	85.19
397.025	90.19
397.249	87.19
397.474	86.19
397.698	90.19
397.922	93.19
398.147	95.19
398.371	95.19
398.595	91.19
398.82	80.19
399.044	88.19
399.268	79.19
399.492	77.19
399.717	99.19
399.941	100.19
400.165	93.19
400.389	80.19
400.613	84.19
400.837	83.19
401.062	92.19
401.286	94.19
401.51	82.19
401.734	86.19
401.958	95.19
402.182	131.19
402.406	128.19
402.63	119.19
402.854	87.19
403.078	95.19
403.302	83.19
403.526	99.19
403.75	88.19
403.974	85.19
404.198	99.19
404.422	103.19
404.645	93.19
404.869	90.19
405.093	95.19
405.317	83.19
405.541	90.19
405.765	104.19
405.988	112.19
406.212	147.19
406.436	204.19
406.66	132.19
406.883	96.19
407.107	107.19
407.331	90.19
407.555	94.19
407.778	92.19
408.002	91.19
408.226	93.19
408.449	91.19
408.673	94.19
408.896	97.19
409.12	94.19
409.344	88.19
409.567	90.19
409.791	90.19
410.014	97.19
410.238	97.19
410.461	88.19
410.685	87.19
410.908	104.19
411.132	111.19
411.355	91.19
411.578	106.19
411.802	102.19
412.025	95.19
412.249	82.19
412.472	87.19
412.695	104.19
412.919	104.19
413.142	83.19
413.365	94.19
413.589	78.19
413.812	94.19
414.035	102.19
414.258	90.19
414.482	85.19
414.705	86.19
414.928	97.19
415.151	102.19
415.374	93.19
415.597	84.19
415.821	92.19
416.044	91.19
416.267	97.19
416.49	88.19
416.713	82.19
416.936	103.19
417.159	88.19
417.382	84.19
417.605	92.19
417.828	94.19
418.051	92.19
418.274	79.19
418.497	82.19
418.72	90.19
418.943	91.19
419.166	87.19
419.389	77.19
419.611	92.19
419.834	98.19
420.057	86.19
420.28	72.19
420.503	82.19
420.726	84.19
420.948	82.19
421.171	95.19
421.394	77.19
421.617	104.19
421.839	86.19
422.062	94.19
422.285	103.19
422.507	96.19
422.73	95.19
422.953	100.19
423.175	87.19
423.398	97.19
423.621	97.19
423.843	92.19
424.066	89.19
424.288	88.19
424.511	97.19
424.733	88.19
424.956	98.19
425.178	96.19
425.401	95.19
425.623	100.19
425.846	98.19
426.068	89.19
426.291	95.19
426.513	99.19
426.735	78.19
426.958	99.19
427.18	102.19
427.402	135.19
427.625	143.19
427.847	134.19
428.069	93.19
428.292	95.19
428.514	98.19
428.736	82.19
428.958	102.19
429.181	86.19
429.403	90.19
429.625	84.19
429.847	85.19
430.069	99.19
430.292	91.19
430.514	76.19
430.736	84.19
430.958	88.19
431.18	90.19
431.402	87.19
431.624	82.19
431.846	99.19
432.068	82.19
432.29	101.19
432.512	92.19
432.734	93.19
432.956	96.19
433.178	92.19
433.4	91.19
433.622	84.19
433.844	82.19
434.066	79.19
434.287	82.19
434.509	98.19
434.731	78.19
434.953	84.19
435.175	86.19
435.397	93.19
435.618	98.19
435.84	99.19
436.062	113.19
436.284	104.19
436.505	100.19
436.727	90.19
436.949	94.19
437.17	97.19
437.392	84.19
437.614	84.19
437.835	88.19
438.057	116.19
438.278	99.19
438.5	113.19
438.721	142.19
438.943	106.19
439.165	102.19
439.386	98.19
439.608	93.19
439.829	95.19
440.05	124.19
440.272	124.19
440.493	98.19
440.715	91.19
440.936	86.19
441.158	91.19
441.379	97.19
441.6	94.19
441.822	92.19
442.043	96.19
442.264	102.19
442.486	92.19
442.707	96.19
442.928	102.19
443.149	123.19
443.371	129.19
443.592	104.19
443.813	119.19
444.034	111.19
444.255	94.19
444.476	78.19
444.698	78.19
444.919	93.19
445.14	126.19
445.361	125.19
445.582	104.19
445.803	123.19
446.024	128.19
446.245	131.19
446.466	97.19
446.687	91.19
446.908	81.19
447.129	79.19
447.35	93.19
447.571	96.19
447.792	99.19
448.013	116.19
448.234	106.19
448.455	91.19
448.675	99.19
448.896	103.19
449.117	98.19
449.338	103.19
449.559	125.19
449.779	120.19
450	99.19
450.221	82.19
450.442	100.19
450.662	89.19
450.883	99.19
451.104	108.19
451.324	116.19
451.545	89.19
451.766	97.19
451.986	92.19
452.207	78.19
452.428	96.19
452.648	114.19
452.869	100.19
453.089	104.19
453.31	107.19
453.53	98.19
453.751	82.19
453.971	105.19
454.192	100.19
454.412	98.19
454.633	85.19
454.853	91.19
455.073	85.19
455.294	84.19
455.514	88.19
455.734	103.19
455.955	94.19
456.175	93.19
456.395	98.19
456.616	95.19
456.836	83.19
457.056	83.19
457.276	94.19
457.497	93.19
457.717	80.19
457.937	88.19
458.157	82.19
458.377	95.19
458.598	113.19
458.818	136.19
459.038	146.19
459.258	97.19
459.478	94.19
459.698	96.19
459.918	79.19
460.138	102.19
460.358	88.19
460.578	76.19
460.798	83.19
461.018	95.19
461.238	78.19
461.458	92.19
461.678	82.19
461.898	78.19
462.118	92.19
462.338	95.19
462.558	94.19
462.777	78.19
462.997	95.19
463.217	86.19
463.437	85.19
463.657	97.19
463.876	91.19
464.096	86.19
464.316	92.19
464.536	69.19
464.755	102.19
464.975	99.19
465.195	130.19
465.414	140.19
465.634	92.19
465.854	84.19
466.073	91.19
466.293	99.19
466.512	92.19
466.732	98.19
466.951	85.19
467.171	77.19
467.391	100.19
467.61	95.19
467.829	99.19
468.049	90.19
468.268	91.19
468.488	94.19
468.707	90.19
468.927	91.19
469.146	71.19
469.365	78.19
469.585	100.19
469.804	101.19
470.023	98.19
470.243	81.19
470.462	94.19
470.681	100.19
470.901	75.19
471.12	81.19
471.339	91.19
471.558	82.19
471.777	84.19
471.997	92.19
472.216	89.19
472.435	87.19
472.654	85.19
472.873	94.19
473.092	74.19
473.311	84.19
473.53	102.19
473.749	101.19
473.968	104.19
474.187	101.19
474.406	111.19
474.625	98.19
474.844	96.19
475.063	70.19
475.282	86.19
475.501	79.19
475.72	89.19
475.939	82.19
476.158	86.19
476.377	85.19
476.596	98.19
476.814	96.19
477.033	99.19
477.252	100.19
477.471	89.19
477.69	99.19
477.908	87.19
478.127	87.19
478.346	88.19
478.564	93.19
478.783	92.19
479.002	81.19
479.22	95.19
479.439	82.19
479.658	104.19
479.876	88.19
480.095	78.19
480.313	90.19
480.532	100.19
480.751	88.19
480.969	92.19
481.188	102.19
481.406	97.19
481.624	87.19
481.843	88.19
482.061	91.19
482.28	95.19
482.498	85.19
482.717	80.19
482.935	88.19
483.153	85.19
483.372	81.19
483.59	88.19
483.808	91.19
484.027	106.19
484.245	82.19
484.463	88.19
484.681	90.19
484.9	88.19
485.118	86.19
485.336	90.19
485.554	93.19
485.772	99.19
485.99	98.19
486.209	86.19
486.427	96.19
486.645	102.19
486.863	100.19
487.081	86.19
487.299	92.19
487.517	102.19
487.735	93.19
487.953	97.19
488.171	85.19
488.389	99.19
488.607	101.19
488.825	95.19
489.043	94.19
489.261	104.19
489.479	96.19
489.696	102.19
489.914	74.19
490.132	70.19
490.35	96.19
490.568	84.19
490.786	85.19
491.003	78.19
491.221	86.19
491.439	111.19
491.657	86.19
491.874	86.19
492.092	91.19
492.31	82.19
492.527	83.19
492.745	95.19
492.963	84.19
493.18	78.19
493.398	90.19
493.615	76.19
493.833	94.19
494.05	106.19
494.268	79.19
494.485	94.19
494.703	86.19
494.92	77.19
495.138	97.19
495.355	104.19
495.573	110.19
495.79	108.19
496.008	91.19
496.225	87.19
496.442	87.19
496.66	94.19
496.877	78.19
497.094	82.19
497.312	94.19
497.529	104.19
497.746	83.19
497.963	84.19
498.181	94.19
498.398	86.19
498.615	109.19
498.832	89.19
499.049	91.19
499.267	96.19
499.484	78.19
499.701	82.19
499.918	107.19
500.135	100.19
500.352	94.19
500.569	82.19
500.786	80.19
501.003	92.19
501.22	95.19
501.437	88.19
501.654	86.19
501.871	100.19
502.088	93.19
502.305	94.19
502.522	85.19
502.739	87.19
502.956	88.19
503.172	99.19
503.389	97.19
503.606	112.19
503.823	97.19
504.04	76.19
504.256	82.19
504.473	103.19
504.69	98.19
504.907	86.19
505.123	87.19
505.34	93.19
505.557	92.19
505.773	82.19
505.99	91.19
506.207	87.19
506.423	97.19
506.64	93.19
506.856	81.19
507.073	88.19
507.289	93.19
507.506	94.19
507.722	108.19
507.939	101.19
508.155	93.19
508.372	90.19
508.588	99.19
508.805	93.19
509.021	104.19
509.238	93.19
509.454	97.19
509.67	99.19
509.887	111.19
510.103	143.19
510.319	203.19
510.536	684.19
510.752	1990.19
510.968	563.19
511.184	139.19
511.401	103.19
511.617	102.19
511.833	93.19
512.049	90.19
512.265	93.19
512.481	80.19
512.698	83.19
512.914	96.19
513.13	103.19
513.346	90.19
513.562	86.19
513.778	102.19
513.994	94.19
514.21	109.19
514.426	105.19
514.642	116.19
514.858	126.19
515.074	154.19
515.29	396.19
515.506	1241.19
515.721	467.19
515.937	142.19
516.153	118.19
