Data from Uncirc_1991_H10_HRD10591_00021.txt Node
Date: Wed Jan 03 11:50:42 EST 2024
User: Yrep
Spectrometer: HR+D1059
Trigger mode: 1
Integration Time (sec): 1.000000E-1
Scans to average: 1
Electric dark correction enabled: true
Nonlinearity correction enabled: false
Boxcar width: 0
XAxis mode: Wavelengths
Number of Pixels in Spectrum: 2048
>>>>>Begin Spectral Data<<<<<
223.165	-25.38
223.4	-25.38
223.635	-25.38
223.869	2.62
224.104	-18.38
224.338	-13.38
224.573	-18.38
224.808	-6.38
225.042	3.62
225.277	-8.38
225.511	1.62
225.746	-6.38
225.98	3.62
226.215	6.62
226.449	27.62
226.683	9.62
226.918	9.62
227.152	31.62
227.387	38.62
227.621	45.62
227.856	43.62
228.09	58.62
228.324	51.62
228.559	58.62
228.793	61.62
229.027	66.62
229.262	61.62
229.496	71.62
229.73	71.62
229.964	85.62
230.199	68.62
230.433	67.62
230.667	76.62
230.901	77.62
231.136	75.62
231.37	77.62
231.604	66.62
231.838	78.62
232.072	83.62
232.306	70.62
232.541	87.62
232.775	72.62
233.009	77.62
233.243	72.62
233.477	77.62
233.711	79.62
233.945	65.62
234.179	81.62
234.413	72.62
234.647	65.62
234.881	83.62
235.115	71.62
235.349	77.62
235.583	84.62
235.817	72.62
236.051	63.62
236.285	81.62
236.519	67.62
236.753	75.62
236.987	77.62
237.221	81.62
237.455	77.62
237.689	73.62
237.922	82.62
238.156	88.62
238.39	67.62
238.624	67.62
238.858	82.62
239.091	63.62
239.325	65.62
239.559	89.62
239.793	90.62
240.027	66.62
240.26	67.62
240.494	73.62
240.728	75.62
240.961	65.62
241.195	81.62
241.429	80.62
241.662	57.62
241.896	80.62
242.13	80.62
242.363	71.62
242.597	69.62
242.83	80.62
243.064	96.62
243.298	87.62
243.531	73.62
243.765	59.62
243.998	78.62
244.232	75.62
244.465	79.62
244.699	75.62
244.932	84.62
245.166	81.62
245.399	80.62
245.633	82.62
245.866	79.62
246.099	84.62
246.333	73.62
246.566	64.62
246.8	80.62
247.033	73.62
247.266	82.62
247.5	68.62
247.733	80.62
247.966	83.62
248.2	61.62
248.433	71.62
248.666	73.62
248.899	81.62
249.133	87.62
249.366	76.62
249.599	93.62
249.832	82.62
250.066	82.62
250.299	62.62
250.532	69.62
250.765	61.62
250.998	83.62
251.231	71.62
251.465	65.62
251.698	80.62
251.931	69.62
252.164	68.62
252.397	87.62
252.63	81.62
252.863	72.62
253.096	89.62
253.329	88.62
253.562	83.62
253.795	83.62
254.028	69.62
254.261	70.62
254.494	71.62
254.727	82.62
254.96	87.62
255.193	81.62
255.426	78.62
255.659	82.62
255.892	67.62
256.124	81.62
256.357	80.62
256.59	89.62
256.823	74.62
257.056	89.62
257.289	83.62
257.521	80.62
257.754	67.62
257.987	73.62
258.22	71.62
258.452	81.62
258.685	92.62
258.918	79.62
259.151	73.62
259.383	55.62
259.616	76.62
259.849	71.62
260.081	81.62
260.314	77.62
260.547	99.62
260.779	69.62
261.012	68.62
261.244	84.62
261.477	89.62
261.71	78.62
261.942	100.62
262.175	105.62
262.407	87.62
262.64	77.62
262.872	94.62
263.105	91.62
263.337	81.62
263.57	68.62
263.802	82.62
264.035	83.62
264.267	85.62
264.499	91.62
264.732	75.62
264.964	75.62
265.197	72.62
265.429	76.62
265.661	80.62
265.894	73.62
266.126	76.62
266.358	72.62
266.591	69.62
266.823	105.62
267.055	89.62
267.287	84.62
267.52	78.62
267.752	81.62
267.984	75.62
268.216	85.62
268.448	87.62
268.681	93.62
268.913	93.62
269.145	72.62
269.377	74.62
269.609	75.62
269.841	72.62
270.073	77.62
270.306	89.62
270.538	73.62
270.77	78.62
271.002	74.62
271.234	89.62
271.466	86.62
271.698	84.62
271.93	86.62
272.162	84.62
272.394	78.62
272.626	91.62
272.858	75.62
273.09	86.62
273.322	87.62
273.553	73.62
273.785	79.62
274.017	82.62
274.249	84.62
274.481	80.62
274.713	82.62
274.945	75.62
275.176	82.62
275.408	82.62
275.64	77.62
275.872	77.62
276.104	80.62
276.335	87.62
276.567	97.62
276.799	100.62
277.031	99.62
277.262	92.62
277.494	103.62
277.726	71.62
277.957	71.62
278.189	84.62
278.421	71.62
278.652	86.62
278.884	82.62
279.115	75.62
279.347	89.62
279.579	82.62
279.81	72.62
280.042	78.62
280.273	79.62
280.505	85.62
280.736	91.62
280.968	100.62
281.199	83.62
281.431	83.62
281.662	79.62
281.894	72.62
282.125	87.62
282.356	116.62
282.588	129.62
282.819	120.62
283.051	80.62
283.282	93.62
283.513	92.62
283.745	87.62
283.976	73.62
284.207	83.62
284.439	80.62
284.67	74.62
284.901	84.62
285.132	67.62
285.364	96.62
285.595	86.62
285.826	91.62
286.057	84.62
286.288	89.62
286.52	78.62
286.751	77.62
286.982	75.62
287.213	83.62
287.444	89.62
287.675	78.62
287.906	80.62
288.138	94.62
288.369	92.62
288.6	82.62
288.831	87.62
289.062	79.62
289.293	73.62
289.524	79.62
289.755	96.62
289.986	89.62
290.217	92.62
290.448	95.62
290.679	87.62
290.91	68.62
291.141	81.62
291.371	87.62
291.602	86.62
291.833	83.62
292.064	84.62
292.295	88.62
292.526	86.62
292.757	90.62
292.987	82.62
293.218	75.62
293.449	91.62
293.68	79.62
293.91	82.62
294.141	89.62
294.372	61.62
294.603	78.62
294.833	86.62
295.064	92.62
295.295	95.62
295.525	84.62
295.756	95.62
295.987	98.62
296.217	126.62
296.448	106.62
296.679	81.62
296.909	99.62
297.14	88.62
297.37	84.62
297.601	81.62
297.831	93.62
298.062	105.62
298.292	97.62
298.523	89.62
298.753	86.62
298.984	85.62
299.214	78.62
299.445	104.62
299.675	95.62
299.905	85.62
300.136	87.62
300.366	83.62
300.597	89.62
300.827	82.62
301.057	112.62
301.288	97.62
301.518	107.62
301.748	90.62
301.979	91.62
302.209	77.62
302.439	85.62
302.669	92.62
302.9	89.62
303.13	86.62
303.36	96.62
303.59	95.62
303.82	99.62
304.051	91.62
304.281	80.62
304.511	75.62
304.741	80.62
304.971	73.62
305.201	90.62
305.431	79.62
305.661	88.62
305.891	84.62
306.121	97.62
306.352	102.62
306.582	101.62
306.812	97.62
307.042	95.62
307.272	90.62
307.502	89.62
307.731	88.62
307.961	89.62
308.191	83.62
308.421	82.62
308.651	84.62
308.881	93.62
309.111	102.62
309.341	89.62
309.571	95.62
309.8	107.62
310.03	80.62
310.26	88.62
310.49	90.62
310.72	101.62
310.949	101.62
311.179	99.62
311.409	89.62
311.639	93.62
311.868	98.62
312.098	95.62
312.328	84.62
312.557	92.62
312.787	98.62
313.017	106.62
313.246	103.62
313.476	92.62
313.706	80.62
313.935	77.62
314.165	78.62
314.394	107.62
314.624	103.62
314.853	89.62
315.083	84.62
315.312	85.62
315.542	88.62
315.771	91.62
316.001	95.62
316.23	87.62
316.46	81.62
316.689	80.62
316.919	109.62
317.148	94.62
317.377	98.62
317.607	90.62
317.836	86.62
318.065	85.62
318.295	77.62
318.524	94.62
318.753	69.62
318.983	83.62
319.212	94.62
319.441	115.62
319.67	106.62
319.9	96.62
320.129	80.62
320.358	108.62
320.587	94.62
320.816	99.62
321.046	111.62
321.275	85.62
321.504	84.62
321.733	94.62
321.962	101.62
322.191	111.62
322.42	92.62
322.649	101.62
322.878	104.62
323.108	111.62
323.337	115.62
323.566	101.62
323.795	158.62
324.024	204.62
324.253	400.62
324.482	866.62
324.71	1814.62
324.939	2459.62
325.168	880.62
325.397	263.62
325.626	162.62
325.855	137.62
326.084	131.62
326.313	141.62
326.542	164.62
326.77	235.62
326.999	489.62
327.228	991.62
327.457	1873.62
327.686	1482.62
327.914	385.62
328.143	187.62
328.372	149.62
328.6	127.62
328.829	100.62
329.058	128.62
329.287	132.62
329.515	109.62
329.744	107.62
329.972	93.62
330.201	99.62
330.43	98.62
330.658	105.62
330.887	127.62
331.115	116.62
331.344	100.62
331.572	101.62
331.801	99.62
332.03	104.62
332.258	87.62
332.486	92.62
332.715	83.62
332.943	92.62
333.172	96.62
333.4	88.62
333.629	90.62
333.857	102.62
334.085	101.62
334.314	89.62
334.542	96.62
334.771	103.62
334.999	89.62
335.227	78.62
335.455	89.62
335.684	90.62
335.912	100.62
336.14	104.62
336.369	90.62
336.597	99.62
336.825	93.62
337.053	79.62
337.281	68.62
337.51	92.62
337.738	95.62
337.966	97.62
338.194	106.62
338.422	94.62
338.65	94.62
338.878	77.62
339.106	89.62
339.334	95.62
339.562	95.62
339.79	93.62
340.018	97.62
340.246	76.62
340.474	86.62
340.702	93.62
340.93	95.62
341.158	91.62
341.386	87.62
341.614	93.62
341.842	92.62
342.07	107.62
342.298	76.62
342.526	90.62
342.754	97.62
342.981	80.62
343.209	81.62
343.437	106.62
343.665	93.62
343.893	92.62
344.12	104.62
344.348	101.62
344.576	75.62
344.804	92.62
345.031	99.62
345.259	98.62
345.487	99.62
345.714	77.62
345.942	100.62
346.17	88.62
346.397	98.62
346.625	90.62
346.853	99.62
347.08	88.62
347.308	84.62
347.535	93.62
347.763	111.62
347.99	91.62
348.218	95.62
348.445	105.62
348.673	95.62
348.9	88.62
349.128	86.62
349.355	91.62
349.583	90.62
349.81	93.62
350.037	94.62
350.265	84.62
350.492	92.62
350.72	92.62
350.947	108.62
351.174	110.62
351.402	101.62
351.629	114.62
351.856	106.62
352.083	102.62
352.311	100.62
352.538	104.62
352.765	108.62
352.992	121.62
353.22	99.62
353.447	103.62
353.674	98.62
353.901	91.62
354.128	111.62
354.355	96.62
354.583	95.62
354.81	91.62
355.037	83.62
355.264	101.62
355.491	78.62
355.718	69.62
355.945	78.62
356.172	84.62
356.399	98.62
356.626	96.62
356.853	94.62
357.08	98.62
357.307	89.62
357.534	76.62
357.761	93.62
357.988	89.62
358.215	90.62
358.441	94.62
358.668	85.62
358.895	79.62
359.122	80.62
359.349	84.62
359.576	100.62
359.802	93.62
360.029	101.62
360.256	114.62
360.483	89.62
360.709	94.62
360.936	90.62
361.163	84.62
361.39	78.62
361.616	98.62
361.843	91.62
362.07	95.62
362.296	84.62
362.523	97.62
362.749	75.62
362.976	80.62
363.203	95.62
363.429	73.62
363.656	102.62
363.882	81.62
364.109	80.62
364.335	85.62
364.562	81.62
364.788	95.62
365.015	93.62
365.241	91.62
365.468	112.62
365.694	106.62
365.92	109.62
366.147	90.62
366.373	76.62
366.599	109.62
366.826	97.62
367.052	89.62
367.278	79.62
367.505	81.62
367.731	94.62
367.957	92.62
368.184	86.62
368.41	95.62
368.636	98.62
368.862	121.62
369.089	92.62
369.315	89.62
369.541	99.62
369.767	93.62
369.993	95.62
370.219	86.62
370.445	88.62
370.672	90.62
370.898	87.62
371.124	85.62
371.35	81.62
371.576	77.62
371.802	90.62
372.028	90.62
372.254	75.62
372.48	65.62
372.706	90.62
372.932	75.62
373.158	79.62
373.384	83.62
373.61	89.62
373.835	95.62
374.061	90.62
374.287	90.62
374.513	90.62
374.739	83.62
374.965	93.62
375.191	91.62
375.416	93.62
375.642	89.62
375.868	88.62
376.094	81.62
376.319	89.62
376.545	83.62
376.771	86.62
376.997	99.62
377.222	83.62
377.448	85.62
377.674	94.62
377.899	98.62
378.125	88.62
378.35	87.62
378.576	92.62
378.802	95.62
379.027	79.62
379.253	106.62
379.478	81.62
379.704	88.62
379.929	94.62
380.155	96.62
380.38	97.62
380.606	85.62
380.831	93.62
381.057	89.62
381.282	89.62
381.507	83.62
381.733	88.62
381.958	76.62
382.184	99.62
382.409	95.62
382.634	98.62
382.86	94.62
383.085	91.62
383.31	101.62
383.535	96.62
383.761	95.62
383.986	95.62
384.211	88.62
384.436	95.62
384.662	85.62
384.887	101.62
385.112	84.62
385.337	105.62
385.562	85.62
385.787	109.62
386.013	79.62
386.238	108.62
386.463	94.62
386.688	103.62
386.913	94.62
387.138	110.62
387.363	99.62
387.588	93.62
387.813	97.62
388.038	97.62
388.263	107.62
388.488	112.62
388.713	101.62
388.938	88.62
389.163	94.62
389.387	105.62
389.612	87.62
389.837	94.62
390.062	100.62
390.287	83.62
390.512	95.62
390.736	91.62
390.961	90.62
391.186	80.62
391.411	85.62
391.636	90.62
391.86	102.62
392.085	85.62
392.31	92.62
392.534	87.62
392.759	89.62
392.984	92.62
393.208	93.62
393.433	92.62
393.658	90.62
393.882	91.62
394.107	73.62
394.331	80.62
394.556	96.62
394.78	82.62
395.005	76.62
395.229	82.62
395.454	84.62
395.678	82.62
395.903	92.62
396.127	76.62
396.352	82.62
396.576	104.62
396.801	90.62
397.025	95.62
397.249	83.62
397.474	83.62
397.698	83.62
397.922	95.62
398.147	73.62
398.371	84.62
398.595	96.62
398.82	92.62
399.044	83.62
399.268	73.62
399.492	90.62
399.717	93.62
399.941	93.62
400.165	96.62
400.389	94.62
400.613	87.62
400.837	72.62
401.062	89.62
401.286	109.62
401.51	90.62
401.734	91.62
401.958	105.62
402.182	135.62
402.406	144.62
402.63	103.62
402.854	95.62
403.078	87.62
403.302	101.62
403.526	76.62
403.75	95.62
403.974	76.62
404.198	81.62
404.422	72.62
404.645	65.62
404.869	87.62
405.093	91.62
405.317	88.62
405.541	94.62
405.765	80.62
405.988	105.62
406.212	179.62
406.436	215.62
406.66	142.62
406.883	95.62
407.107	105.62
407.331	89.62
407.555	100.62
407.778	96.62
408.002	82.62
408.226	83.62
408.449	75.62
408.673	85.62
408.896	102.62
409.12	92.62
409.344	83.62
409.567	85.62
409.791	84.62
410.014	101.62
410.238	94.62
410.461	91.62
410.685	87.62
410.908	109.62
411.132	108.62
411.355	104.62
411.578	98.62
411.802	97.62
412.025	86.62
412.249	99.62
412.472	89.62
412.695	89.62
412.919	85.62
413.142	80.62
413.365	84.62
413.589	97.62
413.812	88.62
414.035	93.62
414.258	97.62
414.482	88.62
414.705	84.62
414.928	77.62
415.151	80.62
415.374	94.62
415.597	90.62
415.821	91.62
416.044	77.62
416.267	94.62
416.49	97.62
416.713	88.62
416.936	84.62
417.159	85.62
417.382	84.62
417.605	96.62
417.828	85.62
418.051	85.62
418.274	87.62
418.497	98.62
418.72	78.62
418.943	97.62
419.166	80.62
419.389	87.62
419.611	92.62
419.834	61.62
420.057	86.62
420.28	99.62
420.503	75.62
420.726	77.62
420.948	92.62
421.171	91.62
421.394	92.62
421.617	86.62
421.839	85.62
422.062	83.62
422.285	87.62
422.507	88.62
422.73	103.62
422.953	78.62
423.175	94.62
423.398	92.62
423.621	96.62
423.843	88.62
424.066	86.62
424.288	92.62
424.511	88.62
424.733	92.62
424.956	92.62
425.178	105.62
425.401	97.62
425.623	89.62
425.846	94.62
426.068	111.62
426.291	93.62
426.513	88.62
426.735	77.62
426.958	83.62
427.18	106.62
427.402	135.62
427.625	165.62
427.847	124.62
428.069	93.62
428.292	95.62
428.514	84.62
428.736	90.62
428.958	90.62
429.181	94.62
429.403	90.62
429.625	97.62
429.847	102.62
430.069	106.62
430.292	95.62
430.514	97.62
430.736	89.62
430.958	96.62
431.18	68.62
431.402	77.62
431.624	90.62
431.846	86.62
432.068	82.62
432.29	87.62
432.512	86.62
432.734	82.62
432.956	96.62
433.178	119.62
433.4	91.62
433.622	90.62
433.844	93.62
434.066	99.62
434.287	93.62
434.509	94.62
434.731	84.62
434.953	75.62
435.175	79.62
435.397	90.62
435.618	79.62
435.84	99.62
436.062	129.62
436.284	112.62
436.505	93.62
436.727	108.62
436.949	92.62
437.17	90.62
437.392	79.62
437.614	83.62
437.835	104.62
438.057	122.62
438.278	108.62
438.5	117.62
438.721	116.62
438.943	106.62
439.165	88.62
439.386	83.62
439.608	105.62
439.829	93.62
440.05	123.62
440.272	154.62
440.493	102.62
440.715	84.62
440.936	72.62
441.158	84.62
441.379	76.62
441.6	98.62
441.822	92.62
442.043	97.62
442.264	108.62
442.486	101.62
442.707	114.62
442.928	97.62
443.149	120.62
443.371	108.62
443.592	109.62
443.813	125.62
444.034	110.62
444.255	104.62
444.476	91.62
444.698	87.62
444.919	88.62
445.14	140.62
445.361	112.62
445.582	122.62
445.803	135.62
446.024	151.62
446.245	131.62
446.466	108.62
446.687	84.62
446.908	82.62
447.129	78.62
447.35	97.62
447.571	96.62
447.792	89.62
448.013	88.62
448.234	108.62
448.455	105.62
448.675	117.62
448.896	122.62
449.117	102.62
449.338	111.62
449.559	132.62
449.779	128.62
450	102.62
450.221	96.62
450.442	89.62
450.662	95.62
450.883	117.62
451.104	99.62
451.324	92.62
451.545	84.62
451.766	88.62
451.986	88.62
452.207	88.62
452.428	76.62
452.648	98.62
452.869	101.62
453.089	105.62
453.31	113.62
453.53	89.62
453.751	82.62
453.971	99.62
454.192	107.62
454.412	89.62
454.633	82.62
454.853	83.62
455.073	82.62
455.294	80.62
455.514	89.62
455.734	84.62
455.955	77.62
456.175	82.62
456.395	85.62
456.616	90.62
456.836	84.62
457.056	73.62
457.276	76.62
457.497	92.62
457.717	72.62
457.937	83.62
458.157	87.62
458.377	75.62
458.598	94.62
458.818	152.62
459.038	140.62
459.258	97.62
459.478	81.62
459.698	96.62
459.918	98.62
460.138	83.62
460.358	73.62
460.578	82.62
460.798	81.62
461.018	90.62
461.238	71.62
461.458	88.62
461.678	96.62
461.898	94.62
462.118	73.62
462.338	87.62
462.558	70.62
462.777	94.62
462.997	76.62
463.217	68.62
463.437	81.62
463.657	91.62
463.876	73.62
464.096	85.62
464.316	98.62
464.536	90.62
464.755	84.62
464.975	92.62
465.195	162.62
465.414	137.62
465.634	72.62
465.854	93.62
466.073	89.62
466.293	84.62
466.512	90.62
466.732	94.62
466.951	89.62
467.171	96.62
467.391	95.62
467.61	109.62
467.829	101.62
468.049	80.62
468.268	98.62
468.488	95.62
468.707	83.62
468.927	85.62
469.146	67.62
469.365	103.62
469.585	83.62
469.804	79.62
470.023	92.62
470.243	96.62
470.462	107.62
470.681	117.62
470.901	91.62
471.12	80.62
471.339	75.62
471.558	86.62
471.777	86.62
471.997	89.62
472.216	94.62
472.435	85.62
472.654	73.62
472.873	93.62
473.092	79.62
473.311	80.62
473.53	90.62
473.749	97.62
473.968	96.62
474.187	112.62
474.406	87.62
474.625	93.62
474.844	93.62
475.063	91.62
475.282	103.62
475.501	88.62
475.72	77.62
475.939	92.62
476.158	78.62
476.377	92.62
476.596	82.62
476.814	96.62
477.033	79.62
477.252	84.62
477.471	92.62
477.69	95.62
477.908	75.62
478.127	87.62
478.346	68.62
478.564	91.62
478.783	101.62
479.002	81.62
479.22	85.62
479.439	110.62
479.658	102.62
479.876	87.62
480.095	84.62
480.313	98.62
480.532	89.62
480.751	95.62
480.969	103.62
481.188	91.62
481.406	98.62
481.624	94.62
481.843	76.62
482.061	87.62
482.28	91.62
482.498	104.62
482.717	94.62
482.935	81.62
483.153	73.62
483.372	87.62
483.59	92.62
483.808	105.62
484.027	90.62
484.245	100.62
484.463	89.62
484.681	98.62
484.9	92.62
485.118	97.62
485.336	92.62
485.554	94.62
485.772	96.62
485.99	98.62
486.209	94.62
486.427	114.62
486.645	96.62
486.863	95.62
487.081	101.62
487.299	106.62
487.517	91.62
487.735	102.62
487.953	90.62
488.171	96.62
488.389	102.62
488.607	99.62
488.825	94.62
489.043	78.62
489.261	92.62
489.479	84.62
489.696	88.62
489.914	85.62
490.132	85.62
490.35	85.62
490.568	81.62
490.786	88.62
491.003	91.62
491.221	89.62
491.439	94.62
491.657	83.62
491.874	92.62
492.092	87.62
492.31	94.62
492.527	83.62
492.745	83.62
492.963	94.62
493.18	87.62
493.398	109.62
493.615	83.62
493.833	92.62
494.05	96.62
494.268	88.62
494.485	80.62
494.703	88.62
494.92	87.62
495.138	98.62
495.355	84.62
495.573	85.62
495.79	82.62
496.008	80.62
496.225	92.62
496.442	94.62
496.66	89.62
496.877	82.62
497.094	82.62
497.312	93.62
497.529	79.62
497.746	91.62
497.963	85.62
498.181	75.62
498.398	97.62
498.615	103.62
498.832	98.62
499.049	89.62
499.267	91.62
499.484	89.62
499.701	105.62
499.918	91.62
500.135	79.62
500.352	82.62
500.569	87.62
500.786	83.62
501.003	84.62
501.22	91.62
501.437	90.62
501.654	96.62
501.871	87.62
502.088	94.62
502.305	91.62
502.522	77.62
502.739	93.62
502.956	110.62
503.172	83.62
503.389	94.62
503.606	87.62
503.823	88.62
504.04	81.62
504.256	84.62
504.473	89.62
504.69	84.62
504.907	84.62
505.123	86.62
505.34	87.62
505.557	101.62
505.773	86.62
505.99	85.62
506.207	104.62
506.423	85.62
506.64	91.62
506.856	80.62
507.073	89.62
507.289	94.62
507.506	87.62
507.722	106.62
507.939	106.62
508.155	99.62
508.372	94.62
508.588	97.62
508.805	83.62
509.021	107.62
509.238	96.62
509.454	87.62
509.67	85.62
509.887	98.62
510.103	103.62
510.319	208.62
510.536	746.62
510.752	2209.62
510.968	612.62
511.184	151.62
511.401	106.62
511.617	100.62
511.833	91.62
512.049	93.62
512.265	92.62
512.481	96.62
512.698	85.62
512.914	99.62
513.13	105.62
513.346	90.62
513.562	101.62
513.778	91.62
513.994	103.62
514.21	103.62
514.426	112.62
514.642	124.62
514.858	112.62
515.074	142.62
515.29	468.62
515.506	1482.62
515.721	550.62
515.937	138.62
516.153	128.62
516.369	113.62
516.585	83.62
