Data from Uncirc_1991_H10_HRD10591_00035.txt Node
Date: Wed Jan 03 11:50:45 EST 2024
User: Yrep
Spectrometer: HR+D1059
Trigger mode: 1
Integration Time (sec): 1.000000E-1
Scans to average: 1
Electric dark correction enabled: true
Nonlinearity correction enabled: false
Boxcar width: 0
XAxis mode: Wavelengths
Number of Pixels in Spectrum: 2048
>>>>>Begin Spectral Data<<<<<
223.165	-13
223.4	-13
223.635	-13
223.869	-15
224.104	-21
224.338	-18
224.573	-23
224.808	-2
225.042	7
225.277	-4
225.511	2
225.746	5
225.98	-8
226.215	8
226.449	22
226.683	12
226.918	21
227.152	27
227.387	34
227.621	38
227.856	49
228.09	62
228.324	72
228.559	55
228.793	68
229.027	57
229.262	61
229.496	81
229.73	76
229.964	83
230.199	68
230.433	77
230.667	78
230.901	78
231.136	70
231.37	74
231.604	83
231.838	86
232.072	77
232.306	86
232.541	84
232.775	89
233.009	85
233.243	80
233.477	79
233.711	83
233.945	85
234.179	73
234.413	82
234.647	69
234.881	80
235.115	87
235.349	77
235.583	86
235.817	97
236.051	70
236.285	60
236.519	84
236.753	73
236.987	77
237.221	85
237.455	98
237.689	86
237.922	68
238.156	66
238.39	83
238.624	79
238.858	71
239.091	81
239.325	71
239.559	83
239.793	84
240.027	87
240.26	85
240.494	86
240.728	69
240.961	81
241.195	88
241.429	65
241.662	71
241.896	85
242.13	78
242.363	92
242.597	82
242.83	89
243.064	93
243.298	86
243.531	76
243.765	82
243.998	70
244.232	88
244.465	86
244.699	87
244.932	83
245.166	78
245.399	82
245.633	73
245.866	79
246.099	80
246.333	82
246.566	83
246.8	99
247.033	80
247.266	78
247.5	76
247.733	85
247.966	76
248.2	85
248.433	81
248.666	80
248.899	88
249.133	99
249.366	90
249.599	114
249.832	91
250.066	93
250.299	85
250.532	86
250.765	100
250.998	70
251.231	73
251.465	78
251.698	95
251.931	88
252.164	88
252.397	81
252.63	86
252.863	91
253.096	87
253.329	79
253.562	66
253.795	94
254.028	87
254.261	78
254.494	68
254.727	86
254.96	84
255.193	81
255.426	82
255.659	89
255.892	89
256.124	98
256.357	95
256.59	84
256.823	85
257.056	81
257.289	80
257.521	72
257.754	100
257.987	65
258.22	86
258.452	76
258.685	80
258.918	88
259.151	87
259.383	89
259.616	92
259.849	89
260.081	98
260.314	80
260.547	82
260.779	92
261.012	101
261.244	91
261.477	69
261.71	98
261.942	109
262.175	124
262.407	95
262.64	87
262.872	77
263.105	95
263.337	90
263.57	94
263.802	98
264.035	82
264.267	90
264.499	95
264.732	103
264.964	101
265.197	94
265.429	85
265.661	83
265.894	82
266.126	86
266.358	99
266.591	76
266.823	102
267.055	97
267.287	85
267.52	82
267.752	91
267.984	80
268.216	91
268.448	81
268.681	90
268.913	79
269.145	80
269.377	85
269.609	100
269.841	86
270.073	93
270.306	85
270.538	89
270.77	81
271.002	93
271.234	77
271.466	89
271.698	109
271.93	72
272.162	77
272.394	91
272.626	87
272.858	90
273.09	89
273.322	83
273.553	95
273.785	84
274.017	87
274.249	86
274.481	82
274.713	87
274.945	83
275.176	92
275.408	91
275.64	80
275.872	76
276.104	89
276.335	96
276.567	104
276.799	101
277.031	103
277.262	99
277.494	86
277.726	86
277.957	82
278.189	93
278.421	76
278.652	89
278.884	84
279.115	94
279.347	96
279.579	99
279.81	72
280.042	85
280.273	78
280.505	90
280.736	94
280.968	84
281.199	96
281.431	94
281.662	78
281.894	97
282.125	98
282.356	104
282.588	140
282.819	133
283.051	87
283.282	98
283.513	98
283.745	95
283.976	84
284.207	77
284.439	84
284.67	85
284.901	76
285.132	95
285.364	84
285.595	91
285.826	95
286.057	90
286.288	89
286.52	94
286.751	70
286.982	91
287.213	86
287.444	105
287.675	92
287.906	101
288.138	95
288.369	83
288.6	88
288.831	88
289.062	84
289.293	104
289.524	92
289.755	93
289.986	81
290.217	94
290.448	99
290.679	87
290.91	95
291.141	93
291.371	85
291.602	77
291.833	81
292.064	95
292.295	92
292.526	89
292.757	86
292.987	83
293.218	96
293.449	97
293.68	79
293.91	81
294.141	90
294.372	88
294.603	88
294.833	94
295.064	89
295.295	92
295.525	84
295.756	106
295.987	109
296.217	142
296.448	124
296.679	99
296.909	83
297.14	90
297.37	97
297.601	97
297.831	97
298.062	81
298.292	90
298.523	96
298.753	86
298.984	104
299.214	98
299.445	106
299.675	99
299.905	102
300.136	93
300.366	79
300.597	106
300.827	108
301.057	110
301.288	102
301.518	88
301.748	86
301.979	112
302.209	95
302.439	96
302.669	104
302.9	81
303.13	104
303.36	97
303.59	99
303.82	106
304.051	87
304.281	106
304.511	94
304.741	96
304.971	89
305.201	91
305.431	82
305.661	102
305.891	102
306.121	99
306.352	103
306.582	109
306.812	88
307.042	88
307.272	81
307.502	87
307.731	93
307.961	101
308.191	79
308.421	93
308.651	89
308.881	89
309.111	89
309.341	92
309.571	108
309.8	97
310.03	103
310.26	98
310.49	107
310.72	112
310.949	108
311.179	104
311.409	101
311.639	104
311.868	96
312.098	92
312.328	93
312.557	106
312.787	98
313.017	109
313.246	103
313.476	104
313.706	114
313.935	106
314.165	101
314.394	102
314.624	99
314.853	103
315.083	100
315.312	96
315.542	97
315.771	89
316.001	87
316.23	100
316.46	92
316.689	100
316.919	95
317.148	98
317.377	113
317.607	93
317.836	99
318.065	100
318.295	89
318.524	101
318.753	92
318.983	95
319.212	112
319.441	113
319.67	115
319.9	109
320.129	95
320.358	96
320.587	102
320.816	92
321.046	109
321.275	85
321.504	99
321.733	113
321.962	106
322.191	110
322.42	114
322.649	120
322.878	110
323.108	102
323.337	132
323.566	149
323.795	170
324.024	194
324.253	397
324.482	835
324.71	1684
324.939	2268
325.168	831
325.397	243
325.626	159
325.855	140
326.084	130
326.313	136
326.542	162
326.77	233
326.999	451
327.228	924
327.457	1680
327.686	1330
327.914	384
328.143	204
328.372	148
328.6	123
328.829	105
329.058	129
329.287	136
329.515	113
329.744	114
329.972	94
330.201	92
330.43	107
330.658	124
330.887	143
331.115	128
331.344	91
331.572	94
331.801	109
332.03	102
332.258	81
332.486	104
332.715	100
332.943	92
333.172	85
333.4	105
333.629	110
333.857	109
334.085	117
334.314	101
334.542	94
334.771	84
334.999	94
335.227	81
335.455	89
335.684	95
335.912	102
336.14	96
336.369	106
336.597	104
336.825	109
337.053	113
337.281	102
337.51	106
337.738	92
337.966	104
338.194	96
338.422	77
338.65	102
338.878	102
339.106	89
339.334	98
339.562	89
339.79	97
340.018	103
340.246	93
340.474	94
340.702	97
340.93	88
341.158	92
341.386	105
341.614	96
341.842	88
342.07	93
342.298	87
342.526	91
342.754	92
342.981	101
343.209	97
343.437	98
343.665	96
343.893	88
344.12	112
344.348	98
344.576	104
344.804	100
345.031	110
345.259	114
345.487	104
345.714	119
345.942	106
346.17	92
346.397	99
346.625	81
346.853	100
347.08	88
347.308	91
347.535	98
347.763	105
347.99	86
348.218	103
348.445	96
348.673	96
348.9	106
349.128	102
349.355	96
349.583	111
349.81	97
350.037	110
350.265	101
350.492	108
350.72	105
350.947	105
351.174	105
351.402	119
351.629	112
351.856	106
352.083	104
352.311	104
352.538	118
352.765	101
352.992	107
353.22	108
353.447	108
353.674	108
353.901	111
354.128	104
354.355	110
354.583	113
354.81	102
355.037	99
355.264	103
355.491	90
355.718	97
355.945	90
356.172	96
356.399	93
356.626	102
356.853	86
357.08	101
357.307	103
357.534	88
357.761	95
357.988	105
358.215	101
358.441	90
358.668	100
358.895	106
359.122	90
359.349	88
359.576	96
359.802	111
360.029	113
360.256	119
360.483	101
360.709	88
360.936	96
361.163	88
361.39	95
361.616	108
361.843	90
362.07	100
362.296	111
362.523	86
362.749	96
362.976	95
363.203	97
363.429	91
363.656	108
363.882	80
364.109	85
364.335	105
364.562	93
364.788	105
365.015	98
365.241	98
365.468	111
365.694	110
365.92	100
366.147	89
366.373	83
366.599	94
366.826	99
367.052	110
367.278	96
367.505	106
367.731	109
367.957	105
368.184	111
368.41	105
368.636	129
368.862	118
369.089	118
369.315	105
369.541	96
369.767	93
369.993	96
370.219	92
370.445	92
370.672	89
370.898	91
371.124	95
371.35	72
371.576	88
371.802	102
372.028	83
372.254	95
372.48	80
372.706	96
372.932	97
373.158	94
373.384	105
373.61	112
373.835	91
374.061	96
374.287	104
374.513	101
374.739	96
374.965	86
375.191	78
375.416	82
375.642	88
375.868	86
376.094	94
376.319	72
376.545	91
376.771	97
376.997	83
377.222	100
377.448	91
377.674	85
377.899	101
378.125	83
378.35	98
378.576	83
378.802	94
379.027	102
379.253	90
379.478	99
379.704	94
379.929	88
380.155	88
380.38	91
380.606	102
380.831	95
381.057	94
381.282	82
381.507	92
381.733	102
381.958	103
382.184	99
382.409	92
382.634	100
382.86	100
383.085	92
383.31	93
383.535	105
383.761	92
383.986	110
384.211	88
384.436	97
384.662	98
384.887	90
385.112	100
385.337	105
385.562	115
385.787	110
386.013	112
386.238	101
386.463	92
386.688	112
386.913	95
387.138	106
387.363	92
387.588	114
387.813	94
388.038	106
388.263	113
388.488	106
388.713	94
388.938	102
389.163	98
389.387	100
389.612	97
389.837	101
390.062	98
390.287	109
390.512	108
390.736	91
390.961	111
391.186	100
391.411	92
391.636	102
391.86	86
392.085	98
392.31	101
392.534	77
392.759	105
392.984	80
393.208	96
393.433	84
393.658	92
393.882	84
394.107	83
394.331	86
394.556	101
394.78	93
395.005	80
395.229	96
395.454	89
395.678	97
395.903	83
396.127	86
396.352	89
396.576	89
396.801	84
397.025	97
397.249	90
397.474	95
397.698	94
397.922	103
398.147	90
398.371	99
398.595	94
398.82	97
399.044	88
399.268	85
399.492	89
399.717	100
399.941	99
400.165	88
400.389	87
400.613	70
400.837	95
401.062	105
401.286	97
401.51	95
401.734	104
401.958	100
402.182	116
402.406	163
402.63	125
402.854	99
403.078	84
403.302	98
403.526	94
403.75	86
403.974	90
404.198	98
404.422	80
404.645	80
404.869	84
405.093	99
405.317	97
405.541	93
405.765	104
405.988	124
406.212	175
406.436	237
406.66	149
406.883	100
407.107	95
407.331	103
407.555	113
407.778	92
408.002	103
408.226	105
408.449	91
408.673	88
408.896	95
409.12	108
409.344	92
409.567	83
409.791	85
410.014	99
410.238	89
410.461	90
410.685	100
410.908	108
411.132	111
411.355	113
411.578	89
411.802	83
412.025	84
412.249	95
412.472	81
412.695	92
412.919	108
413.142	95
413.365	94
413.589	81
413.812	92
414.035	85
414.258	80
414.482	95
414.705	90
414.928	103
415.151	100
415.374	105
415.597	97
415.821	82
416.044	86
416.267	93
416.49	96
416.713	88
416.936	80
417.159	104
417.382	83
417.605	97
417.828	80
418.051	83
418.274	97
418.497	75
418.72	83
418.943	86
419.166	88
419.389	88
419.611	103
419.834	101
420.057	88
420.28	103
420.503	89
420.726	84
420.948	89
421.171	103
421.394	100
421.617	104
421.839	82
422.062	100
422.285	106
422.507	98
422.73	108
422.953	101
423.175	82
423.398	85
423.621	102
423.843	86
424.066	73
424.288	89
424.511	97
424.733	98
424.956	103
425.178	95
425.401	117
425.623	109
425.846	98
426.068	84
426.291	100
426.513	90
426.735	89
426.958	94
427.18	100
427.402	137
427.625	186
427.847	128
428.069	94
428.292	92
428.514	101
428.736	88
428.958	80
429.181	89
429.403	85
429.625	98
429.847	95
430.069	106
430.292	95
430.514	103
430.736	94
430.958	84
431.18	93
431.402	86
431.624	88
431.846	86
432.068	89
432.29	99
432.512	81
432.734	92
432.956	80
433.178	106
433.4	85
433.622	107
433.844	89
434.066	88
434.287	93
434.509	86
434.731	109
434.953	82
435.175	91
435.397	98
435.618	95
435.84	109
436.062	138
436.284	120
436.505	123
436.727	104
436.949	88
437.17	101
437.392	83
437.614	88
437.835	114
438.057	94
438.278	114
438.5	121
438.721	142
438.943	98
439.165	87
439.386	70
439.608	97
439.829	102
440.05	129
440.272	162
440.493	102
440.715	100
440.936	84
441.158	79
441.379	88
441.6	100
441.822	90
442.043	104
442.264	108
442.486	112
442.707	113
442.928	112
443.149	122
443.371	127
443.592	103
443.813	137
444.034	111
444.255	106
444.476	95
444.698	89
444.919	80
445.14	147
445.361	131
445.582	120
445.803	142
446.024	145
446.245	142
446.466	112
446.687	92
446.908	96
447.129	100
447.35	86
447.571	84
447.792	91
448.013	103
448.234	113
448.455	113
448.675	137
448.896	126
449.117	112
449.338	109
449.559	137
449.779	139
450	106
450.221	101
450.442	111
450.662	92
450.883	99
451.104	97
451.324	103
451.545	95
451.766	89
451.986	110
452.207	79
452.428	96
452.648	104
452.869	102
453.089	126
453.31	120
453.53	90
453.751	96
453.971	109
454.192	108
454.412	93
454.633	92
454.853	96
455.073	97
455.294	112
455.514	98
455.734	93
455.955	97
456.175	89
456.395	89
456.616	85
456.836	80
457.056	95
457.276	88
457.497	82
457.717	92
457.937	95
458.157	94
458.377	94
458.598	96
458.818	149
459.038	188
459.258	126
459.478	87
459.698	86
459.918	92
460.138	85
460.358	86
460.578	106
460.798	104
461.018	93
461.238	105
461.458	89
461.678	88
461.898	97
462.118	81
462.338	97
462.558	79
462.777	83
462.997	87
463.217	83
463.437	90
463.657	86
463.876	98
464.096	104
464.316	103
464.536	95
464.755	94
464.975	117
465.195	169
465.414	189
465.634	103
465.854	98
466.073	89
466.293	86
466.512	103
466.732	99
466.951	95
467.171	116
467.391	101
467.61	103
467.829	105
468.049	90
468.268	87
468.488	80
468.707	87
468.927	108
469.146	83
469.365	80
469.585	100
469.804	109
470.023	88
470.243	84
470.462	113
470.681	114
470.901	94
471.12	100
471.339	85
471.558	92
471.777	89
471.997	88
472.216	92
472.435	101
472.654	89
472.873	99
473.092	84
473.311	92
473.53	108
473.749	98
473.968	105
474.187	110
474.406	101
474.625	94
474.844	84
475.063	103
475.282	85
475.501	90
475.72	100
475.939	70
476.158	76
476.377	90
476.596	90
476.814	104
477.033	100
477.252	83
477.471	88
477.69	93
477.908	83
478.127	88
478.346	82
478.564	102
478.783	101
479.002	97
479.22	98
479.439	108
479.658	102
479.876	90
480.095	88
480.313	92
480.532	94
480.751	92
480.969	95
481.188	108
481.406	85
481.624	88
481.843	91
482.061	91
482.28	94
482.498	73
482.717	96
482.935	86
483.153	96
483.372	100
483.59	93
483.808	85
484.027	84
484.245	92
484.463	103
484.681	108
484.9	115
485.118	90
485.336	97
485.554	89
485.772	102
485.99	107
486.209	110
486.427	109
486.645	117
486.863	125
487.081	89
487.299	99
487.517	103
487.735	93
487.953	96
488.171	95
488.389	104
488.607	104
488.825	101
489.043	97
489.261	78
489.479	96
489.696	87
489.914	98
490.132	92
490.35	94
490.568	110
490.786	84
491.003	72
491.221	88
491.439	97
491.657	105
491.874	92
492.092	98
492.31	93
492.527	106
492.745	80
492.963	92
493.18	94
493.398	96
493.615	92
493.833	82
494.05	71
494.268	88
494.485	100
494.703	102
494.92	106
495.138	88
495.355	80
495.573	83
495.79	98
496.008	98
496.225	98
496.442	104
496.66	102
496.877	90
497.094	109
497.312	99
497.529	106
497.746	90
497.963	107
498.181	88
498.398	86
498.615	125
498.832	101
499.049	104
499.267	86
499.484	98
499.701	89
499.918	88
500.135	93
500.352	87
500.569	101
500.786	68
501.003	90
501.22	88
501.437	108
501.654	84
501.871	99
502.088	93
502.305	102
502.522	113
502.739	93
502.956	80
503.172	94
503.389	96
503.606	106
503.823	103
504.04	98
504.256	104
504.473	101
504.69	88
504.907	100
505.123	106
505.34	101
505.557	87
505.773	101
505.99	87
506.207	101
506.423	100
506.64	81
506.856	91
507.073	97
507.289	100
507.506	90
507.722	112
507.939	114
508.155	99
508.372	92
508.588	98
508.805	103
509.021	94
509.238	114
509.454	103
509.67	110
509.887	106
510.103	127
510.319	217
510.536	742
510.752	2496
510.968	664
511.184	153
511.401	115
511.617	92
511.833	99
512.049	94
512.265	95
512.481	106
512.698	94
512.914	104
513.13	108
513.346	101
513.562	99
513.778	84
513.994	98
514.21	102
514.426	135
514.642	146
514.858	131
515.074	161
515.29	484
515.506	1632
515.721	578
515.937	158
516.153	116
516.369	94
516.585	88
516.801	100
517.016	102
517.232	82
517.448	87
517.664	110
517.879	94
518.095	102
518.311	95
518.527	92
518.742	91
518.958	87
519.173	88
519.389	97
519.605	104
519.82	112
520.036	113
520.251	124
520.467	122
520.682	100
520.898	106
521.113	127
521.329	160
521.544	215
521.76	623
521.975	2645
522.19	1578
522.406	329
522.621	129
522.836	110
523.052	110
523.267	97
523.482	84
523.698	106
523.913	118
524.128	103
524.343	89
524.559	96
524.774	102
524.989	101
525.204	105
525.419	107
525.634	102
525.849	92
526.064	93
526.28	103
526.495	100
526.71	78
526.925	94
527.14	90
527.355	92
527.57	83
527.785	86
527.999	97
528.214	99
528.429	97
528.644	95
528.859	93
529.074	105
529.289	135
529.503	198
529.718	118
529.933	101
530.148	88
530.363	93
530.577	87
530.792	87
531.007	90
531.221	89
531.436	94
531.651	105
531.865	103
532.08	95
532.295	102
532.509	93
532.724	102
532.938	96
533.153	111
533.367	94
533.582	91
533.796	95
534.011	88
534.225	97
534.44	94
534.654	85
534.868	96
535.083	73
535.297	96
535.511	111
535.726	97
535.94	103
536.154	95
536.369	113
536.583	86
536.797	87
537.011	90
537.225	93
537.44	93
537.654	94
537.868	87
538.082	101
538.296	99
538.51	92
538.724	95
538.938	101
539.153	103
539.367	107
539.581	99
539.795	88
540.009	96
540.222	86
540.436	80
540.65	101
540.864	100
541.078	94
541.292	102
541.506	97
541.72	98
541.934	81
542.147	93
542.361	84
542.575	96
542.789	80
543.002	84
543.216	101
543.43	102
543.644	105
543.857	93
544.071	82
544.285	98
544.498	91
544.712	99
544.925	86
545.139	95
545.352	93
545.566	97
545.779	92
545.993	86
546.206	93
546.42	90
546.633	92
546.847	81
547.06	90
547.274	99
547.487	112
547.7	98
547.914	87
548.127	95
548.34	98
548.554	84
548.767	105
548.98	103
549.193	88
549.407	92
549.62	102
549.833	104
550.046	89
550.259	92
550.473	103
550.686	87
550.899	100
551.112	87
551.325	88
551.538	93
551.751	84
551.964	105
552.177	97
552.39	93
552.603	104
552.816	93
553.029	103
553.242	99
553.455	98
553.667	134
553.88	112
554.093	87
554.306	86
554.519	92
554.732	92
554.944	88
555.157	101
555.37	97
555.583	82
555.795	101
556.008	82
556.221	103
556.433	99
556.646	98
556.859	95
557.071	111
557.284	105
557.496	89
557.709	86
557.921	90
558.134	102
558.346	94
558.559	93
558.771	84
558.984	94
559.196	88
559.409	93
559.621	101
559.833	88
560.046	92
560.258	91
560.47	88
560.683	98
560.895	94
561.107	89
561.32	87
561.532	87
561.744	89
561.956	90
562.168	87
562.381	96
562.593	94
562.805	89
563.017	93
563.229	85
563.441	95
563.653	97
563.865	90
564.077	95
564.289	84
564.501	81
564.713	84
564.925	102
565.137	95
565.349	103
565.561	95
565.773	92
565.985	94
566.197	88
566.408	76
566.62	93
566.832	95
567.044	88
567.255	95
567.467	102
567.679	93
567.891	96
568.102	92
568.314	72
568.526	90
568.737	83
568.949	78
569.161	86
569.372	88
569.584	97
569.795	87
570.007	124
570.218	265
570.43	126
570.641	95
570.853	83
571.064	86
571.276	90
571.487	102
571.698	104
571.91	87
572.121	100
572.333	92
572.544	89
572.755	95
572.966	89
573.178	90
573.389	114
573.6	80
573.811	89
574.023	93
574.234	92
574.445	106
574.656	86
574.867	88
575.078	87
575.289	85
575.501	101
575.712	103
575.923	84
576.134	89
576.345	96
576.556	100
576.767	97
576.978	83
577.188	88
577.399	97
577.61	112
577.821	95
578.032	113
578.243	305
578.454	813
578.665	212
578.875	109
579.086	94
579.297	86
579.508	98
579.718	98
579.929	101
580.14	84
580.35	93
580.561	90
580.772	97
580.982	100
581.193	74
