Data from Uncirc_1991_H10_HRD10591_00070.txt Node
Date: Wed Jan 03 11:50:52 EST 2024
User: Yrep
Spectrometer: HR+D1059
Trigger mode: 1
Integration Time (sec): 1.000000E-1
Scans to average: 1
Electric dark correction enabled: true
Nonlinearity correction enabled: false
Boxcar width: 0
XAxis mode: Wavelengths
Number of Pixels in Spectrum: 2048
>>>>>Begin Spectral Data<<<<<
223.165	-14.88
223.4	-14.88
223.635	-14.88
223.869	-11.88
224.104	-25.88
224.338	-21.88
224.573	-13.88
224.808	-15.88
225.042	-5.88
225.277	-6.88
225.511	-2.88
225.746	2.12
225.98	2.12
226.215	22.12
226.449	30.12
226.683	20.12
226.918	24.12
227.152	19.12
227.387	20.12
227.621	43.12
227.856	35.12
228.09	49.12
228.324	46.12
228.559	41.12
228.793	61.12
229.027	56.12
229.262	58.12
229.496	61.12
229.73	77.12
229.964	74.12
230.199	81.12
230.433	69.12
230.667	77.12
230.901	87.12
231.136	72.12
231.37	72.12
231.604	87.12
231.838	79.12
232.072	75.12
232.306	79.12
232.541	87.12
232.775	85.12
233.009	69.12
233.243	84.12
233.477	87.12
233.711	90.12
233.945	81.12
234.179	87.12
234.413	80.12
234.647	78.12
234.881	90.12
235.115	89.12
235.349	78.12
235.583	89.12
235.817	78.12
236.051	73.12
236.285	82.12
236.519	89.12
236.753	82.12
236.987	74.12
237.221	81.12
237.455	84.12
237.689	74.12
237.922	85.12
238.156	75.12
238.39	82.12
238.624	81.12
238.858	73.12
239.091	71.12
239.325	77.12
239.559	71.12
239.793	91.12
240.027	93.12
240.26	64.12
240.494	73.12
240.728	78.12
240.961	78.12
241.195	77.12
241.429	86.12
241.662	88.12
241.896	85.12
242.13	80.12
242.363	65.12
242.597	73.12
242.83	79.12
243.064	76.12
243.298	75.12
243.531	77.12
243.765	76.12
243.998	74.12
244.232	78.12
244.465	75.12
244.699	69.12
244.932	79.12
245.166	77.12
245.399	76.12
245.633	78.12
245.866	60.12
246.099	89.12
246.333	67.12
246.566	79.12
246.8	65.12
247.033	83.12
247.266	70.12
247.5	82.12
247.733	77.12
247.966	69.12
248.2	69.12
248.433	63.12
248.666	67.12
248.899	88.12
249.133	73.12
249.366	98.12
249.599	97.12
249.832	76.12
250.066	88.12
250.299	76.12
250.532	74.12
250.765	80.12
250.998	58.12
251.231	85.12
251.465	70.12
251.698	76.12
251.931	74.12
252.164	81.12
252.397	78.12
252.63	80.12
252.863	76.12
253.096	81.12
253.329	71.12
253.562	68.12
253.795	79.12
254.028	71.12
254.261	79.12
254.494	76.12
254.727	83.12
254.96	82.12
255.193	86.12
255.426	76.12
255.659	90.12
255.892	93.12
256.124	70.12
256.357	87.12
256.59	68.12
256.823	80.12
257.056	83.12
257.289	80.12
257.521	76.12
257.754	85.12
257.987	73.12
258.22	93.12
258.452	99.12
258.685	95.12
258.918	68.12
259.151	81.12
259.383	85.12
259.616	92.12
259.849	85.12
260.081	91.12
260.314	71.12
260.547	87.12
260.779	85.12
261.012	95.12
261.244	82.12
261.477	81.12
261.71	76.12
261.942	103.12
262.175	104.12
262.407	93.12
262.64	86.12
262.872	74.12
263.105	85.12
263.337	85.12
263.57	85.12
263.802	76.12
264.035	78.12
264.267	85.12
264.499	69.12
264.732	80.12
264.964	102.12
265.197	85.12
265.429	103.12
265.661	87.12
265.894	84.12
266.126	91.12
266.358	86.12
266.591	87.12
266.823	92.12
267.055	90.12
267.287	93.12
267.52	69.12
267.752	82.12
267.984	85.12
268.216	88.12
268.448	92.12
268.681	81.12
268.913	86.12
269.145	77.12
269.377	77.12
269.609	82.12
269.841	98.12
270.073	80.12
270.306	82.12
270.538	94.12
270.77	90.12
271.002	85.12
271.234	86.12
271.466	81.12
271.698	89.12
271.93	83.12
272.162	98.12
272.394	75.12
272.626	81.12
272.858	74.12
273.09	96.12
273.322	75.12
273.553	82.12
273.785	95.12
274.017	78.12
274.249	81.12
274.481	87.12
274.713	94.12
274.945	82.12
275.176	80.12
275.408	81.12
275.64	75.12
275.872	79.12
276.104	102.12
276.335	84.12
276.567	87.12
276.799	97.12
277.031	92.12
277.262	90.12
277.494	79.12
277.726	95.12
277.957	80.12
278.189	86.12
278.421	87.12
278.652	87.12
278.884	81.12
279.115	79.12
279.347	76.12
279.579	90.12
279.81	84.12
280.042	67.12
280.273	96.12
280.505	76.12
280.736	81.12
280.968	73.12
281.199	87.12
281.431	92.12
281.662	68.12
281.894	85.12
282.125	97.12
282.356	107.12
282.588	133.12
282.819	111.12
283.051	88.12
283.282	81.12
283.513	89.12
283.745	90.12
283.976	86.12
284.207	65.12
284.439	78.12
284.67	84.12
284.901	83.12
285.132	86.12
285.364	85.12
285.595	96.12
285.826	89.12
286.057	80.12
286.288	74.12
286.52	97.12
286.751	91.12
286.982	85.12
287.213	85.12
287.444	98.12
287.675	91.12
287.906	91.12
288.138	82.12
288.369	89.12
288.6	88.12
288.831	87.12
289.062	79.12
289.293	82.12
289.524	85.12
289.755	97.12
289.986	83.12
290.217	86.12
290.448	77.12
290.679	99.12
290.91	102.12
291.141	95.12
291.371	84.12
291.602	85.12
291.833	100.12
292.064	105.12
292.295	93.12
292.526	86.12
292.757	77.12
292.987	86.12
293.218	92.12
293.449	97.12
293.68	98.12
293.91	84.12
294.141	90.12
294.372	80.12
294.603	75.12
294.833	83.12
295.064	92.12
295.295	94.12
295.525	90.12
295.756	97.12
295.987	111.12
296.217	130.12
296.448	111.12
296.679	82.12
296.909	89.12
297.14	85.12
297.37	92.12
297.601	87.12
297.831	59.12
298.062	93.12
298.292	82.12
298.523	87.12
298.753	91.12
298.984	89.12
299.214	99.12
299.445	98.12
299.675	86.12
299.905	87.12
300.136	78.12
300.366	78.12
300.597	99.12
300.827	90.12
301.057	106.12
301.288	90.12
301.518	97.12
301.748	97.12
301.979	102.12
302.209	85.12
302.439	83.12
302.669	99.12
302.9	94.12
303.13	100.12
303.36	98.12
303.59	104.12
303.82	97.12
304.051	91.12
304.281	80.12
304.511	87.12
304.741	97.12
304.971	93.12
305.201	93.12
305.431	90.12
305.661	97.12
305.891	84.12
306.121	86.12
306.352	102.12
306.582	110.12
306.812	89.12
307.042	100.12
307.272	82.12
307.502	94.12
307.731	89.12
307.961	80.12
308.191	99.12
308.421	84.12
308.651	89.12
308.881	77.12
309.111	90.12
309.341	86.12
309.571	95.12
309.8	75.12
310.03	85.12
310.26	96.12
310.49	90.12
310.72	100.12
310.949	96.12
311.179	83.12
311.409	96.12
311.639	99.12
311.868	101.12
312.098	97.12
312.328	101.12
312.557	97.12
312.787	106.12
313.017	105.12
313.246	88.12
313.476	86.12
313.706	89.12
313.935	79.12
314.165	92.12
314.394	95.12
314.624	101.12
314.853	99.12
315.083	103.12
315.312	100.12
315.542	95.12
315.771	101.12
316.001	99.12
316.23	94.12
316.46	94.12
316.689	97.12
316.919	90.12
317.148	102.12
317.377	114.12
317.607	93.12
317.836	102.12
318.065	90.12
318.295	97.12
318.524	81.12
318.753	97.12
318.983	99.12
319.212	106.12
319.441	99.12
319.67	97.12
319.9	89.12
320.129	93.12
320.358	94.12
320.587	99.12
320.816	106.12
321.046	103.12
321.275	105.12
321.504	73.12
321.733	100.12
321.962	94.12
322.191	101.12
322.42	100.12
322.649	106.12
322.878	99.12
323.108	110.12
323.337	124.12
323.566	126.12
323.795	129.12
324.024	195.12
324.253	403.12
324.482	859.12
324.71	1762.12
324.939	2327.12
325.168	823.12
325.397	231.12
325.626	149.12
325.855	132.12
326.084	134.12
326.313	130.12
326.542	158.12
326.77	237.12
326.999	468.12
327.228	988.12
327.457	1812.12
327.686	1443.12
327.914	367.12
328.143	196.12
328.372	148.12
328.6	129.12
328.829	120.12
329.058	136.12
329.287	126.12
329.515	117.12
329.744	99.12
329.972	95.12
330.201	103.12
330.43	110.12
330.658	108.12
330.887	135.12
331.115	115.12
331.344	99.12
331.572	97.12
331.801	95.12
332.03	96.12
332.258	100.12
332.486	93.12
332.715	87.12
332.943	97.12
333.172	86.12
333.4	87.12
333.629	86.12
333.857	106.12
334.085	95.12
334.314	84.12
334.542	93.12
334.771	105.12
334.999	74.12
335.227	89.12
335.455	93.12
335.684	93.12
335.912	85.12
336.14	91.12
336.369	87.12
336.597	95.12
336.825	94.12
337.053	84.12
337.281	95.12
337.51	84.12
337.738	93.12
337.966	86.12
338.194	76.12
338.422	98.12
338.65	100.12
338.878	90.12
339.106	79.12
339.334	83.12
339.562	95.12
339.79	73.12
340.018	85.12
340.246	80.12
340.474	92.12
340.702	92.12
340.93	102.12
341.158	94.12
341.386	97.12
341.614	84.12
341.842	93.12
342.07	107.12
342.298	109.12
342.526	73.12
342.754	77.12
342.981	82.12
343.209	92.12
343.437	91.12
343.665	81.12
343.893	92.12
344.12	81.12
344.348	94.12
344.576	75.12
344.804	83.12
345.031	91.12
345.259	102.12
345.487	89.12
345.714	96.12
345.942	92.12
346.17	87.12
346.397	100.12
346.625	91.12
346.853	90.12
347.08	99.12
347.308	91.12
347.535	79.12
347.763	89.12
347.99	105.12
348.218	87.12
348.445	117.12
348.673	103.12
348.9	93.12
349.128	88.12
349.355	103.12
349.583	93.12
349.81	86.12
350.037	100.12
350.265	92.12
350.492	93.12
350.72	94.12
350.947	91.12
351.174	102.12
351.402	105.12
351.629	89.12
351.856	104.12
352.083	109.12
352.311	99.12
352.538	112.12
352.765	91.12
352.992	101.12
353.22	101.12
353.447	100.12
353.674	77.12
353.901	100.12
354.128	87.12
354.355	89.12
354.583	87.12
354.81	102.12
355.037	96.12
355.264	79.12
355.491	93.12
355.718	89.12
355.945	96.12
356.172	90.12
356.399	88.12
356.626	100.12
356.853	94.12
357.08	101.12
357.307	95.12
357.534	84.12
357.761	105.12
357.988	83.12
358.215	84.12
358.441	78.12
358.668	91.12
358.895	80.12
359.122	82.12
359.349	94.12
359.576	102.12
359.802	97.12
360.029	98.12
360.256	107.12
360.483	96.12
360.709	93.12
360.936	89.12
361.163	97.12
361.39	102.12
361.616	89.12
361.843	83.12
362.07	99.12
362.296	96.12
362.523	88.12
362.749	91.12
362.976	91.12
363.203	94.12
363.429	96.12
363.656	95.12
363.882	88.12
364.109	69.12
364.335	81.12
364.562	97.12
364.788	85.12
365.015	97.12
365.241	104.12
365.468	93.12
365.694	114.12
365.92	97.12
366.147	100.12
366.373	78.12
366.599	89.12
366.826	84.12
367.052	96.12
367.278	98.12
367.505	94.12
367.731	90.12
367.957	94.12
368.184	85.12
368.41	89.12
368.636	94.12
368.862	109.12
369.089	106.12
369.315	90.12
369.541	85.12
369.767	86.12
369.993	107.12
370.219	93.12
370.445	101.12
370.672	81.12
370.898	80.12
371.124	90.12
371.35	105.12
371.576	98.12
371.802	93.12
372.028	69.12
372.254	86.12
372.48	84.12
372.706	94.12
372.932	82.12
373.158	84.12
373.384	97.12
373.61	87.12
373.835	89.12
374.061	92.12
374.287	116.12
374.513	97.12
374.739	99.12
374.965	103.12
375.191	94.12
375.416	77.12
375.642	100.12
375.868	92.12
376.094	102.12
376.319	80.12
376.545	83.12
376.771	85.12
376.997	87.12
377.222	97.12
377.448	92.12
377.674	97.12
377.899	97.12
378.125	94.12
378.35	87.12
378.576	86.12
378.802	85.12
379.027	90.12
379.253	79.12
379.478	83.12
379.704	78.12
379.929	103.12
380.155	98.12
380.38	93.12
380.606	89.12
380.831	78.12
381.057	104.12
381.282	95.12
381.507	96.12
381.733	94.12
381.958	98.12
382.184	100.12
382.409	84.12
382.634	93.12
382.86	96.12
383.085	92.12
383.31	104.12
383.535	93.12
383.761	102.12
383.986	103.12
384.211	101.12
384.436	111.12
384.662	95.12
384.887	91.12
385.112	95.12
385.337	97.12
385.562	97.12
385.787	87.12
386.013	98.12
386.238	102.12
386.463	108.12
386.688	109.12
386.913	93.12
387.138	104.12
387.363	81.12
387.588	94.12
387.813	97.12
388.038	98.12
388.263	114.12
388.488	94.12
388.713	89.12
388.938	105.12
389.163	105.12
389.387	98.12
389.612	92.12
389.837	107.12
390.062	96.12
390.287	80.12
390.512	99.12
390.736	95.12
390.961	86.12
391.186	82.12
391.411	80.12
391.636	105.12
391.86	74.12
392.085	91.12
392.31	80.12
392.534	86.12
392.759	90.12
392.984	76.12
393.208	69.12
393.433	73.12
393.658	75.12
393.882	83.12
394.107	89.12
394.331	78.12
394.556	84.12
394.78	96.12
395.005	95.12
395.229	97.12
395.454	88.12
395.678	80.12
395.903	88.12
396.127	95.12
396.352	96.12
396.576	103.12
396.801	87.12
397.025	81.12
397.249	93.12
397.474	84.12
397.698	98.12
397.922	86.12
398.147	84.12
398.371	90.12
398.595	73.12
398.82	89.12
399.044	78.12
399.268	72.12
399.492	71.12
399.717	79.12
399.941	86.12
400.165	91.12
400.389	94.12
400.613	95.12
400.837	98.12
401.062	75.12
401.286	86.12
401.51	92.12
401.734	95.12
401.958	101.12
402.182	116.12
402.406	131.12
402.63	104.12
402.854	77.12
403.078	100.12
403.302	81.12
403.526	108.12
403.75	94.12
403.974	89.12
404.198	97.12
404.422	89.12
404.645	89.12
404.869	88.12
405.093	85.12
405.317	85.12
405.541	94.12
405.765	99.12
405.988	103.12
406.212	171.12
406.436	203.12
406.66	143.12
406.883	94.12
407.107	87.12
407.331	88.12
407.555	91.12
407.778	106.12
408.002	94.12
408.226	88.12
408.449	96.12
408.673	82.12
408.896	91.12
409.12	99.12
409.344	98.12
409.567	84.12
409.791	92.12
410.014	86.12
410.238	90.12
410.461	83.12
410.685	97.12
410.908	79.12
411.132	108.12
411.355	83.12
411.578	97.12
411.802	78.12
412.025	91.12
412.249	91.12
412.472	67.12
412.695	79.12
412.919	88.12
413.142	84.12
413.365	77.12
413.589	70.12
413.812	88.12
414.035	74.12
414.258	92.12
414.482	89.12
414.705	89.12
414.928	96.12
415.151	96.12
415.374	99.12
415.597	96.12
415.821	79.12
416.044	77.12
416.267	76.12
416.49	88.12
416.713	75.12
416.936	91.12
417.159	82.12
417.382	98.12
417.605	97.12
417.828	93.12
418.051	86.12
418.274	92.12
418.497	86.12
418.72	92.12
418.943	86.12
419.166	81.12
419.389	83.12
419.611	82.12
419.834	74.12
420.057	108.12
420.28	91.12
420.503	101.12
420.726	89.12
420.948	75.12
421.171	82.12
421.394	92.12
421.617	94.12
421.839	94.12
422.062	89.12
422.285	87.12
422.507	108.12
422.73	85.12
422.953	90.12
423.175	92.12
423.398	97.12
423.621	94.12
423.843	84.12
424.066	85.12
424.288	86.12
424.511	87.12
424.733	82.12
424.956	108.12
425.178	97.12
425.401	101.12
425.623	92.12
425.846	104.12
426.068	98.12
426.291	90.12
426.513	83.12
426.735	96.12
426.958	98.12
427.18	98.12
427.402	137.12
427.625	162.12
427.847	124.12
428.069	92.12
428.292	90.12
428.514	92.12
428.736	94.12
428.958	88.12
429.181	67.12
429.403	90.12
429.625	94.12
429.847	94.12
430.069	92.12
430.292	88.12
430.514	95.12
430.736	86.12
430.958	90.12
431.18	85.12
431.402	91.12
431.624	90.12
431.846	92.12
432.068	84.12
432.29	85.12
432.512	80.12
432.734	88.12
432.956	85.12
433.178	92.12
433.4	95.12
433.622	77.12
433.844	92.12
434.066	95.12
434.287	90.12
434.509	92.12
434.731	96.12
434.953	70.12
435.175	84.12
435.397	102.12
435.618	94.12
435.84	109.12
436.062	109.12
436.284	122.12
436.505	111.12
436.727	103.12
436.949	97.12
437.17	87.12
437.392	109.12
437.614	86.12
437.835	102.12
438.057	121.12
438.278	103.12
438.5	99.12
438.721	119.12
438.943	84.12
439.165	73.12
439.386	97.12
439.608	98.12
439.829	97.12
440.05	117.12
440.272	131.12
440.493	98.12
440.715	89.12
440.936	99.12
441.158	87.12
441.379	97.12
441.6	89.12
441.822	89.12
442.043	77.12
442.264	98.12
442.486	95.12
442.707	79.12
442.928	95.12
443.149	116.12
443.371	124.12
443.592	115.12
443.813	110.12
444.034	109.12
444.255	93.12
444.476	103.12
444.698	74.12
444.919	80.12
445.14	134.12
445.361	134.12
445.582	112.12
445.803	119.12
446.024	139.12
446.245	141.12
446.466	121.12
446.687	78.12
446.908	93.12
447.129	90.12
447.35	93.12
447.571	100.12
447.792	79.12
448.013	105.12
448.234	108.12
448.455	99.12
448.675	110.12
448.896	128.12
449.117	106.12
449.338	99.12
449.559	137.12
449.779	122.12
450	83.12
450.221	107.12
450.442	109.12
450.662	83.12
450.883	110.12
451.104	106.12
451.324	80.12
451.545	94.12
451.766	70.12
451.986	66.12
452.207	82.12
452.428	79.12
452.648	102.12
452.869	104.12
453.089	127.12
453.31	110.12
453.53	100.12
453.751	74.12
453.971	92.12
454.192	98.12
454.412	98.12
454.633	93.12
454.853	103.12
455.073	82.12
455.294	106.12
455.514	116.12
455.734	91.12
455.955	83.12
456.175	86.12
456.395	91.12
456.616	77.12
456.836	81.12
457.056	82.12
457.276	85.12
457.497	86.12
457.717	67.12
457.937	92.12
458.157	86.12
458.377	81.12
458.598	107.12
458.818	130.12
459.038	147.12
459.258	106.12
459.478	100.12
459.698	92.12
459.918	77.12
460.138	76.12
460.358	92.12
460.578	85.12
460.798	78.12
461.018	82.12
461.238	87.12
461.458	90.12
461.678	89.12
461.898	91.12
462.118	79.12
462.338	84.12
462.558	89.12
462.777	77.12
462.997	85.12
463.217	77.12
463.437	82.12
463.657	80.12
463.876	93.12
464.096	100.12
464.316	100.12
464.536	99.12
464.755	93.12
464.975	101.12
465.195	146.12
465.414	143.12
465.634	98.12
465.854	88.12
466.073	88.12
466.293	89.12
466.512	79.12
466.732	92.12
466.951	89.12
467.171	85.12
467.391	82.12
467.61	99.12
467.829	97.12
468.049	87.12
468.268	77.12
468.488	80.12
468.707	93.12
468.927	89.12
469.146	69.12
469.365	85.12
469.585	74.12
469.804	98.12
470.023	95.12
470.243	101.12
470.462	92.12
470.681	97.12
470.901	73.12
471.12	85.12
471.339	98.12
471.558	95.12
471.777	91.12
471.997	91.12
472.216	87.12
472.435	80.12
472.654	74.12
472.873	89.12
473.092	83.12
473.311	102.12
473.53	92.12
473.749	83.12
473.968	99.12
474.187	103.12
474.406	86.12
474.625	89.12
474.844	92.12
475.063	73.12
475.282	83.12
475.501	75.12
475.72	94.12
475.939	93.12
476.158	99.12
476.377	80.12
476.596	70.12
476.814	94.12
477.033	89.12
477.252	82.12
477.471	98.12
477.69	85.12
477.908	98.12
478.127	84.12
478.346	95.12
478.564	95.12
478.783	97.12
479.002	102.12
479.22	100.12
479.439	94.12
479.658	121.12
479.876	98.12
480.095	85.12
480.313	93.12
480.532	91.12
480.751	97.12
480.969	84.12
481.188	97.12
481.406	82.12
481.624	81.12
481.843	78.12
482.061	76.12
482.28	77.12
482.498	95.12
482.717	85.12
482.935	109.12
483.153	92.12
483.372	86.12
483.59	99.12
483.808	86.12
484.027	97.12
484.245	95.12
484.463	75.12
484.681	85.12
484.9	88.12
485.118	92.12
485.336	100.12
485.554	97.12
485.772	95.12
485.99	108.12
486.209	94.12
486.427	98.12
486.645	109.12
486.863	105.12
487.081	99.12
487.299	95.12
487.517	110.12
487.735	85.12
487.953	86.12
488.171	97.12
488.389	90.12
488.607	103.12
488.825	89.12
489.043	106.12
489.261	86.12
489.479	89.12
489.696	86.12
489.914	98.12
490.132	87.12
490.35	78.12
490.568	83.12
490.786	96.12
491.003	100.12
491.221	89.12
491.439	97.12
491.657	85.12
491.874	102.12
492.092	77.12
492.31	94.12
492.527	101.12
492.745	73.12
492.963	89.12
493.18	96.12
493.398	78.12
493.615	111.12
493.833	91.12
494.05	72.12
494.268	100.12
494.485	81.12
494.703	90.12
494.92	92.12
495.138	84.12
495.355	80.12
495.573	84.12
495.79	85.12
496.008	99.12
496.225	79.12
496.442	85.12
496.66	99.12
496.877	96.12
497.094	96.12
497.312	84.12
497.529	86.12
497.746	87.12
497.963	86.12
498.181	101.12
498.398	97.12
498.615	110.12
498.832	108.12
499.049	98.12
499.267	82.12
499.484	98.12
499.701	97.12
499.918	101.12
500.135	87.12
500.352	87.12
500.569	85.12
500.786	108.12
501.003	99.12
501.22	91.12
501.437	92.12
501.654	91.12
501.871	101.12
502.088	99.12
502.305	79.12
502.522	84.12
502.739	97.12
502.956	99.12
503.172	92.12
503.389	108.12
503.606	106.12
503.823	102.12
504.04	87.12
504.256	85.12
504.473	94.12
504.69	97.12
504.907	95.12
505.123	96.12
505.34	97.12
505.557	83.12
505.773	90.12
505.99	94.12
506.207	79.12
506.423	96.12
506.64	89.12
506.856	86.12
507.073	95.12
507.289	97.12
507.506	94.12
507.722	106.12
507.939	98.12
508.155	94.12
508.372	107.12
508.588	91.12
508.805	92.12
509.021	88.12
509.238	96.12
509.454	94.12
509.67	99.12
509.887	105.12
510.103	126.12
510.319	213.12
510.536	720.12
510.752	2153.12
510.968	601.12
511.184	158.12
511.401	116.12
511.617	89.12
511.833	100.12
512.049	99.12
512.265	91.12
512.481	108.12
512.698	97.12
512.914	96.12
513.13	89.12
513.346	94.12
513.562	77.12
513.778	101.12
513.994	95.12
514.21	101.12
514.426	116.12
514.642	143.12
514.858	112.12
515.074	165.12
515.29	419.12
515.506	1361.12
515.721	499.12
515.937	143.12
516.153	114.12
516.369	95.12
