Data from Uncirc_1991_H10_HRD10591_00077.txt Node
Date: Wed Jan 03 11:50:53 EST 2024
User: Yrep
Spectrometer: HR+D1059
Trigger mode: 1
Integration Time (sec): 1.000000E-1
Scans to average: 1
Electric dark correction enabled: true
Nonlinearity correction enabled: false
Boxcar width: 0
XAxis mode: Wavelengths
Number of Pixels in Spectrum: 2048
>>>>>Begin Spectral Data<<<<<
223.165	-21.44
223.4	-21.44
223.635	-21.44
223.869	-20.44
224.104	-21.44
224.338	-15.44
224.573	-17.44
224.808	-12.44
225.042	-10.44
225.277	-5.44
225.511	-2.44
225.746	9.56
225.98	17.56
226.215	11.56
226.449	9.56
226.683	22.56
226.918	27.56
227.152	28.56
227.387	26.56
227.621	46.56
227.856	32.56
228.09	36.56
228.324	40.56
228.559	46.56
228.793	63.56
229.027	56.56
229.262	61.56
229.496	75.56
229.73	86.56
229.964	91.56
230.199	76.56
230.433	59.56
230.667	76.56
230.901	77.56
231.136	78.56
231.37	72.56
231.604	87.56
231.838	76.56
232.072	92.56
232.306	86.56
232.541	91.56
232.775	71.56
233.009	85.56
233.243	71.56
233.477	62.56
233.711	75.56
233.945	78.56
234.179	78.56
234.413	85.56
234.647	67.56
234.881	60.56
235.115	68.56
235.349	77.56
235.583	91.56
235.817	85.56
236.051	74.56
236.285	75.56
236.519	63.56
236.753	81.56
236.987	81.56
237.221	91.56
237.455	92.56
237.689	74.56
237.922	79.56
238.156	75.56
238.39	80.56
238.624	75.56
238.858	87.56
239.091	63.56
239.325	60.56
239.559	72.56
239.793	76.56
240.027	76.56
240.26	86.56
240.494	78.56
240.728	72.56
240.961	84.56
241.195	75.56
241.429	91.56
241.662	87.56
241.896	81.56
242.13	66.56
242.363	72.56
242.597	81.56
242.83	78.56
243.064	72.56
243.298	76.56
243.531	75.56
243.765	66.56
243.998	76.56
244.232	90.56
244.465	82.56
244.699	72.56
244.932	66.56
245.166	76.56
245.399	89.56
245.633	75.56
245.866	63.56
246.099	78.56
246.333	81.56
246.566	75.56
246.8	82.56
247.033	68.56
247.266	87.56
247.5	76.56
247.733	85.56
247.966	98.56
248.2	75.56
248.433	78.56
248.666	83.56
248.899	91.56
249.133	82.56
249.366	99.56
249.599	83.56
249.832	76.56
250.066	88.56
250.299	73.56
250.532	77.56
250.765	84.56
250.998	84.56
251.231	63.56
251.465	81.56
251.698	96.56
251.931	78.56
252.164	90.56
252.397	84.56
252.63	78.56
252.863	82.56
253.096	81.56
253.329	88.56
253.562	81.56
253.795	82.56
254.028	71.56
254.261	92.56
254.494	73.56
254.727	84.56
254.96	81.56
255.193	75.56
255.426	79.56
255.659	80.56
255.892	90.56
256.124	72.56
256.357	89.56
256.59	76.56
256.823	66.56
257.056	72.56
257.289	75.56
257.521	86.56
257.754	72.56
257.987	72.56
258.22	81.56
258.452	80.56
258.685	72.56
258.918	86.56
259.151	76.56
259.383	83.56
259.616	87.56
259.849	82.56
260.081	71.56
260.314	91.56
260.547	59.56
260.779	83.56
261.012	82.56
261.244	81.56
261.477	82.56
261.71	86.56
261.942	112.56
262.175	113.56
262.407	73.56
262.64	66.56
262.872	94.56
263.105	75.56
263.337	68.56
263.57	77.56
263.802	75.56
264.035	85.56
264.267	74.56
264.499	84.56
264.732	79.56
264.964	81.56
265.197	85.56
265.429	76.56
265.661	72.56
265.894	75.56
266.126	83.56
266.358	74.56
266.591	94.56
266.823	74.56
267.055	70.56
267.287	84.56
267.52	70.56
267.752	91.56
267.984	89.56
268.216	90.56
268.448	80.56
268.681	77.56
268.913	77.56
269.145	88.56
269.377	70.56
269.609	81.56
269.841	89.56
270.073	77.56
270.306	75.56
270.538	84.56
270.77	74.56
271.002	82.56
271.234	84.56
271.466	87.56
271.698	74.56
271.93	73.56
272.162	80.56
272.394	80.56
272.626	88.56
272.858	94.56
273.09	70.56
273.322	85.56
273.553	81.56
273.785	76.56
274.017	88.56
274.249	86.56
274.481	70.56
274.713	64.56
274.945	95.56
275.176	80.56
275.408	80.56
275.64	82.56
275.872	95.56
276.104	96.56
276.335	102.56
276.567	92.56
276.799	118.56
277.031	101.56
277.262	100.56
277.494	87.56
277.726	88.56
277.957	93.56
278.189	75.56
278.421	70.56
278.652	88.56
278.884	78.56
279.115	72.56
279.347	79.56
279.579	84.56
279.81	78.56
280.042	70.56
280.273	89.56
280.505	78.56
280.736	94.56
280.968	90.56
281.199	82.56
281.431	92.56
281.662	76.56
281.894	84.56
282.125	96.56
282.356	105.56
282.588	151.56
282.819	113.56
283.051	100.56
283.282	91.56
283.513	79.56
283.745	79.56
283.976	96.56
284.207	81.56
284.439	74.56
284.67	83.56
284.901	79.56
285.132	73.56
285.364	86.56
285.595	86.56
285.826	81.56
286.057	73.56
286.288	68.56
286.52	86.56
286.751	78.56
286.982	87.56
287.213	82.56
287.444	89.56
287.675	81.56
287.906	94.56
288.138	86.56
288.369	92.56
288.6	97.56
288.831	91.56
289.062	85.56
289.293	84.56
289.524	80.56
289.755	86.56
289.986	75.56
290.217	78.56
290.448	82.56
290.679	75.56
290.91	80.56
291.141	80.56
291.371	103.56
291.602	93.56
291.833	86.56
292.064	81.56
292.295	98.56
292.526	92.56
292.757	87.56
292.987	91.56
293.218	80.56
293.449	96.56
293.68	97.56
293.91	91.56
294.141	88.56
294.372	94.56
294.603	86.56
294.833	89.56
295.064	72.56
295.295	92.56
295.525	95.56
295.756	98.56
295.987	119.56
296.217	150.56
296.448	144.56
296.679	95.56
296.909	97.56
297.14	80.56
297.37	74.56
297.601	66.56
297.831	89.56
298.062	82.56
298.292	89.56
298.523	75.56
298.753	79.56
298.984	77.56
299.214	88.56
299.445	96.56
299.675	95.56
299.905	101.56
300.136	91.56
300.366	82.56
300.597	80.56
300.827	80.56
301.057	97.56
301.288	111.56
301.518	93.56
301.748	79.56
301.979	107.56
302.209	97.56
302.439	80.56
302.669	95.56
302.9	99.56
303.13	79.56
303.36	90.56
303.59	105.56
303.82	97.56
304.051	98.56
304.281	104.56
304.511	97.56
304.741	94.56
304.971	93.56
305.201	84.56
305.431	88.56
305.661	99.56
305.891	89.56
306.121	89.56
306.352	112.56
306.582	99.56
306.812	70.56
307.042	97.56
307.272	90.56
307.502	97.56
307.731	96.56
307.961	75.56
308.191	100.56
308.421	79.56
308.651	78.56
308.881	81.56
309.111	91.56
309.341	108.56
309.571	94.56
309.8	78.56
310.03	90.56
310.26	101.56
310.49	88.56
310.72	99.56
310.949	90.56
311.179	110.56
311.409	96.56
311.639	98.56
311.868	103.56
312.098	93.56
312.328	88.56
312.557	108.56
312.787	113.56
313.017	97.56
313.246	104.56
313.476	90.56
313.706	91.56
313.935	89.56
314.165	85.56
314.394	111.56
314.624	99.56
314.853	101.56
315.083	82.56
315.312	91.56
315.542	95.56
315.771	85.56
316.001	97.56
316.23	104.56
316.46	92.56
316.689	97.56
316.919	93.56
317.148	99.56
317.377	100.56
317.607	96.56
317.836	99.56
318.065	80.56
318.295	89.56
318.524	91.56
318.753	98.56
318.983	91.56
319.212	103.56
319.441	106.56
319.67	104.56
319.9	87.56
320.129	88.56
320.358	112.56
320.587	97.56
320.816	96.56
321.046	112.56
321.275	100.56
321.504	84.56
321.733	91.56
321.962	106.56
322.191	98.56
322.42	114.56
322.649	110.56
322.878	111.56
323.108	137.56
323.337	136.56
323.566	150.56
323.795	173.56
324.024	239.56
324.253	476.56
324.482	984.56
324.71	2080.56
324.939	2840.56
325.168	1009.56
325.397	274.56
325.626	174.56
325.855	163.56
326.084	123.56
326.313	153.56
326.542	159.56
326.77	255.56
326.999	510.56
327.228	1102.56
327.457	2078.56
327.686	1667.56
327.914	441.56
328.143	228.56
328.372	172.56
328.6	142.56
328.829	123.56
329.058	140.56
329.287	160.56
329.515	107.56
329.744	105.56
329.972	90.56
330.201	111.56
330.43	103.56
330.658	127.56
330.887	173.56
331.115	150.56
331.344	107.56
331.572	111.56
331.801	123.56
332.03	107.56
332.258	102.56
332.486	86.56
332.715	87.56
332.943	86.56
333.172	91.56
333.4	92.56
333.629	99.56
333.857	106.56
334.085	125.56
334.314	93.56
334.542	95.56
334.771	94.56
334.999	90.56
335.227	103.56
335.455	93.56
335.684	91.56
335.912	93.56
336.14	89.56
336.369	80.56
336.597	109.56
336.825	108.56
337.053	94.56
337.281	77.56
337.51	85.56
337.738	98.56
337.966	86.56
338.194	107.56
338.422	103.56
338.65	109.56
338.878	72.56
339.106	82.56
339.334	90.56
339.562	95.56
339.79	96.56
340.018	88.56
340.246	109.56
340.474	102.56
340.702	87.56
340.93	96.56
341.158	87.56
341.386	101.56
341.614	102.56
341.842	94.56
342.07	97.56
342.298	81.56
342.526	68.56
342.754	86.56
342.981	92.56
343.209	93.56
343.437	87.56
343.665	96.56
343.893	95.56
344.12	79.56
344.348	91.56
344.576	91.56
344.804	75.56
345.031	83.56
345.259	106.56
345.487	113.56
345.714	113.56
345.942	86.56
346.17	90.56
346.397	87.56
346.625	80.56
346.853	89.56
347.08	93.56
347.308	90.56
347.535	86.56
347.763	100.56
347.99	107.56
348.218	107.56
348.445	101.56
348.673	104.56
348.9	93.56
349.128	78.56
349.355	76.56
349.583	98.56
349.81	74.56
350.037	102.56
350.265	109.56
350.492	101.56
350.72	101.56
350.947	108.56
351.174	106.56
351.402	111.56
351.629	98.56
351.856	114.56
352.083	105.56
352.311	107.56
352.538	130.56
352.765	100.56
352.992	124.56
353.22	104.56
353.447	105.56
353.674	94.56
353.901	95.56
354.128	94.56
354.355	78.56
354.583	94.56
354.81	86.56
355.037	94.56
355.264	99.56
355.491	87.56
355.718	93.56
355.945	92.56
356.172	88.56
356.399	81.56
356.626	79.56
356.853	86.56
357.08	92.56
357.307	81.56
357.534	98.56
357.761	98.56
357.988	100.56
358.215	95.56
358.441	95.56
358.668	93.56
358.895	76.56
359.122	88.56
359.349	97.56
359.576	102.56
359.802	105.56
360.029	121.56
360.256	128.56
360.483	112.56
360.709	95.56
360.936	83.56
361.163	97.56
361.39	97.56
361.616	90.56
361.843	79.56
362.07	96.56
362.296	94.56
362.523	88.56
362.749	92.56
362.976	82.56
363.203	86.56
363.429	91.56
363.656	96.56
363.882	80.56
364.109	79.56
364.335	80.56
364.562	86.56
364.788	83.56
365.015	90.56
365.241	113.56
365.468	104.56
365.694	105.56
365.92	100.56
366.147	89.56
366.373	81.56
366.599	84.56
366.826	87.56
367.052	84.56
367.278	74.56
367.505	95.56
367.731	88.56
367.957	94.56
368.184	105.56
368.41	108.56
368.636	119.56
368.862	130.56
369.089	111.56
369.315	92.56
369.541	83.56
369.767	88.56
369.993	83.56
370.219	89.56
370.445	87.56
370.672	85.56
370.898	84.56
371.124	80.56
371.35	81.56
371.576	83.56
371.802	86.56
372.028	68.56
372.254	86.56
372.48	95.56
372.706	86.56
372.932	80.56
373.158	81.56
373.384	82.56
373.61	80.56
373.835	83.56
374.061	98.56
374.287	83.56
374.513	85.56
374.739	83.56
374.965	75.56
375.191	86.56
375.416	81.56
375.642	96.56
375.868	92.56
376.094	87.56
376.319	70.56
376.545	78.56
376.771	80.56
376.997	96.56
377.222	82.56
377.448	80.56
377.674	88.56
377.899	87.56
378.125	89.56
378.35	92.56
378.576	91.56
378.802	81.56
379.027	71.56
379.253	96.56
379.478	88.56
379.704	96.56
379.929	95.56
380.155	93.56
380.38	92.56
380.606	76.56
380.831	76.56
381.057	90.56
381.282	94.56
381.507	88.56
381.733	91.56
381.958	96.56
382.184	98.56
382.409	86.56
382.634	86.56
382.86	78.56
383.085	83.56
383.31	91.56
383.535	86.56
383.761	105.56
383.986	99.56
384.211	92.56
384.436	90.56
384.662	79.56
384.887	83.56
385.112	93.56
385.337	94.56
385.562	102.56
385.787	84.56
386.013	90.56
386.238	116.56
386.463	98.56
386.688	104.56
386.913	103.56
387.138	100.56
387.363	92.56
387.588	82.56
387.813	93.56
388.038	108.56
388.263	104.56
388.488	76.56
388.713	87.56
388.938	86.56
389.163	76.56
389.387	92.56
389.612	79.56
389.837	81.56
390.062	100.56
390.287	91.56
390.512	85.56
390.736	87.56
390.961	84.56
391.186	73.56
391.411	93.56
391.636	89.56
391.86	74.56
392.085	66.56
392.31	87.56
392.534	80.56
392.759	82.56
392.984	84.56
393.208	78.56
393.433	77.56
393.658	90.56
393.882	86.56
394.107	92.56
394.331	88.56
394.556	93.56
394.78	87.56
395.005	71.56
395.229	67.56
395.454	82.56
395.678	80.56
395.903	83.56
396.127	94.56
396.352	74.56
396.576	81.56
396.801	81.56
397.025	73.56
397.249	80.56
397.474	93.56
397.698	79.56
397.922	85.56
398.147	94.56
398.371	87.56
398.595	87.56
398.82	91.56
399.044	93.56
399.268	80.56
399.492	83.56
399.717	86.56
399.941	99.56
400.165	99.56
400.389	102.56
400.613	72.56
400.837	83.56
401.062	86.56
401.286	92.56
401.51	96.56
401.734	84.56
401.958	95.56
402.182	127.56
402.406	179.56
402.63	135.56
402.854	76.56
403.078	93.56
403.302	88.56
403.526	88.56
403.75	79.56
403.974	92.56
404.198	96.56
404.422	83.56
404.645	98.56
404.869	78.56
405.093	106.56
405.317	101.56
405.541	103.56
405.765	90.56
405.988	110.56
406.212	202.56
406.436	292.56
406.66	189.56
406.883	94.56
407.107	114.56
407.331	116.56
407.555	109.56
407.778	99.56
408.002	80.56
408.226	102.56
408.449	95.56
408.673	81.56
408.896	97.56
409.12	91.56
409.344	90.56
409.567	90.56
409.791	93.56
410.014	88.56
410.238	76.56
410.461	86.56
410.685	88.56
410.908	94.56
411.132	122.56
411.355	102.56
411.578	94.56
411.802	82.56
412.025	92.56
412.249	103.56
412.472	85.56
412.695	96.56
412.919	88.56
413.142	84.56
413.365	88.56
413.589	87.56
413.812	79.56
414.035	79.56
414.258	83.56
414.482	86.56
414.705	69.56
414.928	97.56
415.151	98.56
415.374	99.56
415.597	82.56
415.821	94.56
416.044	96.56
416.267	75.56
416.49	80.56
416.713	93.56
416.936	72.56
417.159	79.56
417.382	92.56
417.605	86.56
417.828	99.56
418.051	90.56
418.274	75.56
418.497	83.56
418.72	81.56
418.943	77.56
419.166	94.56
419.389	77.56
419.611	92.56
419.834	83.56
420.057	98.56
420.28	75.56
420.503	83.56
420.726	102.56
420.948	95.56
421.171	104.56
421.394	87.56
421.617	94.56
421.839	88.56
422.062	88.56
422.285	83.56
422.507	96.56
422.73	94.56
422.953	96.56
423.175	77.56
423.398	101.56
423.621	85.56
423.843	86.56
424.066	101.56
424.288	97.56
424.511	92.56
424.733	111.56
424.956	102.56
425.178	85.56
425.401	119.56
425.623	98.56
425.846	98.56
426.068	97.56
426.291	98.56
426.513	97.56
426.735	94.56
426.958	90.56
427.18	123.56
427.402	179.56
427.625	210.56
427.847	143.56
428.069	104.56
428.292	80.56
428.514	84.56
428.736	87.56
428.958	85.56
429.181	80.56
429.403	88.56
429.625	79.56
429.847	99.56
430.069	104.56
430.292	89.56
430.514	83.56
430.736	87.56
430.958	82.56
431.18	71.56
431.402	93.56
431.624	92.56
431.846	73.56
432.068	86.56
432.29	85.56
432.512	88.56
432.734	87.56
432.956	74.56
433.178	91.56
433.4	104.56
433.622	82.56
433.844	90.56
434.066	83.56
434.287	82.56
434.509	79.56
434.731	106.56
434.953	86.56
435.175	81.56
435.397	86.56
435.618	93.56
435.84	88.56
436.062	129.56
436.284	144.56
436.505	107.56
436.727	113.56
436.949	74.56
437.17	76.56
437.392	89.56
437.614	88.56
437.835	120.56
438.057	141.56
438.278	128.56
438.5	112.56
438.721	148.56
438.943	108.56
439.165	94.56
439.386	80.56
439.608	99.56
439.829	98.56
440.05	141.56
440.272	175.56
440.493	112.56
440.715	90.56
440.936	78.56
441.158	90.56
441.379	87.56
441.6	97.56
441.822	90.56
442.043	93.56
442.264	97.56
442.486	117.56
442.707	103.56
442.928	120.56
443.149	139.56
443.371	156.56
443.592	128.56
443.813	134.56
444.034	124.56
444.255	97.56
444.476	88.56
444.698	102.56
444.919	83.56
445.14	131.56
445.361	134.56
445.582	129.56
445.803	160.56
446.024	168.56
446.245	180.56
446.466	124.56
446.687	90.56
446.908	98.56
447.129	72.56
447.35	95.56
447.571	94.56
447.792	99.56
448.013	95.56
448.234	125.56
448.455	113.56
448.675	120.56
448.896	139.56
449.117	101.56
449.338	106.56
449.559	137.56
449.779	151.56
450	110.56
450.221	95.56
450.442	77.56
450.662	97.56
450.883	126.56
451.104	135.56
451.324	102.56
451.545	80.56
451.766	93.56
451.986	87.56
452.207	90.56
452.428	93.56
452.648	103.56
452.869	114.56
453.089	107.56
453.31	112.56
453.53	88.56
453.751	96.56
453.971	106.56
454.192	123.56
454.412	94.56
454.633	77.56
454.853	80.56
455.073	86.56
455.294	101.56
455.514	114.56
455.734	87.56
455.955	95.56
456.175	84.56
456.395	82.56
456.616	76.56
456.836	76.56
457.056	78.56
457.276	79.56
457.497	76.56
457.717	95.56
457.937	81.56
458.157	99.56
458.377	91.56
458.598	104.56
458.818	194.56
459.038	202.56
459.258	135.56
459.478	93.56
459.698	84.56
459.918	82.56
460.138	83.56
460.358	77.56
460.578	68.56
460.798	95.56
461.018	92.56
461.238	72.56
461.458	87.56
461.678	90.56
461.898	78.56
462.118	73.56
462.338	79.56
462.558	86.56
462.777	75.56
462.997	79.56
463.217	79.56
463.437	95.56
463.657	70.56
463.876	91.56
464.096	86.56
464.316	92.56
464.536	90.56
464.755	74.56
464.975	117.56
465.195	196.56
465.414	204.56
465.634	98.56
465.854	80.56
466.073	90.56
466.293	90.56
466.512	72.56
466.732	79.56
466.951	89.56
467.171	86.56
467.391	90.56
467.61	118.56
467.829	96.56
468.049	90.56
468.268	79.56
468.488	70.56
468.707	84.56
468.927	82.56
469.146	92.56
469.365	85.56
469.585	100.56
469.804	102.56
470.023	94.56
470.243	94.56
470.462	111.56
470.681	115.56
470.901	110.56
471.12	87.56
471.339	78.56
471.558	87.56
471.777	73.56
471.997	81.56
472.216	82.56
472.435	75.56
472.654	85.56
472.873	92.56
473.092	85.56
473.311	90.56
473.53	82.56
473.749	84.56
473.968	104.56
474.187	118.56
474.406	105.56
474.625	102.56
474.844	92.56
475.063	61.56
475.282	78.56
475.501	83.56
475.72	83.56
475.939	89.56
476.158	67.56
476.377	66.56
476.596	93.56
476.814	86.56
477.033	98.56
477.252	88.56
477.471	90.56
477.69	86.56
477.908	87.56
478.127	77.56
478.346	77.56
478.564	87.56
478.783	94.56
479.002	98.56
479.22	106.56
479.439	105.56
479.658	112.56
479.876	82.56
480.095	83.56
480.313	95.56
480.532	96.56
480.751	80.56
480.969	101.56
481.188	90.56
481.406	108.56
481.624	92.56
481.843	86.56
482.061	86.56
482.28	81.56
482.498	88.56
482.717	79.56
482.935	86.56
483.153	92.56
483.372	89.56
483.59	93.56
483.808	90.56
484.027	75.56
484.245	73.56
484.463	90.56
484.681	88.56
484.9	85.56
485.118	96.56
485.336	78.56
485.554	93.56
485.772	94.56
485.99	103.56
486.209	86.56
486.427	101.56
486.645	102.56
486.863	131.56
487.081	98.56
487.299	82.56
487.517	100.56
487.735	91.56
487.953	91.56
488.171	84.56
488.389	97.56
488.607	110.56
488.825	82.56
489.043	88.56
489.261	79.56
489.479	88.56
489.696	71.56
489.914	90.56
490.132	81.56
490.35	80.56
490.568	91.56
490.786	85.56
491.003	91.56
491.221	87.56
491.439	82.56
491.657	72.56
491.874	100.56
492.092	88.56
492.31	81.56
492.527	90.56
492.745	86.56
492.963	90.56
493.18	86.56
493.398	101.56
493.615	94.56
493.833	91.56
494.05	99.56
494.268	89.56
494.485	94.56
494.703	84.56
494.92	89.56
495.138	91.56
495.355	92.56
495.573	90.56
495.79	83.56
496.008	82.56
496.225	89.56
496.442	88.56
496.66	85.56
496.877	83.56
497.094	83.56
497.312	87.56
497.529	88.56
497.746	94.56
497.963	96.56
498.181	93.56
498.398	81.56
498.615	110.56
498.832	97.56
499.049	93.56
499.267	86.56
499.484	83.56
499.701	94.56
499.918	77.56
500.135	88.56
500.352	89.56
500.569	83.56
500.786	87.56
501.003	106.56
501.22	78.56
501.437	87.56
501.654	88.56
501.871	115.56
502.088	99.56
502.305	91.56
502.522	91.56
502.739	77.56
502.956	90.56
503.172	75.56
503.389	104.56
503.606	100.56
503.823	94.56
504.04	81.56
504.256	91.56
504.473	82.56
504.69	68.56
504.907	106.56
505.123	97.56
505.34	84.56
505.557	74.56
505.773	81.56
505.99	94.56
506.207	91.56
506.423	83.56
506.64	80.56
506.856	100.56
507.073	91.56
507.289	93.56
507.506	96.56
507.722	130.56
507.939	116.56
508.155	99.56
508.372	94.56
508.588	89.56
508.805	81.56
509.021	94.56
509.238	90.56
509.454	97.56
509.67	110.56
509.887	122.56
510.103	134.56
510.319	224.56
510.536	884.56
510.752	3014.56
510.968	802.56
511.184	165.56
511.401	120.56
511.617	115.56
511.833	89.56
512.049	81.56
512.265	99.56
512.481	83.56
512.698	101.56
512.914	88.56
513.13	81.56
513.346	88.56
513.562	100.56
513.778	96.56
513.994	86.56
514.21	103.56
514.426	135.56
514.642	158.56
514.858	151.56
515.074	190.56
515.29	605.56
515.506	2200.56
515.721	778.56
515.937	195.56
