Data from Uncirc_1991_H10_HRD10591_00053.txt Node
Date: Wed Jan 03 11:50:48 EST 2024
User: Yrep
Spectrometer: HR+D1059
Trigger mode: 1
Integration Time (sec): 1.000000E-1
Scans to average: 1
Electric dark correction enabled: true
Nonlinearity correction enabled: false
Boxcar width: 0
XAxis mode: Wavelengths
Number of Pixels in Spectrum: 2048
>>>>>Begin Spectral Data<<<<<
223.165	-27.25
223.4	-27.25
223.635	-27.25
223.869	-26.25
224.104	-20.25
224.338	-5.25
224.573	-10.25
224.808	-13.25
225.042	-2.25
225.277	-11.25
225.511	3.75
225.746	6.75
225.98	12.75
226.215	-1.25
226.449	19.75
226.683	28.75
226.918	13.75
227.152	31.75
227.387	51.75
227.621	38.75
227.856	33.75
228.09	47.75
228.324	51.75
228.559	53.75
228.793	67.75
229.027	63.75
229.262	62.75
229.496	70.75
229.73	68.75
229.964	72.75
230.199	67.75
230.433	79.75
230.667	75.75
230.901	86.75
231.136	76.75
231.37	76.75
231.604	65.75
231.838	57.75
232.072	88.75
232.306	78.75
232.541	84.75
232.775	83.75
233.009	87.75
233.243	84.75
233.477	67.75
233.711	89.75
233.945	65.75
234.179	70.75
234.413	79.75
234.647	73.75
234.881	83.75
235.115	79.75
235.349	75.75
235.583	72.75
235.817	82.75
236.051	76.75
236.285	76.75
236.519	52.75
236.753	79.75
236.987	70.75
237.221	85.75
237.455	75.75
237.689	79.75
237.922	71.75
238.156	89.75
238.39	81.75
238.624	70.75
238.858	77.75
239.091	79.75
239.325	74.75
239.559	85.75
239.793	79.75
240.027	82.75
240.26	76.75
240.494	80.75
240.728	73.75
240.961	69.75
241.195	82.75
241.429	83.75
241.662	69.75
241.896	75.75
242.13	69.75
242.363	71.75
242.597	81.75
242.83	77.75
243.064	87.75
243.298	78.75
243.531	79.75
243.765	65.75
243.998	79.75
244.232	81.75
244.465	70.75
244.699	74.75
244.932	75.75
245.166	87.75
245.399	79.75
245.633	86.75
245.866	74.75
246.099	73.75
246.333	83.75
246.566	70.75
246.8	73.75
247.033	63.75
247.266	81.75
247.5	85.75
247.733	83.75
247.966	75.75
248.2	85.75
248.433	79.75
248.666	83.75
248.899	86.75
249.133	101.75
249.366	102.75
249.599	110.75
249.832	85.75
250.066	87.75
250.299	88.75
250.532	75.75
250.765	69.75
250.998	81.75
251.231	66.75
251.465	87.75
251.698	70.75
251.931	81.75
252.164	75.75
252.397	70.75
252.63	70.75
252.863	91.75
253.096	91.75
253.329	77.75
253.562	73.75
253.795	82.75
254.028	85.75
254.261	86.75
254.494	86.75
254.727	90.75
254.96	57.75
255.193	81.75
255.426	74.75
255.659	84.75
255.892	86.75
256.124	75.75
256.357	69.75
256.59	73.75
256.823	70.75
257.056	78.75
257.289	84.75
257.521	103.75
257.754	89.75
257.987	72.75
258.22	81.75
258.452	79.75
258.685	75.75
258.918	65.75
259.151	61.75
259.383	78.75
259.616	75.75
259.849	86.75
260.081	75.75
260.314	84.75
260.547	79.75
260.779	85.75
261.012	83.75
261.244	88.75
261.477	88.75
261.71	85.75
261.942	111.75
262.175	103.75
262.407	87.75
262.64	80.75
262.872	85.75
263.105	74.75
263.337	82.75
263.57	68.75
263.802	73.75
264.035	86.75
264.267	88.75
264.499	80.75
264.732	85.75
264.964	81.75
265.197	88.75
265.429	81.75
265.661	77.75
265.894	81.75
266.126	78.75
266.358	79.75
266.591	86.75
266.823	76.75
267.055	79.75
267.287	79.75
267.52	91.75
267.752	74.75
267.984	84.75
268.216	79.75
268.448	92.75
268.681	85.75
268.913	75.75
269.145	64.75
269.377	74.75
269.609	89.75
269.841	83.75
270.073	91.75
270.306	92.75
270.538	84.75
270.77	90.75
271.002	86.75
271.234	76.75
271.466	90.75
271.698	93.75
271.93	85.75
272.162	90.75
272.394	84.75
272.626	81.75
272.858	79.75
273.09	77.75
273.322	67.75
273.553	85.75
273.785	92.75
274.017	87.75
274.249	91.75
274.481	95.75
274.713	83.75
274.945	78.75
275.176	81.75
275.408	83.75
275.64	92.75
275.872	84.75
276.104	90.75
276.335	84.75
276.567	98.75
276.799	104.75
277.031	101.75
277.262	73.75
277.494	78.75
277.726	89.75
277.957	85.75
278.189	86.75
278.421	88.75
278.652	87.75
278.884	83.75
279.115	80.75
279.347	93.75
279.579	84.75
279.81	82.75
280.042	91.75
280.273	86.75
280.505	74.75
280.736	86.75
280.968	85.75
281.199	77.75
281.431	87.75
281.662	84.75
281.894	93.75
282.125	93.75
282.356	114.75
282.588	125.75
282.819	104.75
283.051	93.75
283.282	90.75
283.513	96.75
283.745	84.75
283.976	93.75
284.207	90.75
284.439	83.75
284.67	97.75
284.901	93.75
285.132	76.75
285.364	85.75
285.595	74.75
285.826	83.75
286.057	95.75
286.288	89.75
286.52	93.75
286.751	83.75
286.982	61.75
287.213	71.75
287.444	77.75
287.675	83.75
287.906	89.75
288.138	84.75
288.369	93.75
288.6	81.75
288.831	81.75
289.062	96.75
289.293	85.75
289.524	83.75
289.755	74.75
289.986	83.75
290.217	67.75
290.448	77.75
290.679	81.75
290.91	94.75
291.141	78.75
291.371	91.75
291.602	73.75
291.833	90.75
292.064	77.75
292.295	82.75
292.526	77.75
292.757	89.75
292.987	84.75
293.218	91.75
293.449	85.75
293.68	85.75
293.91	92.75
294.141	89.75
294.372	72.75
294.603	79.75
294.833	84.75
295.064	90.75
295.295	85.75
295.525	80.75
295.756	103.75
295.987	101.75
296.217	132.75
296.448	115.75
296.679	91.75
296.909	88.75
297.14	86.75
297.37	82.75
297.601	92.75
297.831	85.75
298.062	82.75
298.292	93.75
298.523	89.75
298.753	95.75
298.984	100.75
299.214	87.75
299.445	91.75
299.675	97.75
299.905	90.75
300.136	86.75
300.366	81.75
300.597	100.75
300.827	87.75
301.057	87.75
301.288	106.75
301.518	91.75
301.748	102.75
301.979	86.75
302.209	84.75
302.439	78.75
302.669	85.75
302.9	75.75
303.13	83.75
303.36	106.75
303.59	88.75
303.82	100.75
304.051	103.75
304.281	99.75
304.511	89.75
304.741	73.75
304.971	96.75
305.201	89.75
305.431	81.75
305.661	95.75
305.891	84.75
306.121	99.75
306.352	107.75
306.582	102.75
306.812	96.75
307.042	85.75
307.272	90.75
307.502	77.75
307.731	90.75
307.961	93.75
308.191	97.75
308.421	95.75
308.651	91.75
308.881	103.75
309.111	94.75
309.341	86.75
309.571	96.75
309.8	70.75
310.03	86.75
310.26	93.75
310.49	92.75
310.72	113.75
310.949	113.75
311.179	86.75
311.409	93.75
311.639	100.75
311.868	99.75
312.098	92.75
312.328	94.75
312.557	99.75
312.787	105.75
313.017	92.75
313.246	83.75
313.476	84.75
313.706	94.75
313.935	101.75
314.165	98.75
314.394	90.75
314.624	87.75
314.853	105.75
315.083	89.75
315.312	75.75
315.542	102.75
315.771	90.75
316.001	87.75
316.23	100.75
316.46	91.75
316.689	93.75
316.919	99.75
317.148	83.75
317.377	85.75
317.607	93.75
317.836	101.75
318.065	84.75
318.295	95.75
318.524	85.75
318.753	92.75
318.983	106.75
319.212	101.75
319.441	96.75
319.67	97.75
319.9	97.75
320.129	79.75
320.358	91.75
320.587	92.75
320.816	85.75
321.046	106.75
321.275	89.75
321.504	99.75
321.733	102.75
321.962	106.75
322.191	97.75
322.42	84.75
322.649	121.75
322.878	124.75
323.108	113.75
323.337	116.75
323.566	138.75
323.795	146.75
324.024	208.75
324.253	405.75
324.482	875.75
324.71	1835.75
324.939	2367.75
325.168	862.75
325.397	259.75
325.626	165.75
325.855	122.75
326.084	131.75
326.313	131.75
326.542	157.75
326.77	230.75
326.999	470.75
327.228	990.75
327.457	1799.75
327.686	1477.75
327.914	391.75
328.143	187.75
328.372	142.75
328.6	132.75
328.829	122.75
329.058	135.75
329.287	132.75
329.515	99.75
329.744	97.75
329.972	108.75
330.201	99.75
330.43	117.75
330.658	116.75
330.887	131.75
331.115	101.75
331.344	112.75
331.572	100.75
331.801	98.75
332.03	113.75
332.258	86.75
332.486	102.75
332.715	99.75
332.943	97.75
333.172	84.75
333.4	94.75
333.629	112.75
333.857	108.75
334.085	94.75
334.314	97.75
334.542	113.75
334.771	102.75
334.999	90.75
335.227	112.75
335.455	91.75
335.684	94.75
335.912	91.75
336.14	95.75
336.369	98.75
336.597	86.75
336.825	98.75
337.053	76.75
337.281	98.75
337.51	78.75
337.738	87.75
337.966	90.75
338.194	96.75
338.422	102.75
338.65	102.75
338.878	84.75
339.106	98.75
339.334	93.75
339.562	87.75
339.79	93.75
340.018	81.75
340.246	86.75
340.474	85.75
340.702	97.75
340.93	85.75
341.158	92.75
341.386	96.75
341.614	108.75
341.842	78.75
342.07	102.75
342.298	99.75
342.526	94.75
342.754	98.75
342.981	86.75
343.209	81.75
343.437	99.75
343.665	86.75
343.893	89.75
344.12	90.75
344.348	96.75
344.576	87.75
344.804	82.75
345.031	99.75
345.259	85.75
345.487	76.75
345.714	90.75
345.942	91.75
346.17	81.75
346.397	90.75
346.625	89.75
346.853	88.75
347.08	87.75
347.308	98.75
347.535	117.75
347.763	98.75
347.99	84.75
348.218	102.75
348.445	94.75
348.673	95.75
348.9	88.75
349.128	97.75
349.355	97.75
349.583	101.75
349.81	87.75
350.037	84.75
350.265	102.75
350.492	79.75
350.72	99.75
350.947	93.75
351.174	99.75
351.402	102.75
351.629	89.75
351.856	95.75
352.083	95.75
352.311	91.75
352.538	100.75
352.765	107.75
352.992	103.75
353.22	111.75
353.447	115.75
353.674	94.75
353.901	95.75
354.128	105.75
354.355	100.75
354.583	117.75
354.81	99.75
355.037	98.75
355.264	87.75
355.491	96.75
355.718	91.75
355.945	98.75
356.172	109.75
356.399	99.75
356.626	92.75
356.853	89.75
357.08	100.75
357.307	97.75
357.534	79.75
357.761	95.75
357.988	81.75
358.215	106.75
358.441	97.75
358.668	96.75
358.895	105.75
359.122	103.75
359.349	99.75
359.576	90.75
359.802	74.75
360.029	100.75
360.256	100.75
360.483	105.75
360.709	96.75
360.936	103.75
361.163	80.75
361.39	93.75
361.616	90.75
361.843	94.75
362.07	87.75
362.296	94.75
362.523	97.75
362.749	93.75
362.976	93.75
363.203	106.75
363.429	88.75
363.656	93.75
363.882	77.75
364.109	86.75
364.335	87.75
364.562	85.75
364.788	108.75
365.015	98.75
365.241	91.75
365.468	97.75
365.694	89.75
365.92	90.75
366.147	83.75
366.373	98.75
366.599	91.75
366.826	90.75
367.052	99.75
367.278	89.75
367.505	68.75
367.731	89.75
367.957	102.75
368.184	89.75
368.41	93.75
368.636	108.75
368.862	114.75
369.089	115.75
369.315	84.75
369.541	81.75
369.767	103.75
369.993	91.75
370.219	86.75
370.445	92.75
370.672	102.75
370.898	76.75
371.124	98.75
371.35	92.75
371.576	86.75
371.802	96.75
372.028	70.75
372.254	75.75
372.48	115.75
372.706	95.75
372.932	83.75
373.158	100.75
373.384	89.75
373.61	87.75
373.835	86.75
374.061	79.75
374.287	81.75
374.513	83.75
374.739	94.75
374.965	90.75
375.191	83.75
375.416	95.75
375.642	76.75
375.868	88.75
376.094	109.75
376.319	95.75
376.545	85.75
376.771	96.75
376.997	87.75
377.222	95.75
377.448	89.75
377.674	82.75
377.899	87.75
378.125	94.75
378.35	95.75
378.576	86.75
378.802	91.75
379.027	97.75
379.253	79.75
379.478	98.75
379.704	85.75
379.929	102.75
380.155	101.75
380.38	94.75
380.606	86.75
380.831	85.75
381.057	97.75
381.282	92.75
381.507	88.75
381.733	91.75
381.958	85.75
382.184	99.75
382.409	94.75
382.634	97.75
382.86	101.75
383.085	93.75
383.31	96.75
383.535	97.75
383.761	99.75
383.986	92.75
384.211	101.75
384.436	95.75
384.662	88.75
384.887	113.75
385.112	91.75
385.337	105.75
385.562	98.75
385.787	88.75
386.013	104.75
386.238	106.75
386.463	94.75
386.688	101.75
386.913	97.75
387.138	106.75
387.363	93.75
387.588	101.75
387.813	89.75
388.038	86.75
388.263	102.75
388.488	91.75
388.713	93.75
388.938	94.75
389.163	89.75
389.387	106.75
389.612	99.75
389.837	93.75
390.062	97.75
390.287	86.75
390.512	89.75
390.736	92.75
390.961	102.75
391.186	97.75
391.411	90.75
391.636	89.75
391.86	80.75
392.085	90.75
392.31	90.75
392.534	98.75
392.759	98.75
392.984	83.75
393.208	98.75
393.433	93.75
393.658	90.75
393.882	79.75
394.107	93.75
394.331	86.75
394.556	100.75
394.78	85.75
395.005	95.75
395.229	86.75
395.454	89.75
395.678	89.75
395.903	80.75
396.127	82.75
396.352	75.75
396.576	90.75
396.801	84.75
397.025	93.75
397.249	96.75
397.474	89.75
397.698	65.75
397.922	103.75
398.147	81.75
398.371	70.75
398.595	84.75
398.82	78.75
399.044	90.75
399.268	89.75
399.492	82.75
399.717	87.75
399.941	97.75
400.165	77.75
400.389	91.75
400.613	81.75
400.837	95.75
401.062	82.75
401.286	97.75
401.51	85.75
401.734	86.75
401.958	107.75
402.182	116.75
402.406	158.75
402.63	116.75
402.854	87.75
403.078	90.75
403.302	73.75
403.526	79.75
403.75	95.75
403.974	81.75
404.198	83.75
404.422	90.75
404.645	88.75
404.869	78.75
405.093	85.75
405.317	87.75
405.541	89.75
405.765	107.75
405.988	117.75
406.212	158.75
406.436	212.75
406.66	149.75
406.883	109.75
407.107	93.75
407.331	95.75
407.555	100.75
407.778	92.75
408.002	96.75
408.226	84.75
408.449	77.75
408.673	94.75
408.896	91.75
409.12	83.75
409.344	93.75
409.567	99.75
409.791	88.75
410.014	102.75
410.238	110.75
410.461	85.75
410.685	102.75
410.908	98.75
411.132	87.75
411.355	103.75
411.578	94.75
411.802	87.75
412.025	97.75
412.249	89.75
412.472	67.75
412.695	83.75
412.919	88.75
413.142	81.75
413.365	87.75
413.589	84.75
413.812	74.75
414.035	105.75
414.258	84.75
414.482	97.75
414.705	80.75
414.928	81.75
415.151	91.75
415.374	95.75
415.597	99.75
415.821	92.75
416.044	85.75
416.267	90.75
416.49	84.75
416.713	79.75
416.936	90.75
417.159	88.75
417.382	78.75
417.605	87.75
417.828	100.75
418.051	66.75
418.274	84.75
418.497	76.75
418.72	86.75
418.943	93.75
419.166	77.75
419.389	76.75
419.611	85.75
419.834	91.75
420.057	93.75
420.28	75.75
420.503	101.75
420.726	93.75
420.948	95.75
421.171	91.75
421.394	97.75
421.617	80.75
421.839	84.75
422.062	94.75
422.285	98.75
422.507	88.75
422.73	94.75
422.953	84.75
423.175	84.75
423.398	78.75
423.621	89.75
423.843	90.75
424.066	78.75
424.288	85.75
424.511	79.75
424.733	94.75
424.956	102.75
425.178	90.75
425.401	98.75
425.623	94.75
425.846	85.75
426.068	97.75
426.291	102.75
426.513	82.75
426.735	79.75
426.958	102.75
427.18	102.75
427.402	147.75
427.625	154.75
427.847	124.75
428.069	103.75
428.292	86.75
428.514	87.75
428.736	74.75
428.958	83.75
429.181	82.75
429.403	92.75
429.625	89.75
429.847	90.75
430.069	101.75
430.292	83.75
430.514	89.75
430.736	64.75
430.958	76.75
431.18	93.75
431.402	99.75
431.624	93.75
431.846	89.75
432.068	95.75
432.29	105.75
432.512	85.75
432.734	69.75
432.956	87.75
433.178	109.75
433.4	94.75
433.622	102.75
433.844	94.75
434.066	97.75
434.287	77.75
434.509	86.75
434.731	91.75
434.953	74.75
435.175	95.75
435.397	86.75
435.618	99.75
435.84	106.75
436.062	130.75
436.284	106.75
436.505	95.75
436.727	94.75
436.949	111.75
437.17	101.75
437.392	91.75
437.614	97.75
437.835	103.75
438.057	116.75
438.278	125.75
438.5	113.75
438.721	118.75
438.943	111.75
439.165	80.75
439.386	93.75
439.608	100.75
439.829	100.75
440.05	118.75
440.272	139.75
440.493	105.75
440.715	75.75
440.936	92.75
441.158	86.75
441.379	91.75
441.6	89.75
441.822	87.75
442.043	97.75
442.264	99.75
442.486	98.75
442.707	100.75
442.928	103.75
443.149	132.75
443.371	127.75
443.592	113.75
443.813	130.75
444.034	116.75
444.255	88.75
444.476	81.75
444.698	86.75
444.919	92.75
445.14	132.75
445.361	135.75
445.582	118.75
445.803	147.75
446.024	139.75
446.245	143.75
446.466	115.75
446.687	97.75
446.908	102.75
447.129	91.75
447.35	79.75
447.571	95.75
447.792	86.75
448.013	103.75
448.234	103.75
448.455	110.75
448.675	124.75
448.896	127.75
449.117	101.75
449.338	94.75
449.559	126.75
449.779	137.75
450	98.75
450.221	105.75
450.442	93.75
450.662	83.75
450.883	111.75
451.104	103.75
451.324	95.75
451.545	92.75
451.766	90.75
451.986	83.75
452.207	85.75
452.428	85.75
452.648	90.75
452.869	119.75
453.089	107.75
453.31	124.75
453.53	75.75
453.751	91.75
453.971	99.75
454.192	100.75
454.412	95.75
454.633	104.75
454.853	94.75
455.073	82.75
455.294	94.75
455.514	92.75
455.734	88.75
455.955	86.75
456.175	76.75
456.395	83.75
456.616	96.75
456.836	90.75
457.056	91.75
457.276	83.75
457.497	96.75
457.717	90.75
457.937	77.75
458.157	87.75
458.377	96.75
458.598	109.75
458.818	157.75
459.038	152.75
459.258	112.75
459.478	82.75
459.698	80.75
459.918	83.75
460.138	81.75
460.358	83.75
460.578	96.75
460.798	107.75
461.018	94.75
461.238	84.75
461.458	95.75
461.678	78.75
461.898	88.75
462.118	87.75
462.338	79.75
462.558	83.75
462.777	90.75
462.997	85.75
463.217	86.75
463.437	92.75
463.657	94.75
463.876	81.75
464.096	105.75
464.316	92.75
464.536	84.75
464.755	103.75
464.975	96.75
465.195	164.75
465.414	147.75
465.634	90.75
465.854	88.75
466.073	85.75
466.293	85.75
466.512	103.75
466.732	100.75
466.951	100.75
467.171	85.75
467.391	79.75
467.61	116.75
467.829	102.75
468.049	101.75
468.268	88.75
468.488	87.75
468.707	85.75
468.927	90.75
469.146	84.75
469.365	70.75
469.585	89.75
469.804	105.75
470.023	97.75
470.243	97.75
470.462	90.75
470.681	109.75
470.901	93.75
471.12	88.75
471.339	87.75
471.558	81.75
471.777	86.75
471.997	101.75
472.216	86.75
472.435	81.75
472.654	81.75
472.873	88.75
473.092	87.75
473.311	89.75
473.53	83.75
473.749	84.75
473.968	98.75
474.187	113.75
474.406	98.75
474.625	102.75
474.844	90.75
475.063	82.75
475.282	94.75
475.501	82.75
475.72	90.75
475.939	86.75
476.158	90.75
476.377	89.75
476.596	99.75
476.814	87.75
477.033	91.75
477.252	83.75
477.471	89.75
477.69	81.75
477.908	83.75
478.127	100.75
478.346	89.75
478.564	83.75
478.783	89.75
479.002	101.75
479.22	98.75
479.439	86.75
479.658	96.75
479.876	79.75
480.095	97.75
480.313	78.75
480.532	84.75
480.751	94.75
480.969	86.75
481.188	103.75
481.406	95.75
481.624	100.75
481.843	86.75
482.061	95.75
482.28	96.75
482.498	106.75
482.717	87.75
482.935	91.75
483.153	91.75
483.372	82.75
483.59	95.75
483.808	93.75
484.027	93.75
484.245	91.75
484.463	95.75
484.681	119.75
484.9	90.75
485.118	91.75
485.336	80.75
485.554	101.75
485.772	75.75
485.99	101.75
486.209	98.75
486.427	98.75
486.645	98.75
486.863	101.75
487.081	99.75
487.299	96.75
487.517	96.75
487.735	98.75
487.953	97.75
488.171	83.75
488.389	84.75
488.607	92.75
488.825	90.75
489.043	93.75
489.261	83.75
489.479	95.75
489.696	91.75
489.914	85.75
490.132	94.75
490.35	95.75
490.568	97.75
490.786	85.75
491.003	84.75
491.221	87.75
491.439	78.75
491.657	82.75
491.874	86.75
492.092	87.75
492.31	80.75
492.527	95.75
492.745	97.75
492.963	84.75
493.18	88.75
493.398	79.75
493.615	79.75
493.833	90.75
494.05	71.75
494.268	88.75
494.485	89.75
494.703	94.75
494.92	77.75
495.138	97.75
495.355	99.75
495.573	90.75
495.79	100.75
496.008	92.75
496.225	78.75
496.442	90.75
496.66	95.75
496.877	98.75
497.094	107.75
497.312	99.75
497.529	87.75
497.746	75.75
497.963	86.75
498.181	75.75
498.398	93.75
498.615	107.75
498.832	110.75
499.049	80.75
499.267	93.75
499.484	92.75
499.701	90.75
499.918	79.75
500.135	102.75
500.352	90.75
500.569	88.75
500.786	87.75
501.003	81.75
501.22	87.75
501.437	101.75
501.654	87.75
501.871	100.75
502.088	98.75
502.305	87.75
502.522	112.75
502.739	88.75
502.956	89.75
503.172	101.75
503.389	83.75
503.606	115.75
503.823	84.75
504.04	82.75
504.256	94.75
504.473	92.75
504.69	82.75
504.907	93.75
505.123	93.75
505.34	78.75
505.557	92.75
505.773	101.75
505.99	88.75
506.207	102.75
506.423	77.75
506.64	89.75
506.856	82.75
507.073	84.75
507.289	81.75
507.506	96.75
507.722	119.75
507.939	103.75
508.155	97.75
508.372	90.75
508.588	98.75
508.805	99.75
509.021	95.75
509.238	90.75
509.454	106.75
509.67	106.75
509.887	101.75
510.103	130.75
510.319	225.75
510.536	714.75
510.752	2242.75
510.968	611.75
511.184	158.75
511.401	121.75
511.617	112.75
511.833	91.75
512.049	90.75
512.265	101.75
512.481	76.75
512.698	90.75
512.914	85.75
513.13	84.75
513.346	82.75
513.562	92.75
513.778	94.75
513.994	90.75
514.21	103.75
514.426	101.75
514.642	131.75
514.858	123.75
515.074	176.75
515.29	441.75
515.506	1446.75
515.721	531.75
515.937	157.75
516.153	107.75
