Data from Uncirc_1991_H10_HRD10591_00022.txt Node
Date: Wed Jan 03 11:50:42 EST 2024
User: Yrep
Spectrometer: HR+D1059
Trigger mode: 1
Integration Time (sec): 1.000000E-1
Scans to average: 1
Electric dark correction enabled: true
Nonlinearity correction enabled: false
Boxcar width: 0
XAxis mode: Wavelengths
Number of Pixels in Spectrum: 2048
>>>>>Begin Spectral Data<<<<<
223.165	-20.75
223.4	-20.75
223.635	-20.75
223.869	-13.75
224.104	-19.75
224.338	0.25
224.573	-23.75
224.808	-13.75
225.042	-11.75
225.277	-5.75
225.511	-1.75
225.746	-4.75
225.98	15.25
226.215	19.25
226.449	20.25
226.683	10.25
226.918	26.25
227.152	24.25
227.387	33.25
227.621	22.25
227.856	44.25
228.09	44.25
228.324	35.25
228.559	48.25
228.793	52.25
229.027	68.25
229.262	55.25
229.496	65.25
229.73	84.25
229.964	81.25
230.199	78.25
230.433	63.25
230.667	79.25
230.901	54.25
231.136	78.25
231.37	78.25
231.604	75.25
231.838	72.25
232.072	96.25
232.306	85.25
232.541	78.25
232.775	73.25
233.009	84.25
233.243	73.25
233.477	82.25
233.711	67.25
233.945	79.25
234.179	79.25
234.413	74.25
234.647	87.25
234.881	72.25
235.115	78.25
235.349	75.25
235.583	80.25
235.817	80.25
236.051	88.25
236.285	68.25
236.519	85.25
236.753	82.25
236.987	77.25
237.221	79.25
237.455	90.25
237.689	92.25
237.922	83.25
238.156	78.25
238.39	82.25
238.624	86.25
238.858	67.25
239.091	86.25
239.325	89.25
239.559	77.25
239.793	70.25
240.027	82.25
240.26	78.25
240.494	72.25
240.728	81.25
240.961	81.25
241.195	77.25
241.429	67.25
241.662	49.25
241.896	71.25
242.13	76.25
242.363	71.25
242.597	82.25
242.83	76.25
243.064	66.25
243.298	72.25
243.531	74.25
243.765	74.25
243.998	86.25
244.232	88.25
244.465	77.25
244.699	80.25
244.932	80.25
245.166	77.25
245.399	76.25
245.633	80.25
245.866	72.25
246.099	81.25
246.333	68.25
246.566	75.25
246.8	70.25
247.033	80.25
247.266	69.25
247.5	74.25
247.733	78.25
247.966	76.25
248.2	70.25
248.433	75.25
248.666	105.25
248.899	79.25
249.133	98.25
249.366	82.25
249.599	86.25
249.832	75.25
250.066	80.25
250.299	93.25
250.532	85.25
250.765	81.25
250.998	81.25
251.231	89.25
251.465	76.25
251.698	79.25
251.931	82.25
252.164	77.25
252.397	79.25
252.63	82.25
252.863	83.25
253.096	78.25
253.329	78.25
253.562	82.25
253.795	87.25
254.028	72.25
254.261	82.25
254.494	79.25
254.727	86.25
254.96	76.25
255.193	78.25
255.426	85.25
255.659	67.25
255.892	78.25
256.124	78.25
256.357	82.25
256.59	83.25
256.823	89.25
257.056	82.25
257.289	78.25
257.521	94.25
257.754	89.25
257.987	79.25
258.22	78.25
258.452	77.25
258.685	82.25
258.918	88.25
259.151	80.25
259.383	64.25
259.616	78.25
259.849	90.25
260.081	78.25
260.314	76.25
260.547	74.25
260.779	84.25
261.012	77.25
261.244	84.25
261.477	105.25
261.71	104.25
261.942	111.25
262.175	110.25
262.407	88.25
262.64	86.25
262.872	67.25
263.105	74.25
263.337	84.25
263.57	76.25
263.802	76.25
264.035	86.25
264.267	76.25
264.499	84.25
264.732	80.25
264.964	71.25
265.197	89.25
265.429	93.25
265.661	77.25
265.894	75.25
266.126	86.25
266.358	92.25
266.591	73.25
266.823	91.25
267.055	63.25
267.287	84.25
267.52	89.25
267.752	70.25
267.984	83.25
268.216	90.25
268.448	77.25
268.681	72.25
268.913	76.25
269.145	72.25
269.377	64.25
269.609	73.25
269.841	83.25
270.073	84.25
270.306	88.25
270.538	79.25
270.77	80.25
271.002	75.25
271.234	87.25
271.466	78.25
271.698	76.25
271.93	65.25
272.162	76.25
272.394	76.25
272.626	80.25
272.858	93.25
273.09	76.25
273.322	72.25
273.553	82.25
273.785	81.25
274.017	86.25
274.249	77.25
274.481	81.25
274.713	75.25
274.945	84.25
275.176	88.25
275.408	82.25
275.64	87.25
275.872	68.25
276.104	80.25
276.335	73.25
276.567	83.25
276.799	95.25
277.031	104.25
277.262	92.25
277.494	90.25
277.726	96.25
277.957	91.25
278.189	93.25
278.421	96.25
278.652	94.25
278.884	92.25
279.115	92.25
279.347	87.25
279.579	72.25
279.81	78.25
280.042	75.25
280.273	86.25
280.505	68.25
280.736	87.25
280.968	78.25
281.199	88.25
281.431	64.25
281.662	85.25
281.894	75.25
282.125	87.25
282.356	101.25
282.588	137.25
282.819	108.25
283.051	94.25
283.282	61.25
283.513	83.25
283.745	88.25
283.976	96.25
284.207	89.25
284.439	86.25
284.67	92.25
284.901	81.25
285.132	75.25
285.364	84.25
285.595	77.25
285.826	84.25
286.057	84.25
286.288	89.25
286.52	80.25
286.751	80.25
286.982	76.25
287.213	91.25
287.444	81.25
287.675	82.25
287.906	92.25
288.138	98.25
288.369	87.25
288.6	89.25
288.831	84.25
289.062	86.25
289.293	81.25
289.524	68.25
289.755	92.25
289.986	82.25
290.217	92.25
290.448	79.25
290.679	87.25
290.91	96.25
291.141	94.25
291.371	85.25
291.602	88.25
291.833	84.25
292.064	83.25
292.295	88.25
292.526	81.25
292.757	90.25
292.987	87.25
293.218	82.25
293.449	93.25
293.68	82.25
293.91	67.25
294.141	82.25
294.372	90.25
294.603	72.25
294.833	89.25
295.064	97.25
295.295	80.25
295.525	77.25
295.756	88.25
295.987	110.25
296.217	124.25
296.448	110.25
296.679	86.25
296.909	80.25
297.14	94.25
297.37	84.25
297.601	91.25
297.831	79.25
298.062	83.25
298.292	87.25
298.523	82.25
298.753	92.25
298.984	90.25
299.214	92.25
299.445	108.25
299.675	97.25
299.905	87.25
300.136	81.25
300.366	84.25
300.597	80.25
300.827	77.25
301.057	94.25
301.288	100.25
301.518	95.25
301.748	79.25
301.979	92.25
302.209	74.25
302.439	89.25
302.669	78.25
302.9	79.25
303.13	80.25
303.36	84.25
303.59	99.25
303.82	91.25
304.051	74.25
304.281	83.25
304.511	88.25
304.741	80.25
304.971	87.25
305.201	83.25
305.431	86.25
305.661	88.25
305.891	96.25
306.121	90.25
306.352	103.25
306.582	88.25
306.812	80.25
307.042	84.25
307.272	99.25
307.502	96.25
307.731	93.25
307.961	90.25
308.191	96.25
308.421	79.25
308.651	83.25
308.881	92.25
309.111	96.25
309.341	74.25
309.571	94.25
309.8	113.25
310.03	92.25
310.26	104.25
310.49	84.25
310.72	104.25
310.949	95.25
311.179	101.25
311.409	91.25
311.639	92.25
311.868	96.25
312.098	89.25
312.328	91.25
312.557	95.25
312.787	105.25
313.017	82.25
313.246	91.25
313.476	83.25
313.706	96.25
313.935	80.25
314.165	91.25
314.394	97.25
314.624	106.25
314.853	75.25
315.083	95.25
315.312	88.25
315.542	81.25
315.771	80.25
316.001	93.25
316.23	85.25
316.46	84.25
316.689	82.25
316.919	83.25
317.148	87.25
317.377	96.25
317.607	95.25
317.836	81.25
318.065	90.25
318.295	91.25
318.524	95.25
318.753	96.25
318.983	90.25
319.212	91.25
319.441	83.25
319.67	96.25
319.9	96.25
320.129	95.25
320.358	83.25
320.587	98.25
320.816	94.25
321.046	88.25
321.275	97.25
321.504	84.25
321.733	92.25
321.962	91.25
322.191	104.25
322.42	79.25
322.649	104.25
322.878	99.25
323.108	118.25
323.337	128.25
323.566	125.25
323.795	149.25
324.024	201.25
324.253	383.25
324.482	814.25
324.71	1725.25
324.939	2324.25
325.168	837.25
325.397	235.25
325.626	136.25
325.855	127.25
326.084	134.25
326.313	121.25
326.542	152.25
326.77	208.25
326.999	460.25
327.228	932.25
327.457	1766.25
327.686	1435.25
327.914	362.25
328.143	158.25
328.372	154.25
328.6	110.25
328.829	124.25
329.058	125.25
329.287	122.25
329.515	94.25
329.744	106.25
329.972	93.25
330.201	101.25
330.43	87.25
330.658	111.25
330.887	125.25
331.115	121.25
331.344	86.25
331.572	99.25
331.801	103.25
332.03	116.25
332.258	95.25
332.486	96.25
332.715	89.25
332.943	94.25
333.172	93.25
333.4	93.25
333.629	87.25
333.857	112.25
334.085	105.25
334.314	78.25
334.542	111.25
334.771	101.25
334.999	77.25
335.227	77.25
335.455	88.25
335.684	97.25
335.912	88.25
336.14	103.25
336.369	92.25
336.597	104.25
336.825	78.25
337.053	75.25
337.281	95.25
337.51	92.25
337.738	88.25
337.966	94.25
338.194	95.25
338.422	92.25
338.65	86.25
338.878	96.25
339.106	83.25
339.334	91.25
339.562	83.25
339.79	90.25
340.018	90.25
340.246	88.25
340.474	83.25
340.702	96.25
340.93	91.25
341.158	87.25
341.386	92.25
341.614	96.25
341.842	83.25
342.07	88.25
342.298	95.25
342.526	99.25
342.754	89.25
342.981	90.25
343.209	76.25
343.437	90.25
343.665	80.25
343.893	82.25
344.12	94.25
344.348	74.25
344.576	83.25
344.804	91.25
345.031	98.25
345.259	93.25
345.487	100.25
345.714	89.25
345.942	99.25
346.17	67.25
346.397	89.25
346.625	87.25
346.853	88.25
347.08	82.25
347.308	89.25
347.535	92.25
347.763	92.25
347.99	86.25
348.218	103.25
348.445	105.25
348.673	97.25
348.9	94.25
349.128	82.25
349.355	92.25
349.583	101.25
349.81	88.25
350.037	80.25
350.265	83.25
350.492	98.25
350.72	109.25
350.947	89.25
351.174	100.25
351.402	103.25
351.629	100.25
351.856	98.25
352.083	90.25
352.311	128.25
352.538	101.25
352.765	104.25
352.992	95.25
353.22	98.25
353.447	99.25
353.674	97.25
353.901	82.25
354.128	96.25
354.355	83.25
354.583	87.25
354.81	85.25
355.037	87.25
355.264	94.25
355.491	80.25
355.718	89.25
355.945	83.25
356.172	78.25
356.399	99.25
356.626	90.25
356.853	88.25
357.08	76.25
357.307	100.25
357.534	87.25
357.761	90.25
357.988	94.25
358.215	91.25
358.441	93.25
358.668	94.25
358.895	83.25
359.122	85.25
359.349	96.25
359.576	92.25
359.802	91.25
360.029	116.25
360.256	95.25
360.483	100.25
360.709	79.25
360.936	80.25
361.163	87.25
361.39	79.25
361.616	89.25
361.843	89.25
362.07	77.25
362.296	83.25
362.523	85.25
362.749	82.25
362.976	82.25
363.203	91.25
363.429	89.25
363.656	92.25
363.882	86.25
364.109	83.25
364.335	96.25
364.562	86.25
364.788	90.25
365.015	86.25
365.241	91.25
365.468	104.25
365.694	98.25
365.92	106.25
366.147	86.25
366.373	76.25
366.599	87.25
366.826	81.25
367.052	89.25
367.278	87.25
367.505	107.25
367.731	84.25
367.957	76.25
368.184	83.25
368.41	93.25
368.636	111.25
368.862	117.25
369.089	92.25
369.315	84.25
369.541	90.25
369.767	83.25
369.993	87.25
370.219	94.25
370.445	91.25
370.672	80.25
370.898	82.25
371.124	73.25
371.35	80.25
371.576	78.25
371.802	78.25
372.028	86.25
372.254	66.25
372.48	84.25
372.706	89.25
372.932	90.25
373.158	95.25
373.384	97.25
373.61	92.25
373.835	78.25
374.061	84.25
374.287	104.25
374.513	90.25
374.739	86.25
374.965	67.25
375.191	86.25
375.416	81.25
375.642	89.25
375.868	86.25
376.094	94.25
376.319	75.25
376.545	86.25
376.771	82.25
376.997	93.25
377.222	95.25
377.448	77.25
377.674	94.25
377.899	88.25
378.125	89.25
378.35	91.25
378.576	86.25
378.802	88.25
379.027	80.25
379.253	89.25
379.478	93.25
379.704	94.25
379.929	91.25
380.155	105.25
380.38	82.25
380.606	106.25
380.831	101.25
381.057	92.25
381.282	96.25
381.507	99.25
381.733	92.25
381.958	83.25
382.184	82.25
382.409	87.25
382.634	94.25
382.86	97.25
383.085	72.25
383.31	90.25
383.535	104.25
383.761	95.25
383.986	101.25
384.211	107.25
384.436	81.25
384.662	105.25
384.887	83.25
385.112	109.25
385.337	93.25
385.562	98.25
385.787	87.25
386.013	91.25
386.238	117.25
386.463	100.25
386.688	108.25
386.913	102.25
387.138	98.25
387.363	72.25
387.588	113.25
387.813	95.25
388.038	95.25
388.263	100.25
388.488	98.25
388.713	97.25
388.938	93.25
389.163	84.25
389.387	98.25
389.612	113.25
389.837	105.25
390.062	100.25
390.287	84.25
390.512	72.25
390.736	83.25
390.961	97.25
391.186	95.25
391.411	96.25
391.636	85.25
391.86	84.25
392.085	83.25
392.31	85.25
392.534	78.25
392.759	88.25
392.984	86.25
393.208	93.25
393.433	81.25
393.658	90.25
393.882	87.25
394.107	79.25
394.331	93.25
394.556	92.25
394.78	91.25
395.005	96.25
395.229	74.25
395.454	94.25
395.678	87.25
395.903	76.25
396.127	87.25
396.352	91.25
396.576	82.25
396.801	98.25
397.025	92.25
397.249	83.25
397.474	78.25
397.698	83.25
397.922	94.25
398.147	84.25
398.371	90.25
398.595	80.25
398.82	78.25
399.044	77.25
399.268	74.25
399.492	91.25
399.717	80.25
399.941	86.25
400.165	99.25
400.389	84.25
400.613	95.25
400.837	80.25
401.062	89.25
401.286	94.25
401.51	86.25
401.734	94.25
401.958	94.25
402.182	108.25
402.406	142.25
402.63	106.25
402.854	66.25
403.078	79.25
403.302	94.25
403.526	73.25
403.75	72.25
403.974	80.25
404.198	91.25
404.422	70.25
404.645	86.25
404.869	76.25
405.093	79.25
405.317	81.25
405.541	79.25
405.765	90.25
405.988	107.25
406.212	154.25
406.436	191.25
406.66	154.25
406.883	102.25
407.107	88.25
407.331	93.25
407.555	105.25
407.778	98.25
408.002	95.25
408.226	98.25
408.449	96.25
408.673	96.25
408.896	95.25
409.12	89.25
409.344	78.25
409.567	88.25
409.791	86.25
410.014	94.25
410.238	80.25
410.461	96.25
410.685	87.25
410.908	79.25
411.132	106.25
411.355	97.25
411.578	81.25
411.802	90.25
412.025	87.25
412.249	88.25
412.472	99.25
412.695	93.25
412.919	99.25
413.142	93.25
413.365	90.25
413.589	81.25
413.812	74.25
414.035	83.25
414.258	78.25
414.482	78.25
414.705	77.25
414.928	82.25
415.151	88.25
415.374	89.25
415.597	91.25
415.821	101.25
416.044	90.25
416.267	95.25
416.49	85.25
416.713	96.25
416.936	78.25
417.159	65.25
417.382	87.25
417.605	79.25
417.828	95.25
418.051	91.25
418.274	94.25
418.497	93.25
418.72	75.25
418.943	93.25
419.166	104.25
419.389	94.25
419.611	83.25
419.834	77.25
420.057	86.25
420.28	89.25
420.503	72.25
420.726	91.25
420.948	77.25
421.171	98.25
421.394	89.25
421.617	100.25
421.839	78.25
422.062	81.25
422.285	88.25
422.507	90.25
422.73	106.25
422.953	101.25
423.175	85.25
423.398	78.25
423.621	83.25
423.843	86.25
424.066	100.25
424.288	94.25
424.511	94.25
424.733	92.25
424.956	110.25
425.178	100.25
425.401	95.25
425.623	107.25
425.846	80.25
426.068	73.25
426.291	74.25
426.513	84.25
426.735	84.25
426.958	110.25
427.18	97.25
427.402	130.25
427.625	164.25
427.847	106.25
428.069	82.25
428.292	72.25
428.514	94.25
428.736	83.25
428.958	71.25
429.181	73.25
429.403	83.25
429.625	75.25
429.847	82.25
430.069	99.25
430.292	91.25
430.514	86.25
430.736	81.25
430.958	88.25
431.18	89.25
431.402	70.25
431.624	78.25
431.846	85.25
432.068	91.25
432.29	79.25
432.512	83.25
432.734	76.25
432.956	83.25
433.178	105.25
433.4	113.25
433.622	80.25
433.844	95.25
434.066	80.25
434.287	81.25
434.509	91.25
434.731	83.25
434.953	82.25
435.175	94.25
435.397	88.25
435.618	85.25
435.84	94.25
436.062	96.25
436.284	110.25
436.505	96.25
436.727	103.25
436.949	90.25
437.17	76.25
437.392	76.25
437.614	96.25
437.835	98.25
438.057	101.25
438.278	97.25
438.5	105.25
438.721	125.25
438.943	96.25
439.165	89.25
439.386	80.25
439.608	80.25
439.829	80.25
440.05	106.25
440.272	141.25
440.493	125.25
440.715	84.25
440.936	75.25
441.158	94.25
441.379	94.25
441.6	80.25
441.822	79.25
442.043	84.25
442.264	97.25
442.486	105.25
442.707	92.25
442.928	95.25
443.149	107.25
443.371	125.25
443.592	97.25
443.813	107.25
444.034	95.25
444.255	78.25
444.476	72.25
444.698	94.25
444.919	97.25
445.14	138.25
445.361	126.25
445.582	98.25
445.803	123.25
446.024	132.25
446.245	130.25
446.466	106.25
446.687	80.25
446.908	76.25
447.129	76.25
447.35	90.25
447.571	84.25
447.792	99.25
448.013	95.25
448.234	100.25
448.455	88.25
448.675	109.25
448.896	119.25
449.117	86.25
449.338	98.25
449.559	124.25
449.779	120.25
450	100.25
450.221	69.25
450.442	64.25
450.662	94.25
450.883	100.25
451.104	111.25
451.324	96.25
451.545	76.25
451.766	83.25
451.986	72.25
452.207	100.25
452.428	72.25
452.648	82.25
452.869	104.25
453.089	105.25
453.31	100.25
453.53	95.25
453.751	82.25
453.971	84.25
454.192	97.25
454.412	104.25
454.633	86.25
454.853	73.25
455.073	92.25
455.294	86.25
455.514	98.25
455.734	99.25
455.955	67.25
456.175	78.25
456.395	98.25
456.616	79.25
456.836	87.25
457.056	83.25
457.276	91.25
457.497	99.25
457.717	86.25
457.937	93.25
458.157	80.25
458.377	82.25
458.598	107.25
458.818	116.25
459.038	134.25
459.258	115.25
459.478	81.25
459.698	75.25
459.918	82.25
460.138	92.25
460.358	90.25
460.578	96.25
460.798	92.25
461.018	88.25
461.238	78.25
461.458	84.25
461.678	78.25
461.898	90.25
462.118	72.25
462.338	94.25
462.558	83.25
462.777	75.25
462.997	83.25
463.217	76.25
463.437	80.25
463.657	83.25
463.876	72.25
464.096	75.25
464.316	76.25
464.536	80.25
464.755	95.25
464.975	90.25
465.195	133.25
465.414	139.25
465.634	94.25
465.854	86.25
466.073	87.25
466.293	91.25
466.512	75.25
466.732	73.25
466.951	92.25
467.171	95.25
467.391	89.25
467.61	106.25
467.829	100.25
468.049	92.25
468.268	77.25
468.488	80.25
468.707	96.25
468.927	79.25
469.146	83.25
469.365	76.25
469.585	74.25
469.804	83.25
470.023	98.25
470.243	85.25
470.462	98.25
470.681	84.25
470.901	82.25
471.12	77.25
471.339	85.25
471.558	75.25
471.777	90.25
471.997	82.25
472.216	87.25
472.435	82.25
472.654	95.25
472.873	96.25
473.092	92.25
473.311	76.25
473.53	75.25
473.749	92.25
473.968	90.25
474.187	98.25
474.406	78.25
474.625	76.25
474.844	82.25
475.063	70.25
475.282	82.25
475.501	78.25
475.72	84.25
475.939	83.25
476.158	82.25
476.377	74.25
476.596	84.25
476.814	92.25
477.033	92.25
477.252	75.25
477.471	83.25
477.69	76.25
477.908	83.25
478.127	78.25
478.346	81.25
478.564	77.25
478.783	82.25
479.002	77.25
479.22	96.25
479.439	97.25
479.658	94.25
479.876	95.25
480.095	81.25
480.313	91.25
480.532	99.25
480.751	82.25
480.969	76.25
481.188	95.25
481.406	81.25
481.624	83.25
481.843	73.25
482.061	91.25
482.28	76.25
482.498	80.25
482.717	83.25
482.935	82.25
483.153	88.25
483.372	96.25
483.59	81.25
483.808	81.25
484.027	80.25
484.245	82.25
484.463	82.25
484.681	94.25
484.9	84.25
485.118	92.25
485.336	94.25
485.554	91.25
485.772	97.25
485.99	98.25
486.209	105.25
486.427	98.25
486.645	107.25
486.863	100.25
487.081	102.25
487.299	106.25
487.517	90.25
487.735	84.25
487.953	87.25
488.171	104.25
488.389	99.25
488.607	100.25
488.825	95.25
489.043	91.25
489.261	97.25
489.479	98.25
489.696	90.25
489.914	97.25
490.132	81.25
490.35	92.25
490.568	96.25
490.786	79.25
491.003	76.25
491.221	91.25
491.439	100.25
491.657	96.25
491.874	89.25
492.092	88.25
492.31	96.25
492.527	78.25
492.745	80.25
492.963	87.25
493.18	94.25
493.398	87.25
493.615	81.25
493.833	89.25
494.05	87.25
494.268	86.25
494.485	90.25
494.703	97.25
494.92	97.25
495.138	89.25
495.355	83.25
495.573	89.25
495.79	106.25
496.008	87.25
496.225	81.25
496.442	84.25
496.66	95.25
496.877	95.25
497.094	75.25
497.312	90.25
497.529	84.25
497.746	80.25
497.963	95.25
498.181	77.25
498.398	92.25
498.615	109.25
498.832	104.25
499.049	92.25
499.267	91.25
499.484	87.25
499.701	99.25
499.918	91.25
500.135	86.25
500.352	87.25
500.569	91.25
500.786	105.25
501.003	86.25
501.22	99.25
501.437	86.25
501.654	79.25
501.871	98.25
502.088	86.25
502.305	102.25
502.522	99.25
502.739	97.25
502.956	78.25
503.172	102.25
503.389	86.25
503.606	99.25
503.823	94.25
504.04	93.25
504.256	94.25
504.473	84.25
504.69	91.25
504.907	95.25
505.123	80.25
505.34	90.25
505.557	90.25
505.773	75.25
505.99	94.25
506.207	104.25
506.423	85.25
506.64	81.25
506.856	90.25
507.073	87.25
507.289	75.25
507.506	96.25
507.722	106.25
507.939	110.25
508.155	95.25
508.372	87.25
508.588	86.25
508.805	95.25
509.021	107.25
509.238	86.25
509.454	84.25
509.67	88.25
509.887	111.25
510.103	126.25
510.319	182.25
510.536	656.25
510.752	1952.25
510.968	570.25
511.184	158.25
511.401	102.25
511.617	90.25
511.833	91.25
512.049	82.25
512.265	81.25
512.481	105.25
512.698	92.25
512.914	88.25
513.13	98.25
513.346	92.25
513.562	78.25
513.778	101.25
513.994	105.25
514.21	86.25
514.426	102.25
514.642	115.25
514.858	100.25
515.074	164.25
515.29	385.25
515.506	1294.25
515.721	480.25
515.937	130.25
516.153	104.25
516.369	97.25
516.585	85.25
516.801	103.25
517.016	101.25
517.232	89.25
