Data from Uncirc_1991_H10_HRD10591_00046.txt Node
Date: Wed Jan 03 11:50:47 EST 2024
User: Yrep
Spectrometer: HR+D1059
Trigger mode: 1
Integration Time (sec): 1.000000E-1
Scans to average: 1
Electric dark correction enabled: true
Nonlinearity correction enabled: false
Boxcar width: 0
XAxis mode: Wavelengths
Number of Pixels in Spectrum: 2048
>>>>>Begin Spectral Data<<<<<
223.165	-14.38
223.4	-14.38
223.635	-14.38
223.869	-10.38
224.104	-24.38
224.338	-9.38
224.573	-26.38
224.808	-16.38
225.042	-3.38
225.277	-5.38
225.511	-1.38
225.746	-9.38
225.98	8.62
226.215	16.62
226.449	2.62
226.683	27.62
226.918	32.62
227.152	32.62
227.387	38.62
227.621	27.62
227.856	41.62
228.09	43.62
228.324	57.62
228.559	52.62
228.793	55.62
229.027	51.62
229.262	80.62
229.496	81.62
229.73	90.62
229.964	97.62
230.199	84.62
230.433	72.62
230.667	68.62
230.901	88.62
231.136	72.62
231.37	90.62
231.604	70.62
231.838	82.62
232.072	70.62
232.306	84.62
232.541	80.62
232.775	91.62
233.009	66.62
233.243	76.62
233.477	84.62
233.711	76.62
233.945	72.62
234.179	74.62
234.413	76.62
234.647	69.62
234.881	66.62
235.115	74.62
235.349	81.62
235.583	80.62
235.817	68.62
236.051	75.62
236.285	67.62
236.519	84.62
236.753	72.62
236.987	86.62
237.221	82.62
237.455	92.62
237.689	86.62
237.922	62.62
238.156	72.62
238.39	67.62
238.624	68.62
238.858	74.62
239.091	83.62
239.325	79.62
239.559	68.62
239.793	80.62
240.027	69.62
240.26	73.62
240.494	93.62
240.728	89.62
240.961	77.62
241.195	78.62
241.429	68.62
241.662	66.62
241.896	76.62
242.13	90.62
242.363	77.62
242.597	63.62
242.83	64.62
243.064	60.62
243.298	82.62
243.531	96.62
243.765	73.62
243.998	78.62
244.232	84.62
244.465	68.62
244.699	70.62
244.932	82.62
245.166	77.62
245.399	81.62
245.633	84.62
245.866	76.62
246.099	68.62
246.333	80.62
246.566	88.62
246.8	88.62
247.033	83.62
247.266	82.62
247.5	76.62
247.733	86.62
247.966	74.62
248.2	81.62
248.433	69.62
248.666	77.62
248.899	83.62
249.133	96.62
249.366	117.62
249.599	97.62
249.832	86.62
250.066	83.62
250.299	73.62
250.532	88.62
250.765	92.62
250.998	87.62
251.231	73.62
251.465	86.62
251.698	80.62
251.931	92.62
252.164	74.62
252.397	81.62
252.63	90.62
252.863	85.62
253.096	77.62
253.329	88.62
253.562	72.62
253.795	93.62
254.028	90.62
254.261	78.62
254.494	85.62
254.727	84.62
254.96	86.62
255.193	84.62
255.426	67.62
255.659	82.62
255.892	74.62
256.124	86.62
256.357	92.62
256.59	84.62
256.823	88.62
257.056	75.62
257.289	65.62
257.521	92.62
257.754	74.62
257.987	74.62
258.22	87.62
258.452	79.62
258.685	64.62
258.918	93.62
259.151	80.62
259.383	78.62
259.616	80.62
259.849	98.62
260.081	84.62
260.314	87.62
260.547	92.62
260.779	73.62
261.012	78.62
261.244	84.62
261.477	89.62
261.71	100.62
261.942	109.62
262.175	127.62
262.407	102.62
262.64	99.62
262.872	76.62
263.105	80.62
263.337	81.62
263.57	92.62
263.802	89.62
264.035	74.62
264.267	84.62
264.499	88.62
264.732	86.62
264.964	81.62
265.197	92.62
265.429	98.62
265.661	86.62
265.894	82.62
266.126	85.62
266.358	90.62
266.591	85.62
266.823	89.62
267.055	75.62
267.287	100.62
267.52	74.62
267.752	93.62
267.984	89.62
268.216	91.62
268.448	83.62
268.681	88.62
268.913	74.62
269.145	89.62
269.377	94.62
269.609	81.62
269.841	74.62
270.073	82.62
270.306	75.62
270.538	79.62
270.77	87.62
271.002	83.62
271.234	87.62
271.466	104.62
271.698	88.62
271.93	81.62
272.162	88.62
272.394	80.62
272.626	78.62
272.858	86.62
273.09	83.62
273.322	92.62
273.553	86.62
273.785	93.62
274.017	81.62
274.249	98.62
274.481	85.62
274.713	92.62
274.945	94.62
275.176	83.62
275.408	85.62
275.64	82.62
275.872	83.62
276.104	79.62
276.335	91.62
276.567	96.62
276.799	106.62
277.031	104.62
277.262	92.62
277.494	85.62
277.726	95.62
277.957	91.62
278.189	86.62
278.421	82.62
278.652	88.62
278.884	84.62
279.115	90.62
279.347	97.62
279.579	81.62
279.81	89.62
280.042	85.62
280.273	87.62
280.505	88.62
280.736	89.62
280.968	85.62
281.199	88.62
281.431	84.62
281.662	87.62
281.894	94.62
282.125	94.62
282.356	113.62
282.588	141.62
282.819	134.62
283.051	86.62
283.282	101.62
283.513	101.62
283.745	105.62
283.976	84.62
284.207	86.62
284.439	86.62
284.67	82.62
284.901	81.62
285.132	98.62
285.364	83.62
285.595	92.62
285.826	88.62
286.057	100.62
286.288	73.62
286.52	81.62
286.751	83.62
286.982	70.62
287.213	72.62
287.444	82.62
287.675	103.62
287.906	76.62
288.138	100.62
288.369	88.62
288.6	99.62
288.831	96.62
289.062	95.62
289.293	106.62
289.524	94.62
289.755	82.62
289.986	97.62
290.217	88.62
290.448	93.62
290.679	79.62
290.91	101.62
291.141	93.62
291.371	84.62
291.602	94.62
291.833	91.62
292.064	86.62
292.295	89.62
292.526	87.62
292.757	92.62
292.987	86.62
293.218	88.62
293.449	84.62
293.68	86.62
293.91	82.62
294.141	89.62
294.372	106.62
294.603	100.62
294.833	82.62
295.064	104.62
295.295	75.62
295.525	99.62
295.756	120.62
295.987	130.62
296.217	158.62
296.448	138.62
296.679	90.62
296.909	90.62
297.14	86.62
297.37	97.62
297.601	85.62
297.831	89.62
298.062	88.62
298.292	96.62
298.523	85.62
298.753	90.62
298.984	90.62
299.214	90.62
299.445	86.62
299.675	84.62
299.905	114.62
300.136	90.62
300.366	88.62
300.597	93.62
300.827	78.62
301.057	109.62
301.288	100.62
301.518	102.62
301.748	90.62
301.979	104.62
302.209	99.62
302.439	105.62
302.669	88.62
302.9	99.62
303.13	89.62
303.36	89.62
303.59	105.62
303.82	116.62
304.051	98.62
304.281	86.62
304.511	86.62
304.741	84.62
304.971	73.62
305.201	85.62
305.431	92.62
305.661	80.62
305.891	84.62
306.121	106.62
306.352	93.62
306.582	120.62
306.812	90.62
307.042	92.62
307.272	83.62
307.502	82.62
307.731	85.62
307.961	90.62
308.191	92.62
308.421	85.62
308.651	87.62
308.881	88.62
309.111	85.62
309.341	94.62
309.571	101.62
309.8	102.62
310.03	107.62
310.26	102.62
310.49	93.62
310.72	108.62
310.949	99.62
311.179	110.62
311.409	106.62
311.639	91.62
311.868	103.62
312.098	96.62
312.328	96.62
312.557	108.62
312.787	106.62
313.017	113.62
313.246	93.62
313.476	96.62
313.706	94.62
313.935	95.62
314.165	100.62
314.394	112.62
314.624	103.62
314.853	104.62
315.083	81.62
315.312	93.62
315.542	99.62
315.771	110.62
316.001	81.62
316.23	78.62
316.46	85.62
316.689	90.62
316.919	101.62
317.148	95.62
317.377	102.62
317.607	108.62
317.836	104.62
318.065	106.62
318.295	77.62
318.524	89.62
318.753	98.62
318.983	90.62
319.212	106.62
319.441	116.62
319.67	114.62
319.9	102.62
320.129	92.62
320.358	91.62
320.587	95.62
320.816	94.62
321.046	93.62
321.275	97.62
321.504	108.62
321.733	92.62
321.962	92.62
322.191	118.62
322.42	104.62
322.649	105.62
322.878	126.62
323.108	106.62
323.337	135.62
323.566	126.62
323.795	152.62
324.024	218.62
324.253	456.62
324.482	965.62
324.71	2037.62
324.939	2787.62
325.168	970.62
325.397	271.62
325.626	166.62
325.855	116.62
326.084	134.62
326.313	165.62
326.542	168.62
326.77	255.62
326.999	510.62
327.228	1072.62
327.457	2084.62
327.686	1660.62
327.914	433.62
328.143	200.62
328.372	168.62
328.6	139.62
328.829	128.62
329.058	140.62
329.287	134.62
329.515	116.62
329.744	102.62
329.972	98.62
330.201	100.62
330.43	105.62
330.658	155.62
330.887	175.62
331.115	139.62
331.344	101.62
331.572	90.62
331.801	102.62
332.03	110.62
332.258	103.62
332.486	88.62
332.715	88.62
332.943	106.62
333.172	105.62
333.4	83.62
333.629	112.62
333.857	108.62
334.085	93.62
334.314	95.62
334.542	97.62
334.771	100.62
334.999	91.62
335.227	89.62
335.455	95.62
335.684	91.62
335.912	100.62
336.14	107.62
336.369	100.62
336.597	115.62
336.825	102.62
337.053	91.62
337.281	82.62
337.51	74.62
337.738	107.62
337.966	93.62
338.194	94.62
338.422	96.62
338.65	96.62
338.878	94.62
339.106	90.62
339.334	83.62
339.562	105.62
339.79	88.62
340.018	89.62
340.246	99.62
340.474	99.62
340.702	109.62
340.93	91.62
341.158	84.62
341.386	95.62
341.614	101.62
341.842	89.62
342.07	91.62
342.298	84.62
342.526	85.62
342.754	92.62
342.981	79.62
343.209	101.62
343.437	96.62
343.665	97.62
343.893	93.62
344.12	87.62
344.348	85.62
344.576	85.62
344.804	89.62
345.031	100.62
345.259	100.62
345.487	99.62
345.714	94.62
345.942	94.62
346.17	92.62
346.397	106.62
346.625	84.62
346.853	103.62
347.08	95.62
347.308	99.62
347.535	105.62
347.763	110.62
347.99	107.62
348.218	105.62
348.445	121.62
348.673	101.62
348.9	94.62
349.128	92.62
349.355	79.62
349.583	92.62
349.81	100.62
350.037	90.62
350.265	113.62
350.492	87.62
350.72	94.62
350.947	97.62
351.174	97.62
351.402	108.62
351.629	108.62
351.856	121.62
352.083	119.62
352.311	102.62
352.538	105.62
352.765	121.62
352.992	114.62
353.22	115.62
353.447	107.62
353.674	100.62
353.901	92.62
354.128	93.62
354.355	97.62
354.583	95.62
354.81	93.62
355.037	108.62
355.264	89.62
355.491	82.62
355.718	93.62
355.945	100.62
356.172	88.62
356.399	99.62
356.626	97.62
356.853	93.62
357.08	87.62
357.307	100.62
357.534	84.62
357.761	104.62
357.988	98.62
358.215	104.62
358.441	94.62
358.668	102.62
358.895	91.62
359.122	76.62
359.349	85.62
359.576	100.62
359.802	100.62
360.029	118.62
360.256	140.62
360.483	94.62
360.709	95.62
360.936	89.62
361.163	104.62
361.39	84.62
361.616	101.62
361.843	99.62
362.07	89.62
362.296	108.62
362.523	91.62
362.749	104.62
362.976	80.62
363.203	85.62
363.429	93.62
363.656	101.62
363.882	97.62
364.109	92.62
364.335	101.62
364.562	97.62
364.788	90.62
365.015	89.62
365.241	92.62
365.468	107.62
365.694	115.62
365.92	101.62
366.147	101.62
366.373	81.62
366.599	83.62
366.826	94.62
367.052	79.62
367.278	85.62
367.505	89.62
367.731	97.62
367.957	99.62
368.184	97.62
368.41	100.62
368.636	121.62
368.862	121.62
369.089	102.62
369.315	91.62
369.541	93.62
369.767	89.62
369.993	85.62
370.219	99.62
370.445	100.62
370.672	88.62
370.898	89.62
371.124	90.62
371.35	83.62
371.576	93.62
371.802	96.62
372.028	84.62
372.254	80.62
372.48	89.62
372.706	82.62
372.932	81.62
373.158	88.62
373.384	87.62
373.61	90.62
373.835	90.62
374.061	91.62
374.287	94.62
374.513	88.62
374.739	99.62
374.965	80.62
375.191	84.62
375.416	88.62
375.642	76.62
375.868	94.62
376.094	97.62
376.319	88.62
376.545	83.62
376.771	94.62
376.997	66.62
377.222	108.62
377.448	79.62
377.674	83.62
377.899	89.62
378.125	92.62
378.35	63.62
378.576	81.62
378.802	103.62
379.027	92.62
379.253	96.62
379.478	97.62
379.704	96.62
379.929	92.62
380.155	96.62
380.38	92.62
380.606	102.62
380.831	87.62
381.057	80.62
381.282	107.62
381.507	93.62
381.733	91.62
381.958	106.62
382.184	94.62
382.409	97.62
382.634	97.62
382.86	102.62
383.085	103.62
383.31	84.62
383.535	112.62
383.761	97.62
383.986	91.62
384.211	89.62
384.436	85.62
384.662	95.62
384.887	97.62
385.112	96.62
385.337	90.62
385.562	82.62
385.787	95.62
386.013	99.62
386.238	117.62
386.463	102.62
386.688	123.62
386.913	103.62
387.138	97.62
387.363	95.62
387.588	92.62
387.813	98.62
388.038	99.62
388.263	105.62
388.488	113.62
388.713	90.62
388.938	93.62
389.163	89.62
389.387	77.62
389.612	113.62
389.837	111.62
390.062	97.62
390.287	93.62
390.512	100.62
390.736	95.62
390.961	106.62
391.186	95.62
391.411	90.62
391.636	99.62
391.86	72.62
392.085	82.62
392.31	93.62
392.534	90.62
392.759	80.62
392.984	85.62
393.208	92.62
393.433	91.62
393.658	96.62
393.882	102.62
394.107	81.62
394.331	84.62
394.556	77.62
394.78	75.62
395.005	85.62
395.229	89.62
395.454	98.62
395.678	93.62
395.903	93.62
396.127	86.62
396.352	83.62
396.576	80.62
396.801	88.62
397.025	83.62
397.249	89.62
397.474	92.62
397.698	77.62
397.922	79.62
398.147	72.62
398.371	87.62
398.595	76.62
398.82	81.62
399.044	97.62
399.268	85.62
399.492	83.62
399.717	110.62
399.941	108.62
400.165	90.62
400.389	82.62
400.613	98.62
400.837	94.62
401.062	77.62
401.286	89.62
401.51	100.62
401.734	101.62
401.958	102.62
402.182	141.62
402.406	185.62
402.63	117.62
402.854	87.62
403.078	84.62
403.302	92.62
403.526	84.62
403.75	93.62
403.974	89.62
404.198	84.62
404.422	93.62
404.645	88.62
404.869	87.62
405.093	102.62
405.317	94.62
405.541	105.62
405.765	98.62
405.988	115.62
406.212	190.62
406.436	264.62
406.66	164.62
406.883	115.62
407.107	111.62
407.331	100.62
407.555	114.62
407.778	80.62
408.002	90.62
408.226	87.62
408.449	94.62
408.673	101.62
408.896	104.62
409.12	102.62
409.344	96.62
409.567	80.62
409.791	85.62
410.014	97.62
410.238	95.62
410.461	88.62
410.685	88.62
410.908	97.62
411.132	93.62
411.355	97.62
411.578	97.62
411.802	84.62
412.025	88.62
412.249	84.62
412.472	81.62
412.695	96.62
412.919	90.62
413.142	78.62
413.365	79.62
413.589	90.62
413.812	87.62
414.035	82.62
414.258	103.62
414.482	81.62
414.705	96.62
414.928	95.62
415.151	88.62
415.374	84.62
415.597	88.62
415.821	92.62
416.044	90.62
416.267	73.62
416.49	97.62
416.713	88.62
416.936	87.62
417.159	74.62
417.382	78.62
417.605	97.62
417.828	95.62
418.051	86.62
418.274	85.62
418.497	74.62
418.72	99.62
418.943	81.62
419.166	102.62
419.389	86.62
419.611	89.62
419.834	95.62
420.057	87.62
420.28	84.62
420.503	78.62
420.726	96.62
420.948	84.62
421.171	106.62
421.394	101.62
421.617	95.62
421.839	88.62
422.062	81.62
422.285	87.62
422.507	100.62
422.73	106.62
422.953	94.62
423.175	88.62
423.398	96.62
423.621	82.62
423.843	85.62
424.066	93.62
424.288	84.62
424.511	92.62
424.733	98.62
424.956	109.62
425.178	114.62
425.401	111.62
425.623	116.62
425.846	92.62
426.068	77.62
426.291	99.62
426.513	81.62
426.735	89.62
426.958	107.62
427.18	125.62
427.402	158.62
427.625	207.62
427.847	141.62
428.069	109.62
428.292	90.62
428.514	77.62
428.736	92.62
428.958	81.62
429.181	86.62
429.403	89.62
429.625	96.62
429.847	86.62
430.069	116.62
430.292	91.62
430.514	77.62
430.736	96.62
430.958	92.62
431.18	80.62
431.402	77.62
431.624	94.62
431.846	92.62
432.068	85.62
432.29	99.62
432.512	76.62
432.734	88.62
432.956	93.62
433.178	93.62
433.4	99.62
433.622	81.62
433.844	81.62
434.066	92.62
434.287	80.62
434.509	88.62
434.731	91.62
434.953	78.62
435.175	89.62
435.397	95.62
435.618	89.62
435.84	113.62
436.062	139.62
436.284	133.62
436.505	107.62
436.727	107.62
436.949	93.62
437.17	85.62
437.392	82.62
437.614	91.62
437.835	129.62
438.057	129.62
438.278	128.62
438.5	127.62
438.721	156.62
438.943	114.62
439.165	96.62
439.386	97.62
439.608	81.62
439.829	107.62
440.05	133.62
440.272	180.62
440.493	101.62
440.715	88.62
440.936	81.62
441.158	86.62
441.379	86.62
441.6	98.62
441.822	98.62
442.043	86.62
442.264	123.62
442.486	123.62
442.707	93.62
442.928	92.62
443.149	142.62
443.371	146.62
443.592	111.62
443.813	123.62
444.034	113.62
444.255	98.62
444.476	94.62
444.698	78.62
444.919	98.62
445.14	137.62
445.361	146.62
445.582	126.62
445.803	178.62
446.024	165.62
446.245	158.62
446.466	133.62
446.687	91.62
446.908	91.62
447.129	81.62
447.35	85.62
447.571	90.62
447.792	93.62
448.013	96.62
448.234	101.62
448.455	111.62
448.675	139.62
448.896	123.62
449.117	106.62
449.338	112.62
449.559	156.62
449.779	144.62
450	103.62
450.221	100.62
450.442	84.62
450.662	107.62
450.883	118.62
451.104	121.62
451.324	99.62
451.545	97.62
451.766	91.62
451.986	92.62
452.207	90.62
452.428	85.62
452.648	101.62
452.869	115.62
453.089	120.62
453.31	117.62
453.53	95.62
453.751	96.62
453.971	103.62
454.192	126.62
454.412	97.62
454.633	76.62
454.853	87.62
455.073	99.62
455.294	101.62
455.514	116.62
455.734	96.62
455.955	80.62
456.175	79.62
456.395	76.62
456.616	92.62
456.836	76.62
457.056	84.62
457.276	93.62
457.497	65.62
457.717	86.62
457.937	88.62
458.157	89.62
458.377	81.62
458.598	106.62
458.818	170.62
459.038	188.62
459.258	133.62
459.478	83.62
459.698	88.62
459.918	92.62
460.138	69.62
460.358	82.62
460.578	89.62
460.798	92.62
461.018	77.62
461.238	74.62
461.458	77.62
461.678	101.62
461.898	84.62
462.118	83.62
462.338	79.62
462.558	82.62
462.777	77.62
462.997	84.62
463.217	82.62
463.437	82.62
463.657	81.62
463.876	72.62
464.096	80.62
464.316	93.62
464.536	81.62
464.755	100.62
464.975	117.62
465.195	195.62
465.414	206.62
465.634	95.62
465.854	86.62
466.073	104.62
466.293	72.62
466.512	88.62
466.732	80.62
466.951	91.62
467.171	78.62
467.391	99.62
467.61	111.62
467.829	110.62
468.049	84.62
468.268	85.62
468.488	70.62
468.707	85.62
468.927	88.62
469.146	78.62
469.365	89.62
469.585	94.62
469.804	89.62
470.023	105.62
470.243	84.62
470.462	125.62
470.681	110.62
470.901	102.62
471.12	82.62
471.339	90.62
471.558	81.62
471.777	94.62
471.997	80.62
472.216	96.62
472.435	105.62
472.654	90.62
472.873	78.62
473.092	84.62
473.311	80.62
473.53	80.62
473.749	96.62
473.968	96.62
474.187	125.62
474.406	117.62
474.625	89.62
474.844	78.62
475.063	83.62
475.282	92.62
475.501	88.62
475.72	84.62
475.939	84.62
476.158	72.62
476.377	91.62
476.596	94.62
476.814	86.62
477.033	99.62
477.252	94.62
477.471	94.62
477.69	99.62
477.908	100.62
478.127	90.62
478.346	77.62
478.564	98.62
478.783	78.62
479.002	88.62
479.22	94.62
479.439	110.62
479.658	110.62
479.876	103.62
480.095	94.62
480.313	93.62
480.532	87.62
480.751	82.62
480.969	85.62
481.188	94.62
481.406	106.62
481.624	90.62
481.843	91.62
482.061	108.62
482.28	91.62
482.498	97.62
482.717	94.62
482.935	88.62
483.153	86.62
483.372	89.62
483.59	78.62
483.808	87.62
484.027	79.62
484.245	79.62
484.463	96.62
484.681	93.62
484.9	89.62
485.118	98.62
485.336	95.62
485.554	94.62
485.772	111.62
485.99	101.62
486.209	89.62
486.427	88.62
486.645	98.62
486.863	110.62
487.081	106.62
487.299	98.62
487.517	104.62
487.735	91.62
487.953	90.62
488.171	92.62
488.389	85.62
488.607	89.62
488.825	82.62
489.043	89.62
489.261	92.62
489.479	93.62
489.696	97.62
489.914	99.62
490.132	92.62
490.35	83.62
490.568	76.62
490.786	77.62
491.003	87.62
491.221	98.62
491.439	88.62
491.657	89.62
491.874	92.62
492.092	97.62
492.31	76.62
492.527	100.62
492.745	101.62
492.963	97.62
493.18	100.62
493.398	94.62
493.615	87.62
493.833	90.62
494.05	79.62
494.268	89.62
494.485	88.62
494.703	98.62
494.92	95.62
495.138	88.62
495.355	89.62
495.573	77.62
495.79	84.62
496.008	94.62
496.225	86.62
496.442	90.62
496.66	81.62
496.877	94.62
497.094	97.62
497.312	93.62
497.529	102.62
497.746	91.62
497.963	80.62
498.181	76.62
498.398	76.62
498.615	100.62
498.832	101.62
499.049	100.62
499.267	83.62
499.484	76.62
499.701	88.62
499.918	97.62
500.135	85.62
500.352	94.62
500.569	88.62
500.786	96.62
501.003	84.62
501.22	89.62
501.437	83.62
501.654	104.62
501.871	107.62
502.088	86.62
502.305	95.62
502.522	99.62
502.739	96.62
502.956	86.62
503.172	89.62
503.389	81.62
503.606	105.62
503.823	95.62
504.04	92.62
504.256	89.62
504.473	75.62
504.69	78.62
504.907	99.62
505.123	73.62
505.34	71.62
505.557	78.62
505.773	93.62
505.99	80.62
506.207	97.62
506.423	84.62
506.64	98.62
506.856	95.62
507.073	94.62
507.289	81.62
507.506	84.62
507.722	107.62
507.939	128.62
508.155	85.62
508.372	81.62
508.588	105.62
508.805	96.62
509.021	95.62
509.238	99.62
509.454	96.62
509.67	89.62
509.887	113.62
510.103	128.62
510.319	221.62
510.536	826.62
510.752	2681.62
510.968	753.62
511.184	159.62
511.401	118.62
511.617	92.62
511.833	89.62
512.049	92.62
512.265	94.62
512.481	98.62
512.698	85.62
512.914	89.62
513.13	93.62
513.346	98.62
513.562	92.62
513.778	92.62
513.994	108.62
514.21	104.62
514.426	124.62
514.642	146.62
514.858	158.62
515.074	177.62
515.29	549.62
