Data from Uncirc_1991_H10_HRD10591_00059.txt Node
Date: Wed Jan 03 11:50:50 EST 2024
User: Yrep
Spectrometer: HR+D1059
Trigger mode: 1
Integration Time (sec): 1.000000E-1
Scans to average: 1
Electric dark correction enabled: true
Nonlinearity correction enabled: false
Boxcar width: 0
XAxis mode: Wavelengths
Number of Pixels in Spectrum: 2048
>>>>>Begin Spectral Data<<<<<
223.165	-24.69
223.4	-24.69
223.635	-24.69
223.869	-16.69
224.104	-11.69
224.338	-31.69
224.573	-10.69
224.808	-4.69
225.042	-5.69
225.277	-6.69
225.511	12.31
225.746	6.31
225.98	11.31
226.215	17.31
226.449	6.31
226.683	21.31
226.918	23.31
227.152	14.31
227.387	41.31
227.621	49.31
227.856	50.31
228.09	47.31
228.324	44.31
228.559	58.31
228.793	61.31
229.027	65.31
229.262	85.31
229.496	65.31
229.73	79.31
229.964	80.31
230.199	84.31
230.433	86.31
230.667	88.31
230.901	84.31
231.136	72.31
231.37	77.31
231.604	65.31
231.838	97.31
232.072	96.31
232.306	71.31
232.541	92.31
232.775	89.31
233.009	85.31
233.243	67.31
233.477	79.31
233.711	85.31
233.945	97.31
234.179	76.31
234.413	85.31
234.647	83.31
234.881	77.31
235.115	85.31
235.349	87.31
235.583	93.31
235.817	88.31
236.051	80.31
236.285	82.31
236.519	89.31
236.753	83.31
236.987	93.31
237.221	83.31
237.455	84.31
237.689	87.31
237.922	75.31
238.156	66.31
238.39	83.31
238.624	84.31
238.858	87.31
239.091	64.31
239.325	88.31
239.559	81.31
239.793	71.31
240.027	79.31
240.26	70.31
240.494	71.31
240.728	81.31
240.961	81.31
241.195	79.31
241.429	70.31
241.662	87.31
241.896	93.31
242.13	77.31
242.363	77.31
242.597	84.31
242.83	78.31
243.064	76.31
243.298	87.31
243.531	86.31
243.765	79.31
243.998	76.31
244.232	91.31
244.465	77.31
244.699	78.31
244.932	75.31
245.166	85.31
245.399	80.31
245.633	77.31
245.866	89.31
246.099	88.31
246.333	95.31
246.566	77.31
246.8	86.31
247.033	71.31
247.266	81.31
247.5	79.31
247.733	87.31
247.966	76.31
248.2	80.31
248.433	83.31
248.666	87.31
248.899	80.31
249.133	76.31
249.366	104.31
249.599	108.31
249.832	79.31
250.066	83.31
250.299	75.31
250.532	83.31
250.765	72.31
250.998	80.31
251.231	97.31
251.465	82.31
251.698	78.31
251.931	94.31
252.164	88.31
252.397	98.31
252.63	84.31
252.863	72.31
253.096	81.31
253.329	90.31
253.562	65.31
253.795	93.31
254.028	79.31
254.261	85.31
254.494	73.31
254.727	79.31
254.96	76.31
255.193	86.31
255.426	77.31
255.659	76.31
255.892	95.31
256.124	80.31
256.357	92.31
256.59	96.31
256.823	83.31
257.056	80.31
257.289	86.31
257.521	83.31
257.754	91.31
257.987	84.31
258.22	96.31
258.452	86.31
258.685	87.31
258.918	92.31
259.151	86.31
259.383	92.31
259.616	85.31
259.849	88.31
260.081	81.31
260.314	96.31
260.547	79.31
260.779	70.31
261.012	87.31
261.244	84.31
261.477	101.31
261.71	115.31
261.942	119.31
262.175	126.31
262.407	100.31
262.64	87.31
262.872	83.31
263.105	90.31
263.337	85.31
263.57	88.31
263.802	99.31
264.035	95.31
264.267	80.31
264.499	100.31
264.732	93.31
264.964	71.31
265.197	89.31
265.429	83.31
265.661	85.31
265.894	87.31
266.126	101.31
266.358	80.31
266.591	89.31
266.823	81.31
267.055	83.31
267.287	73.31
267.52	92.31
267.752	87.31
267.984	85.31
268.216	71.31
268.448	86.31
268.681	91.31
268.913	93.31
269.145	81.31
269.377	81.31
269.609	81.31
269.841	80.31
270.073	89.31
270.306	81.31
270.538	90.31
270.77	79.31
271.002	72.31
271.234	93.31
271.466	84.31
271.698	83.31
271.93	79.31
272.162	82.31
272.394	88.31
272.626	92.31
272.858	96.31
273.09	101.31
273.322	87.31
273.553	96.31
273.785	85.31
274.017	83.31
274.249	83.31
274.481	97.31
274.713	87.31
274.945	77.31
275.176	104.31
275.408	89.31
275.64	84.31
275.872	84.31
276.104	91.31
276.335	90.31
276.567	115.31
276.799	122.31
277.031	97.31
277.262	89.31
277.494	89.31
277.726	83.31
277.957	87.31
278.189	84.31
278.421	105.31
278.652	90.31
278.884	87.31
279.115	85.31
279.347	95.31
279.579	99.31
279.81	92.31
280.042	75.31
280.273	96.31
280.505	94.31
280.736	87.31
280.968	81.31
281.199	73.31
281.431	88.31
281.662	93.31
281.894	93.31
282.125	113.31
282.356	130.31
282.588	151.31
282.819	116.31
283.051	100.31
283.282	108.31
283.513	93.31
283.745	102.31
283.976	94.31
284.207	79.31
284.439	96.31
284.67	99.31
284.901	84.31
285.132	81.31
285.364	87.31
285.595	79.31
285.826	88.31
286.057	92.31
286.288	104.31
286.52	93.31
286.751	88.31
286.982	95.31
287.213	82.31
287.444	71.31
287.675	92.31
287.906	98.31
288.138	104.31
288.369	87.31
288.6	97.31
288.831	104.31
289.062	87.31
289.293	82.31
289.524	94.31
289.755	97.31
289.986	83.31
290.217	97.31
290.448	80.31
290.679	83.31
290.91	95.31
291.141	93.31
291.371	83.31
291.602	77.31
291.833	105.31
292.064	86.31
292.295	94.31
292.526	87.31
292.757	100.31
292.987	91.31
293.218	78.31
293.449	94.31
293.68	78.31
293.91	69.31
294.141	102.31
294.372	92.31
294.603	96.31
294.833	106.31
295.064	87.31
295.295	90.31
295.525	92.31
295.756	92.31
295.987	141.31
296.217	152.31
296.448	137.31
296.679	97.31
296.909	83.31
297.14	103.31
297.37	95.31
297.601	90.31
297.831	95.31
298.062	102.31
298.292	76.31
298.523	90.31
298.753	83.31
298.984	105.31
299.214	86.31
299.445	95.31
299.675	93.31
299.905	99.31
300.136	93.31
300.366	92.31
300.597	99.31
300.827	101.31
301.057	101.31
301.288	127.31
301.518	104.31
301.748	89.31
301.979	97.31
302.209	93.31
302.439	96.31
302.669	102.31
302.9	90.31
303.13	91.31
303.36	93.31
303.59	110.31
303.82	107.31
304.051	100.31
304.281	86.31
304.511	92.31
304.741	95.31
304.971	106.31
305.201	87.31
305.431	82.31
305.661	100.31
305.891	91.31
306.121	82.31
306.352	110.31
306.582	99.31
306.812	113.31
307.042	95.31
307.272	95.31
307.502	90.31
307.731	116.31
307.961	87.31
308.191	96.31
308.421	85.31
308.651	91.31
308.881	92.31
309.111	86.31
309.341	104.31
309.571	98.31
309.8	110.31
310.03	107.31
310.26	105.31
310.49	108.31
310.72	108.31
310.949	103.31
311.179	102.31
311.409	85.31
311.639	101.31
311.868	102.31
312.098	104.31
312.328	110.31
312.557	101.31
312.787	104.31
313.017	106.31
313.246	91.31
313.476	107.31
313.706	91.31
313.935	97.31
314.165	112.31
314.394	104.31
314.624	88.31
314.853	94.31
315.083	87.31
315.312	82.31
315.542	93.31
315.771	97.31
316.001	104.31
316.23	94.31
316.46	90.31
316.689	99.31
316.919	107.31
317.148	105.31
317.377	117.31
317.607	120.31
317.836	95.31
318.065	92.31
318.295	85.31
318.524	92.31
318.753	100.31
318.983	105.31
319.212	110.31
319.441	112.31
319.67	114.31
319.9	103.31
320.129	96.31
320.358	97.31
320.587	93.31
320.816	100.31
321.046	93.31
321.275	98.31
321.504	98.31
321.733	100.31
321.962	88.31
322.191	121.31
322.42	116.31
322.649	116.31
322.878	109.31
323.108	118.31
323.337	125.31
323.566	150.31
323.795	160.31
324.024	237.31
324.253	475.31
324.482	997.31
324.71	2088.31
324.939	2792.31
325.168	1001.31
325.397	286.31
325.626	172.31
325.855	132.31
326.084	141.31
326.313	161.31
326.542	168.31
326.77	271.31
326.999	523.31
327.228	1130.31
327.457	2052.31
327.686	1640.31
327.914	439.31
328.143	213.31
328.372	159.31
328.6	136.31
328.829	137.31
329.058	147.31
329.287	148.31
329.515	126.31
329.744	113.31
329.972	94.31
330.201	107.31
330.43	119.31
330.658	140.31
330.887	163.31
331.115	144.31
331.344	97.31
331.572	104.31
331.801	99.31
332.03	122.31
332.258	101.31
332.486	89.31
332.715	98.31
332.943	108.31
333.172	108.31
333.4	108.31
333.629	106.31
333.857	112.31
334.085	102.31
334.314	97.31
334.542	91.31
334.771	96.31
334.999	105.31
335.227	98.31
335.455	107.31
335.684	105.31
335.912	103.31
336.14	92.31
336.369	111.31
336.597	110.31
336.825	113.31
337.053	110.31
337.281	96.31
337.51	97.31
337.738	95.31
337.966	88.31
338.194	100.31
338.422	102.31
338.65	93.31
338.878	95.31
339.106	104.31
339.334	104.31
339.562	85.31
339.79	89.31
340.018	94.31
340.246	95.31
340.474	94.31
340.702	97.31
340.93	97.31
341.158	102.31
341.386	89.31
341.614	102.31
341.842	90.31
342.07	94.31
342.298	100.31
342.526	92.31
342.754	88.31
342.981	99.31
343.209	94.31
343.437	100.31
343.665	92.31
343.893	80.31
344.12	89.31
344.348	96.31
344.576	101.31
344.804	95.31
345.031	103.31
345.259	97.31
345.487	101.31
345.714	91.31
345.942	101.31
346.17	103.31
346.397	93.31
346.625	107.31
346.853	104.31
347.08	88.31
347.308	109.31
347.535	109.31
347.763	106.31
347.99	106.31
348.218	102.31
348.445	104.31
348.673	111.31
348.9	104.31
349.128	100.31
349.355	110.31
349.583	100.31
349.81	87.31
350.037	88.31
350.265	86.31
350.492	91.31
350.72	100.31
350.947	94.31
351.174	124.31
351.402	105.31
351.629	117.31
351.856	112.31
352.083	114.31
352.311	103.31
352.538	113.31
352.765	100.31
352.992	113.31
353.22	127.31
353.447	100.31
353.674	111.31
353.901	102.31
354.128	89.31
354.355	81.31
354.583	102.31
354.81	97.31
355.037	99.31
355.264	91.31
355.491	93.31
355.718	98.31
355.945	89.31
356.172	103.31
356.399	91.31
356.626	108.31
356.853	98.31
357.08	100.31
357.307	95.31
357.534	97.31
357.761	93.31
357.988	99.31
358.215	107.31
358.441	93.31
358.668	96.31
358.895	97.31
359.122	91.31
359.349	94.31
359.576	87.31
359.802	107.31
360.029	122.31
360.256	114.31
360.483	107.31
360.709	84.31
360.936	101.31
361.163	95.31
361.39	101.31
361.616	101.31
361.843	85.31
362.07	105.31
362.296	112.31
362.523	99.31
362.749	96.31
362.976	88.31
363.203	89.31
363.429	86.31
363.656	94.31
363.882	98.31
364.109	104.31
364.335	99.31
364.562	103.31
364.788	87.31
365.015	102.31
365.241	116.31
365.468	104.31
365.694	108.31
365.92	102.31
366.147	93.31
366.373	97.31
366.599	99.31
366.826	89.31
367.052	81.31
367.278	84.31
367.505	86.31
367.731	87.31
367.957	84.31
368.184	103.31
368.41	96.31
368.636	105.31
368.862	142.31
369.089	127.31
369.315	96.31
369.541	94.31
369.767	98.31
369.993	113.31
370.219	91.31
370.445	86.31
370.672	90.31
370.898	94.31
371.124	109.31
371.35	83.31
371.576	97.31
371.802	92.31
372.028	104.31
372.254	97.31
372.48	92.31
372.706	84.31
372.932	83.31
373.158	84.31
373.384	100.31
373.61	95.31
373.835	99.31
374.061	91.31
374.287	93.31
374.513	94.31
374.739	95.31
374.965	93.31
375.191	82.31
375.416	86.31
375.642	81.31
375.868	101.31
376.094	93.31
376.319	101.31
376.545	79.31
376.771	95.31
376.997	101.31
377.222	86.31
377.448	79.31
377.674	79.31
377.899	85.31
378.125	85.31
378.35	94.31
378.576	90.31
378.802	92.31
379.027	93.31
379.253	93.31
379.478	101.31
379.704	93.31
379.929	96.31
380.155	112.31
380.38	100.31
380.606	91.31
380.831	92.31
381.057	93.31
381.282	112.31
381.507	101.31
381.733	98.31
381.958	98.31
382.184	101.31
382.409	96.31
382.634	105.31
382.86	96.31
383.085	103.31
383.31	93.31
383.535	110.31
383.761	96.31
383.986	105.31
384.211	100.31
384.436	88.31
384.662	92.31
384.887	93.31
385.112	95.31
385.337	101.31
385.562	103.31
385.787	104.31
386.013	118.31
386.238	128.31
386.463	123.31
386.688	104.31
386.913	103.31
387.138	109.31
387.363	93.31
387.588	100.31
387.813	101.31
388.038	101.31
388.263	92.31
388.488	105.31
388.713	98.31
388.938	93.31
389.163	96.31
389.387	108.31
389.612	101.31
389.837	104.31
390.062	76.31
390.287	102.31
390.512	90.31
390.736	96.31
390.961	96.31
391.186	90.31
391.411	97.31
391.636	78.31
391.86	75.31
392.085	80.31
392.31	92.31
392.534	85.31
392.759	78.31
392.984	80.31
393.208	83.31
393.433	88.31
393.658	94.31
393.882	94.31
394.107	72.31
394.331	90.31
394.556	86.31
394.78	80.31
395.005	100.31
395.229	94.31
395.454	95.31
395.678	89.31
395.903	94.31
396.127	101.31
396.352	98.31
396.576	92.31
396.801	94.31
397.025	77.31
397.249	86.31
397.474	83.31
397.698	92.31
397.922	95.31
398.147	97.31
398.371	92.31
398.595	92.31
398.82	101.31
399.044	90.31
399.268	79.31
399.492	104.31
399.717	84.31
399.941	103.31
400.165	103.31
400.389	93.31
400.613	84.31
400.837	83.31
401.062	96.31
401.286	93.31
401.51	100.31
401.734	106.31
401.958	122.31
402.182	148.31
402.406	189.31
402.63	131.31
402.854	92.31
403.078	93.31
403.302	92.31
403.526	87.31
403.75	88.31
403.974	94.31
404.198	87.31
404.422	83.31
404.645	89.31
404.869	107.31
405.093	102.31
405.317	102.31
405.541	101.31
405.765	98.31
405.988	139.31
406.212	211.31
406.436	295.31
406.66	185.31
406.883	103.31
407.107	103.31
407.331	91.31
407.555	86.31
407.778	92.31
408.002	99.31
408.226	97.31
408.449	87.31
408.673	99.31
408.896	97.31
409.12	106.31
409.344	98.31
409.567	103.31
409.791	88.31
410.014	95.31
410.238	107.31
410.461	96.31
410.685	87.31
410.908	91.31
411.132	90.31
411.355	93.31
411.578	97.31
411.802	90.31
412.025	103.31
412.249	83.31
412.472	97.31
412.695	92.31
412.919	95.31
413.142	91.31
413.365	88.31
413.589	96.31
413.812	85.31
414.035	97.31
414.258	87.31
414.482	80.31
414.705	92.31
414.928	84.31
415.151	87.31
415.374	82.31
415.597	101.31
415.821	95.31
416.044	78.31
416.267	80.31
416.49	88.31
416.713	79.31
416.936	97.31
417.159	99.31
417.382	94.31
417.605	91.31
417.828	96.31
418.051	92.31
418.274	93.31
418.497	85.31
418.72	88.31
418.943	96.31
419.166	83.31
419.389	87.31
419.611	96.31
419.834	95.31
420.057	100.31
420.28	102.31
420.503	70.31
420.726	106.31
420.948	90.31
421.171	106.31
421.394	87.31
421.617	91.31
421.839	92.31
422.062	98.31
422.285	103.31
422.507	107.31
422.73	108.31
422.953	91.31
423.175	99.31
423.398	96.31
423.621	87.31
423.843	105.31
424.066	106.31
424.288	82.31
424.511	89.31
424.733	105.31
424.956	107.31
425.178	123.31
425.401	108.31
425.623	118.31
425.846	113.31
426.068	101.31
426.291	100.31
426.513	102.31
426.735	83.31
426.958	109.31
427.18	91.31
427.402	163.31
427.625	194.31
427.847	141.31
428.069	99.31
428.292	95.31
428.514	78.31
428.736	98.31
428.958	102.31
429.181	100.31
429.403	78.31
429.625	96.31
429.847	88.31
430.069	91.31
430.292	91.31
430.514	80.31
430.736	100.31
430.958	91.31
431.18	99.31
431.402	83.31
431.624	101.31
431.846	96.31
432.068	93.31
432.29	90.31
432.512	97.31
432.734	89.31
432.956	97.31
433.178	105.31
433.4	88.31
433.622	96.31
433.844	92.31
434.066	103.31
434.287	97.31
434.509	91.31
434.731	99.31
434.953	88.31
435.175	89.31
435.397	92.31
435.618	104.31
435.84	100.31
436.062	123.31
436.284	122.31
436.505	105.31
436.727	104.31
436.949	104.31
437.17	96.31
437.392	103.31
437.614	96.31
437.835	111.31
438.057	117.31
438.278	107.31
438.5	110.31
438.721	140.31
438.943	124.31
439.165	105.31
439.386	89.31
439.608	104.31
439.829	99.31
440.05	133.31
440.272	150.31
440.493	107.31
440.715	97.31
440.936	94.31
441.158	95.31
441.379	95.31
441.6	95.31
441.822	100.31
442.043	87.31
442.264	121.31
442.486	112.31
442.707	84.31
442.928	97.31
443.149	144.31
443.371	131.31
443.592	130.31
443.813	120.31
444.034	99.31
444.255	97.31
444.476	84.31
444.698	104.31
444.919	88.31
445.14	139.31
445.361	127.31
445.582	132.31
445.803	139.31
446.024	130.31
446.245	141.31
446.466	113.31
446.687	85.31
446.908	81.31
447.129	92.31
447.35	91.31
447.571	85.31
447.792	100.31
448.013	105.31
448.234	124.31
448.455	112.31
448.675	134.31
448.896	116.31
449.117	99.31
449.338	100.31
449.559	125.31
449.779	143.31
450	83.31
450.221	89.31
450.442	95.31
450.662	102.31
450.883	120.31
451.104	142.31
451.324	98.31
451.545	83.31
451.766	81.31
451.986	85.31
452.207	102.31
452.428	89.31
452.648	111.31
452.869	107.31
453.089	113.31
453.31	116.31
453.53	107.31
453.751	108.31
453.971	120.31
454.192	132.31
454.412	102.31
454.633	96.31
454.853	95.31
455.073	91.31
455.294	101.31
455.514	94.31
455.734	98.31
455.955	84.31
456.175	85.31
456.395	76.31
456.616	86.31
456.836	82.31
457.056	85.31
457.276	86.31
457.497	86.31
457.717	93.31
457.937	79.31
458.157	100.31
458.377	86.31
458.598	120.31
458.818	175.31
459.038	176.31
459.258	132.31
459.478	97.31
459.698	89.31
459.918	94.31
460.138	106.31
460.358	94.31
460.578	87.31
460.798	89.31
461.018	100.31
461.238	84.31
461.458	93.31
461.678	85.31
461.898	89.31
462.118	100.31
462.338	91.31
462.558	87.31
462.777	91.31
462.997	89.31
463.217	95.31
463.437	83.31
463.657	76.31
463.876	86.31
464.096	79.31
464.316	97.31
464.536	100.31
464.755	82.31
464.975	96.31
465.195	199.31
465.414	212.31
465.634	95.31
465.854	94.31
466.073	82.31
466.293	85.31
466.512	73.31
466.732	102.31
466.951	87.31
467.171	99.31
467.391	95.31
467.61	98.31
467.829	104.31
468.049	82.31
468.268	84.31
468.488	96.31
468.707	84.31
468.927	88.31
469.146	96.31
469.365	84.31
469.585	94.31
469.804	96.31
470.023	108.31
470.243	108.31
470.462	113.31
470.681	123.31
470.901	110.31
471.12	88.31
471.339	85.31
471.558	94.31
471.777	91.31
471.997	97.31
472.216	91.31
472.435	92.31
472.654	82.31
472.873	72.31
473.092	91.31
473.311	77.31
473.53	80.31
473.749	109.31
473.968	104.31
474.187	102.31
474.406	109.31
474.625	95.31
474.844	88.31
475.063	94.31
475.282	92.31
475.501	73.31
475.72	81.31
475.939	96.31
476.158	97.31
476.377	89.31
476.596	86.31
476.814	95.31
477.033	91.31
477.252	93.31
477.471	86.31
477.69	93.31
477.908	96.31
478.127	82.31
478.346	79.31
478.564	81.31
478.783	103.31
479.002	96.31
479.22	104.31
479.439	115.31
479.658	105.31
479.876	95.31
480.095	87.31
480.313	96.31
480.532	95.31
480.751	83.31
480.969	104.31
481.188	105.31
481.406	103.31
481.624	88.31
481.843	93.31
482.061	89.31
482.28	84.31
482.498	88.31
482.717	77.31
482.935	76.31
483.153	83.31
483.372	83.31
483.59	81.31
483.808	90.31
484.027	91.31
484.245	95.31
484.463	98.31
484.681	103.31
484.9	97.31
485.118	105.31
485.336	98.31
485.554	114.31
485.772	105.31
485.99	104.31
486.209	125.31
486.427	99.31
486.645	122.31
486.863	112.31
487.081	99.31
487.299	107.31
487.517	100.31
487.735	95.31
487.953	88.31
488.171	99.31
488.389	112.31
488.607	102.31
488.825	102.31
489.043	83.31
489.261	85.31
489.479	89.31
489.696	89.31
489.914	91.31
490.132	83.31
490.35	97.31
490.568	84.31
490.786	87.31
491.003	84.31
491.221	92.31
491.439	91.31
491.657	91.31
491.874	102.31
492.092	93.31
492.31	88.31
492.527	92.31
492.745	83.31
492.963	83.31
493.18	86.31
493.398	84.31
493.615	96.31
493.833	94.31
494.05	85.31
494.268	98.31
494.485	99.31
494.703	95.31
494.92	87.31
495.138	91.31
495.355	95.31
495.573	84.31
495.79	101.31
496.008	85.31
496.225	96.31
496.442	91.31
496.66	93.31
496.877	83.31
497.094	101.31
497.312	110.31
497.529	99.31
497.746	97.31
497.963	102.31
498.181	97.31
498.398	96.31
498.615	129.31
498.832	117.31
499.049	84.31
499.267	90.31
499.484	102.31
499.701	96.31
499.918	96.31
500.135	100.31
500.352	99.31
500.569	95.31
500.786	95.31
501.003	93.31
501.22	99.31
501.437	97.31
501.654	100.31
501.871	103.31
502.088	98.31
502.305	98.31
502.522	95.31
502.739	95.31
502.956	102.31
503.172	104.31
503.389	103.31
503.606	109.31
503.823	99.31
504.04	92.31
504.256	81.31
504.473	97.31
504.69	93.31
504.907	96.31
505.123	97.31
505.34	85.31
505.557	79.31
505.773	82.31
505.99	95.31
506.207	91.31
506.423	87.31
506.64	83.31
506.856	75.31
507.073	100.31
507.289	96.31
507.506	97.31
507.722	143.31
507.939	112.31
508.155	101.31
508.372	97.31
508.588	96.31
508.805	115.31
509.021	118.31
509.238	97.31
509.454	96.31
509.67	111.31
509.887	113.31
510.103	143.31
510.319	250.31
510.536	928.31
510.752	3047.31
510.968	797.31
511.184	189.31
511.401	118.31
511.617	109.31
511.833	108.31
512.049	69.31
512.265	99.31
512.481	89.31
512.698	88.31
512.914	99.31
513.13	92.31
513.346	90.31
513.562	104.31
513.778	97.31
513.994	101.31
