Data from Uncirc_1991_H10_HRD10591_00068.txt Node
Date: Wed Jan 03 11:50:51 EST 2024
User: Yrep
Spectrometer: HR+D1059
Trigger mode: 1
Integration Time (sec): 1.000000E-1
Scans to average: 1
Electric dark correction enabled: true
Nonlinearity correction enabled: false
Boxcar width: 0
XAxis mode: Wavelengths
Number of Pixels in Spectrum: 2048
>>>>>Begin Spectral Data<<<<<
223.165	-21.56
223.4	-21.56
223.635	-21.56
223.869	-21.56
224.104	-30.56
224.338	-26.56
224.573	-17.56
224.808	-9.56
225.042	-6.56
225.277	-5.56
225.511	-5.56
225.746	5.44
225.98	16.44
226.215	19.44
226.449	18.44
226.683	22.44
226.918	25.44
227.152	37.44
227.387	53.44
227.621	36.44
227.856	42.44
228.09	52.44
228.324	49.44
228.559	47.44
228.793	69.44
229.027	61.44
229.262	68.44
229.496	63.44
229.73	82.44
229.964	91.44
230.199	73.44
230.433	69.44
230.667	66.44
230.901	82.44
231.136	81.44
231.37	80.44
231.604	69.44
231.838	79.44
232.072	78.44
232.306	78.44
232.541	75.44
232.775	81.44
233.009	81.44
233.243	89.44
233.477	69.44
233.711	85.44
233.945	82.44
234.179	73.44
234.413	83.44
234.647	79.44
234.881	81.44
235.115	97.44
235.349	73.44
235.583	77.44
235.817	80.44
236.051	79.44
236.285	85.44
236.519	80.44
236.753	78.44
236.987	78.44
237.221	71.44
237.455	95.44
237.689	79.44
237.922	75.44
238.156	79.44
238.39	89.44
238.624	69.44
238.858	74.44
239.091	67.44
239.325	72.44
239.559	76.44
239.793	79.44
240.027	80.44
240.26	83.44
240.494	81.44
240.728	85.44
240.961	63.44
241.195	60.44
241.429	65.44
241.662	66.44
241.896	83.44
242.13	66.44
242.363	67.44
242.597	81.44
242.83	76.44
243.064	85.44
243.298	87.44
243.531	75.44
243.765	83.44
243.998	80.44
244.232	76.44
244.465	76.44
244.699	79.44
244.932	68.44
245.166	76.44
245.399	93.44
245.633	71.44
245.866	84.44
246.099	58.44
246.333	79.44
246.566	80.44
246.8	69.44
247.033	78.44
247.266	69.44
247.5	76.44
247.733	72.44
247.966	77.44
248.2	80.44
248.433	82.44
248.666	84.44
248.899	75.44
249.133	68.44
249.366	100.44
249.599	95.44
249.832	83.44
250.066	76.44
250.299	86.44
250.532	70.44
250.765	91.44
250.998	74.44
251.231	96.44
251.465	98.44
251.698	80.44
251.931	75.44
252.164	83.44
252.397	83.44
252.63	56.44
252.863	72.44
253.096	76.44
253.329	79.44
253.562	60.44
253.795	87.44
254.028	76.44
254.261	72.44
254.494	80.44
254.727	76.44
254.96	85.44
255.193	66.44
255.426	60.44
255.659	69.44
255.892	79.44
256.124	82.44
256.357	94.44
256.59	77.44
256.823	76.44
257.056	91.44
257.289	77.44
257.521	70.44
257.754	89.44
257.987	93.44
258.22	74.44
258.452	81.44
258.685	95.44
258.918	90.44
259.151	78.44
259.383	78.44
259.616	73.44
259.849	74.44
260.081	75.44
260.314	92.44
260.547	89.44
260.779	82.44
261.012	84.44
261.244	69.44
261.477	80.44
261.71	104.44
261.942	118.44
262.175	121.44
262.407	92.44
262.64	84.44
262.872	76.44
263.105	90.44
263.337	82.44
263.57	81.44
263.802	91.44
264.035	77.44
264.267	64.44
264.499	77.44
264.732	72.44
264.964	86.44
265.197	75.44
265.429	81.44
265.661	73.44
265.894	72.44
266.126	82.44
266.358	90.44
266.591	72.44
266.823	90.44
267.055	73.44
267.287	81.44
267.52	89.44
267.752	81.44
267.984	77.44
268.216	78.44
268.448	105.44
268.681	82.44
268.913	84.44
269.145	92.44
269.377	79.44
269.609	77.44
269.841	89.44
270.073	83.44
270.306	92.44
270.538	91.44
270.77	87.44
271.002	81.44
271.234	83.44
271.466	83.44
271.698	81.44
271.93	77.44
272.162	95.44
272.394	86.44
272.626	78.44
272.858	89.44
273.09	86.44
273.322	79.44
273.553	75.44
273.785	81.44
274.017	69.44
274.249	83.44
274.481	74.44
274.713	89.44
274.945	95.44
275.176	95.44
275.408	87.44
275.64	81.44
275.872	80.44
276.104	94.44
276.335	106.44
276.567	94.44
276.799	97.44
277.031	108.44
277.262	103.44
277.494	78.44
277.726	82.44
277.957	90.44
278.189	69.44
278.421	72.44
278.652	92.44
278.884	93.44
279.115	82.44
279.347	79.44
279.579	81.44
279.81	78.44
280.042	83.44
280.273	80.44
280.505	83.44
280.736	85.44
280.968	96.44
281.199	91.44
281.431	89.44
281.662	81.44
281.894	94.44
282.125	99.44
282.356	110.44
282.588	134.44
282.819	118.44
283.051	99.44
283.282	109.44
283.513	89.44
283.745	98.44
283.976	81.44
284.207	72.44
284.439	84.44
284.67	86.44
284.901	96.44
285.132	104.44
285.364	79.44
285.595	84.44
285.826	92.44
286.057	82.44
286.288	77.44
286.52	75.44
286.751	90.44
286.982	88.44
287.213	88.44
287.444	81.44
287.675	94.44
287.906	86.44
288.138	82.44
288.369	84.44
288.6	79.44
288.831	99.44
289.062	95.44
289.293	75.44
289.524	73.44
289.755	88.44
289.986	82.44
290.217	80.44
290.448	83.44
290.679	74.44
290.91	69.44
291.141	90.44
291.371	93.44
291.602	77.44
291.833	97.44
292.064	104.44
292.295	96.44
292.526	95.44
292.757	86.44
292.987	90.44
293.218	84.44
293.449	84.44
293.68	82.44
293.91	101.44
294.141	82.44
294.372	73.44
294.603	91.44
294.833	90.44
295.064	78.44
295.295	72.44
295.525	100.44
295.756	90.44
295.987	113.44
296.217	137.44
296.448	105.44
296.679	78.44
296.909	83.44
297.14	96.44
297.37	92.44
297.601	94.44
297.831	64.44
298.062	84.44
298.292	69.44
298.523	77.44
298.753	84.44
298.984	89.44
299.214	95.44
299.445	107.44
299.675	92.44
299.905	92.44
300.136	79.44
300.366	75.44
300.597	96.44
300.827	92.44
301.057	99.44
301.288	107.44
301.518	86.44
301.748	76.44
301.979	106.44
302.209	102.44
302.439	95.44
302.669	82.44
302.9	96.44
303.13	86.44
303.36	104.44
303.59	102.44
303.82	110.44
304.051	95.44
304.281	85.44
304.511	80.44
304.741	99.44
304.971	81.44
305.201	96.44
305.431	91.44
305.661	93.44
305.891	104.44
306.121	99.44
306.352	108.44
306.582	111.44
306.812	88.44
307.042	86.44
307.272	89.44
307.502	98.44
307.731	102.44
307.961	87.44
308.191	81.44
308.421	91.44
308.651	76.44
308.881	82.44
309.111	90.44
309.341	97.44
309.571	92.44
309.8	86.44
310.03	91.44
310.26	100.44
310.49	85.44
310.72	102.44
310.949	87.44
311.179	109.44
311.409	107.44
311.639	100.44
311.868	106.44
312.098	92.44
312.328	103.44
312.557	102.44
312.787	126.44
313.017	106.44
313.246	105.44
313.476	90.44
313.706	95.44
313.935	96.44
314.165	100.44
314.394	93.44
314.624	98.44
314.853	102.44
315.083	101.44
315.312	91.44
315.542	95.44
315.771	84.44
316.001	97.44
316.23	81.44
316.46	107.44
316.689	89.44
316.919	78.44
317.148	97.44
317.377	94.44
317.607	96.44
317.836	103.44
318.065	90.44
318.295	92.44
318.524	78.44
318.753	89.44
318.983	95.44
319.212	91.44
319.441	104.44
319.67	93.44
319.9	105.44
320.129	94.44
320.358	90.44
320.587	93.44
320.816	94.44
321.046	92.44
321.275	95.44
321.504	101.44
321.733	105.44
321.962	102.44
322.191	99.44
322.42	93.44
322.649	114.44
322.878	112.44
323.108	129.44
323.337	138.44
323.566	128.44
323.795	155.44
324.024	208.44
324.253	420.44
324.482	933.44
324.71	2026.44
324.939	2813.44
325.168	983.44
325.397	271.44
325.626	140.44
325.855	136.44
326.084	125.44
326.313	138.44
326.542	165.44
326.77	256.44
326.999	534.44
327.228	1082.44
327.457	2145.44
327.686	1680.44
327.914	443.44
328.143	216.44
328.372	163.44
328.6	111.44
328.829	133.44
329.058	126.44
329.287	127.44
329.515	122.44
329.744	96.44
329.972	93.44
330.201	103.44
330.43	108.44
330.658	120.44
330.887	149.44
331.115	128.44
331.344	102.44
331.572	96.44
331.801	102.44
332.03	95.44
332.258	92.44
332.486	92.44
332.715	78.44
332.943	92.44
333.172	81.44
333.4	78.44
333.629	111.44
333.857	104.44
334.085	98.44
334.314	89.44
334.542	107.44
334.771	99.44
334.999	98.44
335.227	101.44
335.455	90.44
335.684	93.44
335.912	112.44
336.14	102.44
336.369	92.44
336.597	97.44
336.825	93.44
337.053	92.44
337.281	89.44
337.51	97.44
337.738	96.44
337.966	96.44
338.194	101.44
338.422	99.44
338.65	94.44
338.878	99.44
339.106	85.44
339.334	96.44
339.562	99.44
339.79	91.44
340.018	84.44
340.246	100.44
340.474	88.44
340.702	84.44
340.93	88.44
341.158	93.44
341.386	105.44
341.614	91.44
341.842	91.44
342.07	94.44
342.298	88.44
342.526	85.44
342.754	81.44
342.981	87.44
343.209	87.44
343.437	105.44
343.665	97.44
343.893	84.44
344.12	89.44
344.348	94.44
344.576	92.44
344.804	91.44
345.031	99.44
345.259	100.44
345.487	90.44
345.714	108.44
345.942	109.44
346.17	95.44
346.397	92.44
346.625	88.44
346.853	94.44
347.08	66.44
347.308	95.44
347.535	92.44
347.763	98.44
347.99	100.44
348.218	91.44
348.445	94.44
348.673	100.44
348.9	102.44
349.128	88.44
349.355	81.44
349.583	101.44
349.81	105.44
350.037	96.44
350.265	87.44
350.492	91.44
350.72	94.44
350.947	115.44
351.174	96.44
351.402	113.44
351.629	105.44
351.856	108.44
352.083	102.44
352.311	104.44
352.538	119.44
352.765	110.44
352.992	122.44
353.22	108.44
353.447	99.44
353.674	112.44
353.901	96.44
354.128	92.44
354.355	95.44
354.583	92.44
354.81	96.44
355.037	102.44
355.264	96.44
355.491	86.44
355.718	91.44
355.945	89.44
356.172	81.44
356.399	93.44
356.626	94.44
356.853	101.44
357.08	85.44
357.307	108.44
357.534	77.44
357.761	93.44
357.988	101.44
358.215	86.44
358.441	98.44
358.668	94.44
358.895	77.44
359.122	81.44
359.349	79.44
359.576	92.44
359.802	106.44
360.029	112.44
360.256	125.44
360.483	86.44
360.709	99.44
360.936	70.44
361.163	93.44
361.39	102.44
361.616	94.44
361.843	97.44
362.07	99.44
362.296	99.44
362.523	110.44
362.749	101.44
362.976	98.44
363.203	97.44
363.429	100.44
363.656	91.44
363.882	86.44
364.109	86.44
364.335	83.44
364.562	100.44
364.788	94.44
365.015	82.44
365.241	106.44
365.468	108.44
365.694	106.44
365.92	107.44
366.147	89.44
366.373	92.44
366.599	99.44
366.826	90.44
367.052	98.44
367.278	103.44
367.505	86.44
367.731	92.44
367.957	103.44
368.184	99.44
368.41	86.44
368.636	106.44
368.862	117.44
369.089	98.44
369.315	92.44
369.541	93.44
369.767	107.44
369.993	94.44
370.219	103.44
370.445	76.44
370.672	84.44
370.898	90.44
371.124	95.44
371.35	88.44
371.576	84.44
371.802	80.44
372.028	91.44
372.254	80.44
372.48	84.44
372.706	91.44
372.932	83.44
373.158	89.44
373.384	90.44
373.61	111.44
373.835	92.44
374.061	95.44
374.287	91.44
374.513	100.44
374.739	93.44
374.965	87.44
375.191	94.44
375.416	81.44
375.642	89.44
375.868	84.44
376.094	92.44
376.319	72.44
376.545	93.44
376.771	80.44
376.997	86.44
377.222	92.44
377.448	95.44
377.674	86.44
377.899	80.44
378.125	86.44
378.35	90.44
378.576	107.44
378.802	82.44
379.027	84.44
379.253	103.44
379.478	106.44
379.704	64.44
379.929	87.44
380.155	90.44
380.38	82.44
380.606	92.44
380.831	92.44
381.057	86.44
381.282	86.44
381.507	91.44
381.733	94.44
381.958	97.44
382.184	87.44
382.409	82.44
382.634	103.44
382.86	93.44
383.085	96.44
383.31	108.44
383.535	93.44
383.761	111.44
383.986	98.44
384.211	93.44
384.436	90.44
384.662	93.44
384.887	89.44
385.112	90.44
385.337	96.44
385.562	103.44
385.787	96.44
386.013	102.44
386.238	95.44
386.463	111.44
386.688	105.44
386.913	96.44
387.138	95.44
387.363	91.44
387.588	91.44
387.813	82.44
388.038	84.44
388.263	99.44
388.488	91.44
388.713	92.44
388.938	102.44
389.163	92.44
389.387	91.44
389.612	100.44
389.837	95.44
390.062	78.44
390.287	85.44
390.512	97.44
390.736	73.44
390.961	93.44
391.186	85.44
391.411	87.44
391.636	87.44
391.86	83.44
392.085	81.44
392.31	86.44
392.534	70.44
392.759	94.44
392.984	83.44
393.208	83.44
393.433	81.44
393.658	83.44
393.882	93.44
394.107	85.44
394.331	60.44
394.556	80.44
394.78	69.44
395.005	92.44
395.229	91.44
395.454	79.44
395.678	90.44
395.903	91.44
396.127	68.44
396.352	88.44
396.576	93.44
396.801	91.44
397.025	100.44
397.249	98.44
397.474	71.44
397.698	106.44
397.922	93.44
398.147	84.44
398.371	89.44
398.595	93.44
398.82	80.44
399.044	86.44
399.268	81.44
399.492	85.44
399.717	88.44
399.941	82.44
400.165	68.44
400.389	98.44
400.613	87.44
400.837	100.44
401.062	85.44
401.286	88.44
401.51	91.44
401.734	92.44
401.958	98.44
402.182	127.44
402.406	168.44
402.63	130.44
402.854	68.44
403.078	82.44
403.302	89.44
403.526	93.44
403.75	86.44
403.974	87.44
404.198	86.44
404.422	80.44
404.645	80.44
404.869	91.44
405.093	104.44
405.317	96.44
405.541	102.44
405.765	94.44
405.988	102.44
406.212	182.44
406.436	230.44
406.66	163.44
406.883	114.44
407.107	91.44
407.331	109.44
407.555	120.44
407.778	100.44
408.002	100.44
408.226	75.44
408.449	84.44
408.673	89.44
408.896	94.44
409.12	92.44
409.344	89.44
409.567	93.44
409.791	87.44
410.014	85.44
410.238	86.44
410.461	85.44
410.685	95.44
410.908	92.44
411.132	99.44
411.355	102.44
411.578	84.44
411.802	80.44
412.025	84.44
412.249	93.44
412.472	73.44
412.695	79.44
412.919	98.44
413.142	97.44
413.365	97.44
413.589	85.44
413.812	94.44
414.035	84.44
414.258	88.44
414.482	83.44
414.705	88.44
414.928	90.44
415.151	80.44
415.374	90.44
415.597	80.44
415.821	84.44
416.044	94.44
416.267	95.44
416.49	98.44
416.713	84.44
416.936	78.44
417.159	96.44
417.382	102.44
417.605	84.44
417.828	78.44
418.051	92.44
418.274	84.44
418.497	95.44
418.72	79.44
418.943	72.44
419.166	82.44
419.389	104.44
419.611	81.44
419.834	84.44
420.057	93.44
420.28	72.44
420.503	75.44
420.726	103.44
420.948	85.44
421.171	93.44
421.394	92.44
421.617	85.44
421.839	91.44
422.062	92.44
422.285	80.44
422.507	107.44
422.73	107.44
422.953	94.44
423.175	90.44
423.398	94.44
423.621	91.44
423.843	86.44
424.066	76.44
424.288	82.44
424.511	93.44
424.733	96.44
424.956	118.44
425.178	111.44
425.401	113.44
425.623	116.44
425.846	88.44
426.068	86.44
426.291	94.44
426.513	92.44
426.735	91.44
426.958	101.44
427.18	118.44
427.402	164.44
427.625	190.44
427.847	137.44
428.069	99.44
428.292	85.44
428.514	85.44
428.736	86.44
428.958	91.44
429.181	85.44
429.403	82.44
429.625	85.44
429.847	106.44
430.069	90.44
430.292	106.44
430.514	91.44
430.736	85.44
430.958	87.44
431.18	81.44
431.402	83.44
431.624	77.44
431.846	90.44
432.068	86.44
432.29	87.44
432.512	92.44
432.734	90.44
432.956	97.44
433.178	97.44
433.4	105.44
433.622	80.44
433.844	81.44
434.066	72.44
434.287	100.44
434.509	93.44
434.731	88.44
434.953	90.44
435.175	85.44
435.397	75.44
435.618	97.44
435.84	105.44
436.062	130.44
436.284	109.44
436.505	105.44
436.727	96.44
436.949	91.44
437.17	91.44
437.392	88.44
437.614	95.44
437.835	120.44
438.057	126.44
438.278	130.44
438.5	116.44
438.721	156.44
438.943	116.44
439.165	82.44
439.386	95.44
439.608	92.44
439.829	106.44
440.05	142.44
440.272	172.44
440.493	98.44
440.715	85.44
440.936	101.44
441.158	76.44
441.379	97.44
441.6	92.44
441.822	88.44
442.043	101.44
442.264	117.44
442.486	107.44
442.707	98.44
442.928	93.44
443.149	126.44
443.371	132.44
443.592	129.44
443.813	124.44
444.034	116.44
444.255	99.44
444.476	100.44
444.698	80.44
444.919	92.44
445.14	127.44
445.361	131.44
445.582	130.44
445.803	156.44
446.024	176.44
446.245	169.44
446.466	117.44
446.687	83.44
446.908	99.44
447.129	88.44
447.35	92.44
447.571	94.44
447.792	105.44
448.013	107.44
448.234	112.44
448.455	104.44
448.675	118.44
448.896	132.44
449.117	108.44
449.338	117.44
449.559	156.44
449.779	174.44
450	99.44
450.221	88.44
450.442	92.44
450.662	89.44
450.883	100.44
451.104	119.44
451.324	93.44
451.545	98.44
451.766	76.44
451.986	96.44
452.207	83.44
452.428	82.44
452.648	97.44
452.869	114.44
453.089	123.44
453.31	123.44
453.53	97.44
453.751	82.44
453.971	112.44
454.192	107.44
454.412	82.44
454.633	104.44
454.853	91.44
455.073	102.44
455.294	93.44
455.514	107.44
455.734	97.44
455.955	84.44
456.175	79.44
456.395	68.44
456.616	81.44
456.836	88.44
457.056	78.44
457.276	87.44
457.497	95.44
457.717	72.44
457.937	89.44
458.157	90.44
458.377	95.44
458.598	107.44
458.818	164.44
459.038	190.44
459.258	125.44
459.478	98.44
459.698	83.44
459.918	77.44
460.138	77.44
460.358	85.44
460.578	93.44
460.798	86.44
461.018	94.44
461.238	89.44
461.458	76.44
461.678	73.44
461.898	81.44
462.118	91.44
462.338	89.44
462.558	82.44
462.777	75.44
462.997	89.44
463.217	88.44
463.437	92.44
463.657	83.44
463.876	90.44
464.096	94.44
464.316	97.44
464.536	100.44
464.755	93.44
464.975	123.44
465.195	189.44
465.414	192.44
465.634	95.44
465.854	90.44
466.073	81.44
466.293	86.44
466.512	75.44
466.732	74.44
466.951	88.44
467.171	88.44
467.391	99.44
467.61	103.44
467.829	84.44
468.049	89.44
468.268	85.44
468.488	84.44
468.707	81.44
468.927	82.44
469.146	81.44
469.365	85.44
469.585	86.44
469.804	89.44
470.023	116.44
470.243	88.44
470.462	104.44
470.681	108.44
470.901	90.44
471.12	85.44
471.339	78.44
471.558	81.44
471.777	90.44
471.997	76.44
472.216	88.44
472.435	96.44
472.654	80.44
472.873	98.44
473.092	80.44
473.311	87.44
473.53	89.44
473.749	89.44
473.968	96.44
474.187	120.44
474.406	109.44
474.625	84.44
474.844	90.44
475.063	91.44
475.282	94.44
475.501	75.44
475.72	91.44
475.939	86.44
476.158	78.44
476.377	80.44
476.596	93.44
476.814	90.44
477.033	92.44
477.252	89.44
477.471	83.44
477.69	97.44
477.908	96.44
478.127	76.44
478.346	90.44
478.564	96.44
478.783	93.44
479.002	90.44
479.22	90.44
479.439	101.44
479.658	96.44
479.876	94.44
480.095	95.44
480.313	94.44
480.532	96.44
480.751	92.44
480.969	82.44
481.188	96.44
481.406	91.44
481.624	85.44
481.843	96.44
482.061	78.44
482.28	89.44
482.498	71.44
482.717	92.44
482.935	93.44
483.153	95.44
483.372	77.44
483.59	84.44
483.808	93.44
484.027	78.44
484.245	94.44
484.463	91.44
484.681	113.44
484.9	81.44
485.118	113.44
485.336	97.44
485.554	94.44
485.772	95.44
485.99	100.44
486.209	92.44
486.427	100.44
486.645	105.44
486.863	113.44
487.081	108.44
487.299	102.44
487.517	83.44
487.735	80.44
487.953	83.44
488.171	89.44
488.389	93.44
488.607	107.44
488.825	88.44
489.043	93.44
489.261	108.44
489.479	92.44
489.696	89.44
489.914	96.44
490.132	85.44
490.35	87.44
490.568	93.44
490.786	82.44
491.003	85.44
491.221	73.44
491.439	93.44
491.657	92.44
491.874	96.44
492.092	82.44
492.31	109.44
492.527	98.44
492.745	83.44
492.963	96.44
493.18	100.44
493.398	85.44
493.615	85.44
493.833	99.44
494.05	82.44
494.268	82.44
494.485	85.44
494.703	97.44
494.92	103.44
495.138	88.44
495.355	95.44
495.573	81.44
495.79	92.44
496.008	92.44
496.225	79.44
496.442	82.44
496.66	73.44
496.877	82.44
497.094	95.44
497.312	89.44
497.529	97.44
497.746	99.44
497.963	86.44
498.181	76.44
498.398	82.44
498.615	99.44
498.832	106.44
499.049	81.44
499.267	108.44
499.484	91.44
499.701	98.44
499.918	86.44
500.135	91.44
500.352	89.44
500.569	86.44
500.786	77.44
501.003	84.44
501.22	95.44
501.437	94.44
501.654	85.44
501.871	98.44
502.088	98.44
502.305	94.44
502.522	91.44
502.739	83.44
502.956	94.44
503.172	91.44
503.389	92.44
503.606	106.44
503.823	91.44
504.04	91.44
504.256	80.44
504.473	85.44
504.69	78.44
504.907	90.44
505.123	80.44
505.34	90.44
505.557	94.44
505.773	99.44
505.99	108.44
506.207	94.44
506.423	85.44
506.64	84.44
506.856	76.44
507.073	84.44
507.289	89.44
507.506	99.44
507.722	119.44
507.939	118.44
508.155	99.44
508.372	95.44
508.588	95.44
508.805	89.44
509.021	100.44
509.238	92.44
509.454	80.44
509.67	92.44
509.887	112.44
510.103	138.44
510.319	205.44
510.536	748.44
510.752	2380.44
510.968	656.44
511.184	144.44
511.401	118.44
511.617	108.44
511.833	98.44
512.049	101.44
512.265	89.44
512.481	76.44
512.698	86.44
512.914	91.44
513.13	97.44
513.346	99.44
513.562	89.44
513.778	100.44
513.994	92.44
514.21	111.44
514.426	116.44
514.642	146.44
514.858	136.44
515.074	176.44
515.29	496.44
515.506	1650.44
515.721	615.44
515.937	164.44
