Data from Uncirc_1991_H10_HRD10591_00092.txt Node
Date: Wed Jan 03 11:50:56 EST 2024
User: Yrep
Spectrometer: HR+D1059
Trigger mode: 1
Integration Time (sec): 1.000000E-1
Scans to average: 1
Electric dark correction enabled: true
Nonlinearity correction enabled: false
Boxcar width: 0
XAxis mode: Wavelengths
Number of Pixels in Spectrum: 2048
>>>>>Begin Spectral Data<<<<<
223.165	-15
223.4	-15
223.635	-15
223.869	-14
224.104	-20
224.338	-19
224.573	2
224.808	-20
225.042	-6
225.277	-14
225.511	0
225.746	3
225.98	12
226.215	11
226.449	11
226.683	22
226.918	20
227.152	27
227.387	48
227.621	43
227.856	45
228.09	42
228.324	59
228.559	62
228.793	60
229.027	72
229.262	45
229.496	68
229.73	85
229.964	86
230.199	85
230.433	91
230.667	82
230.901	78
231.136	78
231.37	84
231.604	78
231.838	87
232.072	85
232.306	89
232.541	82
232.775	86
233.009	95
233.243	79
233.477	77
233.711	90
233.945	74
234.179	81
234.413	93
234.647	86
234.881	84
235.115	83
235.349	82
235.583	81
235.817	88
236.051	72
236.285	83
236.519	80
236.753	86
236.987	74
237.221	90
237.455	82
237.689	71
237.922	68
238.156	77
238.39	77
238.624	82
238.858	74
239.091	75
239.325	81
239.559	82
239.793	83
240.027	70
240.26	95
240.494	74
240.728	72
240.961	72
241.195	78
241.429	84
241.662	70
241.896	69
242.13	56
242.363	53
242.597	84
242.83	84
243.064	92
243.298	72
243.531	70
243.765	82
243.998	95
244.232	80
244.465	77
244.699	88
244.932	76
245.166	80
245.399	80
245.633	80
245.866	74
246.099	86
246.333	72
246.566	88
246.8	74
247.033	83
247.266	80
247.5	86
247.733	78
247.966	90
248.2	69
248.433	89
248.666	83
248.899	66
249.133	87
249.366	80
249.599	108
249.832	75
250.066	76
250.299	92
250.532	81
250.765	78
250.998	70
251.231	79
251.465	78
251.698	91
251.931	67
252.164	86
252.397	74
252.63	79
252.863	64
253.096	78
253.329	76
253.562	85
253.795	89
254.028	77
254.261	95
254.494	83
254.727	82
254.96	87
255.193	83
255.426	71
255.659	78
255.892	82
256.124	79
256.357	77
256.59	88
256.823	83
257.056	74
257.289	93
257.521	86
257.754	73
257.987	69
258.22	93
258.452	77
258.685	84
258.918	77
259.151	88
259.383	87
259.616	82
259.849	72
260.081	79
260.314	86
260.547	78
260.779	80
261.012	79
261.244	83
261.477	86
261.71	82
261.942	114
262.175	140
262.407	92
262.64	76
262.872	86
263.105	70
263.337	74
263.57	88
263.802	83
264.035	85
264.267	93
264.499	84
264.732	83
264.964	74
265.197	77
265.429	79
265.661	79
265.894	87
266.126	92
266.358	71
266.591	84
266.823	83
267.055	95
267.287	96
267.52	71
267.752	93
267.984	95
268.216	88
268.448	91
268.681	76
268.913	91
269.145	90
269.377	80
269.609	90
269.841	90
270.073	87
270.306	89
270.538	80
270.77	84
271.002	82
271.234	86
271.466	85
271.698	91
271.93	92
272.162	93
272.394	101
272.626	85
272.858	83
273.09	85
273.322	77
273.553	82
273.785	78
274.017	79
274.249	91
274.481	79
274.713	84
274.945	83
275.176	85
275.408	84
275.64	96
275.872	91
276.104	96
276.335	104
276.567	100
276.799	109
277.031	112
277.262	90
277.494	97
277.726	86
277.957	86
278.189	94
278.421	88
278.652	94
278.884	101
279.115	82
279.347	90
279.579	80
279.81	75
280.042	84
280.273	88
280.505	96
280.736	86
280.968	80
281.199	87
281.431	69
281.662	90
281.894	83
282.125	104
282.356	117
282.588	156
282.819	127
283.051	86
283.282	82
283.513	99
283.745	94
283.976	92
284.207	82
284.439	83
284.67	91
284.901	81
285.132	92
285.364	97
285.595	92
285.826	82
286.057	88
286.288	84
286.52	88
286.751	100
286.982	97
287.213	78
287.444	97
287.675	72
287.906	87
288.138	81
288.369	90
288.6	68
288.831	77
289.062	85
289.293	89
289.524	110
289.755	92
289.986	83
290.217	100
290.448	93
290.679	85
290.91	110
291.141	92
291.371	82
291.602	90
291.833	88
292.064	82
292.295	83
292.526	82
292.757	78
292.987	70
293.218	91
293.449	92
293.68	94
293.91	105
294.141	104
294.372	93
294.603	91
294.833	88
295.064	90
295.295	77
295.525	86
295.756	103
295.987	128
296.217	149
296.448	138
296.679	97
296.909	90
297.14	85
297.37	96
297.601	82
297.831	87
298.062	101
298.292	97
298.523	98
298.753	91
298.984	84
299.214	95
299.445	101
299.675	103
299.905	103
300.136	98
300.366	95
300.597	90
300.827	96
301.057	96
301.288	120
301.518	109
301.748	84
301.979	106
302.209	94
302.439	98
302.669	87
302.9	91
303.13	87
303.36	107
303.59	98
303.82	109
304.051	93
304.281	93
304.511	98
304.741	101
304.971	94
305.201	102
305.431	101
305.661	90
305.891	94
306.121	95
306.352	110
306.582	104
306.812	102
307.042	96
307.272	95
307.502	109
307.731	97
307.961	95
308.191	87
308.421	100
308.651	92
308.881	107
309.111	83
309.341	88
309.571	95
309.8	81
310.03	91
310.26	98
310.49	102
310.72	109
310.949	114
311.179	89
311.409	94
311.639	104
311.868	107
312.098	108
312.328	94
312.557	99
312.787	115
313.017	88
313.246	95
313.476	81
313.706	96
313.935	103
314.165	106
314.394	103
314.624	102
314.853	98
315.083	91
315.312	88
315.542	93
315.771	86
316.001	102
316.23	92
316.46	80
316.689	94
316.919	76
317.148	104
317.377	101
317.607	100
317.836	88
318.065	80
318.295	87
318.524	92
318.753	92
318.983	98
319.212	106
319.441	110
319.67	122
319.9	114
320.129	97
320.358	101
320.587	96
320.816	110
321.046	106
321.275	101
321.504	96
321.733	92
321.962	108
322.191	98
322.42	112
322.649	102
322.878	117
323.108	125
323.337	138
323.566	135
323.795	174
324.024	239
324.253	463
324.482	1018
324.71	2175
324.939	3076
325.168	1072
325.397	292
325.626	151
325.855	141
326.084	142
326.313	148
326.542	177
326.77	266
326.999	535
327.228	1137
327.457	2156
327.686	1752
327.914	432
328.143	241
328.372	174
328.6	134
328.829	143
329.058	149
329.287	157
329.515	112
329.744	102
329.972	108
330.201	105
330.43	104
330.658	128
330.887	142
331.115	140
331.344	108
331.572	98
331.801	96
332.03	119
332.258	99
332.486	95
332.715	97
332.943	93
333.172	97
333.4	103
333.629	111
333.857	115
334.085	107
334.314	112
334.542	91
334.771	105
334.999	97
335.227	95
335.455	103
335.684	95
335.912	86
336.14	97
336.369	112
336.597	94
336.825	95
337.053	104
337.281	106
337.51	99
337.738	109
337.966	92
338.194	97
338.422	96
338.65	112
338.878	85
339.106	72
339.334	83
339.562	87
339.79	93
340.018	82
340.246	92
340.474	97
340.702	74
340.93	94
341.158	96
341.386	96
341.614	93
341.842	92
342.07	95
342.298	94
342.526	98
342.754	86
342.981	85
343.209	89
343.437	96
343.665	94
343.893	94
344.12	86
344.348	100
344.576	85
344.804	87
345.031	113
345.259	108
345.487	96
345.714	88
345.942	101
346.17	88
346.397	86
346.625	101
346.853	107
347.08	83
347.308	91
347.535	92
347.763	101
347.99	103
348.218	104
348.445	117
348.673	105
348.9	97
349.128	91
349.355	111
349.583	104
349.81	89
350.037	99
350.265	104
350.492	104
350.72	102
350.947	102
351.174	118
351.402	126
351.629	111
351.856	113
352.083	110
352.311	116
352.538	114
352.765	115
352.992	116
353.22	117
353.447	106
353.674	91
353.901	89
354.128	94
354.355	99
354.583	97
354.81	99
355.037	109
355.264	100
355.491	95
355.718	83
355.945	99
356.172	106
356.399	116
356.626	109
356.853	72
357.08	96
357.307	98
357.534	90
357.761	87
357.988	95
358.215	95
358.441	100
358.668	84
358.895	88
359.122	82
359.349	99
359.576	98
359.802	103
360.029	124
360.256	121
360.483	115
360.709	87
360.936	82
361.163	92
361.39	103
361.616	99
361.843	93
362.07	100
362.296	114
362.523	94
362.749	77
362.976	104
363.203	84
363.429	94
363.656	110
363.882	91
364.109	89
364.335	110
364.562	106
364.788	85
365.015	85
365.241	105
365.468	115
365.694	102
365.92	112
366.147	105
366.373	89
366.599	99
366.826	100
367.052	82
367.278	92
367.505	92
367.731	103
367.957	94
368.184	94
368.41	85
368.636	104
368.862	126
369.089	111
369.315	90
369.541	104
369.767	102
369.993	96
370.219	98
370.445	83
370.672	93
370.898	82
371.124	92
371.35	98
371.576	88
371.802	77
372.028	83
372.254	100
372.48	93
372.706	80
372.932	95
373.158	90
373.384	99
373.61	103
373.835	98
374.061	89
374.287	93
374.513	93
374.739	82
374.965	80
375.191	79
375.416	79
375.642	93
375.868	94
376.094	83
376.319	87
376.545	77
376.771	86
376.997	98
377.222	91
377.448	86
377.674	81
377.899	91
378.125	88
378.35	83
378.576	91
378.802	77
379.027	83
379.253	83
379.478	94
379.704	101
379.929	99
380.155	86
380.38	85
380.606	96
380.831	95
381.057	94
381.282	91
381.507	108
381.733	91
381.958	88
382.184	94
382.409	80
382.634	101
382.86	96
383.085	82
383.31	110
383.535	89
383.761	105
383.986	101
384.211	99
384.436	86
384.662	93
384.887	104
385.112	92
385.337	96
385.562	95
385.787	96
386.013	115
386.238	117
386.463	108
386.688	116
386.913	102
387.138	97
387.363	98
387.588	92
387.813	98
388.038	97
388.263	100
388.488	107
388.713	101
388.938	97
389.163	98
389.387	95
389.612	89
389.837	94
390.062	99
390.287	89
390.512	90
390.736	104
390.961	91
391.186	84
391.411	103
391.636	95
391.86	83
392.085	93
392.31	78
392.534	87
392.759	82
392.984	79
393.208	96
393.433	90
393.658	86
393.882	85
394.107	70
394.331	77
394.556	91
394.78	85
395.005	84
395.229	82
395.454	83
395.678	85
395.903	68
396.127	80
396.352	87
396.576	79
396.801	81
397.025	84
397.249	80
397.474	84
397.698	87
397.922	92
398.147	106
398.371	79
398.595	90
398.82	76
399.044	92
399.268	90
399.492	100
399.717	90
399.941	83
400.165	99
400.389	95
400.613	94
400.837	71
401.062	88
401.286	82
401.51	91
401.734	86
401.958	108
402.182	151
402.406	179
402.63	134
402.854	100
403.078	84
403.302	101
403.526	78
403.75	85
403.974	79
404.198	85
404.422	91
404.645	87
404.869	92
405.093	88
405.317	103
405.541	101
405.765	122
405.988	127
406.212	175
406.436	270
406.66	181
406.883	110
407.107	93
407.331	106
407.555	107
407.778	93
408.002	85
408.226	91
408.449	97
408.673	91
408.896	98
409.12	104
409.344	95
409.567	98
409.791	80
410.014	96
410.238	106
410.461	97
410.685	92
410.908	102
411.132	111
411.355	102
411.578	92
411.802	100
412.025	96
412.249	92
412.472	98
412.695	91
412.919	97
413.142	84
413.365	86
413.589	81
413.812	86
414.035	88
414.258	74
414.482	77
414.705	83
414.928	98
415.151	85
415.374	95
415.597	79
415.821	90
416.044	92
416.267	97
416.49	97
416.713	88
416.936	97
417.159	77
417.382	99
417.605	88
417.828	108
418.051	92
418.274	85
418.497	95
418.72	88
418.943	86
419.166	85
419.389	85
419.611	92
419.834	83
420.057	94
420.28	86
420.503	82
420.726	85
420.948	79
421.171	91
421.394	102
421.617	86
421.839	82
422.062	84
422.285	85
422.507	101
422.73	108
422.953	96
423.175	109
423.398	99
423.621	86
423.843	83
424.066	89
424.288	101
424.511	83
424.733	117
424.956	118
425.178	99
425.401	113
425.623	108
425.846	101
426.068	95
426.291	83
426.513	94
426.735	97
426.958	95
427.18	111
427.402	157
427.625	190
427.847	146
428.069	89
428.292	82
428.514	101
428.736	94
428.958	72
429.181	84
429.403	81
429.625	103
429.847	99
430.069	110
430.292	99
430.514	95
430.736	79
430.958	93
431.18	94
431.402	84
431.624	68
431.846	74
432.068	88
432.29	93
432.512	90
432.734	82
432.956	93
433.178	96
433.4	107
433.622	85
433.844	93
434.066	98
434.287	94
434.509	70
434.731	101
434.953	91
435.175	85
435.397	83
435.618	93
435.84	93
436.062	128
436.284	126
436.505	113
436.727	109
436.949	92
437.17	90
437.392	81
437.614	88
437.835	117
438.057	140
438.278	131
438.5	107
438.721	131
438.943	115
439.165	91
439.386	86
439.608	99
439.829	92
440.05	133
440.272	178
440.493	96
440.715	89
440.936	86
441.158	101
441.379	92
441.6	92
441.822	90
442.043	87
442.264	110
442.486	107
442.707	99
442.928	115
443.149	146
443.371	143
443.592	138
443.813	123
444.034	122
444.255	101
444.476	89
444.698	98
444.919	104
445.14	135
445.361	124
445.582	130
445.803	159
446.024	166
446.245	139
446.466	132
446.687	97
446.908	96
447.129	89
447.35	99
447.571	95
447.792	91
448.013	96
448.234	126
448.455	102
448.675	125
448.896	118
449.117	113
449.338	112
449.559	159
449.779	152
450	107
450.221	93
450.442	91
450.662	101
450.883	123
451.104	118
451.324	93
451.545	103
451.766	101
451.986	108
452.207	106
452.428	107
452.648	87
452.869	128
453.089	127
453.31	120
453.53	105
453.751	101
453.971	111
454.192	127
454.412	94
454.633	69
454.853	98
455.073	87
455.294	80
455.514	103
455.734	108
455.955	100
456.175	76
456.395	97
456.616	91
456.836	82
457.056	82
457.276	97
457.497	74
457.717	77
457.937	89
458.157	96
458.377	93
458.598	118
458.818	193
459.038	205
459.258	122
459.478	103
459.698	98
459.918	88
460.138	77
460.358	85
460.578	71
460.798	104
461.018	96
461.238	94
461.458	98
461.678	108
461.898	89
462.118	82
462.338	82
462.558	88
462.777	84
462.997	108
463.217	86
463.437	94
463.657	103
463.876	86
464.096	93
464.316	90
464.536	86
464.755	95
464.975	121
465.195	199
465.414	207
465.634	108
465.854	88
466.073	88
466.293	94
466.512	71
466.732	70
466.951	93
467.171	94
467.391	92
467.61	111
467.829	91
468.049	88
468.268	91
468.488	74
468.707	72
468.927	88
469.146	72
469.365	94
469.585	93
469.804	99
470.023	99
470.243	89
470.462	94
470.681	109
470.901	100
471.12	97
471.339	96
471.558	82
471.777	90
471.997	101
472.216	108
472.435	92
472.654	94
472.873	89
473.092	91
473.311	96
473.53	81
473.749	81
473.968	83
474.187	110
474.406	84
474.625	84
474.844	90
475.063	87
475.282	87
475.501	79
475.72	109
475.939	92
476.158	91
476.377	78
476.596	79
476.814	100
477.033	116
477.252	82
477.471	98
477.69	80
477.908	87
478.127	96
478.346	96
478.564	102
478.783	92
479.002	88
479.22	88
479.439	122
479.658	119
479.876	89
480.095	102
480.313	104
480.532	94
480.751	94
480.969	86
481.188	100
481.406	91
481.624	96
481.843	94
482.061	101
482.28	93
482.498	81
482.717	96
482.935	94
483.153	89
483.372	91
483.59	86
483.808	91
484.027	74
484.245	76
484.463	97
484.681	92
484.9	84
485.118	77
485.336	111
485.554	93
485.772	99
485.99	86
486.209	90
486.427	90
486.645	107
486.863	117
487.081	83
487.299	100
487.517	78
487.735	91
487.953	94
488.171	80
488.389	88
488.607	108
488.825	84
489.043	102
489.261	101
489.479	97
489.696	91
489.914	90
490.132	96
490.35	101
490.568	90
490.786	101
491.003	95
491.221	108
491.439	98
491.657	97
491.874	101
492.092	101
492.31	98
492.527	90
492.745	99
492.963	102
493.18	88
493.398	91
493.615	98
493.833	90
494.05	91
494.268	82
494.485	92
494.703	87
494.92	98
495.138	93
495.355	86
495.573	94
495.79	85
496.008	99
496.225	79
496.442	80
496.66	105
496.877	98
497.094	88
497.312	78
497.529	93
497.746	93
497.963	98
498.181	87
498.398	102
498.615	101
498.832	111
499.049	101
499.267	86
499.484	84
499.701	104
499.918	91
500.135	86
500.352	90
500.569	86
500.786	86
501.003	86
501.22	75
501.437	103
501.654	82
501.871	105
502.088	100
502.305	92
502.522	99
502.739	97
502.956	94
503.172	87
503.389	94
503.606	95
503.823	98
504.04	109
504.256	84
504.473	99
504.69	96
504.907	97
505.123	79
505.34	89
505.557	74
505.773	98
505.99	100
506.207	98
506.423	94
506.64	87
506.856	82
507.073	91
507.289	98
507.506	102
507.722	122
507.939	113
508.155	102
508.372	97
508.588	99
508.805	107
509.021	106
509.238	109
509.454	96
509.67	122
509.887	115
510.103	154
510.319	237
510.536	854
510.752	2875
510.968	773
511.184	180
511.401	117
511.617	99
511.833	95
512.049	91
512.265	82
512.481	92
512.698	105
512.914	82
513.13	82
513.346	104
513.562	98
513.778	91
513.994	110
514.21	97
514.426	132
514.642	151
514.858	158
515.074	204
515.29	592
515.506	2078
515.721	731
515.937	178
516.153	127
516.369	104
516.585	96
516.801	92
517.016	86
517.232	83
517.448	94
517.664	83
517.879	97
518.095	97
518.311	96
518.527	80
518.742	99
518.958	98
519.173	99
519.389	98
519.605	104
519.82	95
520.036	94
520.251	135
520.467	126
520.682	107
520.898	117
521.113	116
521.329	168
521.544	255
521.76	749
521.975	3461
522.19	2036
522.406	410
522.621	146
522.836	115
523.052	111
523.267	107
523.482	100
523.698	115
523.913	140
524.128	117
524.343	99
524.559	104
524.774	100
524.989	101
525.204	123
525.419	100
525.634	89
525.849	96
526.064	92
526.28	93
526.495	87
526.71	93
526.925	87
527.14	102
527.355	87
527.57	91
527.785	80
527.999	86
528.214	83
528.429	114
528.644	80
528.859	85
529.074	94
529.289	133
529.503	210
529.718	127
529.933	99
530.148	94
530.363	91
530.577	83
530.792	82
531.007	88
531.221	95
531.436	102
531.651	96
531.865	87
532.08	102
532.295	96
532.509	95
532.724	91
532.938	110
533.153	85
533.367	91
533.582	101
533.796	97
534.011	93
534.225	75
534.44	90
534.654	100
534.868	95
535.083	87
535.297	96
535.511	111
535.726	122
535.94	103
536.154	115
536.369	103
536.583	78
536.797	93
537.011	99
537.225	79
537.44	94
537.654	92
537.868	92
538.082	95
538.296	90
538.51	93
538.724	103
538.938	91
539.153	94
539.367	102
539.581	100
539.795	87
540.009	100
540.222	95
540.436	81
540.65	83
540.864	83
541.078	88
541.292	80
541.506	91
541.72	88
541.934	82
542.147	93
542.361	88
542.575	98
542.789	84
543.002	91
543.216	78
543.43	96
543.644	97
543.857	89
544.071	76
544.285	95
544.498	78
544.712	83
544.925	69
545.139	89
545.352	99
545.566	87
545.779	84
545.993	89
546.206	84
546.42	80
546.633	94
546.847	103
547.06	96
547.274	98
547.487	80
547.7	94
547.914	76
548.127	91
548.34	82
548.554	95
548.767	85
548.98	94
549.193	91
549.407	101
549.62	86
549.833	83
550.046	84
550.259	91
550.473	91
550.686	83
550.899	83
551.112	92
551.325	99
551.538	91
551.751	82
551.964	82
552.177	68
552.39	86
552.603	81
552.816	75
553.029	88
553.242	93
553.455	104
553.667	110
553.88	95
554.093	93
554.306	85
554.519	93
554.732	92
554.944	98
555.157	95
555.37	99
555.583	92
555.795	94
556.008	84
556.221	82
556.433	92
556.646	94
556.859	93
557.071	88
557.284	96
557.496	87
557.709	93
557.921	97
558.134	99
558.346	83
558.559	93
558.771	87
558.984	94
559.196	78
559.409	78
559.621	97
559.833	83
560.046	85
560.258	97
560.47	82
560.683	92
560.895	104
561.107	85
561.32	95
561.532	95
561.744	86
561.956	94
562.168	91
562.381	92
562.593	105
562.805	87
563.017	89
563.229	97
563.441	102
563.653	86
563.865	92
564.077	84
564.289	100
564.501	87
564.713	93
564.925	94
565.137	113
565.349	87
565.561	91
565.773	85
565.985	90
566.197	90
566.408	96
566.62	82
566.832	85
567.044	80
567.255	95
567.467	88
567.679	88
567.891	82
568.102	78
568.314	91
568.526	97
568.737	87
568.949	96
569.161	95
569.372	76
569.584	98
569.795	95
570.007	128
570.218	282
570.43	148
570.641	102
570.853	96
571.064	94
571.276	77
571.487	81
571.698	97
571.91	90
572.121	94
572.333	76
572.544	87
572.755	82
572.966	83
573.178	86
573.389	92
573.6	77
573.811	103
574.023	96
574.234	89
574.445	101
574.656	86
574.867	87
575.078	96
575.289	83
575.501	84
575.712	85
575.923	98
576.134	92
576.345	81
576.556	78
576.767	78
576.978	80
577.188	85
577.399	98
577.61	96
577.821	93
578.032	131
578.243	311
578.454	961
578.665	253
578.875	109
579.086	100
579.297	95
579.508	91
579.718	100
579.929	80
580.14	87
580.35	76
580.561	90
580.772	87
580.982	71
581.193	83
581.403	93
581.614	82
581.825	87
582.035	87
582.246	82
582.456	87
582.667	94
582.877	104
