Data from Uncirc_1991_H10_HRD10591_00037.txt Node
Date: Wed Jan 03 11:50:45 EST 2024
User: Yrep
Spectrometer: HR+D1059
Trigger mode: 1
Integration Time (sec): 1.000000E-1
Scans to average: 1
Electric dark correction enabled: true
Nonlinearity correction enabled: false
Boxcar width: 0
XAxis mode: Wavelengths
Number of Pixels in Spectrum: 2048
>>>>>Begin Spectral Data<<<<<
223.165	-26.81
223.4	-26.81
223.635	-26.81
223.869	-22.81
224.104	-15.81
224.338	-13.81
224.573	-10.81
224.808	-19.81
225.042	-2.81
225.277	-0.81
225.511	7.19
225.746	-5.81
225.98	2.19
226.215	10.19
226.449	18.19
226.683	26.19
226.918	22.19
227.152	33.19
227.387	47.19
227.621	31.19
227.856	54.19
228.09	53.19
228.324	67.19
228.559	66.19
228.793	72.19
229.027	60.19
229.262	78.19
229.496	84.19
229.73	87.19
229.964	88.19
230.199	75.19
230.433	65.19
230.667	80.19
230.901	83.19
231.136	85.19
231.37	73.19
231.604	80.19
231.838	84.19
232.072	74.19
232.306	89.19
232.541	81.19
232.775	77.19
233.009	93.19
233.243	83.19
233.477	85.19
233.711	89.19
233.945	90.19
234.179	80.19
234.413	74.19
234.647	87.19
234.881	77.19
235.115	93.19
235.349	73.19
235.583	70.19
235.817	86.19
236.051	85.19
236.285	78.19
236.519	73.19
236.753	85.19
236.987	88.19
237.221	85.19
237.455	98.19
237.689	93.19
237.922	76.19
238.156	74.19
238.39	79.19
238.624	85.19
238.858	80.19
239.091	81.19
239.325	68.19
239.559	73.19
239.793	76.19
240.027	85.19
240.26	83.19
240.494	84.19
240.728	88.19
240.961	77.19
241.195	73.19
241.429	81.19
241.662	91.19
241.896	79.19
242.13	62.19
242.363	82.19
242.597	71.19
242.83	81.19
243.064	81.19
243.298	99.19
243.531	96.19
243.765	91.19
243.998	83.19
244.232	80.19
244.465	65.19
244.699	79.19
244.932	82.19
245.166	79.19
245.399	71.19
245.633	91.19
245.866	95.19
246.099	90.19
246.333	78.19
246.566	81.19
246.8	74.19
247.033	81.19
247.266	97.19
247.5	93.19
247.733	88.19
247.966	86.19
248.2	65.19
248.433	77.19
248.666	95.19
248.899	99.19
249.133	74.19
249.366	111.19
249.599	87.19
249.832	78.19
250.066	80.19
250.299	79.19
250.532	78.19
250.765	93.19
250.998	77.19
251.231	93.19
251.465	83.19
251.698	94.19
251.931	87.19
252.164	77.19
252.397	71.19
252.63	85.19
252.863	90.19
253.096	97.19
253.329	88.19
253.562	85.19
253.795	79.19
254.028	92.19
254.261	74.19
254.494	69.19
254.727	73.19
254.96	85.19
255.193	95.19
255.426	81.19
255.659	98.19
255.892	87.19
256.124	94.19
256.357	101.19
256.59	79.19
256.823	61.19
257.056	93.19
257.289	91.19
257.521	80.19
257.754	95.19
257.987	79.19
258.22	81.19
258.452	88.19
258.685	79.19
258.918	87.19
259.151	73.19
259.383	81.19
259.616	87.19
259.849	102.19
260.081	89.19
260.314	86.19
260.547	84.19
260.779	94.19
261.012	75.19
261.244	97.19
261.477	86.19
261.71	88.19
261.942	114.19
262.175	127.19
262.407	93.19
262.64	98.19
262.872	75.19
263.105	79.19
263.337	92.19
263.57	88.19
263.802	83.19
264.035	93.19
264.267	91.19
264.499	100.19
264.732	79.19
264.964	85.19
265.197	82.19
265.429	79.19
265.661	88.19
265.894	92.19
266.126	89.19
266.358	92.19
266.591	79.19
266.823	99.19
267.055	89.19
267.287	96.19
267.52	79.19
267.752	93.19
267.984	80.19
268.216	80.19
268.448	74.19
268.681	90.19
268.913	83.19
269.145	98.19
269.377	80.19
269.609	93.19
269.841	91.19
270.073	89.19
270.306	93.19
270.538	87.19
270.77	87.19
271.002	89.19
271.234	103.19
271.466	87.19
271.698	89.19
271.93	85.19
272.162	101.19
272.394	93.19
272.626	88.19
272.858	93.19
273.09	88.19
273.322	92.19
273.553	95.19
273.785	109.19
274.017	79.19
274.249	89.19
274.481	97.19
274.713	99.19
274.945	86.19
275.176	87.19
275.408	82.19
275.64	89.19
275.872	94.19
276.104	95.19
276.335	91.19
276.567	106.19
276.799	111.19
277.031	91.19
277.262	97.19
277.494	90.19
277.726	101.19
277.957	85.19
278.189	78.19
278.421	94.19
278.652	99.19
278.884	101.19
279.115	98.19
279.347	84.19
279.579	85.19
279.81	82.19
280.042	96.19
280.273	88.19
280.505	98.19
280.736	103.19
280.968	97.19
281.199	85.19
281.431	103.19
281.662	97.19
281.894	102.19
282.125	111.19
282.356	102.19
282.588	131.19
282.819	91.19
283.051	91.19
283.282	91.19
283.513	94.19
283.745	91.19
283.976	79.19
284.207	88.19
284.439	94.19
284.67	86.19
284.901	90.19
285.132	77.19
285.364	81.19
285.595	94.19
285.826	67.19
286.057	95.19
286.288	82.19
286.52	82.19
286.751	86.19
286.982	82.19
287.213	72.19
287.444	84.19
287.675	86.19
287.906	101.19
288.138	81.19
288.369	87.19
288.6	103.19
288.831	88.19
289.062	99.19
289.293	84.19
289.524	94.19
289.755	85.19
289.986	82.19
290.217	98.19
290.448	95.19
290.679	95.19
290.91	93.19
291.141	91.19
291.371	93.19
291.602	98.19
291.833	109.19
292.064	90.19
292.295	93.19
292.526	91.19
292.757	78.19
292.987	87.19
293.218	93.19
293.449	84.19
293.68	108.19
293.91	93.19
294.141	91.19
294.372	90.19
294.603	82.19
294.833	82.19
295.064	106.19
295.295	86.19
295.525	91.19
295.756	98.19
295.987	110.19
296.217	149.19
296.448	135.19
296.679	113.19
296.909	107.19
297.14	89.19
297.37	97.19
297.601	98.19
297.831	86.19
298.062	100.19
298.292	96.19
298.523	83.19
298.753	88.19
298.984	86.19
299.214	106.19
299.445	101.19
299.675	89.19
299.905	93.19
300.136	85.19
300.366	84.19
300.597	84.19
300.827	98.19
301.057	92.19
301.288	103.19
301.518	103.19
301.748	101.19
301.979	111.19
302.209	95.19
302.439	97.19
302.669	112.19
302.9	93.19
303.13	97.19
303.36	103.19
303.59	94.19
303.82	86.19
304.051	94.19
304.281	94.19
304.511	92.19
304.741	87.19
304.971	96.19
305.201	103.19
305.431	100.19
305.661	97.19
305.891	99.19
306.121	101.19
306.352	105.19
306.582	110.19
306.812	100.19
307.042	113.19
307.272	93.19
307.502	80.19
307.731	94.19
307.961	91.19
308.191	87.19
308.421	80.19
308.651	93.19
308.881	91.19
309.111	98.19
309.341	103.19
309.571	101.19
309.8	97.19
310.03	105.19
310.26	91.19
310.49	89.19
310.72	98.19
310.949	94.19
311.179	98.19
311.409	109.19
311.639	93.19
311.868	103.19
312.098	99.19
312.328	107.19
312.557	101.19
312.787	104.19
313.017	102.19
313.246	101.19
313.476	97.19
313.706	99.19
313.935	115.19
314.165	86.19
314.394	90.19
314.624	102.19
314.853	95.19
315.083	101.19
315.312	103.19
315.542	104.19
315.771	77.19
316.001	95.19
316.23	101.19
316.46	95.19
316.689	97.19
316.919	92.19
317.148	102.19
317.377	104.19
317.607	95.19
317.836	97.19
318.065	98.19
318.295	94.19
318.524	89.19
318.753	86.19
318.983	100.19
319.212	111.19
319.441	97.19
319.67	105.19
319.9	105.19
320.129	106.19
320.358	97.19
320.587	115.19
320.816	103.19
321.046	111.19
321.275	112.19
321.504	96.19
321.733	107.19
321.962	105.19
322.191	105.19
322.42	109.19
322.649	118.19
322.878	108.19
323.108	129.19
323.337	127.19
323.566	128.19
323.795	159.19
324.024	219.19
324.253	420.19
324.482	925.19
324.71	1917.19
324.939	2604.19
325.168	958.19
325.397	262.19
325.626	158.19
325.855	137.19
326.084	129.19
326.313	140.19
326.542	149.19
326.77	236.19
326.999	493.19
327.228	1041.19
327.457	1955.19
327.686	1610.19
327.914	382.19
328.143	186.19
328.372	157.19
328.6	125.19
328.829	133.19
329.058	122.19
329.287	150.19
329.515	119.19
329.744	106.19
329.972	105.19
330.201	117.19
330.43	110.19
330.658	132.19
330.887	144.19
331.115	145.19
331.344	122.19
331.572	109.19
331.801	97.19
332.03	95.19
332.258	95.19
332.486	81.19
332.715	95.19
332.943	99.19
333.172	91.19
333.4	106.19
333.629	118.19
333.857	108.19
334.085	115.19
334.314	104.19
334.542	95.19
334.771	96.19
334.999	112.19
335.227	93.19
335.455	100.19
335.684	110.19
335.912	74.19
336.14	85.19
336.369	95.19
336.597	94.19
336.825	99.19
337.053	95.19
337.281	106.19
337.51	88.19
337.738	104.19
337.966	97.19
338.194	95.19
338.422	86.19
338.65	98.19
338.878	111.19
339.106	95.19
339.334	98.19
339.562	97.19
339.79	102.19
340.018	103.19
340.246	98.19
340.474	93.19
340.702	96.19
340.93	83.19
341.158	72.19
341.386	100.19
341.614	95.19
341.842	105.19
342.07	98.19
342.298	96.19
342.526	96.19
342.754	97.19
342.981	101.19
343.209	81.19
343.437	103.19
343.665	94.19
343.893	98.19
344.12	85.19
344.348	79.19
344.576	85.19
344.804	82.19
345.031	103.19
345.259	108.19
345.487	101.19
345.714	106.19
345.942	95.19
346.17	86.19
346.397	89.19
346.625	113.19
346.853	97.19
347.08	99.19
347.308	106.19
347.535	98.19
347.763	106.19
347.99	104.19
348.218	90.19
348.445	117.19
348.673	98.19
348.9	94.19
349.128	102.19
349.355	94.19
349.583	96.19
349.81	88.19
350.037	104.19
350.265	115.19
350.492	101.19
350.72	111.19
350.947	103.19
351.174	119.19
351.402	116.19
351.629	110.19
351.856	109.19
352.083	111.19
352.311	113.19
352.538	115.19
352.765	109.19
352.992	131.19
353.22	111.19
353.447	106.19
353.674	85.19
353.901	92.19
354.128	86.19
354.355	93.19
354.583	101.19
354.81	98.19
355.037	98.19
355.264	111.19
355.491	94.19
355.718	98.19
355.945	101.19
356.172	99.19
356.399	106.19
356.626	98.19
356.853	98.19
357.08	93.19
357.307	92.19
357.534	105.19
357.761	113.19
357.988	88.19
358.215	94.19
358.441	103.19
358.668	99.19
358.895	107.19
359.122	102.19
359.349	92.19
359.576	77.19
359.802	108.19
360.029	125.19
360.256	107.19
360.483	114.19
360.709	86.19
360.936	107.19
361.163	101.19
361.39	96.19
361.616	102.19
361.843	89.19
362.07	82.19
362.296	89.19
362.523	107.19
362.749	98.19
362.976	98.19
363.203	105.19
363.429	93.19
363.656	105.19
363.882	101.19
364.109	103.19
364.335	90.19
364.562	102.19
364.788	94.19
365.015	107.19
365.241	106.19
365.468	115.19
365.694	109.19
365.92	94.19
366.147	94.19
366.373	106.19
366.599	89.19
366.826	104.19
367.052	97.19
367.278	97.19
367.505	87.19
367.731	111.19
367.957	94.19
368.184	84.19
368.41	87.19
368.636	122.19
368.862	127.19
369.089	114.19
369.315	102.19
369.541	102.19
369.767	93.19
369.993	102.19
370.219	98.19
370.445	110.19
370.672	99.19
370.898	97.19
371.124	91.19
371.35	101.19
371.576	86.19
371.802	86.19
372.028	77.19
372.254	95.19
372.48	81.19
372.706	82.19
372.932	81.19
373.158	97.19
373.384	83.19
373.61	82.19
373.835	95.19
374.061	94.19
374.287	98.19
374.513	86.19
374.739	97.19
374.965	87.19
375.191	95.19
375.416	95.19
375.642	102.19
375.868	85.19
376.094	90.19
376.319	105.19
376.545	88.19
376.771	94.19
376.997	91.19
377.222	95.19
377.448	103.19
377.674	96.19
377.899	92.19
378.125	96.19
378.35	93.19
378.576	98.19
378.802	99.19
379.027	111.19
379.253	95.19
379.478	107.19
379.704	99.19
379.929	99.19
380.155	90.19
380.38	95.19
380.606	90.19
380.831	105.19
381.057	105.19
381.282	95.19
381.507	101.19
381.733	106.19
381.958	118.19
382.184	94.19
382.409	105.19
382.634	101.19
382.86	99.19
383.085	105.19
383.31	107.19
383.535	83.19
383.761	105.19
383.986	92.19
384.211	99.19
384.436	119.19
384.662	108.19
384.887	90.19
385.112	111.19
385.337	102.19
385.562	106.19
385.787	110.19
386.013	104.19
386.238	107.19
386.463	103.19
386.688	121.19
386.913	110.19
387.138	119.19
387.363	107.19
387.588	94.19
387.813	111.19
388.038	104.19
388.263	105.19
388.488	111.19
388.713	105.19
388.938	108.19
389.163	96.19
389.387	88.19
389.612	93.19
389.837	93.19
390.062	75.19
390.287	95.19
390.512	93.19
390.736	101.19
390.961	101.19
391.186	98.19
391.411	98.19
391.636	94.19
391.86	90.19
392.085	87.19
392.31	88.19
392.534	90.19
392.759	93.19
392.984	92.19
393.208	91.19
393.433	89.19
393.658	91.19
393.882	87.19
394.107	86.19
394.331	80.19
394.556	84.19
394.78	100.19
395.005	96.19
395.229	88.19
395.454	94.19
395.678	86.19
395.903	95.19
396.127	95.19
396.352	100.19
396.576	91.19
396.801	102.19
397.025	90.19
397.249	97.19
397.474	95.19
397.698	87.19
397.922	105.19
398.147	94.19
398.371	85.19
398.595	90.19
398.82	81.19
399.044	90.19
399.268	69.19
399.492	91.19
399.717	88.19
399.941	83.19
400.165	97.19
400.389	95.19
400.613	89.19
400.837	97.19
401.062	88.19
401.286	82.19
401.51	79.19
401.734	94.19
401.958	97.19
402.182	127.19
402.406	166.19
402.63	111.19
402.854	100.19
403.078	94.19
403.302	87.19
403.526	99.19
403.75	95.19
403.974	95.19
404.198	91.19
404.422	86.19
404.645	106.19
404.869	90.19
405.093	121.19
405.317	108.19
405.541	111.19
405.765	98.19
405.988	115.19
406.212	170.19
406.436	241.19
406.66	136.19
406.883	108.19
407.107	99.19
407.331	100.19
407.555	106.19
407.778	97.19
408.002	100.19
408.226	93.19
408.449	94.19
408.673	93.19
408.896	110.19
409.12	98.19
409.344	98.19
409.567	86.19
409.791	100.19
410.014	113.19
410.238	100.19
410.461	114.19
410.685	93.19
410.908	105.19
411.132	101.19
411.355	94.19
411.578	86.19
411.802	107.19
412.025	83.19
412.249	109.19
412.472	111.19
412.695	82.19
412.919	92.19
413.142	101.19
413.365	82.19
413.589	90.19
413.812	82.19
414.035	101.19
414.258	85.19
414.482	94.19
414.705	94.19
414.928	89.19
415.151	92.19
415.374	101.19
415.597	86.19
415.821	83.19
416.044	90.19
416.267	97.19
416.49	95.19
416.713	92.19
416.936	84.19
417.159	99.19
417.382	106.19
417.605	97.19
417.828	96.19
418.051	103.19
418.274	94.19
418.497	81.19
418.72	90.19
418.943	89.19
419.166	98.19
419.389	100.19
419.611	93.19
419.834	102.19
420.057	96.19
420.28	93.19
420.503	93.19
420.726	84.19
420.948	82.19
421.171	97.19
421.394	105.19
421.617	97.19
421.839	91.19
422.062	95.19
422.285	91.19
422.507	107.19
422.73	95.19
422.953	87.19
423.175	90.19
423.398	95.19
423.621	96.19
423.843	93.19
424.066	87.19
424.288	91.19
424.511	92.19
424.733	94.19
424.956	109.19
425.178	107.19
425.401	102.19
425.623	115.19
425.846	98.19
426.068	94.19
426.291	116.19
426.513	102.19
426.735	89.19
426.958	95.19
427.18	118.19
427.402	136.19
427.625	175.19
427.847	130.19
428.069	103.19
428.292	96.19
428.514	97.19
428.736	109.19
428.958	75.19
429.181	95.19
429.403	88.19
429.625	90.19
429.847	97.19
430.069	99.19
430.292	98.19
430.514	98.19
430.736	98.19
430.958	92.19
431.18	89.19
431.402	96.19
431.624	89.19
431.846	95.19
432.068	90.19
432.29	101.19
432.512	85.19
432.734	82.19
432.956	98.19
433.178	100.19
433.4	96.19
433.622	101.19
433.844	85.19
434.066	90.19
434.287	99.19
434.509	97.19
434.731	103.19
434.953	90.19
435.175	78.19
435.397	100.19
435.618	106.19
435.84	120.19
436.062	132.19
436.284	129.19
436.505	111.19
436.727	98.19
436.949	89.19
437.17	95.19
437.392	82.19
437.614	101.19
437.835	127.19
438.057	123.19
438.278	110.19
438.5	119.19
438.721	137.19
438.943	106.19
439.165	101.19
439.386	102.19
439.608	107.19
439.829	111.19
440.05	126.19
440.272	164.19
440.493	99.19
440.715	85.19
440.936	95.19
441.158	90.19
441.379	88.19
441.6	101.19
441.822	99.19
442.043	103.19
442.264	121.19
442.486	111.19
442.707	101.19
442.928	118.19
443.149	122.19
443.371	129.19
443.592	121.19
443.813	119.19
444.034	118.19
444.255	90.19
444.476	89.19
444.698	103.19
444.919	99.19
445.14	137.19
445.361	139.19
445.582	117.19
445.803	128.19
446.024	132.19
446.245	153.19
446.466	127.19
446.687	83.19
446.908	97.19
447.129	108.19
447.35	94.19
447.571	102.19
447.792	93.19
448.013	97.19
448.234	120.19
448.455	117.19
448.675	117.19
448.896	133.19
449.117	106.19
449.338	115.19
449.559	147.19
449.779	136.19
450	113.19
450.221	99.19
450.442	92.19
450.662	98.19
450.883	115.19
451.104	122.19
451.324	92.19
451.545	103.19
451.766	102.19
451.986	102.19
452.207	100.19
452.428	99.19
452.648	105.19
452.869	122.19
453.089	116.19
453.31	119.19
453.53	101.19
453.751	88.19
453.971	95.19
454.192	115.19
454.412	94.19
454.633	95.19
454.853	84.19
455.073	95.19
455.294	91.19
455.514	103.19
455.734	95.19
455.955	96.19
456.175	107.19
456.395	103.19
456.616	77.19
456.836	80.19
457.056	87.19
457.276	96.19
457.497	85.19
457.717	83.19
457.937	91.19
458.157	95.19
458.377	94.19
458.598	113.19
458.818	140.19
459.038	158.19
459.258	118.19
459.478	94.19
459.698	96.19
459.918	95.19
460.138	79.19
460.358	89.19
460.578	83.19
460.798	100.19
461.018	99.19
461.238	83.19
461.458	79.19
461.678	94.19
461.898	88.19
462.118	78.19
462.338	80.19
462.558	83.19
462.777	107.19
462.997	93.19
463.217	91.19
463.437	89.19
463.657	96.19
463.876	101.19
464.096	91.19
464.316	106.19
464.536	93.19
464.755	86.19
464.975	122.19
465.195	161.19
465.414	164.19
465.634	91.19
465.854	81.19
466.073	72.19
466.293	96.19
466.512	90.19
466.732	88.19
466.951	87.19
467.171	86.19
467.391	85.19
467.61	102.19
467.829	108.19
468.049	105.19
468.268	92.19
468.488	84.19
468.707	89.19
468.927	107.19
469.146	95.19
469.365	97.19
469.585	95.19
469.804	89.19
470.023	93.19
470.243	92.19
470.462	90.19
470.681	111.19
470.901	100.19
471.12	85.19
471.339	101.19
471.558	86.19
471.777	88.19
471.997	99.19
472.216	99.19
472.435	84.19
472.654	87.19
472.873	101.19
473.092	95.19
473.311	86.19
473.53	91.19
473.749	74.19
473.968	116.19
474.187	106.19
474.406	102.19
474.625	88.19
474.844	100.19
475.063	89.19
475.282	86.19
475.501	88.19
475.72	88.19
475.939	91.19
476.158	81.19
476.377	85.19
476.596	101.19
476.814	78.19
477.033	106.19
477.252	86.19
477.471	82.19
477.69	106.19
477.908	107.19
478.127	85.19
478.346	86.19
478.564	97.19
478.783	107.19
479.002	90.19
479.22	87.19
479.439	100.19
479.658	107.19
479.876	102.19
480.095	93.19
480.313	97.19
480.532	90.19
480.751	95.19
480.969	99.19
481.188	101.19
481.406	106.19
481.624	102.19
481.843	88.19
482.061	86.19
482.28	89.19
482.498	96.19
482.717	80.19
482.935	90.19
483.153	105.19
483.372	99.19
483.59	89.19
483.808	89.19
484.027	97.19
484.245	98.19
484.463	87.19
484.681	97.19
484.9	90.19
485.118	92.19
485.336	94.19
485.554	94.19
485.772	110.19
485.99	91.19
486.209	114.19
486.427	108.19
486.645	103.19
486.863	117.19
487.081	105.19
487.299	105.19
487.517	87.19
487.735	75.19
487.953	105.19
488.171	103.19
488.389	108.19
488.607	99.19
488.825	98.19
489.043	95.19
489.261	96.19
489.479	95.19
489.696	97.19
489.914	93.19
490.132	98.19
490.35	103.19
490.568	99.19
490.786	94.19
491.003	93.19
491.221	98.19
491.439	99.19
491.657	100.19
491.874	92.19
492.092	87.19
492.31	85.19
492.527	86.19
492.745	88.19
492.963	100.19
493.18	111.19
493.398	94.19
493.615	101.19
493.833	96.19
494.05	88.19
494.268	93.19
494.485	88.19
494.703	100.19
494.92	78.19
495.138	98.19
495.355	100.19
495.573	109.19
495.79	91.19
496.008	93.19
496.225	107.19
496.442	99.19
496.66	99.19
496.877	93.19
497.094	94.19
497.312	90.19
497.529	100.19
497.746	75.19
497.963	96.19
498.181	95.19
498.398	100.19
498.615	115.19
498.832	117.19
499.049	95.19
499.267	103.19
499.484	97.19
499.701	94.19
499.918	99.19
500.135	103.19
500.352	99.19
500.569	98.19
500.786	97.19
501.003	95.19
501.22	94.19
501.437	85.19
501.654	104.19
501.871	98.19
502.088	98.19
502.305	89.19
502.522	91.19
502.739	98.19
502.956	100.19
503.172	92.19
503.389	101.19
503.606	132.19
503.823	100.19
504.04	93.19
504.256	104.19
504.473	94.19
504.69	93.19
504.907	94.19
505.123	100.19
505.34	92.19
505.557	88.19
505.773	87.19
505.99	100.19
506.207	91.19
506.423	91.19
506.64	105.19
506.856	99.19
507.073	93.19
507.289	98.19
507.506	115.19
507.722	105.19
507.939	104.19
508.155	101.19
508.372	99.19
508.588	85.19
508.805	110.19
509.021	90.19
509.238	85.19
509.454	104.19
509.67	97.19
509.887	119.19
510.103	133.19
510.319	208.19
510.536	721.19
510.752	2269.19
510.968	625.19
511.184	155.19
511.401	117.19
511.617	94.19
511.833	112.19
512.049	96.19
512.265	98.19
512.481	95.19
512.698	99.19
512.914	95.19
513.13	94.19
513.346	87.19
513.562	103.19
513.778	90.19
