Data from Uncirc_1991_H10_HRD10591_00003.txt Node
Date: Wed Jan 03 11:50:38 EST 2024
User: Yrep
Spectrometer: HR+D1059
Trigger mode: 1
Integration Time (sec): 1.000000E-1
Scans to average: 1
Electric dark correction enabled: true
Nonlinearity correction enabled: false
Boxcar width: 0
XAxis mode: Wavelengths
Number of Pixels in Spectrum: 2048
>>>>>Begin Spectral Data<<<<<
223.165	-18.06
223.4	-18.06
223.635	-18.06
223.869	-15.06
224.104	-20.06
224.338	-22.06
224.573	-25.06
224.808	-20.06
225.042	3.94
225.277	-10.06
225.511	-2.06
225.746	-2.06
225.98	14.94
226.215	14.94
226.449	8.94
226.683	21.94
226.918	27.94
227.152	41.94
227.387	35.94
227.621	38.94
227.856	42.94
228.09	48.94
228.324	49.94
228.559	61.94
228.793	61.94
229.027	50.94
229.262	64.94
229.496	70.94
229.73	80.94
229.964	69.94
230.199	85.94
230.433	77.94
230.667	66.94
230.901	84.94
231.136	69.94
231.37	90.94
231.604	82.94
231.838	73.94
232.072	74.94
232.306	71.94
232.541	85.94
232.775	72.94
233.009	78.94
233.243	89.94
233.477	83.94
233.711	83.94
233.945	88.94
234.179	79.94
234.413	77.94
234.647	75.94
234.881	77.94
235.115	77.94
235.349	70.94
235.583	81.94
235.817	94.94
236.051	89.94
236.285	82.94
236.519	83.94
236.753	77.94
236.987	77.94
237.221	90.94
237.455	65.94
237.689	72.94
237.922	83.94
238.156	94.94
238.39	66.94
238.624	66.94
238.858	80.94
239.091	81.94
239.325	80.94
239.559	58.94
239.793	60.94
240.027	66.94
240.26	64.94
240.494	77.94
240.728	63.94
240.961	82.94
241.195	77.94
241.429	71.94
241.662	93.94
241.896	80.94
242.13	94.94
242.363	79.94
242.597	74.94
242.83	77.94
243.064	74.94
243.298	64.94
243.531	88.94
243.765	82.94
243.998	86.94
244.232	90.94
244.465	90.94
244.699	73.94
244.932	86.94
245.166	81.94
245.399	77.94
245.633	73.94
245.866	95.94
246.099	89.94
246.333	79.94
246.566	80.94
246.8	78.94
247.033	73.94
247.266	69.94
247.5	75.94
247.733	74.94
247.966	94.94
248.2	66.94
248.433	72.94
248.666	70.94
248.899	92.94
249.133	76.94
249.366	75.94
249.599	82.94
249.832	83.94
250.066	99.94
250.299	77.94
250.532	85.94
250.765	87.94
250.998	72.94
251.231	66.94
251.465	73.94
251.698	86.94
251.931	78.94
252.164	72.94
252.397	65.94
252.63	82.94
252.863	81.94
253.096	81.94
253.329	78.94
253.562	80.94
253.795	75.94
254.028	77.94
254.261	75.94
254.494	72.94
254.727	93.94
254.96	84.94
255.193	82.94
255.426	81.94
255.659	66.94
255.892	78.94
256.124	96.94
256.357	82.94
256.59	79.94
256.823	68.94
257.056	81.94
257.289	80.94
257.521	101.94
257.754	92.94
257.987	78.94
258.22	82.94
258.452	73.94
258.685	91.94
258.918	93.94
259.151	78.94
259.383	79.94
259.616	82.94
259.849	81.94
260.081	100.94
260.314	93.94
260.547	84.94
260.779	82.94
261.012	93.94
261.244	84.94
261.477	86.94
261.71	86.94
261.942	100.94
262.175	108.94
262.407	84.94
262.64	85.94
262.872	78.94
263.105	78.94
263.337	76.94
263.57	84.94
263.802	92.94
264.035	78.94
264.267	77.94
264.499	78.94
264.732	83.94
264.964	93.94
265.197	89.94
265.429	81.94
265.661	90.94
265.894	92.94
266.126	95.94
266.358	88.94
266.591	84.94
266.823	93.94
267.055	76.94
267.287	58.94
267.52	84.94
267.752	93.94
267.984	85.94
268.216	90.94
268.448	90.94
268.681	93.94
268.913	95.94
269.145	80.94
269.377	92.94
269.609	80.94
269.841	84.94
270.073	73.94
270.306	80.94
270.538	90.94
270.77	79.94
271.002	72.94
271.234	76.94
271.466	78.94
271.698	83.94
271.93	83.94
272.162	81.94
272.394	84.94
272.626	89.94
272.858	79.94
273.09	75.94
273.322	78.94
273.553	87.94
273.785	77.94
274.017	78.94
274.249	83.94
274.481	72.94
274.713	76.94
274.945	78.94
275.176	91.94
275.408	94.94
275.64	82.94
275.872	79.94
276.104	86.94
276.335	92.94
276.567	97.94
276.799	107.94
277.031	88.94
277.262	84.94
277.494	76.94
277.726	88.94
277.957	93.94
278.189	76.94
278.421	86.94
278.652	96.94
278.884	94.94
279.115	87.94
279.347	78.94
279.579	77.94
279.81	83.94
280.042	93.94
280.273	94.94
280.505	84.94
280.736	98.94
280.968	80.94
281.199	80.94
281.431	97.94
281.662	81.94
281.894	92.94
282.125	86.94
282.356	104.94
282.588	127.94
282.819	109.94
283.051	100.94
283.282	93.94
283.513	88.94
283.745	88.94
283.976	91.94
284.207	82.94
284.439	96.94
284.67	88.94
284.901	86.94
285.132	93.94
285.364	80.94
285.595	82.94
285.826	93.94
286.057	86.94
286.288	96.94
286.52	88.94
286.751	88.94
286.982	99.94
287.213	102.94
287.444	94.94
287.675	82.94
287.906	81.94
288.138	82.94
288.369	94.94
288.6	98.94
288.831	70.94
289.062	102.94
289.293	81.94
289.524	69.94
289.755	97.94
289.986	91.94
290.217	80.94
290.448	89.94
290.679	82.94
290.91	83.94
291.141	77.94
291.371	90.94
291.602	92.94
291.833	86.94
292.064	90.94
292.295	93.94
292.526	72.94
292.757	105.94
292.987	88.94
293.218	85.94
293.449	77.94
293.68	81.94
293.91	90.94
294.141	92.94
294.372	88.94
294.603	100.94
294.833	83.94
295.064	100.94
295.295	91.94
295.525	91.94
295.756	87.94
295.987	120.94
296.217	140.94
296.448	114.94
296.679	85.94
296.909	90.94
297.14	87.94
297.37	102.94
297.601	85.94
297.831	90.94
298.062	85.94
298.292	85.94
298.523	89.94
298.753	85.94
298.984	101.94
299.214	91.94
299.445	95.94
299.675	88.94
299.905	93.94
300.136	98.94
300.366	93.94
300.597	95.94
300.827	92.94
301.057	91.94
301.288	89.94
301.518	89.94
301.748	99.94
301.979	108.94
302.209	78.94
302.439	83.94
302.669	89.94
302.9	92.94
303.13	81.94
303.36	96.94
303.59	117.94
303.82	100.94
304.051	88.94
304.281	93.94
304.511	92.94
304.741	83.94
304.971	80.94
305.201	78.94
305.431	79.94
305.661	92.94
305.891	83.94
306.121	99.94
306.352	99.94
306.582	100.94
306.812	91.94
307.042	89.94
307.272	85.94
307.502	91.94
307.731	86.94
307.961	95.94
308.191	93.94
308.421	80.94
308.651	80.94
308.881	86.94
309.111	100.94
309.341	97.94
309.571	101.94
309.8	88.94
310.03	98.94
310.26	97.94
310.49	84.94
310.72	100.94
310.949	100.94
311.179	101.94
311.409	95.94
311.639	98.94
311.868	85.94
312.098	105.94
312.328	91.94
312.557	93.94
312.787	103.94
313.017	90.94
313.246	97.94
313.476	82.94
313.706	88.94
313.935	91.94
314.165	91.94
314.394	94.94
314.624	94.94
314.853	101.94
315.083	90.94
315.312	96.94
315.542	84.94
315.771	99.94
316.001	90.94
316.23	76.94
316.46	91.94
316.689	87.94
316.919	101.94
317.148	88.94
317.377	93.94
317.607	102.94
317.836	80.94
318.065	92.94
318.295	97.94
318.524	84.94
318.753	83.94
318.983	91.94
319.212	101.94
319.441	116.94
319.67	96.94
319.9	82.94
320.129	67.94
320.358	97.94
320.587	91.94
320.816	88.94
321.046	111.94
321.275	86.94
321.504	87.94
321.733	108.94
321.962	105.94
322.191	105.94
322.42	108.94
322.649	97.94
322.878	101.94
323.108	112.94
323.337	127.94
323.566	140.94
323.795	160.94
324.024	201.94
324.253	392.94
324.482	852.94
324.71	1792.94
324.939	2430.94
325.168	866.94
325.397	236.94
325.626	146.94
325.855	119.94
326.084	121.94
326.313	122.94
326.542	131.94
326.77	221.94
326.999	491.94
327.228	978.94
327.457	1852.94
327.686	1464.94
327.914	372.94
328.143	200.94
328.372	146.94
328.6	108.94
328.829	101.94
329.058	124.94
329.287	134.94
329.515	123.94
329.744	106.94
329.972	107.94
330.201	100.94
330.43	94.94
330.658	123.94
330.887	143.94
331.115	137.94
331.344	99.94
331.572	94.94
331.801	88.94
332.03	99.94
332.258	95.94
332.486	99.94
332.715	80.94
332.943	94.94
333.172	83.94
333.4	89.94
333.629	98.94
333.857	99.94
334.085	84.94
334.314	100.94
334.542	103.94
334.771	99.94
334.999	96.94
335.227	99.94
335.455	84.94
335.684	96.94
335.912	76.94
336.14	97.94
336.369	89.94
336.597	95.94
336.825	99.94
337.053	92.94
337.281	92.94
337.51	83.94
337.738	104.94
337.966	93.94
338.194	86.94
338.422	98.94
338.65	102.94
338.878	96.94
339.106	92.94
339.334	99.94
339.562	90.94
339.79	99.94
340.018	87.94
340.246	67.94
340.474	103.94
340.702	105.94
340.93	89.94
341.158	100.94
341.386	83.94
341.614	111.94
341.842	99.94
342.07	95.94
342.298	90.94
342.526	96.94
342.754	90.94
342.981	90.94
343.209	91.94
343.437	100.94
343.665	92.94
343.893	92.94
344.12	89.94
344.348	82.94
344.576	89.94
344.804	88.94
345.031	90.94
345.259	95.94
345.487	88.94
345.714	92.94
345.942	84.94
346.17	86.94
346.397	92.94
346.625	88.94
346.853	86.94
347.08	107.94
347.308	101.94
347.535	106.94
347.763	102.94
347.99	84.94
348.218	93.94
348.445	84.94
348.673	100.94
348.9	101.94
349.128	95.94
349.355	82.94
349.583	91.94
349.81	89.94
350.037	77.94
350.265	82.94
350.492	92.94
350.72	89.94
350.947	93.94
351.174	116.94
351.402	107.94
351.629	107.94
351.856	100.94
352.083	99.94
352.311	92.94
352.538	105.94
352.765	101.94
352.992	100.94
353.22	100.94
353.447	104.94
353.674	112.94
353.901	100.94
354.128	87.94
354.355	80.94
354.583	92.94
354.81	86.94
355.037	94.94
355.264	95.94
355.491	102.94
355.718	69.94
355.945	94.94
356.172	88.94
356.399	84.94
356.626	90.94
356.853	85.94
357.08	97.94
357.307	95.94
357.534	95.94
357.761	100.94
357.988	91.94
358.215	111.94
358.441	82.94
358.668	96.94
358.895	99.94
359.122	82.94
359.349	94.94
359.576	99.94
359.802	90.94
360.029	99.94
360.256	112.94
360.483	88.94
360.709	83.94
360.936	103.94
361.163	111.94
361.39	96.94
361.616	91.94
361.843	94.94
362.07	94.94
362.296	101.94
362.523	92.94
362.749	86.94
362.976	85.94
363.203	82.94
363.429	97.94
363.656	78.94
363.882	102.94
364.109	89.94
364.335	90.94
364.562	102.94
364.788	82.94
365.015	89.94
365.241	102.94
365.468	111.94
365.694	102.94
365.92	99.94
366.147	89.94
366.373	73.94
366.599	96.94
366.826	98.94
367.052	84.94
367.278	82.94
367.505	84.94
367.731	88.94
367.957	99.94
368.184	82.94
368.41	96.94
368.636	97.94
368.862	132.94
369.089	106.94
369.315	98.94
369.541	94.94
369.767	88.94
369.993	89.94
370.219	75.94
370.445	78.94
370.672	95.94
370.898	90.94
371.124	86.94
371.35	95.94
371.576	92.94
371.802	102.94
372.028	90.94
372.254	84.94
372.48	79.94
372.706	80.94
372.932	85.94
373.158	87.94
373.384	98.94
373.61	99.94
373.835	100.94
374.061	77.94
374.287	89.94
374.513	85.94
374.739	80.94
374.965	89.94
375.191	96.94
375.416	88.94
375.642	94.94
375.868	97.94
376.094	91.94
376.319	98.94
376.545	80.94
376.771	81.94
376.997	86.94
377.222	100.94
377.448	79.94
377.674	90.94
377.899	91.94
378.125	82.94
378.35	81.94
378.576	86.94
378.802	72.94
379.027	92.94
379.253	85.94
379.478	84.94
379.704	89.94
379.929	99.94
380.155	88.94
380.38	87.94
380.606	89.94
380.831	99.94
381.057	99.94
381.282	100.94
381.507	81.94
381.733	97.94
381.958	104.94
382.184	101.94
382.409	93.94
382.634	96.94
382.86	94.94
383.085	101.94
383.31	96.94
383.535	87.94
383.761	84.94
383.986	83.94
384.211	99.94
384.436	85.94
384.662	89.94
384.887	109.94
385.112	105.94
385.337	103.94
385.562	92.94
385.787	106.94
386.013	98.94
386.238	107.94
386.463	109.94
386.688	112.94
386.913	108.94
387.138	110.94
387.363	95.94
387.588	88.94
387.813	89.94
388.038	108.94
388.263	96.94
388.488	104.94
388.713	100.94
388.938	98.94
389.163	92.94
389.387	86.94
389.612	102.94
389.837	88.94
390.062	90.94
390.287	81.94
390.512	82.94
390.736	93.94
390.961	79.94
391.186	87.94
391.411	88.94
391.636	87.94
391.86	100.94
392.085	91.94
392.31	81.94
392.534	77.94
392.759	89.94
392.984	96.94
393.208	82.94
393.433	95.94
393.658	93.94
393.882	71.94
394.107	78.94
394.331	85.94
394.556	90.94
394.78	108.94
395.005	101.94
395.229	93.94
395.454	84.94
395.678	92.94
395.903	88.94
396.127	81.94
396.352	96.94
396.576	80.94
396.801	78.94
397.025	86.94
397.249	85.94
397.474	91.94
397.698	87.94
397.922	97.94
398.147	101.94
398.371	98.94
398.595	91.94
398.82	88.94
399.044	94.94
399.268	81.94
399.492	88.94
399.717	105.94
399.941	95.94
400.165	108.94
400.389	102.94
400.613	85.94
400.837	85.94
401.062	94.94
401.286	92.94
401.51	84.94
401.734	81.94
401.958	83.94
402.182	121.94
402.406	143.94
402.63	104.94
402.854	105.94
403.078	91.94
403.302	76.94
403.526	97.94
403.75	86.94
403.974	71.94
404.198	69.94
404.422	96.94
404.645	84.94
404.869	93.94
405.093	109.94
405.317	102.94
405.541	106.94
405.765	84.94
405.988	111.94
406.212	162.94
406.436	210.94
406.66	122.94
406.883	91.94
407.107	99.94
407.331	89.94
407.555	99.94
407.778	107.94
408.002	91.94
408.226	89.94
408.449	92.94
408.673	84.94
408.896	92.94
409.12	78.94
409.344	86.94
409.567	59.94
409.791	90.94
410.014	82.94
410.238	98.94
410.461	93.94
410.685	107.94
410.908	93.94
411.132	118.94
411.355	101.94
411.578	106.94
411.802	93.94
412.025	90.94
412.249	99.94
412.472	76.94
412.695	88.94
412.919	81.94
413.142	75.94
413.365	88.94
413.589	86.94
413.812	81.94
414.035	82.94
414.258	83.94
414.482	91.94
414.705	98.94
414.928	92.94
415.151	80.94
415.374	98.94
415.597	85.94
415.821	89.94
416.044	103.94
416.267	95.94
416.49	78.94
416.713	88.94
416.936	90.94
417.159	84.94
417.382	81.94
417.605	93.94
417.828	87.94
418.051	103.94
418.274	82.94
418.497	85.94
418.72	101.94
418.943	91.94
419.166	84.94
419.389	92.94
419.611	87.94
419.834	83.94
420.057	92.94
420.28	88.94
420.503	79.94
420.726	84.94
420.948	99.94
421.171	82.94
421.394	86.94
421.617	83.94
421.839	79.94
422.062	111.94
422.285	94.94
422.507	98.94
422.73	101.94
422.953	80.94
423.175	81.94
423.398	89.94
423.621	88.94
423.843	88.94
424.066	102.94
424.288	83.94
424.511	89.94
424.733	101.94
424.956	101.94
425.178	101.94
425.401	98.94
425.623	91.94
425.846	70.94
426.068	90.94
426.291	89.94
426.513	91.94
426.735	100.94
426.958	114.94
427.18	101.94
427.402	138.94
427.625	152.94
427.847	133.94
428.069	97.94
428.292	93.94
428.514	81.94
428.736	82.94
428.958	80.94
429.181	76.94
429.403	89.94
429.625	102.94
429.847	95.94
430.069	93.94
430.292	100.94
430.514	99.94
430.736	73.94
430.958	92.94
431.18	77.94
431.402	85.94
431.624	78.94
431.846	86.94
432.068	92.94
432.29	97.94
432.512	85.94
432.734	77.94
432.956	89.94
433.178	89.94
433.4	97.94
433.622	86.94
433.844	84.94
434.066	95.94
434.287	97.94
434.509	103.94
434.731	83.94
434.953	95.94
435.175	86.94
435.397	102.94
435.618	96.94
435.84	100.94
436.062	115.94
436.284	126.94
436.505	102.94
436.727	101.94
436.949	97.94
437.17	88.94
437.392	86.94
437.614	78.94
437.835	99.94
438.057	117.94
438.278	121.94
438.5	117.94
438.721	126.94
438.943	88.94
439.165	102.94
439.386	86.94
439.608	82.94
439.829	98.94
440.05	128.94
440.272	153.94
440.493	92.94
440.715	93.94
440.936	90.94
441.158	92.94
441.379	92.94
441.6	103.94
441.822	105.94
442.043	90.94
442.264	119.94
442.486	108.94
442.707	94.94
442.928	97.94
443.149	112.94
443.371	125.94
443.592	110.94
443.813	120.94
444.034	117.94
444.255	95.94
444.476	95.94
444.698	85.94
444.919	74.94
445.14	123.94
445.361	119.94
445.582	114.94
445.803	145.94
446.024	148.94
446.245	139.94
446.466	116.94
446.687	83.94
446.908	90.94
447.129	88.94
447.35	74.94
447.571	91.94
447.792	92.94
448.013	83.94
448.234	105.94
448.455	101.94
448.675	98.94
448.896	114.94
449.117	100.94
449.338	105.94
449.559	136.94
449.779	152.94
450	99.94
450.221	92.94
450.442	78.94
450.662	92.94
450.883	95.94
451.104	104.94
451.324	98.94
451.545	95.94
451.766	81.94
451.986	90.94
452.207	102.94
452.428	84.94
452.648	100.94
452.869	95.94
453.089	110.94
453.31	122.94
453.53	97.94
453.751	91.94
453.971	84.94
454.192	97.94
454.412	82.94
454.633	91.94
454.853	78.94
455.073	82.94
455.294	97.94
455.514	96.94
455.734	84.94
455.955	101.94
456.175	89.94
456.395	89.94
456.616	69.94
456.836	80.94
457.056	86.94
457.276	92.94
457.497	84.94
457.717	75.94
457.937	86.94
458.157	88.94
458.377	78.94
458.598	104.94
458.818	143.94
459.038	160.94
459.258	106.94
459.478	82.94
459.698	89.94
459.918	89.94
460.138	77.94
460.358	79.94
460.578	92.94
460.798	91.94
461.018	93.94
461.238	103.94
461.458	101.94
461.678	94.94
461.898	88.94
462.118	77.94
462.338	74.94
462.558	86.94
462.777	84.94
462.997	90.94
463.217	98.94
463.437	93.94
463.657	81.94
463.876	86.94
464.096	82.94
464.316	97.94
464.536	88.94
464.755	100.94
464.975	98.94
465.195	149.94
465.414	143.94
465.634	90.94
465.854	93.94
466.073	78.94
466.293	99.94
466.512	67.94
466.732	79.94
466.951	77.94
467.171	106.94
467.391	93.94
467.61	106.94
467.829	101.94
468.049	78.94
468.268	69.94
468.488	88.94
468.707	88.94
468.927	76.94
469.146	88.94
469.365	92.94
469.585	90.94
469.804	98.94
470.023	93.94
470.243	90.94
470.462	103.94
470.681	107.94
470.901	90.94
471.12	91.94
471.339	82.94
471.558	88.94
471.777	69.94
471.997	90.94
472.216	88.94
472.435	83.94
472.654	92.94
472.873	87.94
473.092	90.94
473.311	85.94
473.53	80.94
473.749	72.94
473.968	88.94
474.187	98.94
474.406	93.94
474.625	89.94
474.844	75.94
475.063	88.94
475.282	88.94
475.501	95.94
475.72	83.94
475.939	82.94
476.158	93.94
476.377	94.94
476.596	92.94
476.814	89.94
477.033	105.94
477.252	99.94
477.471	94.94
477.69	91.94
477.908	99.94
478.127	94.94
478.346	86.94
478.564	73.94
478.783	94.94
479.002	85.94
479.22	90.94
479.439	84.94
479.658	106.94
479.876	101.94
480.095	86.94
480.313	93.94
480.532	85.94
480.751	77.94
480.969	92.94
481.188	98.94
481.406	94.94
481.624	101.94
481.843	108.94
482.061	92.94
482.28	84.94
482.498	92.94
482.717	96.94
482.935	91.94
483.153	86.94
483.372	80.94
483.59	86.94
483.808	89.94
484.027	93.94
484.245	101.94
484.463	91.94
484.681	97.94
484.9	91.94
485.118	83.94
485.336	102.94
485.554	88.94
485.772	100.94
485.99	120.94
486.209	104.94
486.427	106.94
486.645	98.94
486.863	92.94
487.081	97.94
487.299	82.94
487.517	84.94
487.735	85.94
487.953	89.94
488.171	102.94
488.389	101.94
488.607	110.94
488.825	95.94
489.043	89.94
489.261	81.94
489.479	88.94
489.696	82.94
489.914	94.94
490.132	79.94
490.35	78.94
490.568	67.94
490.786	84.94
491.003	97.94
491.221	101.94
491.439	83.94
491.657	88.94
491.874	91.94
492.092	82.94
492.31	78.94
492.527	96.94
492.745	83.94
492.963	86.94
493.18	93.94
493.398	98.94
493.615	112.94
493.833	101.94
494.05	94.94
494.268	89.94
494.485	96.94
494.703	83.94
494.92	96.94
495.138	95.94
495.355	92.94
495.573	102.94
495.79	100.94
496.008	96.94
496.225	84.94
496.442	76.94
496.66	90.94
496.877	90.94
497.094	94.94
497.312	100.94
497.529	88.94
497.746	84.94
497.963	89.94
498.181	95.94
498.398	91.94
498.615	108.94
498.832	107.94
499.049	100.94
499.267	83.94
499.484	93.94
499.701	93.94
499.918	100.94
500.135	98.94
500.352	81.94
500.569	96.94
500.786	86.94
501.003	92.94
501.22	98.94
501.437	81.94
501.654	93.94
501.871	105.94
502.088	92.94
502.305	99.94
502.522	93.94
502.739	82.94
502.956	92.94
503.172	100.94
503.389	91.94
503.606	99.94
503.823	92.94
504.04	93.94
504.256	91.94
504.473	90.94
504.69	74.94
504.907	93.94
505.123	87.94
505.34	89.94
505.557	104.94
505.773	86.94
505.99	89.94
506.207	96.94
506.423	92.94
506.64	99.94
506.856	102.94
507.073	83.94
507.289	99.94
507.506	102.94
507.722	109.94
507.939	106.94
508.155	104.94
508.372	86.94
508.588	88.94
508.805	99.94
509.021	92.94
509.238	91.94
509.454	90.94
509.67	101.94
509.887	109.94
510.103	131.94
510.319	188.94
510.536	689.94
510.752	2078.94
510.968	559.94
511.184	147.94
511.401	113.94
511.617	106.94
511.833	100.94
512.049	93.94
512.265	91.94
512.481	86.94
512.698	93.94
512.914	84.94
513.13	96.94
513.346	89.94
513.562	101.94
513.778	95.94
513.994	78.94
514.21	108.94
514.426	114.94
514.642	118.94
514.858	111.94
515.074	166.94
515.29	422.94
515.506	1369.94
515.721	518.94
515.937	142.94
