Data from Uncirc_1991_H10_HRD10591_00078.txt Node
Date: Wed Jan 03 11:50:53 EST 2024
User: Yrep
Spectrometer: HR+D1059
Trigger mode: 1
Integration Time (sec): 1.000000E-1
Scans to average: 1
Electric dark correction enabled: true
Nonlinearity correction enabled: false
Boxcar width: 0
XAxis mode: Wavelengths
Number of Pixels in Spectrum: 2048
>>>>>Begin Spectral Data<<<<<
223.165	-19.12
223.4	-19.12
223.635	-19.12
223.869	-18.12
224.104	-17.12
224.338	-18.12
224.573	-9.12
224.808	-13.12
225.042	-12.12
225.277	-11.12
225.511	-1.12
225.746	2.88
225.98	0.88
226.215	12.88
226.449	13.88
226.683	19.88
226.918	27.88
227.152	40.88
227.387	37.88
227.621	38.88
227.856	49.88
228.09	48.88
228.324	47.88
228.559	67.88
228.793	63.88
229.027	66.88
229.262	78.88
229.496	71.88
229.73	107.88
229.964	94.88
230.199	62.88
230.433	82.88
230.667	66.88
230.901	82.88
231.136	85.88
231.37	90.88
231.604	74.88
231.838	83.88
232.072	69.88
232.306	75.88
232.541	79.88
232.775	77.88
233.009	89.88
233.243	77.88
233.477	76.88
233.711	79.88
233.945	76.88
234.179	80.88
234.413	81.88
234.647	79.88
234.881	76.88
235.115	80.88
235.349	80.88
235.583	80.88
235.817	84.88
236.051	85.88
236.285	84.88
236.519	72.88
236.753	94.88
236.987	74.88
237.221	87.88
237.455	108.88
237.689	71.88
237.922	71.88
238.156	82.88
238.39	70.88
238.624	62.88
238.858	82.88
239.091	64.88
239.325	78.88
239.559	80.88
239.793	83.88
240.027	87.88
240.26	83.88
240.494	84.88
240.728	71.88
240.961	75.88
241.195	73.88
241.429	85.88
241.662	79.88
241.896	71.88
242.13	72.88
242.363	87.88
242.597	68.88
242.83	74.88
243.064	83.88
243.298	75.88
243.531	75.88
243.765	75.88
243.998	83.88
244.232	82.88
244.465	66.88
244.699	80.88
244.932	93.88
245.166	81.88
245.399	78.88
245.633	79.88
245.866	85.88
246.099	88.88
246.333	75.88
246.566	79.88
246.8	77.88
247.033	89.88
247.266	88.88
247.5	86.88
247.733	65.88
247.966	94.88
248.2	76.88
248.433	84.88
248.666	71.88
248.899	77.88
249.133	82.88
249.366	101.88
249.599	102.88
249.832	103.88
250.066	79.88
250.299	82.88
250.532	57.88
250.765	82.88
250.998	76.88
251.231	89.88
251.465	74.88
251.698	86.88
251.931	76.88
252.164	84.88
252.397	85.88
252.63	63.88
252.863	90.88
253.096	88.88
253.329	85.88
253.562	79.88
253.795	98.88
254.028	88.88
254.261	65.88
254.494	95.88
254.727	86.88
254.96	80.88
255.193	64.88
255.426	66.88
255.659	85.88
255.892	87.88
256.124	64.88
256.357	81.88
256.59	101.88
256.823	79.88
257.056	88.88
257.289	88.88
257.521	88.88
257.754	88.88
257.987	86.88
258.22	95.88
258.452	104.88
258.685	80.88
258.918	79.88
259.151	80.88
259.383	77.88
259.616	84.88
259.849	78.88
260.081	73.88
260.314	80.88
260.547	74.88
260.779	100.88
261.012	88.88
261.244	82.88
261.477	101.88
261.71	94.88
261.942	120.88
262.175	136.88
262.407	96.88
262.64	86.88
262.872	76.88
263.105	90.88
263.337	92.88
263.57	82.88
263.802	93.88
264.035	82.88
264.267	81.88
264.499	93.88
264.732	85.88
264.964	89.88
265.197	87.88
265.429	84.88
265.661	77.88
265.894	91.88
266.126	98.88
266.358	93.88
266.591	76.88
266.823	81.88
267.055	83.88
267.287	85.88
267.52	93.88
267.752	89.88
267.984	84.88
268.216	75.88
268.448	78.88
268.681	80.88
268.913	72.88
269.145	97.88
269.377	80.88
269.609	75.88
269.841	88.88
270.073	80.88
270.306	81.88
270.538	83.88
270.77	82.88
271.002	103.88
271.234	83.88
271.466	83.88
271.698	87.88
271.93	92.88
272.162	94.88
272.394	95.88
272.626	87.88
272.858	77.88
273.09	88.88
273.322	97.88
273.553	91.88
273.785	92.88
274.017	93.88
274.249	78.88
274.481	82.88
274.713	83.88
274.945	94.88
275.176	90.88
275.408	91.88
275.64	84.88
275.872	95.88
276.104	77.88
276.335	88.88
276.567	122.88
276.799	126.88
277.031	99.88
277.262	104.88
277.494	89.88
277.726	106.88
277.957	98.88
278.189	88.88
278.421	85.88
278.652	81.88
278.884	96.88
279.115	82.88
279.347	85.88
279.579	78.88
279.81	89.88
280.042	91.88
280.273	78.88
280.505	95.88
280.736	88.88
280.968	95.88
281.199	86.88
281.431	96.88
281.662	96.88
281.894	99.88
282.125	110.88
282.356	131.88
282.588	178.88
282.819	138.88
283.051	86.88
283.282	94.88
283.513	87.88
283.745	103.88
283.976	92.88
284.207	83.88
284.439	91.88
284.67	84.88
284.901	95.88
285.132	82.88
285.364	74.88
285.595	91.88
285.826	83.88
286.057	95.88
286.288	98.88
286.52	95.88
286.751	92.88
286.982	79.88
287.213	71.88
287.444	82.88
287.675	81.88
287.906	85.88
288.138	90.88
288.369	94.88
288.6	91.88
288.831	100.88
289.062	87.88
289.293	87.88
289.524	83.88
289.755	86.88
289.986	77.88
290.217	84.88
290.448	80.88
290.679	85.88
290.91	95.88
291.141	80.88
291.371	90.88
291.602	86.88
291.833	108.88
292.064	71.88
292.295	90.88
292.526	89.88
292.757	78.88
292.987	76.88
293.218	97.88
293.449	77.88
293.68	94.88
293.91	85.88
294.141	85.88
294.372	86.88
294.603	96.88
294.833	104.88
295.064	100.88
295.295	88.88
295.525	103.88
295.756	105.88
295.987	127.88
296.217	159.88
296.448	142.88
296.679	100.88
296.909	90.88
297.14	91.88
297.37	92.88
297.601	92.88
297.831	83.88
298.062	102.88
298.292	103.88
298.523	97.88
298.753	79.88
298.984	93.88
299.214	95.88
299.445	99.88
299.675	99.88
299.905	101.88
300.136	103.88
300.366	106.88
300.597	95.88
300.827	104.88
301.057	104.88
301.288	110.88
301.518	96.88
301.748	93.88
301.979	106.88
302.209	99.88
302.439	108.88
302.669	100.88
302.9	93.88
303.13	92.88
303.36	97.88
303.59	104.88
303.82	110.88
304.051	91.88
304.281	91.88
304.511	107.88
304.741	88.88
304.971	87.88
305.201	97.88
305.431	96.88
305.661	86.88
305.891	98.88
306.121	97.88
306.352	110.88
306.582	120.88
306.812	96.88
307.042	103.88
307.272	108.88
307.502	104.88
307.731	100.88
307.961	86.88
308.191	89.88
308.421	97.88
308.651	92.88
308.881	94.88
309.111	95.88
309.341	113.88
309.571	102.88
309.8	94.88
310.03	104.88
310.26	118.88
310.49	108.88
310.72	110.88
310.949	111.88
311.179	109.88
311.409	101.88
311.639	92.88
311.868	99.88
312.098	106.88
312.328	99.88
312.557	111.88
312.787	114.88
313.017	117.88
313.246	112.88
313.476	99.88
313.706	93.88
313.935	94.88
314.165	114.88
314.394	102.88
314.624	110.88
314.853	106.88
315.083	95.88
315.312	94.88
315.542	102.88
315.771	81.88
316.001	90.88
316.23	86.88
316.46	96.88
316.689	96.88
316.919	102.88
317.148	98.88
317.377	104.88
317.607	94.88
317.836	111.88
318.065	92.88
318.295	93.88
318.524	86.88
318.753	97.88
318.983	101.88
319.212	110.88
319.441	102.88
319.67	117.88
319.9	98.88
320.129	96.88
320.358	96.88
320.587	110.88
320.816	104.88
321.046	108.88
321.275	111.88
321.504	94.88
321.733	98.88
321.962	90.88
322.191	117.88
322.42	117.88
322.649	115.88
322.878	128.88
323.108	127.88
323.337	129.88
323.566	146.88
323.795	186.88
324.024	247.88
324.253	530.88
324.482	1129.88
324.71	2402.88
324.939	3333.88
325.168	1177.88
325.397	315.88
325.626	178.88
325.855	152.88
326.084	149.88
326.313	160.88
326.542	184.88
326.77	283.88
326.999	571.88
327.228	1259.88
327.457	2404.88
327.686	1968.88
327.914	488.88
328.143	228.88
328.372	183.88
328.6	128.88
328.829	126.88
329.058	172.88
329.287	172.88
329.515	123.88
329.744	94.88
329.972	102.88
330.201	112.88
330.43	121.88
330.658	138.88
330.887	208.88
331.115	164.88
331.344	107.88
331.572	104.88
331.801	110.88
332.03	111.88
332.258	95.88
332.486	79.88
332.715	100.88
332.943	102.88
333.172	99.88
333.4	100.88
333.629	110.88
333.857	118.88
334.085	101.88
334.314	112.88
334.542	98.88
334.771	96.88
334.999	111.88
335.227	88.88
335.455	90.88
335.684	99.88
335.912	101.88
336.14	105.88
336.369	110.88
336.597	103.88
336.825	110.88
337.053	93.88
337.281	95.88
337.51	84.88
337.738	107.88
337.966	94.88
338.194	100.88
338.422	110.88
338.65	100.88
338.878	95.88
339.106	94.88
339.334	95.88
339.562	98.88
339.79	85.88
340.018	88.88
340.246	85.88
340.474	97.88
340.702	93.88
340.93	84.88
341.158	101.88
341.386	101.88
341.614	88.88
341.842	93.88
342.07	104.88
342.298	86.88
342.526	107.88
342.754	95.88
342.981	74.88
343.209	80.88
343.437	88.88
343.665	85.88
343.893	82.88
344.12	91.88
344.348	88.88
344.576	99.88
344.804	109.88
345.031	99.88
345.259	102.88
345.487	104.88
345.714	109.88
345.942	88.88
346.17	94.88
346.397	96.88
346.625	116.88
346.853	101.88
347.08	82.88
347.308	86.88
347.535	92.88
347.763	112.88
347.99	110.88
348.218	120.88
348.445	113.88
348.673	115.88
348.9	98.88
349.128	98.88
349.355	98.88
349.583	91.88
349.81	102.88
350.037	98.88
350.265	92.88
350.492	98.88
350.72	109.88
350.947	104.88
351.174	106.88
351.402	118.88
351.629	108.88
351.856	108.88
352.083	116.88
352.311	115.88
352.538	126.88
352.765	126.88
352.992	135.88
353.22	128.88
353.447	97.88
353.674	120.88
353.901	91.88
354.128	97.88
354.355	94.88
354.583	106.88
354.81	96.88
355.037	102.88
355.264	86.88
355.491	90.88
355.718	110.88
355.945	95.88
356.172	90.88
356.399	97.88
356.626	115.88
356.853	94.88
357.08	92.88
357.307	103.88
357.534	88.88
357.761	102.88
357.988	84.88
358.215	92.88
358.441	110.88
358.668	87.88
358.895	96.88
359.122	103.88
359.349	98.88
359.576	87.88
359.802	101.88
360.029	128.88
360.256	133.88
360.483	116.88
360.709	84.88
360.936	86.88
361.163	95.88
361.39	98.88
361.616	94.88
361.843	96.88
362.07	100.88
362.296	105.88
362.523	85.88
362.749	107.88
362.976	99.88
363.203	104.88
363.429	98.88
363.656	106.88
363.882	92.88
364.109	92.88
364.335	91.88
364.562	114.88
364.788	97.88
365.015	81.88
365.241	97.88
365.468	101.88
365.694	111.88
365.92	103.88
366.147	114.88
366.373	92.88
366.599	96.88
366.826	81.88
367.052	83.88
367.278	87.88
367.505	96.88
367.731	98.88
367.957	89.88
368.184	87.88
368.41	109.88
368.636	124.88
368.862	148.88
369.089	119.88
369.315	101.88
369.541	78.88
369.767	81.88
369.993	104.88
370.219	98.88
370.445	92.88
370.672	84.88
370.898	99.88
371.124	93.88
371.35	98.88
371.576	66.88
371.802	99.88
372.028	84.88
372.254	94.88
372.48	100.88
372.706	99.88
372.932	100.88
373.158	87.88
373.384	95.88
373.61	102.88
373.835	91.88
374.061	98.88
374.287	108.88
374.513	101.88
374.739	99.88
374.965	97.88
375.191	75.88
375.416	90.88
375.642	88.88
375.868	104.88
376.094	72.88
376.319	94.88
376.545	102.88
376.771	87.88
376.997	96.88
377.222	100.88
377.448	94.88
377.674	85.88
377.899	104.88
378.125	83.88
378.35	103.88
378.576	87.88
378.802	76.88
379.027	81.88
379.253	90.88
379.478	87.88
379.704	94.88
379.929	99.88
380.155	95.88
380.38	93.88
380.606	94.88
380.831	94.88
381.057	95.88
381.282	108.88
381.507	95.88
381.733	103.88
381.958	82.88
382.184	104.88
382.409	103.88
382.634	95.88
382.86	87.88
383.085	88.88
383.31	91.88
383.535	103.88
383.761	89.88
383.986	109.88
384.211	92.88
384.436	87.88
384.662	107.88
384.887	95.88
385.112	90.88
385.337	100.88
385.562	99.88
385.787	107.88
386.013	108.88
386.238	111.88
386.463	108.88
386.688	99.88
386.913	95.88
387.138	102.88
387.363	104.88
387.588	107.88
387.813	99.88
388.038	115.88
388.263	110.88
388.488	102.88
388.713	104.88
388.938	100.88
389.163	96.88
389.387	97.88
389.612	103.88
389.837	94.88
390.062	108.88
390.287	97.88
390.512	88.88
390.736	80.88
390.961	81.88
391.186	92.88
391.411	91.88
391.636	87.88
391.86	85.88
392.085	82.88
392.31	80.88
392.534	85.88
392.759	95.88
392.984	82.88
393.208	82.88
393.433	82.88
393.658	91.88
393.882	83.88
394.107	84.88
394.331	89.88
394.556	93.88
394.78	95.88
395.005	80.88
395.229	79.88
395.454	80.88
395.678	92.88
395.903	83.88
396.127	87.88
396.352	98.88
396.576	78.88
396.801	94.88
397.025	92.88
397.249	81.88
397.474	92.88
397.698	83.88
397.922	78.88
398.147	97.88
398.371	90.88
398.595	76.88
398.82	84.88
399.044	91.88
399.268	95.88
399.492	87.88
399.717	91.88
399.941	79.88
400.165	95.88
400.389	93.88
400.613	83.88
400.837	94.88
401.062	90.88
401.286	74.88
401.51	79.88
401.734	100.88
401.958	113.88
402.182	154.88
402.406	212.88
402.63	139.88
402.854	88.88
403.078	96.88
403.302	92.88
403.526	98.88
403.75	109.88
403.974	80.88
404.198	88.88
404.422	107.88
404.645	92.88
404.869	99.88
405.093	106.88
405.317	96.88
405.541	101.88
405.765	110.88
405.988	125.88
406.212	210.88
406.436	326.88
406.66	213.88
406.883	127.88
407.107	97.88
407.331	104.88
407.555	107.88
407.778	131.88
408.002	88.88
408.226	107.88
408.449	87.88
408.673	98.88
408.896	93.88
409.12	113.88
409.344	103.88
409.567	93.88
409.791	99.88
410.014	92.88
410.238	94.88
410.461	98.88
410.685	88.88
410.908	104.88
411.132	115.88
411.355	108.88
411.578	101.88
411.802	80.88
412.025	90.88
412.249	81.88
412.472	93.88
412.695	95.88
412.919	92.88
413.142	88.88
413.365	86.88
413.589	98.88
413.812	97.88
414.035	92.88
414.258	76.88
414.482	88.88
414.705	98.88
414.928	92.88
415.151	88.88
415.374	97.88
415.597	95.88
415.821	76.88
416.044	94.88
416.267	84.88
416.49	78.88
416.713	81.88
416.936	86.88
417.159	84.88
417.382	92.88
417.605	95.88
417.828	105.88
418.051	79.88
418.274	86.88
418.497	84.88
418.72	88.88
418.943	84.88
419.166	83.88
419.389	94.88
419.611	90.88
419.834	87.88
420.057	76.88
420.28	83.88
420.503	92.88
420.726	86.88
420.948	88.88
421.171	103.88
421.394	104.88
421.617	77.88
421.839	86.88
422.062	85.88
422.285	88.88
422.507	104.88
422.73	125.88
422.953	88.88
423.175	94.88
423.398	94.88
423.621	109.88
423.843	94.88
424.066	92.88
424.288	98.88
424.511	90.88
424.733	119.88
424.956	115.88
425.178	113.88
425.401	123.88
425.623	112.88
425.846	92.88
426.068	102.88
426.291	83.88
426.513	76.88
426.735	95.88
426.958	97.88
427.18	108.88
427.402	178.88
427.625	236.88
427.847	146.88
428.069	119.88
428.292	88.88
428.514	93.88
428.736	84.88
428.958	85.88
429.181	92.88
429.403	84.88
429.625	84.88
429.847	89.88
430.069	112.88
430.292	100.88
430.514	93.88
430.736	86.88
430.958	90.88
431.18	100.88
431.402	85.88
431.624	97.88
431.846	103.88
432.068	94.88
432.29	92.88
432.512	87.88
432.734	87.88
432.956	95.88
433.178	113.88
433.4	113.88
433.622	102.88
433.844	93.88
434.066	96.88
434.287	84.88
434.509	108.88
434.731	101.88
434.953	88.88
435.175	92.88
435.397	90.88
435.618	89.88
435.84	132.88
436.062	156.88
436.284	135.88
436.505	101.88
436.727	120.88
436.949	102.88
437.17	95.88
437.392	83.88
437.614	104.88
437.835	112.88
438.057	154.88
438.278	153.88
438.5	128.88
438.721	162.88
438.943	120.88
439.165	97.88
439.386	91.88
439.608	107.88
439.829	114.88
440.05	165.88
440.272	199.88
440.493	121.88
440.715	92.88
440.936	92.88
441.158	100.88
441.379	96.88
441.6	94.88
441.822	96.88
442.043	97.88
442.264	122.88
442.486	127.88
442.707	108.88
442.928	126.88
443.149	164.88
443.371	168.88
443.592	145.88
443.813	138.88
444.034	136.88
444.255	94.88
444.476	97.88
444.698	83.88
444.919	112.88
445.14	146.88
445.361	128.88
445.582	144.88
445.803	187.88
446.024	207.88
446.245	174.88
446.466	133.88
446.687	100.88
446.908	83.88
447.129	101.88
447.35	106.88
447.571	89.88
447.792	99.88
448.013	116.88
448.234	109.88
448.455	108.88
448.675	141.88
448.896	168.88
449.117	112.88
449.338	119.88
449.559	154.88
449.779	182.88
450	106.88
450.221	96.88
450.442	88.88
450.662	102.88
450.883	119.88
451.104	135.88
451.324	112.88
451.545	98.88
451.766	98.88
451.986	86.88
452.207	90.88
452.428	101.88
452.648	94.88
452.869	138.88
453.089	131.88
453.31	150.88
453.53	103.88
453.751	93.88
453.971	112.88
454.192	143.88
454.412	100.88
454.633	87.88
454.853	90.88
455.073	94.88
455.294	92.88
455.514	111.88
455.734	105.88
455.955	91.88
456.175	84.88
456.395	97.88
456.616	98.88
456.836	91.88
457.056	109.88
457.276	81.88
457.497	90.88
457.717	89.88
457.937	93.88
458.157	95.88
458.377	78.88
458.598	126.88
458.818	211.88
459.038	236.88
459.258	157.88
459.478	102.88
459.698	100.88
459.918	96.88
460.138	96.88
460.358	93.88
460.578	86.88
460.798	97.88
461.018	98.88
461.238	90.88
461.458	92.88
461.678	91.88
461.898	79.88
462.118	93.88
462.338	83.88
462.558	85.88
462.777	90.88
462.997	85.88
463.217	86.88
463.437	86.88
463.657	83.88
463.876	94.88
464.096	92.88
464.316	103.88
464.536	96.88
464.755	96.88
464.975	128.88
465.195	237.88
465.414	238.88
465.634	102.88
465.854	78.88
466.073	87.88
466.293	96.88
466.512	103.88
466.732	84.88
466.951	88.88
467.171	90.88
467.391	104.88
467.61	116.88
467.829	118.88
468.049	87.88
468.268	80.88
468.488	87.88
468.707	97.88
468.927	97.88
469.146	88.88
469.365	103.88
469.585	90.88
469.804	113.88
470.023	110.88
470.243	98.88
470.462	111.88
470.681	124.88
470.901	90.88
471.12	103.88
471.339	98.88
471.558	81.88
471.777	91.88
471.997	89.88
472.216	91.88
472.435	92.88
472.654	84.88
472.873	94.88
473.092	102.88
473.311	87.88
473.53	94.88
473.749	82.88
473.968	100.88
474.187	126.88
474.406	100.88
474.625	99.88
474.844	92.88
475.063	96.88
475.282	76.88
475.501	90.88
475.72	95.88
475.939	95.88
476.158	81.88
476.377	98.88
476.596	84.88
476.814	110.88
477.033	91.88
477.252	79.88
477.471	90.88
477.69	84.88
477.908	86.88
478.127	93.88
478.346	95.88
478.564	87.88
478.783	117.88
479.002	105.88
479.22	103.88
479.439	110.88
479.658	113.88
479.876	107.88
480.095	98.88
480.313	90.88
480.532	84.88
480.751	90.88
480.969	89.88
481.188	100.88
481.406	103.88
481.624	99.88
481.843	85.88
482.061	98.88
482.28	94.88
482.498	79.88
482.717	82.88
482.935	82.88
483.153	91.88
483.372	97.88
483.59	98.88
483.808	94.88
484.027	106.88
484.245	92.88
484.463	84.88
484.681	99.88
484.9	101.88
485.118	91.88
485.336	109.88
485.554	97.88
485.772	107.88
485.99	103.88
486.209	104.88
486.427	114.88
486.645	125.88
486.863	128.88
487.081	97.88
487.299	97.88
487.517	99.88
487.735	102.88
487.953	86.88
488.171	102.88
488.389	97.88
488.607	104.88
488.825	96.88
489.043	101.88
489.261	95.88
489.479	86.88
489.696	106.88
489.914	88.88
490.132	72.88
490.35	101.88
490.568	88.88
490.786	102.88
491.003	94.88
491.221	104.88
491.439	83.88
491.657	86.88
491.874	98.88
492.092	80.88
492.31	103.88
492.527	91.88
492.745	88.88
492.963	87.88
493.18	95.88
493.398	96.88
493.615	110.88
493.833	95.88
494.05	99.88
494.268	105.88
494.485	80.88
494.703	102.88
494.92	86.88
495.138	83.88
495.355	101.88
495.573	99.88
495.79	100.88
496.008	88.88
496.225	103.88
496.442	96.88
496.66	103.88
496.877	86.88
497.094	92.88
497.312	87.88
497.529	92.88
497.746	103.88
497.963	98.88
498.181	105.88
498.398	111.88
498.615	103.88
498.832	106.88
499.049	91.88
499.267	89.88
499.484	98.88
499.701	101.88
499.918	96.88
500.135	95.88
500.352	78.88
500.569	95.88
500.786	98.88
501.003	93.88
501.22	81.88
501.437	93.88
501.654	87.88
501.871	119.88
502.088	110.88
502.305	102.88
502.522	107.88
502.739	78.88
502.956	80.88
503.172	81.88
503.389	104.88
503.606	117.88
503.823	111.88
504.04	102.88
504.256	92.88
504.473	84.88
504.69	90.88
504.907	104.88
505.123	102.88
505.34	99.88
505.557	92.88
505.773	82.88
505.99	90.88
506.207	93.88
506.423	99.88
506.64	98.88
506.856	90.88
507.073	91.88
507.289	99.88
507.506	111.88
507.722	124.88
507.939	122.88
508.155	108.88
508.372	100.88
508.588	99.88
508.805	96.88
509.021	110.88
509.238	108.88
509.454	98.88
509.67	117.88
509.887	119.88
510.103	149.88
510.319	244.88
510.536	931.88
510.752	3170.88
510.968	867.88
511.184	181.88
511.401	138.88
511.617	119.88
511.833	101.88
512.049	95.88
512.265	103.88
512.481	86.88
512.698	90.88
512.914	102.88
513.13	90.88
513.346	98.88
513.562	83.88
513.778	94.88
