Data from Uncirc_1991_H10_HRD10591_00017.txt Node
Date: Wed Jan 03 11:50:41 EST 2024
User: Yrep
Spectrometer: HR+D1059
Trigger mode: 1
Integration Time (sec): 1.000000E-1
Scans to average: 1
Electric dark correction enabled: true
Nonlinearity correction enabled: false
Boxcar width: 0
XAxis mode: Wavelengths
Number of Pixels in Spectrum: 2048
>>>>>Begin Spectral Data<<<<<
223.165	-10.44
223.4	-10.44
223.635	-10.44
223.869	-21.44
224.104	-27.44
224.338	-3.44
224.573	-15.44
224.808	-13.44
225.042	-9.44
225.277	-19.44
225.511	-14.44
225.746	16.56
225.98	1.56
226.215	8.56
226.449	19.56
226.683	15.56
226.918	22.56
227.152	50.56
227.387	39.56
227.621	37.56
227.856	36.56
228.09	50.56
228.324	56.56
228.559	63.56
228.793	57.56
229.027	69.56
229.262	66.56
229.496	90.56
229.73	91.56
229.964	98.56
230.199	77.56
230.433	91.56
230.667	85.56
230.901	80.56
231.136	79.56
231.37	82.56
231.604	80.56
231.838	83.56
232.072	86.56
232.306	68.56
232.541	80.56
232.775	88.56
233.009	82.56
233.243	90.56
233.477	93.56
233.711	87.56
233.945	76.56
234.179	71.56
234.413	76.56
234.647	95.56
234.881	78.56
235.115	91.56
235.349	81.56
235.583	77.56
235.817	72.56
236.051	72.56
236.285	78.56
236.519	98.56
236.753	77.56
236.987	88.56
237.221	81.56
237.455	108.56
237.689	71.56
237.922	76.56
238.156	73.56
238.39	91.56
238.624	82.56
238.858	65.56
239.091	82.56
239.325	88.56
239.559	87.56
239.793	80.56
240.027	82.56
240.26	73.56
240.494	89.56
240.728	65.56
240.961	82.56
241.195	74.56
241.429	85.56
241.662	84.56
241.896	80.56
242.13	81.56
242.363	70.56
242.597	76.56
242.83	88.56
243.064	84.56
243.298	83.56
243.531	88.56
243.765	96.56
243.998	93.56
244.232	71.56
244.465	84.56
244.699	86.56
244.932	88.56
245.166	82.56
245.399	81.56
245.633	95.56
245.866	77.56
246.099	76.56
246.333	76.56
246.566	98.56
246.8	74.56
247.033	78.56
247.266	69.56
247.5	72.56
247.733	85.56
247.966	85.56
248.2	75.56
248.433	79.56
248.666	80.56
248.899	82.56
249.133	93.56
249.366	104.56
249.599	94.56
249.832	89.56
250.066	83.56
250.299	79.56
250.532	82.56
250.765	74.56
250.998	80.56
251.231	94.56
251.465	105.56
251.698	92.56
251.931	93.56
252.164	85.56
252.397	89.56
252.63	91.56
252.863	71.56
253.096	78.56
253.329	86.56
253.562	79.56
253.795	78.56
254.028	78.56
254.261	79.56
254.494	77.56
254.727	79.56
254.96	83.56
255.193	83.56
255.426	76.56
255.659	87.56
255.892	87.56
256.124	76.56
256.357	80.56
256.59	101.56
256.823	86.56
257.056	98.56
257.289	84.56
257.521	81.56
257.754	78.56
257.987	96.56
258.22	69.56
258.452	94.56
258.685	65.56
258.918	75.56
259.151	91.56
259.383	90.56
259.616	88.56
259.849	102.56
260.081	97.56
260.314	90.56
260.547	99.56
260.779	82.56
261.012	83.56
261.244	82.56
261.477	91.56
261.71	93.56
261.942	121.56
262.175	128.56
262.407	98.56
262.64	88.56
262.872	89.56
263.105	88.56
263.337	89.56
263.57	78.56
263.802	80.56
264.035	88.56
264.267	83.56
264.499	81.56
264.732	82.56
264.964	87.56
265.197	85.56
265.429	77.56
265.661	92.56
265.894	93.56
266.126	97.56
266.358	90.56
266.591	78.56
266.823	88.56
267.055	78.56
267.287	82.56
267.52	88.56
267.752	93.56
267.984	80.56
268.216	86.56
268.448	85.56
268.681	78.56
268.913	77.56
269.145	98.56
269.377	85.56
269.609	90.56
269.841	105.56
270.073	93.56
270.306	81.56
270.538	81.56
270.77	90.56
271.002	79.56
271.234	79.56
271.466	97.56
271.698	82.56
271.93	100.56
272.162	86.56
272.394	88.56
272.626	83.56
272.858	78.56
273.09	103.56
273.322	92.56
273.553	87.56
273.785	97.56
274.017	94.56
274.249	87.56
274.481	94.56
274.713	89.56
274.945	80.56
275.176	90.56
275.408	88.56
275.64	101.56
275.872	115.56
276.104	94.56
276.335	103.56
276.567	96.56
276.799	108.56
277.031	109.56
277.262	100.56
277.494	98.56
277.726	85.56
277.957	105.56
278.189	106.56
278.421	90.56
278.652	106.56
278.884	89.56
279.115	97.56
279.347	84.56
279.579	95.56
279.81	94.56
280.042	95.56
280.273	94.56
280.505	100.56
280.736	65.56
280.968	110.56
281.199	80.56
281.431	99.56
281.662	84.56
281.894	99.56
282.125	92.56
282.356	133.56
282.588	146.56
282.819	128.56
283.051	109.56
283.282	93.56
283.513	97.56
283.745	81.56
283.976	90.56
284.207	86.56
284.439	98.56
284.67	84.56
284.901	82.56
285.132	99.56
285.364	93.56
285.595	79.56
285.826	83.56
286.057	97.56
286.288	83.56
286.52	99.56
286.751	94.56
286.982	85.56
287.213	104.56
287.444	84.56
287.675	96.56
287.906	90.56
288.138	94.56
288.369	112.56
288.6	95.56
288.831	87.56
289.062	92.56
289.293	93.56
289.524	87.56
289.755	90.56
289.986	81.56
290.217	88.56
290.448	96.56
290.679	100.56
290.91	103.56
291.141	85.56
291.371	99.56
291.602	95.56
291.833	94.56
292.064	93.56
292.295	93.56
292.526	91.56
292.757	87.56
292.987	101.56
293.218	92.56
293.449	94.56
293.68	80.56
293.91	88.56
294.141	89.56
294.372	88.56
294.603	89.56
294.833	85.56
295.064	91.56
295.295	84.56
295.525	95.56
295.756	105.56
295.987	130.56
296.217	157.56
296.448	137.56
296.679	101.56
296.909	99.56
297.14	92.56
297.37	102.56
297.601	93.56
297.831	96.56
298.062	100.56
298.292	106.56
298.523	100.56
298.753	98.56
298.984	82.56
299.214	90.56
299.445	85.56
299.675	98.56
299.905	101.56
300.136	100.56
300.366	80.56
300.597	82.56
300.827	94.56
301.057	92.56
301.288	112.56
301.518	102.56
301.748	92.56
301.979	110.56
302.209	88.56
302.439	103.56
302.669	104.56
302.9	85.56
303.13	92.56
303.36	100.56
303.59	89.56
303.82	114.56
304.051	108.56
304.281	97.56
304.511	90.56
304.741	88.56
304.971	97.56
305.201	101.56
305.431	81.56
305.661	89.56
305.891	82.56
306.121	108.56
306.352	117.56
306.582	111.56
306.812	112.56
307.042	89.56
307.272	86.56
307.502	89.56
307.731	90.56
307.961	89.56
308.191	82.56
308.421	102.56
308.651	91.56
308.881	100.56
309.111	94.56
309.341	94.56
309.571	103.56
309.8	101.56
310.03	98.56
310.26	97.56
310.49	104.56
310.72	106.56
310.949	105.56
311.179	105.56
311.409	91.56
311.639	92.56
311.868	93.56
312.098	99.56
312.328	99.56
312.557	120.56
312.787	116.56
313.017	112.56
313.246	93.56
313.476	95.56
313.706	100.56
313.935	112.56
314.165	100.56
314.394	91.56
314.624	101.56
314.853	105.56
315.083	97.56
315.312	86.56
315.542	95.56
315.771	74.56
316.001	87.56
316.23	97.56
316.46	87.56
316.689	94.56
316.919	106.56
317.148	83.56
317.377	110.56
317.607	106.56
317.836	94.56
318.065	100.56
318.295	96.56
318.524	92.56
318.753	96.56
318.983	112.56
319.212	103.56
319.441	119.56
319.67	112.56
319.9	96.56
320.129	100.56
320.358	104.56
320.587	96.56
320.816	104.56
321.046	123.56
321.275	94.56
321.504	94.56
321.733	112.56
321.962	110.56
322.191	120.56
322.42	119.56
322.649	114.56
322.878	119.56
323.108	117.56
323.337	135.56
323.566	151.56
323.795	172.56
324.024	236.56
324.253	482.56
324.482	1106.56
324.71	2289.56
324.939	3132.56
325.168	1098.56
325.397	311.56
325.626	179.56
325.855	153.56
326.084	145.56
326.313	150.56
326.542	181.56
326.77	280.56
326.999	556.56
327.228	1242.56
327.457	2308.56
327.686	1860.56
327.914	468.56
328.143	217.56
328.372	162.56
328.6	143.56
328.829	124.56
329.058	144.56
329.287	143.56
329.515	117.56
329.744	108.56
329.972	113.56
330.201	110.56
330.43	106.56
330.658	141.56
330.887	185.56
331.115	153.56
331.344	105.56
331.572	119.56
331.801	102.56
332.03	122.56
332.258	107.56
332.486	86.56
332.715	98.56
332.943	101.56
333.172	108.56
333.4	96.56
333.629	113.56
333.857	109.56
334.085	109.56
334.314	103.56
334.542	113.56
334.771	98.56
334.999	106.56
335.227	100.56
335.455	106.56
335.684	112.56
335.912	114.56
336.14	108.56
336.369	102.56
336.597	106.56
336.825	101.56
337.053	92.56
337.281	94.56
337.51	89.56
337.738	89.56
337.966	112.56
338.194	103.56
338.422	99.56
338.65	102.56
338.878	110.56
339.106	89.56
339.334	87.56
339.562	96.56
339.79	105.56
340.018	99.56
340.246	89.56
340.474	85.56
340.702	98.56
340.93	95.56
341.158	100.56
341.386	103.56
341.614	102.56
341.842	100.56
342.07	98.56
342.298	92.56
342.526	93.56
342.754	105.56
342.981	86.56
343.209	89.56
343.437	100.56
343.665	86.56
343.893	96.56
344.12	101.56
344.348	89.56
344.576	92.56
344.804	89.56
345.031	105.56
345.259	102.56
345.487	97.56
345.714	78.56
345.942	95.56
346.17	101.56
346.397	83.56
346.625	101.56
346.853	92.56
347.08	107.56
347.308	101.56
347.535	110.56
347.763	106.56
347.99	99.56
348.218	109.56
348.445	116.56
348.673	112.56
348.9	107.56
349.128	92.56
349.355	99.56
349.583	98.56
349.81	100.56
350.037	94.56
350.265	100.56
350.492	105.56
350.72	105.56
350.947	121.56
351.174	114.56
351.402	125.56
351.629	101.56
351.856	114.56
352.083	109.56
352.311	119.56
352.538	121.56
352.765	121.56
352.992	128.56
353.22	118.56
353.447	97.56
353.674	102.56
353.901	103.56
354.128	95.56
354.355	99.56
354.583	85.56
354.81	94.56
355.037	93.56
355.264	89.56
355.491	98.56
355.718	98.56
355.945	86.56
356.172	94.56
356.399	94.56
356.626	104.56
356.853	92.56
357.08	88.56
357.307	82.56
357.534	77.56
357.761	87.56
357.988	94.56
358.215	100.56
358.441	102.56
358.668	96.56
358.895	87.56
359.122	89.56
359.349	76.56
359.576	97.56
359.802	111.56
360.029	128.56
360.256	117.56
360.483	110.56
360.709	95.56
360.936	98.56
361.163	90.56
361.39	88.56
361.616	104.56
361.843	95.56
362.07	92.56
362.296	102.56
362.523	104.56
362.749	93.56
362.976	88.56
363.203	92.56
363.429	81.56
363.656	94.56
363.882	88.56
364.109	90.56
364.335	102.56
364.562	103.56
364.788	108.56
365.015	96.56
365.241	111.56
365.468	105.56
365.694	121.56
365.92	96.56
366.147	98.56
366.373	94.56
366.599	98.56
366.826	96.56
367.052	103.56
367.278	83.56
367.505	98.56
367.731	95.56
367.957	109.56
368.184	93.56
368.41	104.56
368.636	107.56
368.862	128.56
369.089	120.56
369.315	102.56
369.541	105.56
369.767	102.56
369.993	103.56
370.219	95.56
370.445	88.56
370.672	86.56
370.898	85.56
371.124	81.56
371.35	97.56
371.576	95.56
371.802	92.56
372.028	97.56
372.254	84.56
372.48	95.56
372.706	87.56
372.932	87.56
373.158	81.56
373.384	100.56
373.61	93.56
373.835	93.56
374.061	96.56
374.287	86.56
374.513	96.56
374.739	79.56
374.965	87.56
375.191	84.56
375.416	79.56
375.642	109.56
375.868	97.56
376.094	90.56
376.319	90.56
376.545	81.56
376.771	95.56
376.997	104.56
377.222	92.56
377.448	89.56
377.674	83.56
377.899	92.56
378.125	95.56
378.35	93.56
378.576	88.56
378.802	110.56
379.027	83.56
379.253	94.56
379.478	85.56
379.704	85.56
379.929	86.56
380.155	97.56
380.38	104.56
380.606	90.56
380.831	100.56
381.057	113.56
381.282	83.56
381.507	92.56
381.733	100.56
381.958	88.56
382.184	74.56
382.409	96.56
382.634	112.56
382.86	107.56
383.085	88.56
383.31	100.56
383.535	103.56
383.761	96.56
383.986	104.56
384.211	101.56
384.436	93.56
384.662	92.56
384.887	100.56
385.112	94.56
385.337	110.56
385.562	105.56
385.787	99.56
386.013	117.56
386.238	113.56
386.463	110.56
386.688	112.56
386.913	110.56
387.138	116.56
387.363	83.56
387.588	106.56
387.813	105.56
388.038	118.56
388.263	105.56
388.488	101.56
388.713	85.56
388.938	81.56
389.163	97.56
389.387	88.56
389.612	88.56
389.837	100.56
390.062	94.56
390.287	96.56
390.512	104.56
390.736	87.56
390.961	103.56
391.186	103.56
391.411	98.56
391.636	86.56
391.86	95.56
392.085	103.56
392.31	96.56
392.534	84.56
392.759	87.56
392.984	95.56
393.208	92.56
393.433	85.56
393.658	94.56
393.882	80.56
394.107	90.56
394.331	79.56
394.556	82.56
394.78	93.56
395.005	92.56
395.229	95.56
395.454	86.56
395.678	101.56
395.903	97.56
396.127	96.56
396.352	97.56
396.576	94.56
396.801	96.56
397.025	89.56
397.249	92.56
397.474	90.56
397.698	93.56
397.922	80.56
398.147	79.56
398.371	80.56
398.595	92.56
398.82	100.56
399.044	92.56
399.268	82.56
399.492	82.56
399.717	84.56
399.941	97.56
400.165	97.56
400.389	99.56
400.613	90.56
400.837	90.56
401.062	87.56
401.286	104.56
401.51	98.56
401.734	81.56
401.958	106.56
402.182	133.56
402.406	178.56
402.63	123.56
402.854	94.56
403.078	98.56
403.302	94.56
403.526	93.56
403.75	91.56
403.974	85.56
404.198	83.56
404.422	96.56
404.645	92.56
404.869	102.56
405.093	105.56
405.317	103.56
405.541	115.56
405.765	115.56
405.988	130.56
406.212	212.56
406.436	265.56
406.66	161.56
406.883	109.56
407.107	100.56
407.331	103.56
407.555	111.56
407.778	114.56
408.002	105.56
408.226	87.56
408.449	86.56
408.673	93.56
408.896	100.56
409.12	111.56
409.344	87.56
409.567	82.56
409.791	97.56
410.014	107.56
410.238	103.56
410.461	92.56
410.685	101.56
410.908	95.56
411.132	105.56
411.355	100.56
411.578	105.56
411.802	94.56
412.025	83.56
412.249	98.56
412.472	110.56
412.695	93.56
412.919	97.56
413.142	101.56
413.365	104.56
413.589	92.56
413.812	85.56
414.035	104.56
414.258	89.56
414.482	99.56
414.705	93.56
414.928	89.56
415.151	89.56
415.374	92.56
415.597	88.56
415.821	89.56
416.044	98.56
416.267	105.56
416.49	84.56
416.713	80.56
416.936	86.56
417.159	89.56
417.382	100.56
417.605	107.56
417.828	112.56
418.051	94.56
418.274	101.56
418.497	96.56
418.72	80.56
418.943	90.56
419.166	98.56
419.389	90.56
419.611	101.56
419.834	89.56
420.057	95.56
420.28	92.56
420.503	88.56
420.726	93.56
420.948	89.56
421.171	97.56
421.394	96.56
421.617	100.56
421.839	110.56
422.062	89.56
422.285	92.56
422.507	108.56
422.73	108.56
422.953	103.56
423.175	99.56
423.398	82.56
423.621	86.56
423.843	91.56
424.066	86.56
424.288	80.56
424.511	114.56
424.733	100.56
424.956	111.56
425.178	100.56
425.401	106.56
425.623	111.56
425.846	88.56
426.068	99.56
426.291	94.56
426.513	110.56
426.735	86.56
426.958	106.56
427.18	121.56
427.402	184.56
427.625	206.56
427.847	153.56
428.069	114.56
428.292	87.56
428.514	96.56
428.736	101.56
428.958	97.56
429.181	93.56
429.403	85.56
429.625	87.56
429.847	91.56
430.069	117.56
430.292	98.56
430.514	88.56
430.736	111.56
430.958	87.56
431.18	90.56
431.402	85.56
431.624	87.56
431.846	87.56
432.068	88.56
432.29	86.56
432.512	100.56
432.734	79.56
432.956	101.56
433.178	115.56
433.4	122.56
433.622	95.56
433.844	106.56
434.066	106.56
434.287	103.56
434.509	99.56
434.731	102.56
434.953	90.56
435.175	95.56
435.397	92.56
435.618	99.56
435.84	102.56
436.062	160.56
436.284	131.56
436.505	102.56
436.727	122.56
436.949	101.56
437.17	92.56
437.392	102.56
437.614	83.56
437.835	100.56
438.057	127.56
438.278	132.56
438.5	131.56
438.721	147.56
438.943	114.56
439.165	97.56
439.386	84.56
439.608	110.56
439.829	111.56
440.05	166.56
440.272	176.56
440.493	115.56
440.715	88.56
440.936	90.56
441.158	83.56
441.379	87.56
441.6	98.56
441.822	80.56
442.043	98.56
442.264	112.56
442.486	131.56
442.707	107.56
442.928	125.56
443.149	152.56
443.371	166.56
443.592	116.56
443.813	130.56
444.034	127.56
444.255	105.56
444.476	104.56
444.698	79.56
444.919	108.56
445.14	127.56
445.361	153.56
445.582	146.56
445.803	188.56
446.024	180.56
446.245	188.56
446.466	113.56
446.687	86.56
446.908	103.56
447.129	88.56
447.35	96.56
447.571	107.56
447.792	95.56
448.013	110.56
448.234	108.56
448.455	112.56
448.675	132.56
448.896	140.56
449.117	105.56
449.338	111.56
449.559	138.56
449.779	149.56
450	114.56
450.221	85.56
450.442	81.56
450.662	92.56
450.883	117.56
451.104	125.56
451.324	93.56
451.545	91.56
451.766	97.56
451.986	88.56
452.207	103.56
452.428	101.56
452.648	100.56
452.869	111.56
453.089	132.56
453.31	131.56
453.53	113.56
453.751	91.56
453.971	118.56
454.192	136.56
454.412	95.56
454.633	85.56
454.853	88.56
455.073	88.56
455.294	84.56
455.514	123.56
455.734	94.56
455.955	87.56
456.175	72.56
456.395	94.56
456.616	85.56
456.836	73.56
457.056	95.56
457.276	101.56
457.497	87.56
457.717	93.56
457.937	87.56
458.157	93.56
458.377	105.56
458.598	117.56
458.818	181.56
459.038	195.56
459.258	135.56
459.478	98.56
459.698	98.56
459.918	93.56
460.138	89.56
460.358	97.56
460.578	92.56
460.798	98.56
461.018	100.56
461.238	95.56
461.458	86.56
461.678	81.56
461.898	80.56
462.118	78.56
462.338	89.56
462.558	97.56
462.777	95.56
462.997	83.56
463.217	94.56
463.437	76.56
463.657	93.56
463.876	90.56
464.096	89.56
464.316	106.56
464.536	111.56
464.755	106.56
464.975	119.56
465.195	187.56
465.414	193.56
465.634	101.56
465.854	95.56
466.073	86.56
466.293	88.56
466.512	91.56
466.732	100.56
466.951	86.56
467.171	103.56
467.391	89.56
467.61	109.56
467.829	94.56
468.049	89.56
468.268	94.56
468.488	82.56
468.707	97.56
468.927	100.56
469.146	92.56
469.365	83.56
469.585	104.56
469.804	97.56
470.023	107.56
470.243	106.56
470.462	106.56
470.681	126.56
470.901	98.56
471.12	88.56
471.339	92.56
471.558	96.56
471.777	97.56
471.997	99.56
472.216	103.56
472.435	96.56
472.654	87.56
472.873	98.56
473.092	99.56
473.311	104.56
473.53	83.56
473.749	96.56
473.968	103.56
474.187	142.56
474.406	116.56
474.625	86.56
474.844	100.56
475.063	85.56
475.282	104.56
475.501	83.56
475.72	105.56
475.939	95.56
476.158	105.56
476.377	92.56
476.596	96.56
476.814	94.56
477.033	94.56
477.252	97.56
477.471	88.56
477.69	84.56
477.908	96.56
478.127	94.56
478.346	94.56
478.564	102.56
478.783	109.56
479.002	100.56
479.22	91.56
479.439	104.56
479.658	111.56
479.876	96.56
480.095	84.56
480.313	96.56
480.532	98.56
480.751	100.56
480.969	98.56
481.188	110.56
481.406	111.56
481.624	112.56
481.843	110.56
482.061	90.56
482.28	95.56
482.498	102.56
482.717	99.56
482.935	102.56
483.153	87.56
483.372	93.56
483.59	93.56
483.808	104.56
484.027	92.56
484.245	88.56
484.463	97.56
484.681	90.56
484.9	95.56
485.118	96.56
485.336	107.56
485.554	101.56
485.772	99.56
485.99	98.56
486.209	117.56
486.427	116.56
486.645	131.56
486.863	121.56
487.081	99.56
487.299	101.56
487.517	112.56
487.735	106.56
487.953	86.56
488.171	98.56
488.389	102.56
488.607	114.56
488.825	101.56
489.043	95.56
489.261	98.56
489.479	102.56
489.696	101.56
489.914	100.56
490.132	97.56
490.35	93.56
490.568	81.56
490.786	96.56
491.003	106.56
491.221	86.56
491.439	87.56
491.657	81.56
491.874	95.56
492.092	87.56
492.31	95.56
492.527	93.56
492.745	95.56
492.963	85.56
493.18	93.56
493.398	83.56
493.615	93.56
493.833	95.56
494.05	87.56
494.268	97.56
494.485	96.56
494.703	86.56
494.92	97.56
495.138	97.56
495.355	88.56
495.573	84.56
495.79	79.56
496.008	99.56
496.225	95.56
496.442	101.56
496.66	104.56
496.877	96.56
497.094	89.56
497.312	108.56
497.529	105.56
497.746	100.56
497.963	92.56
498.181	109.56
498.398	100.56
498.615	119.56
498.832	114.56
499.049	107.56
499.267	93.56
499.484	87.56
499.701	100.56
499.918	95.56
500.135	99.56
500.352	81.56
500.569	101.56
500.786	103.56
501.003	94.56
501.22	89.56
501.437	96.56
501.654	100.56
501.871	119.56
502.088	100.56
502.305	103.56
502.522	101.56
502.739	95.56
502.956	102.56
503.172	88.56
503.389	96.56
503.606	110.56
503.823	101.56
504.04	93.56
504.256	96.56
504.473	90.56
504.69	99.56
504.907	109.56
505.123	88.56
505.34	99.56
505.557	90.56
505.773	87.56
505.99	103.56
506.207	97.56
506.423	95.56
506.64	101.56
506.856	88.56
507.073	105.56
507.289	90.56
507.506	111.56
507.722	113.56
507.939	122.56
508.155	99.56
508.372	95.56
508.588	98.56
508.805	101.56
509.021	93.56
509.238	115.56
509.454	85.56
509.67	94.56
509.887	142.56
510.103	142.56
510.319	252.56
510.536	887.56
510.752	2824.56
510.968	766.56
511.184	181.56
511.401	118.56
511.617	100.56
511.833	117.56
512.049	89.56
512.265	101.56
512.481	102.56
512.698	106.56
512.914	98.56
513.13	96.56
