Data from Uncirc_1991_H10_HRD10591_00088.txt Node
Date: Wed Jan 03 11:50:55 EST 2024
User: Yrep
Spectrometer: HR+D1059
Trigger mode: 1
Integration Time (sec): 1.000000E-1
Scans to average: 1
Electric dark correction enabled: true
Nonlinearity correction enabled: false
Boxcar width: 0
XAxis mode: Wavelengths
Number of Pixels in Spectrum: 2048
>>>>>Begin Spectral Data<<<<<
223.165	-24.75
223.4	-24.75
223.635	-24.75
223.869	-15.75
224.104	-24.75
224.338	-19.75
224.573	-16.75
224.808	-23.75
225.042	-3.75
225.277	-7.75
225.511	-3.75
225.746	7.25
225.98	17.25
226.215	18.25
226.449	11.25
226.683	23.25
226.918	20.25
227.152	43.25
227.387	38.25
227.621	34.25
227.856	50.25
228.09	38.25
228.324	54.25
228.559	59.25
228.793	66.25
229.027	68.25
229.262	63.25
229.496	85.25
229.73	84.25
229.964	82.25
230.199	74.25
230.433	77.25
230.667	72.25
230.901	74.25
231.136	76.25
231.37	83.25
231.604	68.25
231.838	85.25
232.072	89.25
232.306	76.25
232.541	76.25
232.775	91.25
233.009	72.25
233.243	73.25
233.477	85.25
233.711	98.25
233.945	65.25
234.179	78.25
234.413	74.25
234.647	77.25
234.881	65.25
235.115	92.25
235.349	86.25
235.583	76.25
235.817	86.25
236.051	67.25
236.285	71.25
236.519	73.25
236.753	78.25
236.987	63.25
237.221	79.25
237.455	96.25
237.689	67.25
237.922	80.25
238.156	69.25
238.39	79.25
238.624	88.25
238.858	71.25
239.091	80.25
239.325	74.25
239.559	80.25
239.793	92.25
240.027	95.25
240.26	86.25
240.494	74.25
240.728	68.25
240.961	70.25
241.195	80.25
241.429	77.25
241.662	91.25
241.896	66.25
242.13	70.25
242.363	71.25
242.597	78.25
242.83	82.25
243.064	76.25
243.298	71.25
243.531	88.25
243.765	80.25
243.998	77.25
244.232	83.25
244.465	93.25
244.699	76.25
244.932	65.25
245.166	84.25
245.399	75.25
245.633	74.25
245.866	81.25
246.099	87.25
246.333	89.25
246.566	82.25
246.8	74.25
247.033	75.25
247.266	72.25
247.5	68.25
247.733	79.25
247.966	72.25
248.2	70.25
248.433	76.25
248.666	86.25
248.899	81.25
249.133	96.25
249.366	85.25
249.599	89.25
249.832	79.25
250.066	75.25
250.299	69.25
250.532	84.25
250.765	78.25
250.998	77.25
251.231	85.25
251.465	77.25
251.698	71.25
251.931	69.25
252.164	91.25
252.397	66.25
252.63	96.25
252.863	82.25
253.096	71.25
253.329	79.25
253.562	102.25
253.795	93.25
254.028	79.25
254.261	90.25
254.494	69.25
254.727	78.25
254.96	86.25
255.193	74.25
255.426	82.25
255.659	79.25
255.892	77.25
256.124	66.25
256.357	74.25
256.59	80.25
256.823	80.25
257.056	87.25
257.289	82.25
257.521	77.25
257.754	78.25
257.987	83.25
258.22	92.25
258.452	76.25
258.685	88.25
258.918	81.25
259.151	88.25
259.383	75.25
259.616	78.25
259.849	92.25
260.081	87.25
260.314	67.25
260.547	74.25
260.779	94.25
261.012	94.25
261.244	72.25
261.477	82.25
261.71	91.25
261.942	113.25
262.175	108.25
262.407	76.25
262.64	86.25
262.872	84.25
263.105	94.25
263.337	66.25
263.57	98.25
263.802	82.25
264.035	82.25
264.267	81.25
264.499	82.25
264.732	103.25
264.964	88.25
265.197	82.25
265.429	95.25
265.661	90.25
265.894	88.25
266.126	89.25
266.358	75.25
266.591	79.25
266.823	97.25
267.055	88.25
267.287	84.25
267.52	71.25
267.752	87.25
267.984	84.25
268.216	80.25
268.448	91.25
268.681	90.25
268.913	84.25
269.145	79.25
269.377	74.25
269.609	79.25
269.841	80.25
270.073	89.25
270.306	88.25
270.538	92.25
270.77	82.25
271.002	94.25
271.234	90.25
271.466	80.25
271.698	86.25
271.93	90.25
272.162	83.25
272.394	89.25
272.626	93.25
272.858	88.25
273.09	75.25
273.322	80.25
273.553	81.25
273.785	83.25
274.017	100.25
274.249	88.25
274.481	87.25
274.713	89.25
274.945	99.25
275.176	92.25
275.408	99.25
275.64	89.25
275.872	82.25
276.104	71.25
276.335	90.25
276.567	98.25
276.799	97.25
277.031	104.25
277.262	93.25
277.494	104.25
277.726	91.25
277.957	83.25
278.189	84.25
278.421	89.25
278.652	78.25
278.884	82.25
279.115	75.25
279.347	83.25
279.579	90.25
279.81	88.25
280.042	79.25
280.273	106.25
280.505	105.25
280.736	81.25
280.968	79.25
281.199	81.25
281.431	86.25
281.662	88.25
281.894	93.25
282.125	99.25
282.356	126.25
282.588	138.25
282.819	107.25
283.051	98.25
283.282	89.25
283.513	83.25
283.745	82.25
283.976	87.25
284.207	82.25
284.439	70.25
284.67	98.25
284.901	93.25
285.132	84.25
285.364	103.25
285.595	68.25
285.826	92.25
286.057	86.25
286.288	71.25
286.52	89.25
286.751	90.25
286.982	82.25
287.213	85.25
287.444	93.25
287.675	91.25
287.906	91.25
288.138	92.25
288.369	84.25
288.6	80.25
288.831	86.25
289.062	93.25
289.293	93.25
289.524	95.25
289.755	94.25
289.986	80.25
290.217	101.25
290.448	82.25
290.679	95.25
290.91	94.25
291.141	99.25
291.371	91.25
291.602	100.25
291.833	81.25
292.064	108.25
292.295	84.25
292.526	76.25
292.757	85.25
292.987	88.25
293.218	82.25
293.449	86.25
293.68	95.25
293.91	86.25
294.141	96.25
294.372	68.25
294.603	78.25
294.833	88.25
295.064	91.25
295.295	96.25
295.525	86.25
295.756	105.25
295.987	105.25
296.217	118.25
296.448	109.25
296.679	100.25
296.909	88.25
297.14	90.25
297.37	104.25
297.601	91.25
297.831	101.25
298.062	93.25
298.292	90.25
298.523	92.25
298.753	94.25
298.984	96.25
299.214	91.25
299.445	81.25
299.675	89.25
299.905	97.25
300.136	89.25
300.366	97.25
300.597	100.25
300.827	86.25
301.057	100.25
301.288	103.25
301.518	81.25
301.748	95.25
301.979	95.25
302.209	90.25
302.439	92.25
302.669	72.25
302.9	88.25
303.13	92.25
303.36	104.25
303.59	98.25
303.82	97.25
304.051	87.25
304.281	95.25
304.511	79.25
304.741	67.25
304.971	80.25
305.201	96.25
305.431	76.25
305.661	90.25
305.891	97.25
306.121	95.25
306.352	96.25
306.582	92.25
306.812	92.25
307.042	92.25
307.272	91.25
307.502	85.25
307.731	91.25
307.961	95.25
308.191	98.25
308.421	98.25
308.651	94.25
308.881	96.25
309.111	87.25
309.341	87.25
309.571	96.25
309.8	97.25
310.03	103.25
310.26	105.25
310.49	91.25
310.72	108.25
310.949	95.25
311.179	97.25
311.409	98.25
311.639	94.25
311.868	104.25
312.098	93.25
312.328	107.25
312.557	105.25
312.787	106.25
313.017	102.25
313.246	101.25
313.476	94.25
313.706	87.25
313.935	109.25
314.165	95.25
314.394	94.25
314.624	104.25
314.853	99.25
315.083	90.25
315.312	79.25
315.542	107.25
315.771	95.25
316.001	93.25
316.23	105.25
316.46	95.25
316.689	93.25
316.919	99.25
317.148	99.25
317.377	90.25
317.607	104.25
317.836	101.25
318.065	89.25
318.295	96.25
318.524	95.25
318.753	86.25
318.983	94.25
319.212	103.25
319.441	103.25
319.67	88.25
319.9	92.25
320.129	88.25
320.358	92.25
320.587	85.25
320.816	84.25
321.046	112.25
321.275	105.25
321.504	94.25
321.733	96.25
321.962	88.25
322.191	97.25
322.42	109.25
322.649	114.25
322.878	110.25
323.108	117.25
323.337	134.25
323.566	138.25
323.795	174.25
324.024	205.25
324.253	435.25
324.482	930.25
324.71	2017.25
324.939	2714.25
325.168	972.25
325.397	272.25
325.626	165.25
325.855	120.25
326.084	134.25
326.313	149.25
326.542	166.25
326.77	247.25
326.999	504.25
327.228	1092.25
327.457	2080.25
327.686	1660.25
327.914	436.25
328.143	222.25
328.372	174.25
328.6	112.25
328.829	119.25
329.058	127.25
329.287	143.25
329.515	106.25
329.744	105.25
329.972	89.25
330.201	108.25
330.43	118.25
330.658	117.25
330.887	152.25
331.115	138.25
331.344	111.25
331.572	98.25
331.801	112.25
332.03	94.25
332.258	100.25
332.486	95.25
332.715	97.25
332.943	98.25
333.172	103.25
333.4	96.25
333.629	112.25
333.857	117.25
334.085	102.25
334.314	90.25
334.542	90.25
334.771	107.25
334.999	109.25
335.227	106.25
335.455	111.25
335.684	116.25
335.912	103.25
336.14	95.25
336.369	86.25
336.597	95.25
336.825	94.25
337.053	89.25
337.281	83.25
337.51	93.25
337.738	94.25
337.966	90.25
338.194	95.25
338.422	95.25
338.65	90.25
338.878	90.25
339.106	96.25
339.334	97.25
339.562	89.25
339.79	84.25
340.018	82.25
340.246	95.25
340.474	87.25
340.702	107.25
340.93	104.25
341.158	97.25
341.386	90.25
341.614	76.25
341.842	104.25
342.07	88.25
342.298	97.25
342.526	101.25
342.754	92.25
342.981	83.25
343.209	87.25
343.437	112.25
343.665	78.25
343.893	100.25
344.12	99.25
344.348	93.25
344.576	110.25
344.804	100.25
345.031	97.25
345.259	94.25
345.487	93.25
345.714	99.25
345.942	93.25
346.17	94.25
346.397	92.25
346.625	86.25
346.853	96.25
347.08	86.25
347.308	107.25
347.535	101.25
347.763	118.25
347.99	100.25
348.218	96.25
348.445	121.25
348.673	106.25
348.9	92.25
349.128	92.25
349.355	92.25
349.583	87.25
349.81	98.25
350.037	98.25
350.265	121.25
350.492	91.25
350.72	90.25
350.947	92.25
351.174	88.25
351.402	108.25
351.629	106.25
351.856	111.25
352.083	103.25
352.311	103.25
352.538	104.25
352.765	118.25
352.992	114.25
353.22	102.25
353.447	109.25
353.674	110.25
353.901	107.25
354.128	90.25
354.355	98.25
354.583	103.25
354.81	107.25
355.037	100.25
355.264	91.25
355.491	95.25
355.718	88.25
355.945	98.25
356.172	88.25
356.399	92.25
356.626	88.25
356.853	72.25
357.08	93.25
357.307	96.25
357.534	97.25
357.761	95.25
357.988	81.25
358.215	88.25
358.441	93.25
358.668	75.25
358.895	79.25
359.122	92.25
359.349	100.25
359.576	96.25
359.802	109.25
360.029	100.25
360.256	100.25
360.483	94.25
360.709	95.25
360.936	98.25
361.163	99.25
361.39	94.25
361.616	94.25
361.843	90.25
362.07	112.25
362.296	105.25
362.523	85.25
362.749	88.25
362.976	85.25
363.203	100.25
363.429	79.25
363.656	86.25
363.882	92.25
364.109	95.25
364.335	91.25
364.562	94.25
364.788	81.25
365.015	102.25
365.241	86.25
365.468	105.25
365.694	100.25
365.92	90.25
366.147	92.25
366.373	72.25
366.599	86.25
366.826	87.25
367.052	89.25
367.278	79.25
367.505	77.25
367.731	95.25
367.957	97.25
368.184	78.25
368.41	96.25
368.636	109.25
368.862	101.25
369.089	110.25
369.315	96.25
369.541	98.25
369.767	112.25
369.993	96.25
370.219	86.25
370.445	93.25
370.672	94.25
370.898	78.25
371.124	92.25
371.35	96.25
371.576	77.25
371.802	73.25
372.028	81.25
372.254	70.25
372.48	81.25
372.706	91.25
372.932	86.25
373.158	85.25
373.384	84.25
373.61	100.25
373.835	93.25
374.061	94.25
374.287	89.25
374.513	72.25
374.739	88.25
374.965	110.25
375.191	87.25
375.416	87.25
375.642	82.25
375.868	95.25
376.094	90.25
376.319	88.25
376.545	80.25
376.771	81.25
376.997	98.25
377.222	95.25
377.448	93.25
377.674	98.25
377.899	79.25
378.125	85.25
378.35	82.25
378.576	76.25
378.802	94.25
379.027	87.25
379.253	94.25
379.478	79.25
379.704	99.25
379.929	93.25
380.155	100.25
380.38	96.25
380.606	89.25
380.831	101.25
381.057	104.25
381.282	100.25
381.507	108.25
381.733	111.25
381.958	89.25
382.184	102.25
382.409	104.25
382.634	98.25
382.86	99.25
383.085	87.25
383.31	98.25
383.535	99.25
383.761	88.25
383.986	104.25
384.211	95.25
384.436	89.25
384.662	95.25
384.887	94.25
385.112	87.25
385.337	92.25
385.562	99.25
385.787	102.25
386.013	94.25
386.238	102.25
386.463	102.25
386.688	112.25
386.913	107.25
387.138	102.25
387.363	94.25
387.588	99.25
387.813	85.25
388.038	83.25
388.263	98.25
388.488	99.25
388.713	84.25
388.938	99.25
389.163	111.25
389.387	87.25
389.612	80.25
389.837	110.25
390.062	97.25
390.287	95.25
390.512	91.25
390.736	88.25
390.961	93.25
391.186	85.25
391.411	107.25
391.636	64.25
391.86	91.25
392.085	96.25
392.31	88.25
392.534	77.25
392.759	83.25
392.984	81.25
393.208	98.25
393.433	84.25
393.658	75.25
393.882	78.25
394.107	91.25
394.331	101.25
394.556	91.25
394.78	102.25
395.005	79.25
395.229	92.25
395.454	90.25
395.678	83.25
395.903	82.25
396.127	108.25
396.352	83.25
396.576	99.25
396.801	94.25
397.025	100.25
397.249	80.25
397.474	91.25
397.698	83.25
397.922	81.25
398.147	83.25
398.371	82.25
398.595	77.25
398.82	97.25
399.044	80.25
399.268	90.25
399.492	83.25
399.717	85.25
399.941	94.25
400.165	100.25
400.389	94.25
400.613	100.25
400.837	94.25
401.062	99.25
401.286	96.25
401.51	90.25
401.734	104.25
401.958	104.25
402.182	126.25
402.406	166.25
402.63	118.25
402.854	92.25
403.078	94.25
403.302	91.25
403.526	89.25
403.75	85.25
403.974	89.25
404.198	85.25
404.422	102.25
404.645	92.25
404.869	81.25
405.093	89.25
405.317	85.25
405.541	93.25
405.765	112.25
405.988	119.25
406.212	167.25
406.436	217.25
406.66	153.25
406.883	106.25
407.107	102.25
407.331	108.25
407.555	98.25
407.778	100.25
408.002	94.25
408.226	92.25
408.449	98.25
408.673	80.25
408.896	99.25
409.12	96.25
409.344	92.25
409.567	87.25
409.791	95.25
410.014	89.25
410.238	107.25
410.461	93.25
410.685	86.25
410.908	99.25
411.132	117.25
411.355	101.25
411.578	95.25
411.802	90.25
412.025	85.25
412.249	89.25
412.472	102.25
412.695	92.25
412.919	83.25
413.142	74.25
413.365	100.25
413.589	85.25
413.812	91.25
414.035	90.25
414.258	81.25
414.482	81.25
414.705	85.25
414.928	89.25
415.151	94.25
415.374	94.25
415.597	83.25
415.821	93.25
416.044	110.25
416.267	93.25
416.49	85.25
416.713	82.25
416.936	76.25
417.159	88.25
417.382	85.25
417.605	76.25
417.828	91.25
418.051	91.25
418.274	94.25
418.497	86.25
418.72	81.25
418.943	85.25
419.166	94.25
419.389	82.25
419.611	90.25
419.834	98.25
420.057	98.25
420.28	117.25
420.503	80.25
420.726	99.25
420.948	84.25
421.171	103.25
421.394	101.25
421.617	88.25
421.839	102.25
422.062	81.25
422.285	97.25
422.507	89.25
422.73	103.25
422.953	109.25
423.175	74.25
423.398	78.25
423.621	102.25
423.843	90.25
424.066	86.25
424.288	85.25
424.511	88.25
424.733	101.25
424.956	114.25
425.178	101.25
425.401	109.25
425.623	104.25
425.846	91.25
426.068	95.25
426.291	93.25
426.513	101.25
426.735	102.25
426.958	97.25
427.18	124.25
427.402	176.25
427.625	169.25
427.847	137.25
428.069	95.25
428.292	90.25
428.514	91.25
428.736	87.25
428.958	74.25
429.181	84.25
429.403	84.25
429.625	89.25
429.847	88.25
430.069	107.25
430.292	76.25
430.514	86.25
430.736	77.25
430.958	84.25
431.18	67.25
431.402	80.25
431.624	84.25
431.846	87.25
432.068	74.25
432.29	92.25
432.512	80.25
432.734	88.25
432.956	99.25
433.178	99.25
433.4	107.25
433.622	88.25
433.844	91.25
434.066	87.25
434.287	91.25
434.509	84.25
434.731	76.25
434.953	99.25
435.175	92.25
435.397	84.25
435.618	83.25
435.84	112.25
436.062	131.25
436.284	114.25
436.505	112.25
436.727	104.25
436.949	96.25
437.17	87.25
437.392	84.25
437.614	89.25
437.835	114.25
438.057	129.25
438.278	118.25
438.5	98.25
438.721	152.25
438.943	123.25
439.165	96.25
439.386	92.25
439.608	87.25
439.829	97.25
440.05	128.25
440.272	157.25
440.493	106.25
440.715	91.25
440.936	85.25
441.158	85.25
441.379	97.25
441.6	98.25
441.822	89.25
442.043	105.25
442.264	111.25
442.486	100.25
442.707	86.25
442.928	102.25
443.149	126.25
443.371	118.25
443.592	109.25
443.813	119.25
444.034	117.25
444.255	87.25
444.476	82.25
444.698	98.25
444.919	99.25
445.14	139.25
445.361	141.25
445.582	138.25
445.803	163.25
446.024	167.25
446.245	152.25
446.466	111.25
446.687	92.25
446.908	86.25
447.129	82.25
447.35	90.25
447.571	95.25
447.792	93.25
448.013	102.25
448.234	126.25
448.455	115.25
448.675	120.25
448.896	119.25
449.117	95.25
449.338	107.25
449.559	141.25
449.779	150.25
450	84.25
450.221	94.25
450.442	86.25
450.662	96.25
450.883	109.25
451.104	120.25
451.324	79.25
451.545	92.25
451.766	84.25
451.986	97.25
452.207	94.25
452.428	93.25
452.648	115.25
452.869	111.25
453.089	118.25
453.31	112.25
453.53	72.25
453.751	87.25
453.971	98.25
454.192	102.25
454.412	98.25
454.633	95.25
454.853	80.25
455.073	98.25
455.294	99.25
455.514	113.25
455.734	75.25
455.955	91.25
456.175	88.25
456.395	73.25
456.616	88.25
456.836	103.25
457.056	85.25
457.276	71.25
457.497	83.25
457.717	88.25
457.937	98.25
458.157	80.25
458.377	86.25
458.598	101.25
458.818	152.25
459.038	156.25
459.258	132.25
459.478	90.25
459.698	88.25
459.918	79.25
460.138	93.25
460.358	84.25
460.578	89.25
460.798	80.25
461.018	94.25
461.238	99.25
461.458	72.25
461.678	94.25
461.898	86.25
462.118	92.25
462.338	99.25
462.558	74.25
462.777	87.25
462.997	84.25
463.217	100.25
463.437	94.25
463.657	80.25
463.876	69.25
464.096	92.25
464.316	74.25
464.536	94.25
464.755	87.25
464.975	113.25
465.195	164.25
465.414	165.25
465.634	85.25
465.854	87.25
466.073	96.25
466.293	79.25
466.512	95.25
466.732	75.25
466.951	95.25
467.171	87.25
467.391	101.25
467.61	101.25
467.829	90.25
468.049	93.25
468.268	92.25
468.488	91.25
468.707	83.25
468.927	84.25
469.146	87.25
469.365	92.25
469.585	86.25
469.804	95.25
470.023	82.25
470.243	106.25
470.462	101.25
470.681	113.25
470.901	98.25
471.12	87.25
471.339	85.25
471.558	94.25
471.777	88.25
471.997	90.25
472.216	91.25
472.435	100.25
472.654	89.25
472.873	87.25
473.092	64.25
473.311	86.25
473.53	82.25
473.749	85.25
473.968	98.25
474.187	119.25
474.406	98.25
474.625	85.25
474.844	78.25
475.063	89.25
475.282	83.25
475.501	74.25
475.72	84.25
475.939	95.25
476.158	99.25
476.377	106.25
476.596	99.25
476.814	105.25
477.033	93.25
477.252	78.25
477.471	85.25
477.69	80.25
477.908	89.25
478.127	78.25
478.346	79.25
478.564	87.25
478.783	117.25
479.002	93.25
479.22	93.25
479.439	104.25
479.658	92.25
479.876	90.25
480.095	101.25
480.313	80.25
480.532	86.25
480.751	81.25
480.969	79.25
481.188	103.25
481.406	101.25
481.624	94.25
481.843	98.25
482.061	89.25
482.28	95.25
482.498	82.25
482.717	101.25
482.935	88.25
483.153	93.25
483.372	89.25
483.59	98.25
483.808	91.25
484.027	106.25
484.245	74.25
484.463	91.25
484.681	90.25
484.9	93.25
485.118	98.25
485.336	91.25
485.554	101.25
485.772	103.25
485.99	98.25
486.209	102.25
486.427	101.25
486.645	112.25
486.863	115.25
487.081	109.25
487.299	92.25
487.517	82.25
487.735	91.25
487.953	101.25
488.171	87.25
488.389	101.25
488.607	92.25
488.825	82.25
489.043	91.25
489.261	83.25
489.479	83.25
489.696	97.25
489.914	82.25
490.132	84.25
490.35	94.25
490.568	78.25
490.786	112.25
491.003	80.25
491.221	93.25
491.439	88.25
491.657	104.25
491.874	84.25
492.092	87.25
492.31	84.25
492.527	82.25
492.745	85.25
492.963	82.25
493.18	83.25
493.398	85.25
493.615	82.25
493.833	88.25
494.05	69.25
494.268	100.25
494.485	87.25
494.703	93.25
494.92	99.25
495.138	92.25
495.355	92.25
495.573	80.25
495.79	99.25
496.008	84.25
496.225	95.25
496.442	95.25
496.66	94.25
496.877	100.25
497.094	90.25
497.312	96.25
497.529	79.25
497.746	85.25
497.963	76.25
498.181	86.25
498.398	80.25
498.615	105.25
498.832	108.25
499.049	92.25
499.267	79.25
499.484	87.25
499.701	79.25
499.918	108.25
500.135	95.25
500.352	87.25
500.569	86.25
500.786	82.25
501.003	89.25
501.22	92.25
501.437	86.25
501.654	95.25
501.871	107.25
502.088	90.25
502.305	80.25
502.522	86.25
502.739	93.25
502.956	96.25
503.172	88.25
503.389	103.25
503.606	104.25
503.823	93.25
504.04	97.25
504.256	100.25
504.473	102.25
504.69	81.25
504.907	86.25
505.123	90.25
505.34	94.25
505.557	81.25
505.773	100.25
505.99	85.25
506.207	94.25
506.423	86.25
506.64	110.25
506.856	69.25
507.073	81.25
507.289	86.25
507.506	101.25
507.722	97.25
507.939	104.25
508.155	87.25
508.372	95.25
508.588	85.25
508.805	91.25
509.021	92.25
509.238	108.25
509.454	106.25
509.67	101.25
509.887	110.25
510.103	120.25
510.319	213.25
510.536	800.25
510.752	2426.25
510.968	672.25
511.184	156.25
511.401	116.25
511.617	88.25
511.833	100.25
512.049	81.25
512.265	93.25
512.481	104.25
512.698	102.25
512.914	89.25
513.13	97.25
513.346	79.25
513.562	94.25
513.778	93.25
513.994	99.25
514.21	112.25
514.426	124.25
514.642	144.25
514.858	120.25
515.074	174.25
515.29	461.25
515.506	1561.25
