Data from Uncirc_1991_H10_HRD10591_00071.txt Node
Date: Wed Jan 03 11:50:52 EST 2024
User: Yrep
Spectrometer: HR+D1059
Trigger mode: 1
Integration Time (sec): 1.000000E-1
Scans to average: 1
Electric dark correction enabled: true
Nonlinearity correction enabled: false
Boxcar width: 0
XAxis mode: Wavelengths
Number of Pixels in Spectrum: 2048
>>>>>Begin Spectral Data<<<<<
223.165	-12.19
223.4	-12.19
223.635	-12.19
223.869	-17.19
224.104	-30.19
224.338	-26.19
224.573	-0.19
224.808	-4.19
225.042	-0.19
225.277	-18.19
225.511	-3.19
225.746	6.81
225.98	14.81
226.215	13.81
226.449	19.81
226.683	11.81
226.918	22.81
227.152	21.81
227.387	37.81
227.621	48.81
227.856	61.81
228.09	62.81
228.324	49.81
228.559	45.81
228.793	72.81
229.027	64.81
229.262	69.81
229.496	77.81
229.73	92.81
229.964	91.81
230.199	76.81
230.433	75.81
230.667	75.81
230.901	82.81
231.136	80.81
231.37	87.81
231.604	68.81
231.838	78.81
232.072	91.81
232.306	90.81
232.541	78.81
232.775	71.81
233.009	77.81
233.243	87.81
233.477	61.81
233.711	81.81
233.945	76.81
234.179	90.81
234.413	87.81
234.647	91.81
234.881	87.81
235.115	83.81
235.349	73.81
235.583	74.81
235.817	81.81
236.051	82.81
236.285	83.81
236.519	89.81
236.753	85.81
236.987	73.81
237.221	77.81
237.455	87.81
237.689	76.81
237.922	73.81
238.156	78.81
238.39	73.81
238.624	62.81
238.858	75.81
239.091	81.81
239.325	83.81
239.559	93.81
239.793	78.81
240.027	78.81
240.26	84.81
240.494	79.81
240.728	75.81
240.961	69.81
241.195	79.81
241.429	68.81
241.662	68.81
241.896	74.81
242.13	78.81
242.363	75.81
242.597	85.81
242.83	68.81
243.064	98.81
243.298	59.81
243.531	78.81
243.765	87.81
243.998	73.81
244.232	86.81
244.465	98.81
244.699	81.81
244.932	86.81
245.166	83.81
245.399	77.81
245.633	70.81
245.866	79.81
246.099	77.81
246.333	91.81
246.566	65.81
246.8	69.81
247.033	74.81
247.266	70.81
247.5	78.81
247.733	76.81
247.966	70.81
248.2	81.81
248.433	89.81
248.666	83.81
248.899	87.81
249.133	102.81
249.366	100.81
249.599	105.81
249.832	78.81
250.066	76.81
250.299	84.81
250.532	91.81
250.765	65.81
250.998	73.81
251.231	77.81
251.465	85.81
251.698	69.81
251.931	69.81
252.164	67.81
252.397	93.81
252.63	77.81
252.863	78.81
253.096	80.81
253.329	81.81
253.562	89.81
253.795	84.81
254.028	81.81
254.261	83.81
254.494	78.81
254.727	78.81
254.96	73.81
255.193	81.81
255.426	68.81
255.659	59.81
255.892	78.81
256.124	90.81
256.357	83.81
256.59	86.81
256.823	84.81
257.056	77.81
257.289	78.81
257.521	81.81
257.754	79.81
257.987	85.81
258.22	78.81
258.452	83.81
258.685	77.81
258.918	81.81
259.151	76.81
259.383	84.81
259.616	68.81
259.849	73.81
260.081	94.81
260.314	85.81
260.547	80.81
260.779	80.81
261.012	85.81
261.244	96.81
261.477	95.81
261.71	110.81
261.942	112.81
262.175	132.81
262.407	98.81
262.64	96.81
262.872	81.81
263.105	86.81
263.337	97.81
263.57	78.81
263.802	89.81
264.035	83.81
264.267	90.81
264.499	77.81
264.732	78.81
264.964	70.81
265.197	80.81
265.429	95.81
265.661	84.81
265.894	80.81
266.126	79.81
266.358	92.81
266.591	71.81
266.823	85.81
267.055	80.81
267.287	77.81
267.52	87.81
267.752	87.81
267.984	85.81
268.216	86.81
268.448	75.81
268.681	77.81
268.913	81.81
269.145	90.81
269.377	86.81
269.609	76.81
269.841	93.81
270.073	79.81
270.306	78.81
270.538	89.81
270.77	77.81
271.002	92.81
271.234	101.81
271.466	80.81
271.698	93.81
271.93	85.81
272.162	89.81
272.394	103.81
272.626	95.81
272.858	79.81
273.09	88.81
273.322	85.81
273.553	87.81
273.785	82.81
274.017	77.81
274.249	78.81
274.481	82.81
274.713	94.81
274.945	95.81
275.176	99.81
275.408	93.81
275.64	95.81
275.872	81.81
276.104	84.81
276.335	83.81
276.567	106.81
276.799	112.81
277.031	100.81
277.262	95.81
277.494	85.81
277.726	72.81
277.957	78.81
278.189	79.81
278.421	92.81
278.652	77.81
278.884	102.81
279.115	97.81
279.347	91.81
279.579	91.81
279.81	84.81
280.042	89.81
280.273	89.81
280.505	87.81
280.736	90.81
280.968	93.81
281.199	91.81
281.431	84.81
281.662	87.81
281.894	81.81
282.125	98.81
282.356	134.81
282.588	142.81
282.819	127.81
283.051	103.81
283.282	88.81
283.513	86.81
283.745	88.81
283.976	81.81
284.207	73.81
284.439	90.81
284.67	86.81
284.901	79.81
285.132	67.81
285.364	85.81
285.595	80.81
285.826	73.81
286.057	90.81
286.288	91.81
286.52	90.81
286.751	95.81
286.982	79.81
287.213	81.81
287.444	73.81
287.675	83.81
287.906	88.81
288.138	85.81
288.369	99.81
288.6	91.81
288.831	102.81
289.062	87.81
289.293	91.81
289.524	91.81
289.755	97.81
289.986	93.81
290.217	83.81
290.448	77.81
290.679	95.81
290.91	94.81
291.141	98.81
291.371	84.81
291.602	84.81
291.833	84.81
292.064	91.81
292.295	81.81
292.526	93.81
292.757	97.81
292.987	78.81
293.218	87.81
293.449	93.81
293.68	92.81
293.91	91.81
294.141	85.81
294.372	75.81
294.603	83.81
294.833	90.81
295.064	89.81
295.295	87.81
295.525	81.81
295.756	92.81
295.987	122.81
296.217	163.81
296.448	125.81
296.679	98.81
296.909	93.81
297.14	83.81
297.37	89.81
297.601	88.81
297.831	82.81
298.062	104.81
298.292	84.81
298.523	80.81
298.753	88.81
298.984	91.81
299.214	83.81
299.445	98.81
299.675	102.81
299.905	103.81
300.136	89.81
300.366	78.81
300.597	89.81
300.827	101.81
301.057	91.81
301.288	99.81
301.518	84.81
301.748	96.81
301.979	97.81
302.209	97.81
302.439	96.81
302.669	95.81
302.9	85.81
303.13	101.81
303.36	105.81
303.59	98.81
303.82	116.81
304.051	87.81
304.281	100.81
304.511	86.81
304.741	92.81
304.971	85.81
305.201	103.81
305.431	94.81
305.661	98.81
305.891	94.81
306.121	105.81
306.352	96.81
306.582	101.81
306.812	99.81
307.042	87.81
307.272	91.81
307.502	100.81
307.731	103.81
307.961	83.81
308.191	87.81
308.421	92.81
308.651	93.81
308.881	90.81
309.111	93.81
309.341	96.81
309.571	99.81
309.8	92.81
310.03	90.81
310.26	115.81
310.49	98.81
310.72	103.81
310.949	118.81
311.179	113.81
311.409	92.81
311.639	83.81
311.868	94.81
312.098	83.81
312.328	94.81
312.557	105.81
312.787	114.81
313.017	111.81
313.246	95.81
313.476	95.81
313.706	76.81
313.935	95.81
314.165	91.81
314.394	110.81
314.624	106.81
314.853	97.81
315.083	93.81
315.312	102.81
315.542	83.81
315.771	95.81
316.001	97.81
316.23	89.81
316.46	98.81
316.689	95.81
316.919	92.81
317.148	95.81
317.377	96.81
317.607	94.81
317.836	89.81
318.065	82.81
318.295	81.81
318.524	92.81
318.753	84.81
318.983	92.81
319.212	99.81
319.441	101.81
319.67	108.81
319.9	92.81
320.129	102.81
320.358	86.81
320.587	99.81
320.816	100.81
321.046	114.81
321.275	107.81
321.504	94.81
321.733	104.81
321.962	84.81
322.191	102.81
322.42	108.81
322.649	110.81
322.878	112.81
323.108	123.81
323.337	123.81
323.566	151.81
323.795	178.81
324.024	230.81
324.253	512.81
324.482	1102.81
324.71	2409.81
324.939	3237.81
325.168	1107.81
325.397	292.81
325.626	174.81
325.855	155.81
326.084	129.81
326.313	134.81
326.542	185.81
326.77	277.81
326.999	585.81
327.228	1256.81
327.457	2418.81
327.686	1953.81
327.914	480.81
328.143	226.81
328.372	162.81
328.6	130.81
328.829	140.81
329.058	151.81
329.287	150.81
329.515	135.81
329.744	116.81
329.972	100.81
330.201	104.81
330.43	122.81
330.658	136.81
330.887	167.81
331.115	124.81
331.344	112.81
331.572	108.81
331.801	115.81
332.03	113.81
332.258	118.81
332.486	92.81
332.715	101.81
332.943	93.81
333.172	85.81
333.4	102.81
333.629	107.81
333.857	107.81
334.085	112.81
334.314	106.81
334.542	98.81
334.771	98.81
334.999	102.81
335.227	90.81
335.455	92.81
335.684	97.81
335.912	88.81
336.14	109.81
336.369	103.81
336.597	99.81
336.825	94.81
337.053	103.81
337.281	90.81
337.51	100.81
337.738	92.81
337.966	86.81
338.194	114.81
338.422	86.81
338.65	103.81
338.878	89.81
339.106	95.81
339.334	75.81
339.562	82.81
339.79	97.81
340.018	88.81
340.246	98.81
340.474	103.81
340.702	92.81
340.93	95.81
341.158	102.81
341.386	103.81
341.614	99.81
341.842	91.81
342.07	89.81
342.298	94.81
342.526	85.81
342.754	74.81
342.981	99.81
343.209	93.81
343.437	103.81
343.665	95.81
343.893	95.81
344.12	85.81
344.348	86.81
344.576	87.81
344.804	99.81
345.031	106.81
345.259	98.81
345.487	98.81
345.714	86.81
345.942	89.81
346.17	90.81
346.397	93.81
346.625	100.81
346.853	78.81
347.08	86.81
347.308	96.81
347.535	89.81
347.763	103.81
347.99	92.81
348.218	106.81
348.445	106.81
348.673	106.81
348.9	101.81
349.128	89.81
349.355	91.81
349.583	83.81
349.81	96.81
350.037	102.81
350.265	85.81
350.492	81.81
350.72	86.81
350.947	107.81
351.174	127.81
351.402	112.81
351.629	106.81
351.856	101.81
352.083	102.81
352.311	122.81
352.538	117.81
352.765	113.81
352.992	116.81
353.22	100.81
353.447	107.81
353.674	102.81
353.901	83.81
354.128	103.81
354.355	82.81
354.583	94.81
354.81	93.81
355.037	87.81
355.264	96.81
355.491	88.81
355.718	100.81
355.945	89.81
356.172	93.81
356.399	91.81
356.626	102.81
356.853	93.81
357.08	90.81
357.307	93.81
357.534	102.81
357.761	95.81
357.988	89.81
358.215	97.81
358.441	92.81
358.668	89.81
358.895	98.81
359.122	97.81
359.349	81.81
359.576	93.81
359.802	102.81
360.029	131.81
360.256	124.81
360.483	104.81
360.709	85.81
360.936	89.81
361.163	108.81
361.39	94.81
361.616	96.81
361.843	87.81
362.07	84.81
362.296	97.81
362.523	94.81
362.749	87.81
362.976	65.81
363.203	109.81
363.429	94.81
363.656	93.81
363.882	91.81
364.109	70.81
364.335	93.81
364.562	97.81
364.788	92.81
365.015	91.81
365.241	102.81
365.468	109.81
365.694	102.81
365.92	106.81
366.147	95.81
366.373	95.81
366.599	94.81
366.826	88.81
367.052	88.81
367.278	99.81
367.505	89.81
367.731	81.81
367.957	91.81
368.184	88.81
368.41	115.81
368.636	125.81
368.862	138.81
369.089	126.81
369.315	103.81
369.541	98.81
369.767	89.81
369.993	101.81
370.219	84.81
370.445	90.81
370.672	87.81
370.898	84.81
371.124	95.81
371.35	109.81
371.576	87.81
371.802	94.81
372.028	78.81
372.254	81.81
372.48	68.81
372.706	61.81
372.932	88.81
373.158	89.81
373.384	93.81
373.61	75.81
373.835	93.81
374.061	89.81
374.287	83.81
374.513	95.81
374.739	86.81
374.965	89.81
375.191	91.81
375.416	84.81
375.642	88.81
375.868	82.81
376.094	82.81
376.319	76.81
376.545	76.81
376.771	93.81
376.997	89.81
377.222	100.81
377.448	109.81
377.674	90.81
377.899	83.81
378.125	85.81
378.35	88.81
378.576	85.81
378.802	102.81
379.027	97.81
379.253	95.81
379.478	83.81
379.704	90.81
379.929	89.81
380.155	98.81
380.38	86.81
380.606	94.81
380.831	91.81
381.057	94.81
381.282	96.81
381.507	91.81
381.733	91.81
381.958	99.81
382.184	104.81
382.409	89.81
382.634	105.81
382.86	91.81
383.085	102.81
383.31	105.81
383.535	106.81
383.761	90.81
383.986	94.81
384.211	106.81
384.436	93.81
384.662	94.81
384.887	91.81
385.112	101.81
385.337	97.81
385.562	97.81
385.787	105.81
386.013	105.81
386.238	117.81
386.463	99.81
386.688	102.81
386.913	85.81
387.138	87.81
387.363	94.81
387.588	102.81
387.813	105.81
388.038	114.81
388.263	88.81
388.488	110.81
388.713	90.81
388.938	79.81
389.163	79.81
389.387	104.81
389.612	88.81
389.837	93.81
390.062	91.81
390.287	85.81
390.512	84.81
390.736	105.81
390.961	89.81
391.186	89.81
391.411	94.81
391.636	76.81
391.86	82.81
392.085	92.81
392.31	83.81
392.534	82.81
392.759	95.81
392.984	84.81
393.208	99.81
393.433	77.81
393.658	86.81
393.882	87.81
394.107	82.81
394.331	85.81
394.556	90.81
394.78	91.81
395.005	82.81
395.229	80.81
395.454	98.81
395.678	85.81
395.903	89.81
396.127	89.81
396.352	81.81
396.576	90.81
396.801	91.81
397.025	90.81
397.249	71.81
397.474	86.81
397.698	94.81
397.922	84.81
398.147	93.81
398.371	84.81
398.595	73.81
398.82	84.81
399.044	85.81
399.268	88.81
399.492	80.81
399.717	84.81
399.941	89.81
400.165	110.81
400.389	100.81
400.613	90.81
400.837	94.81
401.062	89.81
401.286	97.81
401.51	96.81
401.734	98.81
401.958	101.81
402.182	119.81
402.406	167.81
402.63	140.81
402.854	99.81
403.078	94.81
403.302	99.81
403.526	82.81
403.75	90.81
403.974	78.81
404.198	81.81
404.422	85.81
404.645	82.81
404.869	91.81
405.093	95.81
405.317	102.81
405.541	89.81
405.765	98.81
405.988	127.81
406.212	190.81
406.436	259.81
406.66	163.81
406.883	110.81
407.107	99.81
407.331	102.81
407.555	122.81
407.778	115.81
408.002	90.81
408.226	88.81
408.449	84.81
408.673	102.81
408.896	99.81
409.12	93.81
409.344	94.81
409.567	95.81
409.791	82.81
410.014	103.81
410.238	89.81
410.461	97.81
410.685	101.81
410.908	102.81
411.132	95.81
411.355	95.81
411.578	96.81
411.802	77.81
412.025	73.81
412.249	89.81
412.472	99.81
412.695	86.81
412.919	107.81
413.142	83.81
413.365	79.81
413.589	97.81
413.812	88.81
414.035	88.81
414.258	95.81
414.482	82.81
414.705	87.81
414.928	74.81
415.151	81.81
415.374	95.81
415.597	96.81
415.821	90.81
416.044	86.81
416.267	93.81
416.49	89.81
416.713	90.81
416.936	101.81
417.159	96.81
417.382	85.81
417.605	97.81
417.828	83.81
418.051	92.81
418.274	92.81
418.497	77.81
418.72	77.81
418.943	81.81
419.166	94.81
419.389	93.81
419.611	78.81
419.834	77.81
420.057	89.81
420.28	89.81
420.503	93.81
420.726	86.81
420.948	99.81
421.171	94.81
421.394	91.81
421.617	102.81
421.839	91.81
422.062	102.81
422.285	87.81
422.507	82.81
422.73	112.81
422.953	101.81
423.175	106.81
423.398	85.81
423.621	97.81
423.843	89.81
424.066	87.81
424.288	91.81
424.511	101.81
424.733	112.81
424.956	120.81
425.178	107.81
425.401	99.81
425.623	108.81
425.846	90.81
426.068	88.81
426.291	86.81
426.513	82.81
426.735	68.81
426.958	103.81
427.18	113.81
427.402	168.81
427.625	206.81
427.847	144.81
428.069	100.81
428.292	79.81
428.514	85.81
428.736	75.81
428.958	88.81
429.181	77.81
429.403	93.81
429.625	95.81
429.847	100.81
430.069	97.81
430.292	98.81
430.514	101.81
430.736	90.81
430.958	94.81
431.18	71.81
431.402	68.81
431.624	75.81
431.846	100.81
432.068	87.81
432.29	95.81
432.512	83.81
432.734	83.81
432.956	88.81
433.178	119.81
433.4	97.81
433.622	105.81
433.844	103.81
434.066	102.81
434.287	95.81
434.509	95.81
434.731	88.81
434.953	79.81
435.175	107.81
435.397	91.81
435.618	93.81
435.84	110.81
436.062	163.81
436.284	132.81
436.505	113.81
436.727	103.81
436.949	91.81
437.17	75.81
437.392	87.81
437.614	98.81
437.835	112.81
438.057	134.81
438.278	129.81
438.5	110.81
438.721	156.81
438.943	119.81
439.165	86.81
439.386	86.81
439.608	101.81
439.829	98.81
440.05	140.81
440.272	161.81
440.493	119.81
440.715	110.81
440.936	89.81
441.158	84.81
441.379	80.81
441.6	88.81
441.822	95.81
442.043	111.81
442.264	118.81
442.486	123.81
442.707	101.81
442.928	112.81
443.149	159.81
443.371	161.81
443.592	132.81
443.813	137.81
444.034	119.81
444.255	99.81
444.476	65.81
444.698	78.81
444.919	75.81
445.14	131.81
445.361	144.81
445.582	128.81
445.803	186.81
446.024	164.81
446.245	166.81
446.466	142.81
446.687	100.81
446.908	86.81
447.129	89.81
447.35	100.81
447.571	95.81
447.792	99.81
448.013	94.81
448.234	112.81
448.455	110.81
448.675	138.81
448.896	134.81
449.117	114.81
449.338	115.81
449.559	161.81
449.779	162.81
450	108.81
450.221	77.81
450.442	82.81
450.662	86.81
450.883	106.81
451.104	124.81
451.324	99.81
451.545	99.81
451.766	74.81
451.986	90.81
452.207	76.81
452.428	94.81
452.648	111.81
452.869	118.81
453.089	117.81
453.31	131.81
453.53	97.81
453.751	92.81
453.971	113.81
454.192	118.81
454.412	95.81
454.633	70.81
454.853	101.81
455.073	91.81
455.294	98.81
455.514	113.81
455.734	101.81
455.955	79.81
456.175	91.81
456.395	77.81
456.616	77.81
456.836	78.81
457.056	82.81
457.276	89.81
457.497	85.81
457.717	83.81
457.937	87.81
458.157	90.81
458.377	85.81
458.598	113.81
458.818	183.81
459.038	217.81
459.258	150.81
459.478	108.81
459.698	97.81
459.918	89.81
460.138	88.81
460.358	90.81
460.578	94.81
460.798	84.81
461.018	93.81
461.238	93.81
461.458	94.81
461.678	84.81
461.898	70.81
462.118	102.81
462.338	89.81
462.558	85.81
462.777	69.81
462.997	86.81
463.217	75.81
463.437	91.81
463.657	92.81
463.876	79.81
464.096	86.81
464.316	77.81
464.536	85.81
464.755	94.81
464.975	122.81
465.195	198.81
465.414	216.81
465.634	106.81
465.854	78.81
466.073	83.81
466.293	84.81
466.512	82.81
466.732	87.81
466.951	80.81
467.171	95.81
467.391	94.81
467.61	99.81
467.829	94.81
468.049	89.81
468.268	87.81
468.488	80.81
468.707	68.81
468.927	73.81
469.146	89.81
469.365	92.81
469.585	91.81
469.804	80.81
470.023	92.81
470.243	107.81
470.462	106.81
470.681	117.81
470.901	88.81
471.12	97.81
471.339	88.81
471.558	77.81
471.777	80.81
471.997	79.81
472.216	85.81
472.435	94.81
472.654	97.81
472.873	81.81
473.092	90.81
473.311	70.81
473.53	90.81
473.749	95.81
473.968	99.81
474.187	125.81
474.406	106.81
474.625	95.81
474.844	73.81
475.063	98.81
475.282	85.81
475.501	85.81
475.72	94.81
475.939	82.81
476.158	92.81
476.377	92.81
476.596	90.81
476.814	102.81
477.033	99.81
477.252	81.81
477.471	92.81
477.69	95.81
477.908	100.81
478.127	93.81
478.346	86.81
478.564	96.81
478.783	98.81
479.002	93.81
479.22	94.81
479.439	106.81
479.658	102.81
479.876	113.81
480.095	101.81
480.313	98.81
480.532	87.81
480.751	88.81
480.969	94.81
481.188	84.81
481.406	89.81
481.624	80.81
481.843	80.81
482.061	96.81
482.28	87.81
482.498	85.81
482.717	90.81
482.935	89.81
483.153	85.81
483.372	105.81
483.59	94.81
483.808	79.81
484.027	93.81
484.245	92.81
484.463	90.81
484.681	115.81
484.9	87.81
485.118	88.81
485.336	83.81
485.554	93.81
485.772	77.81
485.99	96.81
486.209	95.81
486.427	92.81
486.645	105.81
486.863	115.81
487.081	102.81
487.299	97.81
487.517	93.81
487.735	108.81
487.953	94.81
488.171	87.81
488.389	94.81
488.607	99.81
488.825	86.81
489.043	91.81
489.261	93.81
489.479	98.81
489.696	82.81
489.914	86.81
490.132	79.81
490.35	103.81
490.568	91.81
490.786	87.81
491.003	69.81
491.221	78.81
491.439	89.81
491.657	87.81
491.874	95.81
492.092	94.81
492.31	69.81
492.527	83.81
492.745	90.81
492.963	75.81
493.18	82.81
493.398	98.81
493.615	100.81
493.833	84.81
494.05	86.81
494.268	82.81
494.485	84.81
494.703	98.81
494.92	87.81
495.138	97.81
495.355	98.81
495.573	100.81
495.79	101.81
496.008	101.81
496.225	98.81
496.442	73.81
496.66	97.81
496.877	92.81
497.094	95.81
497.312	97.81
497.529	83.81
497.746	97.81
497.963	99.81
498.181	86.81
498.398	110.81
498.615	111.81
498.832	98.81
499.049	93.81
499.267	102.81
499.484	93.81
499.701	98.81
499.918	111.81
500.135	91.81
500.352	82.81
500.569	94.81
500.786	86.81
501.003	90.81
501.22	95.81
501.437	108.81
501.654	90.81
501.871	116.81
502.088	97.81
502.305	87.81
502.522	88.81
502.739	86.81
502.956	89.81
503.172	105.81
503.389	102.81
503.606	112.81
503.823	111.81
504.04	102.81
504.256	96.81
504.473	86.81
504.69	93.81
504.907	98.81
505.123	90.81
505.34	82.81
505.557	94.81
505.773	93.81
505.99	69.81
506.207	99.81
506.423	99.81
506.64	91.81
506.856	95.81
507.073	102.81
507.289	108.81
507.506	97.81
507.722	118.81
507.939	118.81
508.155	93.81
508.372	98.81
508.588	84.81
508.805	99.81
509.021	107.81
509.238	103.81
509.454	105.81
509.67	117.81
509.887	101.81
510.103	131.81
510.319	243.81
510.536	850.81
510.752	2763.81
510.968	734.81
511.184	178.81
511.401	134.81
511.617	106.81
511.833	86.81
512.049	99.81
512.265	91.81
512.481	88.81
512.698	90.81
512.914	95.81
513.13	106.81
513.346	90.81
513.562	88.81
513.778	93.81
513.994	100.81
514.21	101.81
514.426	137.81
514.642	161.81
514.858	151.81
515.074	188.81
