Data from Uncirc_1991_H10_HRD10591_00065.txt Node
Date: Wed Jan 03 11:50:51 EST 2024
User: Yrep
Spectrometer: HR+D1059
Trigger mode: 1
Integration Time (sec): 1.000000E-1
Scans to average: 1
Electric dark correction enabled: true
Nonlinearity correction enabled: false
Boxcar width: 0
XAxis mode: Wavelengths
Number of Pixels in Spectrum: 2048
>>>>>Begin Spectral Data<<<<<
223.165	-9.25
223.4	-9.25
223.635	-9.25
223.869	-27.25
224.104	-27.25
224.338	-15.25
224.573	-10.25
224.808	-20.25
225.042	-2.25
225.277	-6.25
225.511	-2.25
225.746	-3.25
225.98	-3.25
226.215	10.75
226.449	21.75
226.683	22.75
226.918	29.75
227.152	41.75
227.387	34.75
227.621	37.75
227.856	43.75
228.09	65.75
228.324	73.75
228.559	46.75
228.793	51.75
229.027	52.75
229.262	65.75
229.496	78.75
229.73	88.75
229.964	86.75
230.199	81.75
230.433	74.75
230.667	82.75
230.901	80.75
231.136	80.75
231.37	86.75
231.604	71.75
231.838	70.75
232.072	83.75
232.306	86.75
232.541	83.75
232.775	85.75
233.009	85.75
233.243	79.75
233.477	76.75
233.711	71.75
233.945	63.75
234.179	90.75
234.413	85.75
234.647	75.75
234.881	79.75
235.115	88.75
235.349	84.75
235.583	80.75
235.817	85.75
236.051	76.75
236.285	78.75
236.519	89.75
236.753	91.75
236.987	71.75
237.221	77.75
237.455	90.75
237.689	77.75
237.922	75.75
238.156	85.75
238.39	80.75
238.624	77.75
238.858	83.75
239.091	74.75
239.325	83.75
239.559	77.75
239.793	97.75
240.027	75.75
240.26	80.75
240.494	92.75
240.728	74.75
240.961	86.75
241.195	75.75
241.429	61.75
241.662	67.75
241.896	70.75
242.13	79.75
242.363	67.75
242.597	78.75
242.83	68.75
243.064	85.75
243.298	83.75
243.531	89.75
243.765	86.75
243.998	95.75
244.232	90.75
244.465	82.75
244.699	77.75
244.932	75.75
245.166	79.75
245.399	75.75
245.633	80.75
245.866	82.75
246.099	76.75
246.333	78.75
246.566	78.75
246.8	74.75
247.033	83.75
247.266	64.75
247.5	76.75
247.733	76.75
247.966	81.75
248.2	89.75
248.433	71.75
248.666	73.75
248.899	76.75
249.133	83.75
249.366	104.75
249.599	88.75
249.832	102.75
250.066	93.75
250.299	82.75
250.532	65.75
250.765	67.75
250.998	85.75
251.231	76.75
251.465	85.75
251.698	87.75
251.931	78.75
252.164	89.75
252.397	82.75
252.63	83.75
252.863	75.75
253.096	88.75
253.329	85.75
253.562	69.75
253.795	78.75
254.028	91.75
254.261	81.75
254.494	76.75
254.727	81.75
254.96	82.75
255.193	73.75
255.426	70.75
255.659	83.75
255.892	89.75
256.124	79.75
256.357	96.75
256.59	83.75
256.823	77.75
257.056	80.75
257.289	72.75
257.521	81.75
257.754	81.75
257.987	66.75
258.22	101.75
258.452	78.75
258.685	81.75
258.918	97.75
259.151	88.75
259.383	90.75
259.616	80.75
259.849	90.75
260.081	75.75
260.314	92.75
260.547	97.75
260.779	75.75
261.012	87.75
261.244	103.75
261.477	87.75
261.71	85.75
261.942	109.75
262.175	116.75
262.407	79.75
262.64	96.75
262.872	57.75
263.105	69.75
263.337	89.75
263.57	84.75
263.802	84.75
264.035	74.75
264.267	66.75
264.499	91.75
264.732	83.75
264.964	76.75
265.197	94.75
265.429	83.75
265.661	87.75
265.894	87.75
266.126	84.75
266.358	93.75
266.591	97.75
266.823	92.75
267.055	96.75
267.287	82.75
267.52	91.75
267.752	76.75
267.984	81.75
268.216	80.75
268.448	82.75
268.681	88.75
268.913	81.75
269.145	80.75
269.377	80.75
269.609	90.75
269.841	89.75
270.073	100.75
270.306	86.75
270.538	79.75
270.77	89.75
271.002	82.75
271.234	83.75
271.466	80.75
271.698	94.75
271.93	91.75
272.162	68.75
272.394	78.75
272.626	85.75
272.858	79.75
273.09	91.75
273.322	70.75
273.553	87.75
273.785	78.75
274.017	91.75
274.249	96.75
274.481	89.75
274.713	92.75
274.945	82.75
275.176	99.75
275.408	98.75
275.64	86.75
275.872	79.75
276.104	100.75
276.335	83.75
276.567	111.75
276.799	114.75
277.031	110.75
277.262	95.75
277.494	82.75
277.726	96.75
277.957	91.75
278.189	82.75
278.421	83.75
278.652	83.75
278.884	97.75
279.115	85.75
279.347	90.75
279.579	97.75
279.81	88.75
280.042	78.75
280.273	94.75
280.505	86.75
280.736	86.75
280.968	85.75
281.199	78.75
281.431	92.75
281.662	89.75
281.894	94.75
282.125	95.75
282.356	128.75
282.588	142.75
282.819	109.75
283.051	80.75
283.282	95.75
283.513	91.75
283.745	89.75
283.976	90.75
284.207	86.75
284.439	79.75
284.67	87.75
284.901	101.75
285.132	87.75
285.364	82.75
285.595	77.75
285.826	86.75
286.057	83.75
286.288	90.75
286.52	94.75
286.751	84.75
286.982	100.75
287.213	78.75
287.444	95.75
287.675	90.75
287.906	99.75
288.138	93.75
288.369	101.75
288.6	94.75
288.831	80.75
289.062	96.75
289.293	96.75
289.524	82.75
289.755	81.75
289.986	106.75
290.217	87.75
290.448	90.75
290.679	77.75
290.91	79.75
291.141	89.75
291.371	85.75
291.602	79.75
291.833	96.75
292.064	81.75
292.295	82.75
292.526	97.75
292.757	86.75
292.987	67.75
293.218	84.75
293.449	81.75
293.68	87.75
293.91	93.75
294.141	82.75
294.372	90.75
294.603	88.75
294.833	77.75
295.064	86.75
295.295	94.75
295.525	116.75
295.756	102.75
295.987	115.75
296.217	129.75
296.448	118.75
296.679	79.75
296.909	97.75
297.14	83.75
297.37	97.75
297.601	102.75
297.831	90.75
298.062	82.75
298.292	106.75
298.523	91.75
298.753	83.75
298.984	85.75
299.214	86.75
299.445	100.75
299.675	95.75
299.905	94.75
300.136	102.75
300.366	83.75
300.597	95.75
300.827	78.75
301.057	102.75
301.288	101.75
301.518	96.75
301.748	95.75
301.979	118.75
302.209	93.75
302.439	78.75
302.669	95.75
302.9	95.75
303.13	91.75
303.36	80.75
303.59	102.75
303.82	109.75
304.051	92.75
304.281	88.75
304.511	86.75
304.741	92.75
304.971	96.75
305.201	82.75
305.431	93.75
305.661	91.75
305.891	89.75
306.121	106.75
306.352	93.75
306.582	106.75
306.812	95.75
307.042	99.75
307.272	91.75
307.502	92.75
307.731	76.75
307.961	101.75
308.191	74.75
308.421	91.75
308.651	87.75
308.881	97.75
309.111	91.75
309.341	95.75
309.571	93.75
309.8	98.75
310.03	104.75
310.26	102.75
310.49	95.75
310.72	100.75
310.949	111.75
311.179	102.75
311.409	95.75
311.639	101.75
311.868	108.75
312.098	115.75
312.328	93.75
312.557	103.75
312.787	111.75
313.017	96.75
313.246	94.75
313.476	90.75
313.706	99.75
313.935	93.75
314.165	109.75
314.394	101.75
314.624	103.75
314.853	91.75
315.083	88.75
315.312	90.75
315.542	98.75
315.771	80.75
316.001	84.75
316.23	82.75
316.46	88.75
316.689	108.75
316.919	94.75
317.148	104.75
317.377	93.75
317.607	102.75
317.836	92.75
318.065	79.75
318.295	98.75
318.524	80.75
318.753	95.75
318.983	91.75
319.212	107.75
319.441	111.75
319.67	106.75
319.9	94.75
320.129	91.75
320.358	89.75
320.587	106.75
320.816	103.75
321.046	110.75
321.275	114.75
321.504	90.75
321.733	100.75
321.962	102.75
322.191	109.75
322.42	104.75
322.649	110.75
322.878	116.75
323.108	116.75
323.337	112.75
323.566	131.75
323.795	161.75
324.024	234.75
324.253	429.75
324.482	975.75
324.71	2054.75
324.939	2732.75
325.168	960.75
325.397	283.75
325.626	166.75
325.855	133.75
326.084	117.75
326.313	142.75
326.542	160.75
326.77	258.75
326.999	503.75
327.228	1091.75
327.457	2038.75
327.686	1615.75
327.914	429.75
328.143	214.75
328.372	157.75
328.6	115.75
328.829	125.75
329.058	141.75
329.287	137.75
329.515	97.75
329.744	121.75
329.972	94.75
330.201	110.75
330.43	123.75
330.658	128.75
330.887	171.75
331.115	137.75
331.344	102.75
331.572	101.75
331.801	110.75
332.03	106.75
332.258	97.75
332.486	89.75
332.715	87.75
332.943	81.75
333.172	91.75
333.4	94.75
333.629	108.75
333.857	123.75
334.085	100.75
334.314	84.75
334.542	96.75
334.771	99.75
334.999	103.75
335.227	111.75
335.455	93.75
335.684	88.75
335.912	91.75
336.14	92.75
336.369	115.75
336.597	101.75
336.825	103.75
337.053	94.75
337.281	79.75
337.51	91.75
337.738	95.75
337.966	94.75
338.194	98.75
338.422	78.75
338.65	81.75
338.878	86.75
339.106	89.75
339.334	89.75
339.562	76.75
339.79	75.75
340.018	89.75
340.246	105.75
340.474	98.75
340.702	87.75
340.93	85.75
341.158	89.75
341.386	92.75
341.614	94.75
341.842	94.75
342.07	97.75
342.298	104.75
342.526	90.75
342.754	91.75
342.981	80.75
343.209	89.75
343.437	105.75
343.665	95.75
343.893	84.75
344.12	89.75
344.348	98.75
344.576	86.75
344.804	107.75
345.031	105.75
345.259	100.75
345.487	103.75
345.714	91.75
345.942	92.75
346.17	91.75
346.397	103.75
346.625	90.75
346.853	94.75
347.08	87.75
347.308	93.75
347.535	106.75
347.763	104.75
347.99	112.75
348.218	99.75
348.445	113.75
348.673	90.75
348.9	88.75
349.128	90.75
349.355	83.75
349.583	96.75
349.81	93.75
350.037	103.75
350.265	96.75
350.492	96.75
350.72	100.75
350.947	95.75
351.174	106.75
351.402	105.75
351.629	97.75
351.856	104.75
352.083	89.75
352.311	111.75
352.538	100.75
352.765	115.75
352.992	126.75
353.22	121.75
353.447	105.75
353.674	114.75
353.901	102.75
354.128	97.75
354.355	102.75
354.583	97.75
354.81	86.75
355.037	81.75
355.264	103.75
355.491	97.75
355.718	87.75
355.945	96.75
356.172	98.75
356.399	88.75
356.626	87.75
356.853	102.75
357.08	83.75
357.307	99.75
357.534	95.75
357.761	94.75
357.988	95.75
358.215	94.75
358.441	90.75
358.668	90.75
358.895	86.75
359.122	85.75
359.349	90.75
359.576	93.75
359.802	104.75
360.029	127.75
360.256	105.75
360.483	110.75
360.709	91.75
360.936	91.75
361.163	91.75
361.39	108.75
361.616	93.75
361.843	80.75
362.07	94.75
362.296	101.75
362.523	101.75
362.749	81.75
362.976	104.75
363.203	93.75
363.429	84.75
363.656	87.75
363.882	92.75
364.109	96.75
364.335	103.75
364.562	91.75
364.788	84.75
365.015	98.75
365.241	117.75
365.468	113.75
365.694	99.75
365.92	93.75
366.147	93.75
366.373	88.75
366.599	98.75
366.826	87.75
367.052	102.75
367.278	94.75
367.505	71.75
367.731	104.75
367.957	96.75
368.184	99.75
368.41	102.75
368.636	106.75
368.862	111.75
369.089	98.75
369.315	81.75
369.541	93.75
369.767	93.75
369.993	89.75
370.219	88.75
370.445	99.75
370.672	92.75
370.898	91.75
371.124	94.75
371.35	98.75
371.576	87.75
371.802	91.75
372.028	96.75
372.254	101.75
372.48	85.75
372.706	84.75
372.932	86.75
373.158	95.75
373.384	84.75
373.61	76.75
373.835	84.75
374.061	83.75
374.287	92.75
374.513	83.75
374.739	90.75
374.965	84.75
375.191	95.75
375.416	91.75
375.642	75.75
375.868	83.75
376.094	91.75
376.319	93.75
376.545	101.75
376.771	102.75
376.997	106.75
377.222	95.75
377.448	95.75
377.674	83.75
377.899	94.75
378.125	99.75
378.35	99.75
378.576	75.75
378.802	77.75
379.027	86.75
379.253	83.75
379.478	99.75
379.704	100.75
379.929	90.75
380.155	92.75
380.38	89.75
380.606	90.75
380.831	102.75
381.057	94.75
381.282	95.75
381.507	87.75
381.733	98.75
381.958	84.75
382.184	84.75
382.409	88.75
382.634	100.75
382.86	86.75
383.085	95.75
383.31	101.75
383.535	108.75
383.761	92.75
383.986	103.75
384.211	105.75
384.436	99.75
384.662	105.75
384.887	90.75
385.112	106.75
385.337	102.75
385.562	107.75
385.787	98.75
386.013	106.75
386.238	110.75
386.463	106.75
386.688	101.75
386.913	94.75
387.138	95.75
387.363	106.75
387.588	93.75
387.813	86.75
388.038	103.75
388.263	111.75
388.488	111.75
388.713	102.75
388.938	106.75
389.163	89.75
389.387	96.75
389.612	92.75
389.837	99.75
390.062	93.75
390.287	105.75
390.512	88.75
390.736	86.75
390.961	104.75
391.186	87.75
391.411	100.75
391.636	80.75
391.86	89.75
392.085	82.75
392.31	87.75
392.534	90.75
392.759	93.75
392.984	95.75
393.208	77.75
393.433	93.75
393.658	85.75
393.882	84.75
394.107	89.75
394.331	83.75
394.556	96.75
394.78	84.75
395.005	86.75
395.229	86.75
395.454	86.75
395.678	85.75
395.903	97.75
396.127	96.75
396.352	87.75
396.576	75.75
396.801	80.75
397.025	75.75
397.249	84.75
397.474	89.75
397.698	84.75
397.922	95.75
398.147	85.75
398.371	94.75
398.595	98.75
398.82	91.75
399.044	78.75
399.268	69.75
399.492	89.75
399.717	102.75
399.941	112.75
400.165	87.75
400.389	89.75
400.613	94.75
400.837	90.75
401.062	94.75
401.286	89.75
401.51	90.75
401.734	87.75
401.958	99.75
402.182	144.75
402.406	170.75
402.63	131.75
402.854	90.75
403.078	92.75
403.302	81.75
403.526	94.75
403.75	103.75
403.974	103.75
404.198	100.75
404.422	93.75
404.645	102.75
404.869	90.75
405.093	102.75
405.317	101.75
405.541	108.75
405.765	113.75
405.988	122.75
406.212	194.75
406.436	273.75
406.66	172.75
406.883	116.75
407.107	94.75
407.331	87.75
407.555	111.75
407.778	111.75
408.002	97.75
408.226	96.75
408.449	99.75
408.673	90.75
408.896	94.75
409.12	104.75
409.344	89.75
409.567	83.75
409.791	95.75
410.014	97.75
410.238	91.75
410.461	99.75
410.685	99.75
410.908	105.75
411.132	92.75
411.355	109.75
411.578	100.75
411.802	98.75
412.025	74.75
412.249	89.75
412.472	85.75
412.695	98.75
412.919	87.75
413.142	75.75
413.365	88.75
413.589	94.75
413.812	95.75
414.035	101.75
414.258	89.75
414.482	94.75
414.705	82.75
414.928	76.75
415.151	86.75
415.374	92.75
415.597	84.75
415.821	89.75
416.044	88.75
416.267	74.75
416.49	77.75
416.713	81.75
416.936	92.75
417.159	85.75
417.382	87.75
417.605	86.75
417.828	106.75
418.051	78.75
418.274	88.75
418.497	91.75
418.72	95.75
418.943	84.75
419.166	82.75
419.389	100.75
419.611	109.75
419.834	92.75
420.057	109.75
420.28	107.75
420.503	102.75
420.726	91.75
420.948	104.75
421.171	89.75
421.394	98.75
421.617	81.75
421.839	90.75
422.062	82.75
422.285	84.75
422.507	107.75
422.73	110.75
422.953	91.75
423.175	96.75
423.398	87.75
423.621	89.75
423.843	105.75
424.066	91.75
424.288	87.75
424.511	92.75
424.733	105.75
424.956	113.75
425.178	103.75
425.401	112.75
425.623	99.75
425.846	95.75
426.068	96.75
426.291	97.75
426.513	108.75
426.735	95.75
426.958	87.75
427.18	108.75
427.402	143.75
427.625	175.75
427.847	126.75
428.069	105.75
428.292	92.75
428.514	103.75
428.736	85.75
428.958	90.75
429.181	96.75
429.403	81.75
429.625	89.75
429.847	89.75
430.069	97.75
430.292	100.75
430.514	81.75
430.736	86.75
430.958	92.75
431.18	103.75
431.402	96.75
431.624	86.75
431.846	91.75
432.068	70.75
432.29	90.75
432.512	87.75
432.734	80.75
432.956	89.75
433.178	99.75
433.4	102.75
433.622	85.75
433.844	89.75
434.066	87.75
434.287	99.75
434.509	105.75
434.731	90.75
434.953	95.75
435.175	91.75
435.397	99.75
435.618	82.75
435.84	104.75
436.062	137.75
436.284	133.75
436.505	98.75
436.727	113.75
436.949	115.75
437.17	97.75
437.392	93.75
437.614	84.75
437.835	102.75
438.057	137.75
438.278	129.75
438.5	115.75
438.721	130.75
438.943	103.75
439.165	94.75
439.386	89.75
439.608	86.75
439.829	101.75
440.05	139.75
440.272	148.75
440.493	110.75
440.715	89.75
440.936	78.75
441.158	82.75
441.379	100.75
441.6	101.75
441.822	96.75
442.043	89.75
442.264	115.75
442.486	96.75
442.707	91.75
442.928	116.75
443.149	131.75
443.371	131.75
443.592	118.75
443.813	116.75
444.034	112.75
444.255	89.75
444.476	81.75
444.698	86.75
444.919	94.75
445.14	132.75
445.361	130.75
445.582	120.75
445.803	151.75
446.024	155.75
446.245	145.75
446.466	103.75
446.687	103.75
446.908	101.75
447.129	93.75
447.35	106.75
447.571	94.75
447.792	90.75
448.013	121.75
448.234	109.75
448.455	123.75
448.675	114.75
448.896	130.75
449.117	102.75
449.338	108.75
449.559	142.75
449.779	140.75
450	94.75
450.221	86.75
450.442	81.75
450.662	86.75
450.883	110.75
451.104	126.75
451.324	100.75
451.545	92.75
451.766	99.75
451.986	88.75
452.207	90.75
452.428	91.75
452.648	100.75
452.869	111.75
453.089	101.75
453.31	115.75
453.53	93.75
453.751	85.75
453.971	108.75
454.192	126.75
454.412	100.75
454.633	70.75
454.853	99.75
455.073	81.75
455.294	87.75
455.514	99.75
455.734	100.75
455.955	103.75
456.175	83.75
456.395	82.75
456.616	69.75
456.836	70.75
457.056	83.75
457.276	89.75
457.497	91.75
457.717	95.75
457.937	100.75
458.157	81.75
458.377	97.75
458.598	134.75
458.818	153.75
459.038	183.75
459.258	117.75
459.478	99.75
459.698	83.75
459.918	78.75
460.138	94.75
460.358	88.75
460.578	87.75
460.798	93.75
461.018	91.75
461.238	89.75
461.458	77.75
461.678	90.75
461.898	89.75
462.118	90.75
462.338	90.75
462.558	94.75
462.777	79.75
462.997	91.75
463.217	91.75
463.437	98.75
463.657	92.75
463.876	94.75
464.096	103.75
464.316	85.75
464.536	81.75
464.755	98.75
464.975	114.75
465.195	190.75
465.414	182.75
465.634	99.75
465.854	104.75
466.073	90.75
466.293	98.75
466.512	70.75
466.732	87.75
466.951	100.75
467.171	81.75
467.391	87.75
467.61	115.75
467.829	95.75
468.049	83.75
468.268	92.75
468.488	84.75
468.707	85.75
468.927	95.75
469.146	86.75
469.365	90.75
469.585	81.75
469.804	100.75
470.023	96.75
470.243	95.75
470.462	112.75
470.681	107.75
470.901	85.75
471.12	91.75
471.339	100.75
471.558	92.75
471.777	98.75
471.997	80.75
472.216	85.75
472.435	83.75
472.654	90.75
472.873	96.75
473.092	90.75
473.311	93.75
473.53	86.75
473.749	94.75
473.968	97.75
474.187	129.75
474.406	102.75
474.625	77.75
474.844	81.75
475.063	94.75
475.282	91.75
475.501	101.75
475.72	82.75
475.939	89.75
476.158	93.75
476.377	83.75
476.596	85.75
476.814	99.75
477.033	87.75
477.252	88.75
477.471	85.75
477.69	97.75
477.908	97.75
478.127	94.75
478.346	72.75
478.564	93.75
478.783	89.75
479.002	96.75
479.22	85.75
479.439	110.75
479.658	109.75
479.876	99.75
480.095	100.75
480.313	97.75
480.532	87.75
480.751	99.75
480.969	92.75
481.188	105.75
481.406	96.75
481.624	99.75
481.843	97.75
482.061	77.75
482.28	85.75
482.498	90.75
482.717	88.75
482.935	95.75
483.153	90.75
483.372	83.75
483.59	89.75
483.808	85.75
484.027	86.75
484.245	98.75
484.463	93.75
484.681	101.75
484.9	95.75
485.118	107.75
485.336	108.75
485.554	115.75
485.772	99.75
485.99	102.75
486.209	112.75
486.427	92.75
486.645	111.75
486.863	124.75
487.081	102.75
487.299	100.75
487.517	97.75
487.735	111.75
487.953	97.75
488.171	96.75
488.389	99.75
488.607	103.75
488.825	91.75
489.043	91.75
489.261	99.75
489.479	85.75
489.696	108.75
489.914	91.75
490.132	97.75
490.35	84.75
490.568	95.75
490.786	95.75
491.003	95.75
491.221	84.75
491.439	89.75
491.657	100.75
491.874	95.75
492.092	94.75
492.31	101.75
492.527	105.75
492.745	83.75
492.963	92.75
493.18	92.75
493.398	104.75
493.615	94.75
493.833	101.75
494.05	91.75
494.268	91.75
494.485	99.75
494.703	108.75
494.92	87.75
495.138	86.75
495.355	93.75
495.573	75.75
495.79	86.75
496.008	93.75
496.225	103.75
496.442	87.75
496.66	93.75
496.877	101.75
497.094	97.75
497.312	87.75
497.529	89.75
497.746	102.75
497.963	84.75
498.181	100.75
498.398	96.75
498.615	104.75
498.832	108.75
499.049	84.75
499.267	112.75
499.484	82.75
499.701	85.75
499.918	104.75
500.135	89.75
500.352	101.75
500.569	106.75
500.786	82.75
501.003	96.75
501.22	89.75
501.437	93.75
501.654	98.75
501.871	122.75
502.088	98.75
502.305	78.75
502.522	95.75
502.739	103.75
502.956	86.75
503.172	100.75
503.389	108.75
503.606	100.75
503.823	101.75
504.04	74.75
504.256	99.75
504.473	85.75
504.69	93.75
504.907	89.75
505.123	76.75
505.34	83.75
505.557	98.75
505.773	85.75
505.99	82.75
506.207	87.75
506.423	107.75
506.64	85.75
506.856	91.75
507.073	87.75
507.289	99.75
507.506	104.75
507.722	128.75
507.939	117.75
508.155	100.75
508.372	76.75
508.588	78.75
508.805	115.75
509.021	108.75
509.238	114.75
509.454	105.75
509.67	100.75
509.887	116.75
510.103	129.75
510.319	225.75
510.536	858.75
510.752	2660.75
510.968	727.75
511.184	165.75
511.401	121.75
511.617	107.75
511.833	100.75
512.049	81.75
512.265	87.75
512.481	107.75
512.698	98.75
512.914	93.75
513.13	92.75
513.346	102.75
513.562	103.75
513.778	107.75
513.994	102.75
514.21	104.75
514.426	130.75
514.642	142.75
