Data from Uncirc_1991_H10_HRD10591_00057.txt Node
Date: Wed Jan 03 11:50:49 EST 2024
User: Yrep
Spectrometer: HR+D1059
Trigger mode: 1
Integration Time (sec): 1.000000E-1
Scans to average: 1
Electric dark correction enabled: true
Nonlinearity correction enabled: false
Boxcar width: 0
XAxis mode: Wavelengths
Number of Pixels in Spectrum: 2048
>>>>>Begin Spectral Data<<<<<
223.165	-15.75
223.4	-15.75
223.635	-15.75
223.869	-23.75
224.104	-17.75
224.338	-26.75
224.573	0.25
224.808	-17.75
225.042	0.25
225.277	-10.75
225.511	-12.75
225.746	2.25
225.98	12.25
226.215	10.25
226.449	15.25
226.683	26.25
226.918	25.25
227.152	33.25
227.387	40.25
227.621	27.25
227.856	39.25
228.09	44.25
228.324	55.25
228.559	54.25
228.793	70.25
229.027	55.25
229.262	59.25
229.496	70.25
229.73	76.25
229.964	78.25
230.199	76.25
230.433	86.25
230.667	75.25
230.901	76.25
231.136	74.25
231.37	80.25
231.604	76.25
231.838	70.25
232.072	72.25
232.306	97.25
232.541	78.25
232.775	84.25
233.009	80.25
233.243	70.25
233.477	86.25
233.711	74.25
233.945	71.25
234.179	90.25
234.413	71.25
234.647	90.25
234.881	63.25
235.115	94.25
235.349	78.25
235.583	70.25
235.817	86.25
236.051	77.25
236.285	68.25
236.519	79.25
236.753	72.25
236.987	82.25
237.221	69.25
237.455	76.25
237.689	82.25
237.922	79.25
238.156	83.25
238.39	78.25
238.624	74.25
238.858	74.25
239.091	64.25
239.325	91.25
239.559	69.25
239.793	82.25
240.027	90.25
240.26	78.25
240.494	75.25
240.728	79.25
240.961	59.25
241.195	80.25
241.429	78.25
241.662	75.25
241.896	74.25
242.13	69.25
242.363	64.25
242.597	64.25
242.83	60.25
243.064	82.25
243.298	70.25
243.531	88.25
243.765	62.25
243.998	82.25
244.232	74.25
244.465	81.25
244.699	91.25
244.932	80.25
245.166	90.25
245.399	90.25
245.633	75.25
245.866	67.25
246.099	78.25
246.333	78.25
246.566	81.25
246.8	82.25
247.033	82.25
247.266	79.25
247.5	89.25
247.733	85.25
247.966	79.25
248.2	98.25
248.433	66.25
248.666	77.25
248.899	76.25
249.133	79.25
249.366	97.25
249.599	94.25
249.832	86.25
250.066	93.25
250.299	83.25
250.532	86.25
250.765	59.25
250.998	70.25
251.231	89.25
251.465	76.25
251.698	78.25
251.931	94.25
252.164	81.25
252.397	72.25
252.63	79.25
252.863	75.25
253.096	93.25
253.329	96.25
253.562	94.25
253.795	71.25
254.028	74.25
254.261	86.25
254.494	75.25
254.727	81.25
254.96	80.25
255.193	92.25
255.426	87.25
255.659	67.25
255.892	86.25
256.124	78.25
256.357	81.25
256.59	75.25
256.823	89.25
257.056	82.25
257.289	81.25
257.521	69.25
257.754	83.25
257.987	77.25
258.22	103.25
258.452	92.25
258.685	81.25
258.918	76.25
259.151	85.25
259.383	71.25
259.616	92.25
259.849	83.25
260.081	87.25
260.314	72.25
260.547	80.25
260.779	96.25
261.012	97.25
261.244	88.25
261.477	99.25
261.71	71.25
261.942	109.25
262.175	98.25
262.407	87.25
262.64	74.25
262.872	88.25
263.105	76.25
263.337	86.25
263.57	80.25
263.802	79.25
264.035	84.25
264.267	95.25
264.499	69.25
264.732	88.25
264.964	93.25
265.197	93.25
265.429	85.25
265.661	88.25
265.894	74.25
266.126	87.25
266.358	85.25
266.591	76.25
266.823	72.25
267.055	84.25
267.287	94.25
267.52	87.25
267.752	91.25
267.984	91.25
268.216	87.25
268.448	98.25
268.681	84.25
268.913	87.25
269.145	83.25
269.377	83.25
269.609	96.25
269.841	82.25
270.073	80.25
270.306	94.25
270.538	78.25
270.77	78.25
271.002	77.25
271.234	93.25
271.466	94.25
271.698	89.25
271.93	84.25
272.162	93.25
272.394	82.25
272.626	98.25
272.858	98.25
273.09	92.25
273.322	77.25
273.553	85.25
273.785	79.25
274.017	82.25
274.249	78.25
274.481	93.25
274.713	70.25
274.945	76.25
275.176	84.25
275.408	79.25
275.64	85.25
275.872	89.25
276.104	92.25
276.335	78.25
276.567	99.25
276.799	98.25
277.031	110.25
277.262	78.25
277.494	107.25
277.726	81.25
277.957	88.25
278.189	82.25
278.421	80.25
278.652	69.25
278.884	80.25
279.115	103.25
279.347	83.25
279.579	103.25
279.81	89.25
280.042	81.25
280.273	102.25
280.505	85.25
280.736	85.25
280.968	85.25
281.199	77.25
281.431	94.25
281.662	86.25
281.894	85.25
282.125	103.25
282.356	113.25
282.588	120.25
282.819	93.25
283.051	90.25
283.282	79.25
283.513	84.25
283.745	96.25
283.976	78.25
284.207	73.25
284.439	94.25
284.67	88.25
284.901	80.25
285.132	88.25
285.364	80.25
285.595	78.25
285.826	85.25
286.057	87.25
286.288	90.25
286.52	82.25
286.751	86.25
286.982	72.25
287.213	83.25
287.444	86.25
287.675	80.25
287.906	88.25
288.138	104.25
288.369	87.25
288.6	76.25
288.831	94.25
289.062	85.25
289.293	96.25
289.524	89.25
289.755	81.25
289.986	84.25
290.217	80.25
290.448	85.25
290.679	93.25
290.91	94.25
291.141	88.25
291.371	92.25
291.602	76.25
291.833	73.25
292.064	99.25
292.295	96.25
292.526	86.25
292.757	95.25
292.987	84.25
293.218	86.25
293.449	78.25
293.68	98.25
293.91	80.25
294.141	78.25
294.372	94.25
294.603	99.25
294.833	93.25
295.064	85.25
295.295	91.25
295.525	91.25
295.756	96.25
295.987	91.25
296.217	120.25
296.448	133.25
296.679	80.25
296.909	84.25
297.14	96.25
297.37	78.25
297.601	88.25
297.831	100.25
298.062	98.25
298.292	93.25
298.523	94.25
298.753	93.25
298.984	82.25
299.214	92.25
299.445	89.25
299.675	94.25
299.905	89.25
300.136	106.25
300.366	98.25
300.597	85.25
300.827	96.25
301.057	97.25
301.288	100.25
301.518	98.25
301.748	93.25
301.979	103.25
302.209	89.25
302.439	96.25
302.669	80.25
302.9	94.25
303.13	103.25
303.36	86.25
303.59	86.25
303.82	92.25
304.051	86.25
304.281	88.25
304.511	107.25
304.741	85.25
304.971	84.25
305.201	97.25
305.431	96.25
305.661	88.25
305.891	84.25
306.121	99.25
306.352	95.25
306.582	100.25
306.812	89.25
307.042	92.25
307.272	82.25
307.502	98.25
307.731	88.25
307.961	101.25
308.191	91.25
308.421	103.25
308.651	95.25
308.881	92.25
309.111	92.25
309.341	88.25
309.571	96.25
309.8	91.25
310.03	91.25
310.26	99.25
310.49	99.25
310.72	94.25
310.949	96.25
311.179	87.25
311.409	96.25
311.639	95.25
311.868	89.25
312.098	90.25
312.328	92.25
312.557	106.25
312.787	91.25
313.017	89.25
313.246	96.25
313.476	96.25
313.706	111.25
313.935	96.25
314.165	94.25
314.394	99.25
314.624	85.25
314.853	98.25
315.083	78.25
315.312	97.25
315.542	95.25
315.771	99.25
316.001	91.25
316.23	92.25
316.46	99.25
316.689	90.25
316.919	109.25
317.148	96.25
317.377	104.25
317.607	88.25
317.836	88.25
318.065	92.25
318.295	96.25
318.524	83.25
318.753	90.25
318.983	84.25
319.212	107.25
319.441	101.25
319.67	92.25
319.9	106.25
320.129	90.25
320.358	100.25
320.587	87.25
320.816	85.25
321.046	102.25
321.275	97.25
321.504	93.25
321.733	98.25
321.962	106.25
322.191	105.25
322.42	103.25
322.649	84.25
322.878	102.25
323.108	118.25
323.337	117.25
323.566	120.25
323.795	144.25
324.024	190.25
324.253	380.25
324.482	761.25
324.71	1638.25
324.939	2166.25
325.168	778.25
325.397	249.25
325.626	150.25
325.855	132.25
326.084	120.25
326.313	134.25
326.542	149.25
326.77	216.25
326.999	447.25
327.228	920.25
327.457	1641.25
327.686	1316.25
327.914	356.25
328.143	181.25
328.372	138.25
328.6	121.25
328.829	101.25
329.058	133.25
329.287	117.25
329.515	103.25
329.744	108.25
329.972	112.25
330.201	99.25
330.43	101.25
330.658	102.25
330.887	110.25
331.115	122.25
331.344	90.25
331.572	84.25
331.801	87.25
332.03	97.25
332.258	97.25
332.486	89.25
332.715	98.25
332.943	85.25
333.172	84.25
333.4	100.25
333.629	99.25
333.857	114.25
334.085	102.25
334.314	98.25
334.542	88.25
334.771	100.25
334.999	87.25
335.227	91.25
335.455	100.25
335.684	96.25
335.912	96.25
336.14	96.25
336.369	95.25
336.597	92.25
336.825	103.25
337.053	100.25
337.281	88.25
337.51	89.25
337.738	87.25
337.966	98.25
338.194	92.25
338.422	85.25
338.65	83.25
338.878	93.25
339.106	97.25
339.334	103.25
339.562	97.25
339.79	95.25
340.018	104.25
340.246	92.25
340.474	102.25
340.702	88.25
340.93	115.25
341.158	92.25
341.386	91.25
341.614	97.25
341.842	90.25
342.07	84.25
342.298	99.25
342.526	94.25
342.754	88.25
342.981	84.25
343.209	97.25
343.437	82.25
343.665	86.25
343.893	105.25
344.12	102.25
344.348	88.25
344.576	87.25
344.804	77.25
345.031	95.25
345.259	80.25
345.487	88.25
345.714	95.25
345.942	94.25
346.17	111.25
346.397	86.25
346.625	96.25
346.853	85.25
347.08	88.25
347.308	102.25
347.535	93.25
347.763	93.25
347.99	107.25
348.218	99.25
348.445	95.25
348.673	100.25
348.9	104.25
349.128	100.25
349.355	88.25
349.583	90.25
349.81	82.25
350.037	100.25
350.265	104.25
350.492	92.25
350.72	86.25
350.947	102.25
351.174	95.25
351.402	102.25
351.629	92.25
351.856	103.25
352.083	99.25
352.311	117.25
352.538	102.25
352.765	114.25
352.992	117.25
353.22	96.25
353.447	100.25
353.674	94.25
353.901	93.25
354.128	104.25
354.355	96.25
354.583	102.25
354.81	98.25
355.037	104.25
355.264	96.25
355.491	96.25
355.718	97.25
355.945	91.25
356.172	100.25
356.399	102.25
356.626	88.25
356.853	103.25
357.08	97.25
357.307	91.25
357.534	101.25
357.761	106.25
357.988	107.25
358.215	103.25
358.441	82.25
358.668	108.25
358.895	70.25
359.122	85.25
359.349	97.25
359.576	78.25
359.802	106.25
360.029	108.25
360.256	109.25
360.483	96.25
360.709	74.25
360.936	94.25
361.163	96.25
361.39	85.25
361.616	86.25
361.843	95.25
362.07	89.25
362.296	96.25
362.523	95.25
362.749	90.25
362.976	96.25
363.203	88.25
363.429	78.25
363.656	86.25
363.882	74.25
364.109	82.25
364.335	108.25
364.562	92.25
364.788	87.25
365.015	92.25
365.241	99.25
365.468	109.25
365.694	88.25
365.92	95.25
366.147	86.25
366.373	84.25
366.599	90.25
366.826	101.25
367.052	108.25
367.278	97.25
367.505	96.25
367.731	111.25
367.957	94.25
368.184	87.25
368.41	104.25
368.636	107.25
368.862	116.25
369.089	94.25
369.315	85.25
369.541	85.25
369.767	101.25
369.993	87.25
370.219	99.25
370.445	93.25
370.672	90.25
370.898	95.25
371.124	84.25
371.35	101.25
371.576	93.25
371.802	87.25
372.028	86.25
372.254	92.25
372.48	95.25
372.706	76.25
372.932	85.25
373.158	86.25
373.384	79.25
373.61	80.25
373.835	83.25
374.061	92.25
374.287	99.25
374.513	94.25
374.739	89.25
374.965	88.25
375.191	96.25
375.416	93.25
375.642	97.25
375.868	89.25
376.094	78.25
376.319	87.25
376.545	99.25
376.771	98.25
376.997	95.25
377.222	88.25
377.448	92.25
377.674	97.25
377.899	87.25
378.125	98.25
378.35	91.25
378.576	90.25
378.802	85.25
379.027	85.25
379.253	81.25
379.478	86.25
379.704	90.25
379.929	95.25
380.155	114.25
380.38	84.25
380.606	107.25
380.831	100.25
381.057	103.25
381.282	98.25
381.507	98.25
381.733	98.25
381.958	108.25
382.184	85.25
382.409	103.25
382.634	103.25
382.86	113.25
383.085	94.25
383.31	100.25
383.535	88.25
383.761	99.25
383.986	94.25
384.211	88.25
384.436	110.25
384.662	88.25
384.887	104.25
385.112	108.25
385.337	104.25
385.562	90.25
385.787	99.25
386.013	100.25
386.238	103.25
386.463	111.25
386.688	90.25
386.913	103.25
387.138	104.25
387.363	109.25
387.588	109.25
387.813	98.25
388.038	87.25
388.263	100.25
388.488	95.25
388.713	87.25
388.938	92.25
389.163	96.25
389.387	105.25
389.612	111.25
389.837	87.25
390.062	107.25
390.287	101.25
390.512	92.25
390.736	98.25
390.961	85.25
391.186	98.25
391.411	89.25
391.636	68.25
391.86	88.25
392.085	90.25
392.31	94.25
392.534	92.25
392.759	88.25
392.984	81.25
393.208	85.25
393.433	95.25
393.658	83.25
393.882	74.25
394.107	101.25
394.331	104.25
394.556	85.25
394.78	95.25
395.005	89.25
395.229	94.25
395.454	82.25
395.678	84.25
395.903	80.25
396.127	90.25
396.352	86.25
396.576	87.25
396.801	104.25
397.025	94.25
397.249	82.25
397.474	98.25
397.698	106.25
397.922	92.25
398.147	95.25
398.371	91.25
398.595	98.25
398.82	94.25
399.044	94.25
399.268	77.25
399.492	76.25
399.717	91.25
399.941	101.25
400.165	97.25
400.389	75.25
400.613	71.25
400.837	82.25
401.062	86.25
401.286	90.25
401.51	91.25
401.734	86.25
401.958	100.25
402.182	111.25
402.406	139.25
402.63	111.25
402.854	95.25
403.078	86.25
403.302	76.25
403.526	90.25
403.75	92.25
403.974	87.25
404.198	104.25
404.422	90.25
404.645	87.25
404.869	94.25
405.093	96.25
405.317	80.25
405.541	99.25
405.765	101.25
405.988	113.25
406.212	152.25
406.436	194.25
406.66	133.25
406.883	89.25
407.107	90.25
407.331	112.25
407.555	109.25
407.778	91.25
408.002	100.25
408.226	90.25
408.449	84.25
408.673	78.25
408.896	83.25
409.12	78.25
409.344	78.25
409.567	102.25
409.791	114.25
410.014	92.25
410.238	106.25
410.461	94.25
410.685	84.25
410.908	94.25
411.132	112.25
411.355	112.25
411.578	88.25
411.802	92.25
412.025	89.25
412.249	93.25
412.472	99.25
412.695	76.25
412.919	106.25
413.142	76.25
413.365	90.25
413.589	91.25
413.812	80.25
414.035	91.25
414.258	69.25
414.482	83.25
414.705	81.25
414.928	93.25
415.151	93.25
415.374	88.25
415.597	84.25
415.821	94.25
416.044	92.25
416.267	82.25
416.49	77.25
416.713	87.25
416.936	90.25
417.159	104.25
417.382	81.25
417.605	94.25
417.828	84.25
418.051	93.25
418.274	97.25
418.497	89.25
418.72	80.25
418.943	89.25
419.166	93.25
419.389	103.25
419.611	88.25
419.834	108.25
420.057	93.25
420.28	75.25
420.503	90.25
420.726	75.25
420.948	83.25
421.171	99.25
421.394	106.25
421.617	92.25
421.839	89.25
422.062	89.25
422.285	88.25
422.507	99.25
422.73	103.25
422.953	82.25
423.175	98.25
423.398	96.25
423.621	97.25
423.843	95.25
424.066	84.25
424.288	91.25
424.511	87.25
424.733	95.25
424.956	97.25
425.178	97.25
425.401	101.25
425.623	106.25
425.846	94.25
426.068	90.25
426.291	92.25
426.513	89.25
426.735	86.25
426.958	88.25
427.18	105.25
427.402	140.25
427.625	144.25
427.847	100.25
428.069	93.25
428.292	90.25
428.514	108.25
428.736	83.25
428.958	74.25
429.181	92.25
429.403	87.25
429.625	95.25
429.847	99.25
430.069	96.25
430.292	100.25
430.514	89.25
430.736	86.25
430.958	88.25
431.18	82.25
431.402	97.25
431.624	96.25
431.846	67.25
432.068	84.25
432.29	91.25
432.512	113.25
432.734	98.25
432.956	110.25
433.178	97.25
433.4	94.25
433.622	82.25
433.844	82.25
434.066	83.25
434.287	84.25
434.509	100.25
434.731	92.25
434.953	91.25
435.175	89.25
435.397	89.25
435.618	85.25
435.84	105.25
436.062	112.25
436.284	95.25
436.505	109.25
436.727	83.25
436.949	97.25
437.17	88.25
437.392	82.25
437.614	83.25
437.835	105.25
438.057	94.25
438.278	118.25
438.5	87.25
438.721	121.25
438.943	98.25
439.165	104.25
439.386	87.25
439.608	84.25
439.829	83.25
440.05	115.25
440.272	122.25
440.493	99.25
440.715	89.25
440.936	84.25
441.158	84.25
441.379	87.25
441.6	83.25
441.822	89.25
442.043	92.25
442.264	94.25
442.486	97.25
442.707	96.25
442.928	109.25
443.149	120.25
443.371	119.25
443.592	116.25
443.813	94.25
444.034	90.25
444.255	89.25
444.476	98.25
444.698	90.25
444.919	75.25
445.14	135.25
445.361	123.25
445.582	103.25
445.803	117.25
446.024	123.25
446.245	136.25
446.466	109.25
446.687	87.25
446.908	106.25
447.129	93.25
447.35	90.25
447.571	88.25
447.792	94.25
448.013	96.25
448.234	102.25
448.455	95.25
448.675	104.25
448.896	118.25
449.117	83.25
449.338	97.25
449.559	126.25
449.779	132.25
450	93.25
450.221	90.25
450.442	88.25
450.662	99.25
450.883	109.25
451.104	94.25
451.324	101.25
451.545	92.25
451.766	78.25
451.986	88.25
452.207	85.25
452.428	95.25
452.648	106.25
452.869	105.25
453.089	93.25
453.31	98.25
453.53	86.25
453.751	96.25
453.971	102.25
454.192	114.25
454.412	82.25
454.633	88.25
454.853	101.25
455.073	84.25
455.294	99.25
455.514	99.25
455.734	95.25
455.955	92.25
456.175	100.25
456.395	91.25
456.616	78.25
456.836	78.25
457.056	79.25
457.276	87.25
457.497	93.25
457.717	102.25
457.937	89.25
458.157	90.25
458.377	94.25
458.598	118.25
458.818	135.25
459.038	145.25
459.258	114.25
459.478	83.25
459.698	88.25
459.918	95.25
460.138	87.25
460.358	88.25
460.578	91.25
460.798	80.25
461.018	87.25
461.238	82.25
461.458	79.25
461.678	82.25
461.898	85.25
462.118	81.25
462.338	87.25
462.558	94.25
462.777	78.25
462.997	83.25
463.217	85.25
463.437	90.25
463.657	93.25
463.876	94.25
464.096	92.25
464.316	109.25
464.536	78.25
464.755	88.25
464.975	101.25
465.195	134.25
465.414	137.25
465.634	79.25
465.854	111.25
466.073	84.25
466.293	80.25
466.512	83.25
466.732	80.25
466.951	88.25
467.171	87.25
467.391	82.25
467.61	90.25
467.829	81.25
468.049	77.25
468.268	89.25
468.488	77.25
468.707	86.25
468.927	78.25
469.146	85.25
469.365	100.25
469.585	87.25
469.804	88.25
470.023	86.25
470.243	85.25
470.462	108.25
470.681	113.25
470.901	88.25
471.12	79.25
471.339	98.25
471.558	88.25
471.777	87.25
471.997	73.25
472.216	93.25
472.435	92.25
472.654	96.25
472.873	91.25
473.092	88.25
473.311	78.25
473.53	102.25
473.749	95.25
473.968	101.25
474.187	88.25
474.406	94.25
474.625	90.25
474.844	80.25
475.063	94.25
475.282	85.25
475.501	81.25
475.72	94.25
475.939	83.25
476.158	95.25
476.377	75.25
476.596	94.25
476.814	87.25
477.033	101.25
477.252	83.25
477.471	84.25
477.69	80.25
477.908	95.25
478.127	94.25
478.346	95.25
478.564	110.25
478.783	90.25
479.002	93.25
479.22	92.25
479.439	100.25
479.658	95.25
479.876	93.25
480.095	92.25
480.313	86.25
480.532	92.25
480.751	97.25
480.969	92.25
481.188	88.25
481.406	87.25
481.624	95.25
481.843	91.25
482.061	83.25
482.28	87.25
482.498	97.25
482.717	95.25
482.935	86.25
483.153	90.25
483.372	76.25
483.59	85.25
483.808	87.25
484.027	100.25
484.245	88.25
484.463	86.25
484.681	96.25
484.9	84.25
485.118	93.25
485.336	88.25
485.554	87.25
485.772	104.25
485.99	85.25
486.209	96.25
486.427	84.25
486.645	109.25
486.863	109.25
487.081	99.25
487.299	98.25
487.517	99.25
487.735	102.25
487.953	95.25
488.171	87.25
488.389	99.25
488.607	87.25
488.825	99.25
489.043	95.25
489.261	88.25
489.479	87.25
489.696	97.25
489.914	88.25
490.132	92.25
490.35	84.25
490.568	86.25
490.786	94.25
491.003	90.25
491.221	95.25
491.439	91.25
491.657	92.25
491.874	86.25
492.092	96.25
492.31	86.25
492.527	89.25
492.745	106.25
492.963	85.25
493.18	87.25
493.398	100.25
493.615	95.25
493.833	81.25
494.05	82.25
494.268	98.25
494.485	84.25
494.703	98.25
494.92	97.25
495.138	82.25
495.355	88.25
495.573	79.25
495.79	84.25
496.008	87.25
496.225	76.25
496.442	99.25
496.66	86.25
496.877	125.25
497.094	108.25
497.312	90.25
497.529	91.25
497.746	84.25
497.963	84.25
498.181	106.25
498.398	97.25
498.615	104.25
498.832	106.25
499.049	107.25
499.267	84.25
499.484	90.25
499.701	94.25
499.918	87.25
500.135	90.25
500.352	87.25
500.569	83.25
500.786	88.25
501.003	90.25
501.22	75.25
501.437	86.25
501.654	99.25
501.871	102.25
502.088	93.25
502.305	93.25
502.522	88.25
502.739	91.25
502.956	96.25
503.172	83.25
503.389	98.25
503.606	102.25
503.823	96.25
504.04	99.25
504.256	103.25
504.473	92.25
504.69	78.25
504.907	90.25
505.123	86.25
505.34	87.25
505.557	98.25
505.773	91.25
505.99	90.25
506.207	96.25
506.423	98.25
506.64	109.25
506.856	88.25
507.073	93.25
507.289	90.25
507.506	98.25
507.722	98.25
507.939	103.25
508.155	103.25
508.372	85.25
508.588	99.25
508.805	99.25
509.021	78.25
509.238	98.25
509.454	104.25
509.67	117.25
509.887	106.25
510.103	111.25
510.319	199.25
510.536	645.25
510.752	1939.25
510.968	550.25
511.184	148.25
511.401	101.25
511.617	106.25
511.833	87.25
512.049	94.25
512.265	92.25
512.481	94.25
512.698	92.25
512.914	81.25
513.13	99.25
513.346	89.25
513.562	117.25
513.778	103.25
513.994	97.25
514.21	103.25
514.426	119.25
514.642	124.25
514.858	104.25
515.074	139.25
515.29	374.25
515.506	1180.25
515.721	428.25
515.937	151.25
