Data from Uncirc_1991_H10_HRD10591_00025.txt Node
Date: Wed Jan 03 11:50:43 EST 2024
User: Yrep
Spectrometer: HR+D1059
Trigger mode: 1
Integration Time (sec): 1.000000E-1
Scans to average: 1
Electric dark correction enabled: true
Nonlinearity correction enabled: false
Boxcar width: 0
XAxis mode: Wavelengths
Number of Pixels in Spectrum: 2048
>>>>>Begin Spectral Data<<<<<
223.165	-13.62
223.4	-13.62
223.635	-13.62
223.869	-34.62
224.104	-20.62
224.338	-20.62
224.573	-22.62
224.808	-11.62
225.042	8.38
225.277	-9.62
225.511	0.38
225.746	-0.62
225.98	13.38
226.215	10.38
226.449	23.38
226.683	19.38
226.918	26.38
227.152	32.38
227.387	47.38
227.621	40.38
227.856	44.38
228.09	54.38
228.324	55.38
228.559	63.38
228.793	63.38
229.027	52.38
229.262	60.38
229.496	83.38
229.73	94.38
229.964	84.38
230.199	71.38
230.433	74.38
230.667	92.38
230.901	63.38
231.136	76.38
231.37	82.38
231.604	75.38
231.838	93.38
232.072	77.38
232.306	85.38
232.541	79.38
232.775	76.38
233.009	86.38
233.243	79.38
233.477	81.38
233.711	87.38
233.945	90.38
234.179	84.38
234.413	72.38
234.647	71.38
234.881	83.38
235.115	67.38
235.349	85.38
235.583	90.38
235.817	83.38
236.051	85.38
236.285	71.38
236.519	77.38
236.753	82.38
236.987	70.38
237.221	101.38
237.455	91.38
237.689	79.38
237.922	79.38
238.156	82.38
238.39	81.38
238.624	73.38
238.858	79.38
239.091	82.38
239.325	82.38
239.559	91.38
239.793	80.38
240.027	74.38
240.26	79.38
240.494	84.38
240.728	67.38
240.961	82.38
241.195	74.38
241.429	83.38
241.662	66.38
241.896	71.38
242.13	75.38
242.363	78.38
242.597	82.38
242.83	79.38
243.064	93.38
243.298	79.38
243.531	89.38
243.765	96.38
243.998	90.38
244.232	88.38
244.465	90.38
244.699	89.38
244.932	86.38
245.166	84.38
245.399	86.38
245.633	80.38
245.866	82.38
246.099	85.38
246.333	76.38
246.566	96.38
246.8	76.38
247.033	82.38
247.266	68.38
247.5	88.38
247.733	74.38
247.966	92.38
248.2	86.38
248.433	76.38
248.666	82.38
248.899	92.38
249.133	88.38
249.366	102.38
249.599	103.38
249.832	84.38
250.066	78.38
250.299	79.38
250.532	86.38
250.765	65.38
250.998	74.38
251.231	76.38
251.465	76.38
251.698	96.38
251.931	86.38
252.164	67.38
252.397	82.38
252.63	79.38
252.863	83.38
253.096	73.38
253.329	79.38
253.562	76.38
253.795	80.38
254.028	64.38
254.261	88.38
254.494	83.38
254.727	89.38
254.96	87.38
255.193	80.38
255.426	78.38
255.659	69.38
255.892	82.38
256.124	79.38
256.357	87.38
256.59	94.38
256.823	107.38
257.056	70.38
257.289	84.38
257.521	91.38
257.754	90.38
257.987	82.38
258.22	86.38
258.452	78.38
258.685	86.38
258.918	82.38
259.151	71.38
259.383	84.38
259.616	62.38
259.849	84.38
260.081	86.38
260.314	79.38
260.547	94.38
260.779	86.38
261.012	81.38
261.244	89.38
261.477	87.38
261.71	90.38
261.942	101.38
262.175	117.38
262.407	93.38
262.64	86.38
262.872	83.38
263.105	93.38
263.337	83.38
263.57	86.38
263.802	91.38
264.035	77.38
264.267	91.38
264.499	98.38
264.732	97.38
264.964	76.38
265.197	84.38
265.429	71.38
265.661	95.38
265.894	64.38
266.126	91.38
266.358	93.38
266.591	98.38
266.823	85.38
267.055	90.38
267.287	95.38
267.52	87.38
267.752	85.38
267.984	97.38
268.216	95.38
268.448	79.38
268.681	91.38
268.913	88.38
269.145	85.38
269.377	74.38
269.609	74.38
269.841	86.38
270.073	67.38
270.306	84.38
270.538	90.38
270.77	85.38
271.002	94.38
271.234	82.38
271.466	94.38
271.698	94.38
271.93	94.38
272.162	107.38
272.394	96.38
272.626	73.38
272.858	90.38
273.09	86.38
273.322	82.38
273.553	92.38
273.785	84.38
274.017	82.38
274.249	82.38
274.481	114.38
274.713	88.38
274.945	85.38
275.176	94.38
275.408	93.38
275.64	80.38
275.872	91.38
276.104	92.38
276.335	96.38
276.567	99.38
276.799	107.38
277.031	99.38
277.262	89.38
277.494	95.38
277.726	80.38
277.957	76.38
278.189	83.38
278.421	96.38
278.652	86.38
278.884	84.38
279.115	98.38
279.347	75.38
279.579	92.38
279.81	88.38
280.042	87.38
280.273	82.38
280.505	95.38
280.736	95.38
280.968	84.38
281.199	76.38
281.431	93.38
281.662	97.38
281.894	100.38
282.125	103.38
282.356	138.38
282.588	146.38
282.819	106.38
283.051	99.38
283.282	98.38
283.513	100.38
283.745	93.38
283.976	87.38
284.207	82.38
284.439	92.38
284.67	86.38
284.901	90.38
285.132	90.38
285.364	70.38
285.595	83.38
285.826	94.38
286.057	84.38
286.288	85.38
286.52	86.38
286.751	77.38
286.982	95.38
287.213	81.38
287.444	94.38
287.675	90.38
287.906	81.38
288.138	96.38
288.369	96.38
288.6	86.38
288.831	109.38
289.062	93.38
289.293	90.38
289.524	90.38
289.755	91.38
289.986	87.38
290.217	97.38
290.448	97.38
290.679	87.38
290.91	90.38
291.141	103.38
291.371	85.38
291.602	94.38
291.833	86.38
292.064	72.38
292.295	86.38
292.526	99.38
292.757	103.38
292.987	76.38
293.218	98.38
293.449	82.38
293.68	91.38
293.91	94.38
294.141	93.38
294.372	88.38
294.603	109.38
294.833	80.38
295.064	77.38
295.295	93.38
295.525	89.38
295.756	96.38
295.987	121.38
296.217	128.38
296.448	132.38
296.679	87.38
296.909	91.38
297.14	84.38
297.37	91.38
297.601	88.38
297.831	85.38
298.062	110.38
298.292	97.38
298.523	78.38
298.753	84.38
298.984	80.38
299.214	94.38
299.445	88.38
299.675	80.38
299.905	98.38
300.136	91.38
300.366	92.38
300.597	83.38
300.827	97.38
301.057	100.38
301.288	108.38
301.518	104.38
301.748	76.38
301.979	85.38
302.209	90.38
302.439	86.38
302.669	85.38
302.9	88.38
303.13	99.38
303.36	111.38
303.59	97.38
303.82	108.38
304.051	84.38
304.281	86.38
304.511	87.38
304.741	98.38
304.971	90.38
305.201	88.38
305.431	88.38
305.661	90.38
305.891	97.38
306.121	86.38
306.352	108.38
306.582	103.38
306.812	100.38
307.042	95.38
307.272	100.38
307.502	93.38
307.731	84.38
307.961	86.38
308.191	79.38
308.421	80.38
308.651	91.38
308.881	97.38
309.111	92.38
309.341	97.38
309.571	96.38
309.8	106.38
310.03	100.38
310.26	106.38
310.49	81.38
310.72	95.38
310.949	94.38
311.179	93.38
311.409	90.38
311.639	97.38
311.868	89.38
312.098	91.38
312.328	94.38
312.557	94.38
312.787	116.38
313.017	96.38
313.246	94.38
313.476	100.38
313.706	92.38
313.935	88.38
314.165	89.38
314.394	117.38
314.624	107.38
314.853	96.38
315.083	84.38
315.312	92.38
315.542	94.38
315.771	94.38
316.001	80.38
316.23	80.38
316.46	84.38
316.689	87.38
316.919	80.38
317.148	95.38
317.377	112.38
317.607	96.38
317.836	90.38
318.065	90.38
318.295	90.38
318.524	90.38
318.753	79.38
318.983	101.38
319.212	100.38
319.441	104.38
319.67	100.38
319.9	99.38
320.129	78.38
320.358	96.38
320.587	108.38
320.816	94.38
321.046	111.38
321.275	101.38
321.504	83.38
321.733	105.38
321.962	93.38
322.191	115.38
322.42	104.38
322.649	111.38
322.878	107.38
323.108	120.38
323.337	115.38
323.566	146.38
323.795	164.38
324.024	228.38
324.253	409.38
324.482	906.38
324.71	1872.38
324.939	2589.38
325.168	933.38
325.397	271.38
325.626	156.38
325.855	137.38
326.084	128.38
326.313	126.38
326.542	166.38
326.77	230.38
326.999	499.38
327.228	1043.38
327.457	1876.38
327.686	1553.38
327.914	415.38
328.143	194.38
328.372	154.38
328.6	118.38
328.829	119.38
329.058	133.38
329.287	141.38
329.515	114.38
329.744	100.38
329.972	109.38
330.201	106.38
330.43	108.38
330.658	140.38
330.887	154.38
331.115	116.38
331.344	92.38
331.572	119.38
331.801	104.38
332.03	83.38
332.258	102.38
332.486	101.38
332.715	76.38
332.943	91.38
333.172	103.38
333.4	102.38
333.629	116.38
333.857	111.38
334.085	97.38
334.314	95.38
334.542	95.38
334.771	102.38
334.999	91.38
335.227	92.38
335.455	97.38
335.684	114.38
335.912	94.38
336.14	90.38
336.369	104.38
336.597	94.38
336.825	90.38
337.053	92.38
337.281	99.38
337.51	101.38
337.738	94.38
337.966	91.38
338.194	97.38
338.422	105.38
338.65	93.38
338.878	103.38
339.106	96.38
339.334	106.38
339.562	91.38
339.79	87.38
340.018	97.38
340.246	87.38
340.474	84.38
340.702	91.38
340.93	81.38
341.158	104.38
341.386	98.38
341.614	95.38
341.842	92.38
342.07	101.38
342.298	92.38
342.526	99.38
342.754	91.38
342.981	100.38
343.209	97.38
343.437	99.38
343.665	95.38
343.893	87.38
344.12	103.38
344.348	90.38
344.576	80.38
344.804	97.38
345.031	107.38
345.259	101.38
345.487	96.38
345.714	95.38
345.942	92.38
346.17	98.38
346.397	98.38
346.625	94.38
346.853	92.38
347.08	91.38
347.308	95.38
347.535	111.38
347.763	109.38
347.99	99.38
348.218	99.38
348.445	104.38
348.673	112.38
348.9	101.38
349.128	75.38
349.355	98.38
349.583	96.38
349.81	110.38
350.037	87.38
350.265	100.38
350.492	109.38
350.72	89.38
350.947	105.38
351.174	117.38
351.402	114.38
351.629	117.38
351.856	95.38
352.083	88.38
352.311	100.38
352.538	90.38
352.765	110.38
352.992	107.38
353.22	120.38
353.447	96.38
353.674	103.38
353.901	93.38
354.128	106.38
354.355	103.38
354.583	99.38
354.81	107.38
355.037	103.38
355.264	104.38
355.491	97.38
355.718	92.38
355.945	102.38
356.172	93.38
356.399	103.38
356.626	99.38
356.853	97.38
357.08	95.38
357.307	92.38
357.534	83.38
357.761	111.38
357.988	98.38
358.215	88.38
358.441	106.38
358.668	100.38
358.895	83.38
359.122	92.38
359.349	79.38
359.576	85.38
359.802	93.38
360.029	104.38
360.256	124.38
360.483	103.38
360.709	90.38
360.936	94.38
361.163	88.38
361.39	98.38
361.616	87.38
361.843	95.38
362.07	95.38
362.296	109.38
362.523	94.38
362.749	84.38
362.976	99.38
363.203	90.38
363.429	98.38
363.656	99.38
363.882	100.38
364.109	96.38
364.335	88.38
364.562	104.38
364.788	92.38
365.015	82.38
365.241	95.38
365.468	104.38
365.694	110.38
365.92	104.38
366.147	104.38
366.373	94.38
366.599	90.38
366.826	78.38
367.052	92.38
367.278	111.38
367.505	103.38
367.731	98.38
367.957	91.38
368.184	96.38
368.41	102.38
368.636	118.38
368.862	120.38
369.089	109.38
369.315	102.38
369.541	97.38
369.767	81.38
369.993	97.38
370.219	80.38
370.445	92.38
370.672	86.38
370.898	94.38
371.124	87.38
371.35	92.38
371.576	107.38
371.802	88.38
372.028	88.38
372.254	99.38
372.48	90.38
372.706	94.38
372.932	107.38
373.158	101.38
373.384	100.38
373.61	85.38
373.835	92.38
374.061	83.38
374.287	99.38
374.513	92.38
374.739	89.38
374.965	103.38
375.191	96.38
375.416	85.38
375.642	86.38
375.868	94.38
376.094	92.38
376.319	87.38
376.545	77.38
376.771	77.38
376.997	78.38
377.222	92.38
377.448	110.38
377.674	92.38
377.899	86.38
378.125	88.38
378.35	98.38
378.576	100.38
378.802	81.38
379.027	92.38
379.253	95.38
379.478	96.38
379.704	92.38
379.929	85.38
380.155	102.38
380.38	98.38
380.606	104.38
380.831	108.38
381.057	96.38
381.282	100.38
381.507	80.38
381.733	96.38
381.958	113.38
382.184	100.38
382.409	102.38
382.634	98.38
382.86	97.38
383.085	100.38
383.31	100.38
383.535	94.38
383.761	86.38
383.986	91.38
384.211	85.38
384.436	90.38
384.662	99.38
384.887	104.38
385.112	85.38
385.337	93.38
385.562	93.38
385.787	102.38
386.013	95.38
386.238	111.38
386.463	99.38
386.688	108.38
386.913	99.38
387.138	111.38
387.363	116.38
387.588	91.38
387.813	101.38
388.038	118.38
388.263	101.38
388.488	102.38
388.713	99.38
388.938	86.38
389.163	92.38
389.387	102.38
389.612	99.38
389.837	105.38
390.062	102.38
390.287	96.38
390.512	90.38
390.736	78.38
390.961	100.38
391.186	95.38
391.411	93.38
391.636	93.38
391.86	71.38
392.085	90.38
392.31	90.38
392.534	104.38
392.759	90.38
392.984	94.38
393.208	84.38
393.433	85.38
393.658	94.38
393.882	86.38
394.107	94.38
394.331	100.38
394.556	92.38
394.78	83.38
395.005	83.38
395.229	86.38
395.454	100.38
395.678	87.38
395.903	83.38
396.127	94.38
396.352	101.38
396.576	92.38
396.801	91.38
397.025	98.38
397.249	86.38
397.474	99.38
397.698	87.38
397.922	84.38
398.147	86.38
398.371	73.38
398.595	95.38
398.82	90.38
399.044	87.38
399.268	93.38
399.492	84.38
399.717	91.38
399.941	103.38
400.165	94.38
400.389	105.38
400.613	95.38
400.837	104.38
401.062	88.38
401.286	94.38
401.51	89.38
401.734	100.38
401.958	92.38
402.182	123.38
402.406	154.38
402.63	118.38
402.854	104.38
403.078	107.38
403.302	92.38
403.526	82.38
403.75	67.38
403.974	82.38
404.198	75.38
404.422	95.38
404.645	88.38
404.869	72.38
405.093	92.38
405.317	106.38
405.541	100.38
405.765	83.38
405.988	107.38
406.212	173.38
406.436	238.38
406.66	163.38
406.883	111.38
407.107	93.38
407.331	85.38
407.555	117.38
407.778	104.38
408.002	90.38
408.226	107.38
408.449	89.38
408.673	99.38
408.896	108.38
409.12	101.38
409.344	82.38
409.567	80.38
409.791	90.38
410.014	93.38
410.238	98.38
410.461	98.38
410.685	102.38
410.908	95.38
411.132	97.38
411.355	110.38
411.578	107.38
411.802	84.38
412.025	82.38
412.249	91.38
412.472	90.38
412.695	102.38
412.919	91.38
413.142	85.38
413.365	94.38
413.589	80.38
413.812	94.38
414.035	84.38
414.258	84.38
414.482	108.38
414.705	92.38
414.928	93.38
415.151	102.38
415.374	99.38
415.597	89.38
415.821	93.38
416.044	102.38
416.267	94.38
416.49	87.38
416.713	101.38
416.936	90.38
417.159	89.38
417.382	100.38
417.605	82.38
417.828	104.38
418.051	90.38
418.274	86.38
418.497	88.38
418.72	86.38
418.943	103.38
419.166	88.38
419.389	93.38
419.611	90.38
419.834	92.38
420.057	69.38
420.28	76.38
420.503	89.38
420.726	86.38
420.948	84.38
421.171	83.38
421.394	97.38
421.617	86.38
421.839	92.38
422.062	94.38
422.285	103.38
422.507	92.38
422.73	99.38
422.953	113.38
423.175	100.38
423.398	98.38
423.621	100.38
423.843	86.38
424.066	86.38
424.288	96.38
424.511	98.38
424.733	115.38
424.956	111.38
425.178	96.38
425.401	106.38
425.623	101.38
425.846	93.38
426.068	104.38
426.291	90.38
426.513	103.38
426.735	87.38
426.958	103.38
427.18	100.38
427.402	142.38
427.625	178.38
427.847	126.38
428.069	107.38
428.292	94.38
428.514	84.38
428.736	95.38
428.958	73.38
429.181	75.38
429.403	95.38
429.625	90.38
429.847	90.38
430.069	112.38
430.292	90.38
430.514	95.38
430.736	82.38
430.958	93.38
431.18	77.38
431.402	83.38
431.624	76.38
431.846	95.38
432.068	74.38
432.29	90.38
432.512	75.38
432.734	73.38
432.956	93.38
433.178	99.38
433.4	101.38
433.622	95.38
433.844	104.38
434.066	91.38
434.287	110.38
434.509	94.38
434.731	83.38
434.953	86.38
435.175	83.38
435.397	84.38
435.618	94.38
435.84	115.38
436.062	129.38
436.284	115.38
436.505	106.38
436.727	106.38
436.949	99.38
437.17	84.38
437.392	88.38
437.614	85.38
437.835	110.38
438.057	116.38
438.278	128.38
438.5	119.38
438.721	125.38
438.943	112.38
439.165	91.38
439.386	80.38
439.608	99.38
439.829	113.38
440.05	125.38
440.272	167.38
440.493	99.38
440.715	75.38
440.936	94.38
441.158	85.38
441.379	86.38
441.6	103.38
441.822	104.38
442.043	104.38
442.264	117.38
442.486	108.38
442.707	96.38
442.928	106.38
443.149	134.38
443.371	142.38
443.592	104.38
443.813	113.38
444.034	119.38
444.255	101.38
444.476	100.38
444.698	84.38
444.919	100.38
445.14	123.38
445.361	154.38
445.582	122.38
445.803	144.38
446.024	157.38
446.245	144.38
446.466	109.38
446.687	82.38
446.908	99.38
447.129	96.38
447.35	109.38
447.571	99.38
447.792	106.38
448.013	108.38
448.234	110.38
448.455	100.38
448.675	104.38
448.896	125.38
449.117	100.38
449.338	107.38
449.559	142.38
449.779	148.38
450	92.38
450.221	71.38
450.442	83.38
450.662	103.38
450.883	104.38
451.104	126.38
451.324	102.38
451.545	84.38
451.766	84.38
451.986	91.38
452.207	84.38
452.428	88.38
452.648	97.38
452.869	118.38
453.089	114.38
453.31	122.38
453.53	96.38
453.751	95.38
453.971	96.38
454.192	107.38
454.412	80.38
454.633	92.38
454.853	82.38
455.073	88.38
455.294	92.38
455.514	103.38
455.734	99.38
455.955	92.38
456.175	79.38
456.395	91.38
456.616	100.38
456.836	95.38
457.056	101.38
457.276	80.38
457.497	99.38
457.717	87.38
457.937	93.38
458.157	83.38
458.377	77.38
458.598	99.38
458.818	147.38
459.038	157.38
459.258	123.38
459.478	100.38
459.698	87.38
459.918	84.38
460.138	84.38
460.358	88.38
460.578	93.38
460.798	91.38
461.018	93.38
461.238	98.38
461.458	88.38
461.678	104.38
461.898	96.38
462.118	76.38
462.338	92.38
462.558	82.38
462.777	92.38
462.997	94.38
463.217	90.38
463.437	84.38
463.657	90.38
463.876	86.38
464.096	94.38
464.316	103.38
464.536	96.38
464.755	103.38
464.975	104.38
465.195	163.38
465.414	158.38
465.634	101.38
465.854	88.38
466.073	74.38
466.293	91.38
466.512	79.38
466.732	89.38
466.951	84.38
467.171	90.38
467.391	109.38
467.61	103.38
467.829	99.38
468.049	89.38
468.268	78.38
468.488	85.38
468.707	93.38
468.927	82.38
469.146	87.38
469.365	93.38
469.585	92.38
469.804	92.38
470.023	87.38
470.243	87.38
470.462	97.38
470.681	99.38
470.901	92.38
471.12	87.38
471.339	95.38
471.558	99.38
471.777	92.38
471.997	86.38
472.216	87.38
472.435	102.38
472.654	84.38
472.873	107.38
473.092	94.38
473.311	98.38
473.53	79.38
473.749	93.38
473.968	94.38
474.187	107.38
474.406	101.38
474.625	101.38
474.844	94.38
475.063	86.38
475.282	90.38
475.501	92.38
475.72	92.38
475.939	103.38
476.158	88.38
476.377	100.38
476.596	87.38
476.814	107.38
477.033	94.38
477.252	91.38
477.471	80.38
477.69	90.38
477.908	96.38
478.127	85.38
478.346	94.38
478.564	101.38
478.783	87.38
479.002	98.38
479.22	95.38
479.439	93.38
479.658	122.38
479.876	97.38
480.095	101.38
480.313	91.38
480.532	100.38
480.751	75.38
480.969	88.38
481.188	101.38
481.406	98.38
481.624	95.38
481.843	89.38
482.061	81.38
482.28	88.38
482.498	95.38
482.717	84.38
482.935	91.38
483.153	87.38
483.372	74.38
483.59	87.38
483.808	91.38
484.027	102.38
484.245	97.38
484.463	86.38
484.681	95.38
484.9	103.38
485.118	95.38
485.336	93.38
485.554	103.38
485.772	115.38
485.99	103.38
486.209	111.38
486.427	102.38
486.645	106.38
486.863	106.38
487.081	106.38
487.299	87.38
487.517	98.38
487.735	94.38
487.953	91.38
488.171	111.38
488.389	108.38
488.607	107.38
488.825	91.38
489.043	71.38
489.261	91.38
489.479	92.38
489.696	82.38
489.914	80.38
490.132	82.38
490.35	97.38
490.568	84.38
490.786	92.38
491.003	79.38
491.221	92.38
491.439	79.38
491.657	85.38
491.874	86.38
492.092	91.38
492.31	98.38
492.527	72.38
492.745	87.38
492.963	85.38
493.18	93.38
493.398	86.38
493.615	99.38
493.833	100.38
494.05	91.38
494.268	100.38
494.485	106.38
494.703	94.38
494.92	90.38
495.138	85.38
495.355	96.38
495.573	98.38
495.79	102.38
496.008	82.38
496.225	91.38
496.442	88.38
496.66	79.38
496.877	86.38
497.094	100.38
497.312	96.38
497.529	101.38
497.746	101.38
497.963	91.38
498.181	98.38
498.398	86.38
498.615	118.38
498.832	103.38
499.049	90.38
499.267	79.38
499.484	80.38
499.701	91.38
499.918	94.38
500.135	91.38
500.352	87.38
500.569	76.38
500.786	90.38
501.003	91.38
501.22	87.38
501.437	95.38
501.654	94.38
501.871	99.38
502.088	90.38
502.305	99.38
502.522	99.38
502.739	96.38
502.956	96.38
503.172	107.38
503.389	95.38
503.606	106.38
503.823	111.38
504.04	98.38
504.256	90.38
504.473	83.38
504.69	88.38
504.907	95.38
505.123	87.38
505.34	91.38
505.557	89.38
505.773	89.38
505.99	83.38
506.207	98.38
506.423	95.38
506.64	90.38
506.856	109.38
507.073	93.38
507.289	90.38
507.506	85.38
507.722	123.38
507.939	110.38
508.155	84.38
508.372	96.38
508.588	82.38
508.805	84.38
509.021	100.38
509.238	101.38
509.454	118.38
509.67	91.38
509.887	99.38
510.103	143.38
510.319	221.38
510.536	778.38
510.752	2302.38
510.968	632.38
511.184	143.38
511.401	123.38
511.617	106.38
511.833	106.38
512.049	104.38
512.265	79.38
512.481	92.38
512.698	99.38
512.914	85.38
513.13	106.38
513.346	100.38
513.562	93.38
513.778	93.38
513.994	95.38
514.21	106.38
514.426	118.38
514.642	143.38
514.858	126.38
