Data from Uncirc_1991_H10_HRD10591_00039.txt Node
Date: Wed Jan 03 11:50:46 EST 2024
User: Yrep
Spectrometer: HR+D1059
Trigger mode: 1
Integration Time (sec): 1.000000E-1
Scans to average: 1
Electric dark correction enabled: true
Nonlinearity correction enabled: false
Boxcar width: 0
XAxis mode: Wavelengths
Number of Pixels in Spectrum: 2048
>>>>>Begin Spectral Data<<<<<
223.165	-21.19
223.4	-21.19
223.635	-21.19
223.869	-24.19
224.104	-11.19
224.338	-22.19
224.573	-11.19
224.808	-16.19
225.042	1.81
225.277	-0.19
225.511	7.81
225.746	4.81
225.98	2.81
226.215	8.81
226.449	14.81
226.683	15.81
226.918	20.81
227.152	28.81
227.387	41.81
227.621	52.81
227.856	36.81
228.09	43.81
228.324	61.81
228.559	61.81
228.793	46.81
229.027	70.81
229.262	78.81
229.496	90.81
229.73	100.81
229.964	82.81
230.199	84.81
230.433	77.81
230.667	76.81
230.901	79.81
231.136	83.81
231.37	79.81
231.604	69.81
231.838	81.81
232.072	87.81
232.306	85.81
232.541	89.81
232.775	78.81
233.009	78.81
233.243	81.81
233.477	79.81
233.711	92.81
233.945	80.81
234.179	82.81
234.413	81.81
234.647	82.81
234.881	80.81
235.115	75.81
235.349	76.81
235.583	77.81
235.817	77.81
236.051	95.81
236.285	94.81
236.519	85.81
236.753	70.81
236.987	91.81
237.221	79.81
237.455	85.81
237.689	78.81
237.922	76.81
238.156	69.81
238.39	76.81
238.624	75.81
238.858	75.81
239.091	56.81
239.325	65.81
239.559	76.81
239.793	90.81
240.027	90.81
240.26	80.81
240.494	89.81
240.728	88.81
240.961	77.81
241.195	78.81
241.429	69.81
241.662	81.81
241.896	75.81
242.13	82.81
242.363	84.81
242.597	71.81
242.83	75.81
243.064	78.81
243.298	74.81
243.531	73.81
243.765	72.81
243.998	84.81
244.232	72.81
244.465	102.81
244.699	85.81
244.932	76.81
245.166	82.81
245.399	78.81
245.633	79.81
245.866	69.81
246.099	83.81
246.333	81.81
246.566	70.81
246.8	92.81
247.033	77.81
247.266	83.81
247.5	71.81
247.733	84.81
247.966	85.81
248.2	92.81
248.433	86.81
248.666	89.81
248.899	86.81
249.133	80.81
249.366	86.81
249.599	92.81
249.832	83.81
250.066	90.81
250.299	95.81
250.532	86.81
250.765	71.81
250.998	80.81
251.231	78.81
251.465	89.81
251.698	93.81
251.931	80.81
252.164	65.81
252.397	86.81
252.63	65.81
252.863	80.81
253.096	88.81
253.329	87.81
253.562	87.81
253.795	81.81
254.028	85.81
254.261	83.81
254.494	76.81
254.727	93.81
254.96	90.81
255.193	84.81
255.426	78.81
255.659	69.81
255.892	77.81
256.124	83.81
256.357	82.81
256.59	87.81
256.823	100.81
257.056	93.81
257.289	85.81
257.521	73.81
257.754	88.81
257.987	99.81
258.22	59.81
258.452	82.81
258.685	79.81
258.918	94.81
259.151	84.81
259.383	76.81
259.616	94.81
259.849	96.81
260.081	93.81
260.314	89.81
260.547	84.81
260.779	78.81
261.012	67.81
261.244	83.81
261.477	86.81
261.71	100.81
261.942	123.81
262.175	141.81
262.407	99.81
262.64	87.81
262.872	87.81
263.105	88.81
263.337	82.81
263.57	79.81
263.802	88.81
264.035	82.81
264.267	76.81
264.499	77.81
264.732	81.81
264.964	88.81
265.197	93.81
265.429	86.81
265.661	92.81
265.894	98.81
266.126	85.81
266.358	69.81
266.591	78.81
266.823	83.81
267.055	66.81
267.287	83.81
267.52	73.81
267.752	72.81
267.984	81.81
268.216	75.81
268.448	88.81
268.681	75.81
268.913	107.81
269.145	82.81
269.377	84.81
269.609	69.81
269.841	81.81
270.073	83.81
270.306	80.81
270.538	92.81
270.77	91.81
271.002	91.81
271.234	91.81
271.466	88.81
271.698	93.81
271.93	86.81
272.162	77.81
272.394	94.81
272.626	89.81
272.858	87.81
273.09	94.81
273.322	89.81
273.553	97.81
273.785	88.81
274.017	73.81
274.249	91.81
274.481	92.81
274.713	77.81
274.945	85.81
275.176	85.81
275.408	92.81
275.64	87.81
275.872	89.81
276.104	83.81
276.335	76.81
276.567	99.81
276.799	109.81
277.031	99.81
277.262	97.81
277.494	105.81
277.726	99.81
277.957	96.81
278.189	84.81
278.421	84.81
278.652	75.81
278.884	85.81
279.115	84.81
279.347	97.81
279.579	84.81
279.81	85.81
280.042	81.81
280.273	97.81
280.505	93.81
280.736	84.81
280.968	92.81
281.199	93.81
281.431	81.81
281.662	82.81
281.894	95.81
282.125	112.81
282.356	114.81
282.588	166.81
282.819	130.81
283.051	91.81
283.282	89.81
283.513	69.81
283.745	85.81
283.976	85.81
284.207	85.81
284.439	99.81
284.67	70.81
284.901	97.81
285.132	91.81
285.364	82.81
285.595	87.81
285.826	91.81
286.057	82.81
286.288	109.81
286.52	92.81
286.751	70.81
286.982	85.81
287.213	89.81
287.444	93.81
287.675	91.81
287.906	111.81
288.138	85.81
288.369	91.81
288.6	91.81
288.831	102.81
289.062	84.81
289.293	87.81
289.524	91.81
289.755	84.81
289.986	86.81
290.217	72.81
290.448	88.81
290.679	93.81
290.91	91.81
291.141	84.81
291.371	94.81
291.602	94.81
291.833	96.81
292.064	99.81
292.295	86.81
292.526	81.81
292.757	91.81
292.987	89.81
293.218	88.81
293.449	94.81
293.68	78.81
293.91	79.81
294.141	96.81
294.372	90.81
294.603	98.81
294.833	93.81
295.064	87.81
295.295	90.81
295.525	106.81
295.756	115.81
295.987	118.81
296.217	151.81
296.448	125.81
296.679	97.81
296.909	93.81
297.14	98.81
297.37	83.81
297.601	90.81
297.831	87.81
298.062	88.81
298.292	95.81
298.523	78.81
298.753	89.81
298.984	94.81
299.214	90.81
299.445	97.81
299.675	95.81
299.905	102.81
300.136	108.81
300.366	91.81
300.597	91.81
300.827	96.81
301.057	100.81
301.288	112.81
301.518	93.81
301.748	95.81
301.979	107.81
302.209	97.81
302.439	97.81
302.669	97.81
302.9	95.81
303.13	89.81
303.36	94.81
303.59	103.81
303.82	113.81
304.051	107.81
304.281	78.81
304.511	100.81
304.741	89.81
304.971	96.81
305.201	107.81
305.431	82.81
305.661	71.81
305.891	87.81
306.121	97.81
306.352	108.81
306.582	114.81
306.812	103.81
307.042	86.81
307.272	87.81
307.502	88.81
307.731	91.81
307.961	79.81
308.191	81.81
308.421	101.81
308.651	89.81
308.881	100.81
309.111	79.81
309.341	87.81
309.571	110.81
309.8	105.81
310.03	83.81
310.26	100.81
310.49	97.81
310.72	93.81
310.949	114.81
311.179	107.81
311.409	95.81
311.639	105.81
311.868	102.81
312.098	94.81
312.328	118.81
312.557	108.81
312.787	110.81
313.017	105.81
313.246	100.81
313.476	96.81
313.706	98.81
313.935	96.81
314.165	104.81
314.394	110.81
314.624	86.81
314.853	102.81
315.083	102.81
315.312	91.81
315.542	94.81
315.771	96.81
316.001	84.81
316.23	103.81
316.46	93.81
316.689	99.81
316.919	88.81
317.148	99.81
317.377	101.81
317.607	108.81
317.836	108.81
318.065	100.81
318.295	89.81
318.524	102.81
318.753	85.81
318.983	96.81
319.212	102.81
319.441	107.81
319.67	115.81
319.9	93.81
320.129	100.81
320.358	98.81
320.587	107.81
320.816	109.81
321.046	93.81
321.275	95.81
321.504	95.81
321.733	112.81
321.962	107.81
322.191	118.81
322.42	99.81
322.649	105.81
322.878	115.81
323.108	113.81
323.337	148.81
323.566	157.81
323.795	188.81
324.024	240.81
324.253	486.81
324.482	1088.81
324.71	2239.81
324.939	3095.81
325.168	1084.81
325.397	308.81
325.626	164.81
325.855	134.81
326.084	146.81
326.313	144.81
326.542	168.81
326.77	271.81
326.999	559.81
327.228	1225.81
327.457	2256.81
327.686	1823.81
327.914	482.81
328.143	236.81
328.372	167.81
328.6	134.81
328.829	142.81
329.058	142.81
329.287	153.81
329.515	121.81
329.744	114.81
329.972	106.81
330.201	101.81
330.43	118.81
330.658	140.81
330.887	169.81
331.115	142.81
331.344	102.81
331.572	110.81
331.801	111.81
332.03	108.81
332.258	108.81
332.486	89.81
332.715	94.81
332.943	98.81
333.172	92.81
333.4	105.81
333.629	109.81
333.857	124.81
334.085	111.81
334.314	97.81
334.542	91.81
334.771	88.81
334.999	107.81
335.227	103.81
335.455	98.81
335.684	102.81
335.912	92.81
336.14	84.81
336.369	95.81
336.597	118.81
336.825	104.81
337.053	99.81
337.281	91.81
337.51	90.81
337.738	94.81
337.966	87.81
338.194	99.81
338.422	91.81
338.65	90.81
338.878	99.81
339.106	97.81
339.334	106.81
339.562	89.81
339.79	104.81
340.018	83.81
340.246	101.81
340.474	88.81
340.702	90.81
340.93	93.81
341.158	88.81
341.386	94.81
341.614	103.81
341.842	104.81
342.07	75.81
342.298	92.81
342.526	93.81
342.754	102.81
342.981	102.81
343.209	95.81
343.437	105.81
343.665	82.81
343.893	97.81
344.12	98.81
344.348	84.81
344.576	92.81
344.804	94.81
345.031	103.81
345.259	110.81
345.487	98.81
345.714	105.81
345.942	96.81
346.17	85.81
346.397	94.81
346.625	97.81
346.853	104.81
347.08	96.81
347.308	92.81
347.535	103.81
347.763	99.81
347.99	104.81
348.218	120.81
348.445	106.81
348.673	106.81
348.9	102.81
349.128	111.81
349.355	104.81
349.583	100.81
349.81	110.81
350.037	107.81
350.265	83.81
350.492	99.81
350.72	113.81
350.947	105.81
351.174	129.81
351.402	115.81
351.629	107.81
351.856	113.81
352.083	100.81
352.311	110.81
352.538	140.81
352.765	120.81
352.992	116.81
353.22	128.81
353.447	93.81
353.674	96.81
353.901	118.81
354.128	92.81
354.355	86.81
354.583	96.81
354.81	102.81
355.037	91.81
355.264	88.81
355.491	83.81
355.718	91.81
355.945	84.81
356.172	88.81
356.399	104.81
356.626	91.81
356.853	99.81
357.08	96.81
357.307	83.81
357.534	88.81
357.761	96.81
357.988	95.81
358.215	93.81
358.441	83.81
358.668	85.81
358.895	92.81
359.122	80.81
359.349	99.81
359.576	95.81
359.802	109.81
360.029	124.81
360.256	120.81
360.483	110.81
360.709	87.81
360.936	96.81
361.163	99.81
361.39	108.81
361.616	110.81
361.843	104.81
362.07	91.81
362.296	99.81
362.523	93.81
362.749	105.81
362.976	102.81
363.203	94.81
363.429	102.81
363.656	94.81
363.882	106.81
364.109	95.81
364.335	95.81
364.562	96.81
364.788	88.81
365.015	79.81
365.241	109.81
365.468	111.81
365.694	110.81
365.92	102.81
366.147	91.81
366.373	82.81
366.599	90.81
366.826	83.81
367.052	89.81
367.278	92.81
367.505	93.81
367.731	94.81
367.957	91.81
368.184	98.81
368.41	117.81
368.636	127.81
368.862	139.81
369.089	128.81
369.315	106.81
369.541	93.81
369.767	96.81
369.993	78.81
370.219	88.81
370.445	100.81
370.672	91.81
370.898	88.81
371.124	97.81
371.35	87.81
371.576	87.81
371.802	93.81
372.028	93.81
372.254	86.81
372.48	97.81
372.706	94.81
372.932	87.81
373.158	83.81
373.384	87.81
373.61	85.81
373.835	102.81
374.061	100.81
374.287	103.81
374.513	99.81
374.739	84.81
374.965	89.81
375.191	80.81
375.416	87.81
375.642	78.81
375.868	102.81
376.094	93.81
376.319	75.81
376.545	87.81
376.771	92.81
376.997	88.81
377.222	89.81
377.448	103.81
377.674	97.81
377.899	81.81
378.125	87.81
378.35	99.81
378.576	99.81
378.802	104.81
379.027	88.81
379.253	89.81
379.478	96.81
379.704	89.81
379.929	104.81
380.155	100.81
380.38	87.81
380.606	87.81
380.831	109.81
381.057	103.81
381.282	95.81
381.507	98.81
381.733	95.81
381.958	84.81
382.184	112.81
382.409	100.81
382.634	86.81
382.86	98.81
383.085	94.81
383.31	93.81
383.535	93.81
383.761	101.81
383.986	94.81
384.211	104.81
384.436	102.81
384.662	98.81
384.887	94.81
385.112	109.81
385.337	107.81
385.562	102.81
385.787	99.81
386.013	100.81
386.238	117.81
386.463	106.81
386.688	108.81
386.913	91.81
387.138	98.81
387.363	88.81
387.588	99.81
387.813	99.81
388.038	91.81
388.263	102.81
388.488	101.81
388.713	94.81
388.938	104.81
389.163	100.81
389.387	96.81
389.612	115.81
389.837	107.81
390.062	84.81
390.287	86.81
390.512	91.81
390.736	94.81
390.961	100.81
391.186	100.81
391.411	94.81
391.636	94.81
391.86	91.81
392.085	76.81
392.31	83.81
392.534	93.81
392.759	94.81
392.984	88.81
393.208	92.81
393.433	95.81
393.658	93.81
393.882	89.81
394.107	81.81
394.331	97.81
394.556	82.81
394.78	102.81
395.005	83.81
395.229	84.81
395.454	85.81
395.678	82.81
395.903	85.81
396.127	95.81
396.352	99.81
396.576	96.81
396.801	83.81
397.025	90.81
397.249	103.81
397.474	100.81
397.698	86.81
397.922	85.81
398.147	96.81
398.371	84.81
398.595	87.81
398.82	88.81
399.044	90.81
399.268	90.81
399.492	81.81
399.717	90.81
399.941	94.81
400.165	93.81
400.389	104.81
400.613	91.81
400.837	100.81
401.062	112.81
401.286	93.81
401.51	97.81
401.734	100.81
401.958	116.81
402.182	141.81
402.406	192.81
402.63	131.81
402.854	109.81
403.078	96.81
403.302	93.81
403.526	92.81
403.75	74.81
403.974	99.81
404.198	85.81
404.422	96.81
404.645	90.81
404.869	86.81
405.093	80.81
405.317	106.81
405.541	96.81
405.765	103.81
405.988	129.81
406.212	217.81
406.436	306.81
406.66	163.81
406.883	117.81
407.107	99.81
407.331	111.81
407.555	111.81
407.778	110.81
408.002	104.81
408.226	77.81
408.449	78.81
408.673	83.81
408.896	99.81
409.12	91.81
409.344	98.81
409.567	88.81
409.791	77.81
410.014	103.81
410.238	91.81
410.461	94.81
410.685	95.81
410.908	92.81
411.132	113.81
411.355	109.81
411.578	86.81
411.802	84.81
412.025	77.81
412.249	94.81
412.472	94.81
412.695	97.81
412.919	85.81
413.142	66.81
413.365	96.81
413.589	86.81
413.812	92.81
414.035	103.81
414.258	94.81
414.482	87.81
414.705	101.81
414.928	97.81
415.151	92.81
415.374	106.81
415.597	94.81
415.821	88.81
416.044	98.81
416.267	85.81
416.49	95.81
416.713	94.81
416.936	95.81
417.159	86.81
417.382	96.81
417.605	92.81
417.828	107.81
418.051	103.81
418.274	94.81
418.497	85.81
418.72	89.81
418.943	108.81
419.166	82.81
419.389	90.81
419.611	99.81
419.834	86.81
420.057	99.81
420.28	83.81
420.503	95.81
420.726	91.81
420.948	103.81
421.171	84.81
421.394	102.81
421.617	100.81
421.839	104.81
422.062	97.81
422.285	96.81
422.507	88.81
422.73	112.81
422.953	112.81
423.175	87.81
423.398	95.81
423.621	102.81
423.843	96.81
424.066	91.81
424.288	81.81
424.511	84.81
424.733	116.81
424.956	120.81
425.178	98.81
425.401	105.81
425.623	124.81
425.846	98.81
426.068	94.81
426.291	94.81
426.513	92.81
426.735	92.81
426.958	108.81
427.18	125.81
427.402	159.81
427.625	219.81
427.847	145.81
428.069	110.81
428.292	102.81
428.514	91.81
428.736	87.81
428.958	87.81
429.181	93.81
429.403	85.81
429.625	83.81
429.847	100.81
430.069	108.81
430.292	104.81
430.514	85.81
430.736	93.81
430.958	88.81
431.18	90.81
431.402	100.81
431.624	91.81
431.846	89.81
432.068	96.81
432.29	76.81
432.512	91.81
432.734	80.81
432.956	87.81
433.178	103.81
433.4	108.81
433.622	93.81
433.844	92.81
434.066	92.81
434.287	94.81
434.509	86.81
434.731	92.81
434.953	92.81
435.175	97.81
435.397	99.81
435.618	109.81
435.84	109.81
436.062	129.81
436.284	127.81
436.505	98.81
436.727	113.81
436.949	89.81
437.17	101.81
437.392	95.81
437.614	98.81
437.835	125.81
438.057	143.81
438.278	143.81
438.5	123.81
438.721	141.81
438.943	104.81
439.165	89.81
439.386	79.81
439.608	93.81
439.829	115.81
440.05	136.81
440.272	165.81
440.493	110.81
440.715	95.81
440.936	86.81
441.158	100.81
441.379	85.81
441.6	85.81
441.822	101.81
442.043	107.81
442.264	100.81
442.486	107.81
442.707	104.81
442.928	109.81
443.149	149.81
443.371	150.81
443.592	123.81
443.813	118.81
444.034	128.81
444.255	99.81
444.476	102.81
444.698	84.81
444.919	93.81
445.14	143.81
445.361	129.81
445.582	141.81
445.803	171.81
446.024	175.81
446.245	163.81
446.466	143.81
446.687	88.81
446.908	89.81
447.129	85.81
447.35	97.81
447.571	102.81
447.792	91.81
448.013	111.81
448.234	127.81
448.455	109.81
448.675	131.81
448.896	140.81
449.117	100.81
449.338	118.81
449.559	150.81
449.779	160.81
450	112.81
450.221	97.81
450.442	88.81
450.662	104.81
450.883	110.81
451.104	117.81
451.324	93.81
451.545	96.81
451.766	91.81
451.986	97.81
452.207	90.81
452.428	111.81
452.648	111.81
452.869	115.81
453.089	132.81
453.31	127.81
453.53	94.81
453.751	107.81
453.971	113.81
454.192	129.81
454.412	118.81
454.633	91.81
454.853	87.81
455.073	87.81
455.294	97.81
455.514	107.81
455.734	95.81
455.955	93.81
456.175	78.81
456.395	93.81
456.616	91.81
456.836	82.81
457.056	88.81
457.276	92.81
457.497	97.81
457.717	96.81
457.937	90.81
458.157	90.81
458.377	100.81
458.598	107.81
458.818	176.81
459.038	196.81
459.258	125.81
459.478	90.81
459.698	94.81
459.918	91.81
460.138	88.81
460.358	89.81
460.578	108.81
460.798	88.81
461.018	90.81
461.238	88.81
461.458	84.81
461.678	93.81
461.898	87.81
462.118	86.81
462.338	80.81
462.558	94.81
462.777	103.81
462.997	87.81
463.217	93.81
463.437	103.81
463.657	85.81
463.876	97.81
464.096	100.81
464.316	90.81
464.536	96.81
464.755	100.81
464.975	118.81
465.195	200.81
465.414	216.81
465.634	113.81
465.854	92.81
466.073	87.81
466.293	85.81
466.512	76.81
466.732	77.81
466.951	83.81
467.171	93.81
467.391	107.81
467.61	127.81
467.829	100.81
468.049	88.81
468.268	82.81
468.488	94.81
468.707	95.81
468.927	76.81
469.146	89.81
469.365	85.81
469.585	94.81
469.804	96.81
470.023	101.81
470.243	102.81
470.462	108.81
470.681	116.81
470.901	88.81
471.12	86.81
471.339	97.81
471.558	86.81
471.777	65.81
471.997	84.81
472.216	109.81
472.435	96.81
472.654	94.81
472.873	87.81
473.092	86.81
473.311	92.81
473.53	75.81
473.749	96.81
473.968	101.81
474.187	123.81
474.406	110.81
474.625	77.81
474.844	77.81
475.063	86.81
475.282	100.81
475.501	97.81
475.72	109.81
475.939	87.81
476.158	98.81
476.377	69.81
476.596	99.81
476.814	106.81
477.033	96.81
477.252	92.81
477.471	108.81
477.69	86.81
477.908	84.81
478.127	88.81
478.346	102.81
478.564	107.81
478.783	111.81
479.002	90.81
479.22	98.81
479.439	99.81
479.658	117.81
479.876	119.81
480.095	98.81
480.313	91.81
480.532	94.81
480.751	103.81
480.969	79.81
481.188	101.81
481.406	102.81
481.624	108.81
481.843	97.81
482.061	86.81
482.28	93.81
482.498	94.81
482.717	110.81
482.935	100.81
483.153	99.81
483.372	90.81
483.59	97.81
483.808	96.81
484.027	100.81
484.245	101.81
484.463	89.81
484.681	82.81
484.9	91.81
485.118	95.81
485.336	97.81
485.554	86.81
485.772	103.81
485.99	94.81
486.209	102.81
486.427	112.81
486.645	101.81
486.863	111.81
487.081	113.81
487.299	104.81
487.517	102.81
487.735	98.81
487.953	104.81
488.171	104.81
488.389	102.81
488.607	110.81
488.825	103.81
489.043	85.81
489.261	105.81
489.479	84.81
489.696	91.81
489.914	86.81
490.132	101.81
490.35	95.81
490.568	97.81
490.786	82.81
491.003	102.81
491.221	103.81
491.439	91.81
491.657	87.81
491.874	102.81
492.092	87.81
492.31	91.81
492.527	101.81
492.745	95.81
492.963	88.81
493.18	78.81
493.398	98.81
493.615	101.81
493.833	99.81
494.05	105.81
494.268	108.81
494.485	111.81
494.703	92.81
494.92	92.81
495.138	109.81
495.355	92.81
495.573	103.81
495.79	80.81
496.008	95.81
496.225	92.81
496.442	85.81
496.66	90.81
496.877	85.81
497.094	105.81
497.312	101.81
497.529	96.81
497.746	105.81
497.963	88.81
498.181	86.81
498.398	78.81
498.615	105.81
498.832	105.81
499.049	94.81
499.267	85.81
499.484	95.81
499.701	88.81
499.918	91.81
500.135	79.81
500.352	92.81
500.569	95.81
500.786	87.81
501.003	85.81
501.22	97.81
501.437	96.81
501.654	107.81
501.871	118.81
502.088	102.81
502.305	92.81
502.522	87.81
502.739	85.81
502.956	110.81
503.172	99.81
503.389	101.81
503.606	120.81
503.823	105.81
504.04	103.81
504.256	98.81
504.473	94.81
504.69	84.81
504.907	85.81
505.123	96.81
505.34	91.81
505.557	91.81
505.773	94.81
505.99	104.81
506.207	84.81
506.423	97.81
506.64	105.81
506.856	97.81
507.073	80.81
507.289	81.81
507.506	113.81
507.722	136.81
507.939	127.81
508.155	111.81
508.372	108.81
508.588	96.81
508.805	100.81
509.021	95.81
509.238	118.81
509.454	102.81
509.67	102.81
509.887	111.81
510.103	147.81
510.319	259.81
510.536	934.81
510.752	3089.81
510.968	832.81
511.184	167.81
511.401	124.81
511.617	96.81
511.833	100.81
512.049	98.81
512.265	94.81
512.481	91.81
512.698	86.81
512.914	93.81
513.13	87.81
513.346	97.81
513.562	107.81
513.778	109.81
513.994	96.81
