Data from Uncirc_1991_H10_HRD10591_00090.txt Node
Date: Wed Jan 03 11:50:56 EST 2024
User: Yrep
Spectrometer: HR+D1059
Trigger mode: 1
Integration Time (sec): 1.000000E-1
Scans to average: 1
Electric dark correction enabled: true
Nonlinearity correction enabled: false
Boxcar width: 0
XAxis mode: Wavelengths
Number of Pixels in Spectrum: 2048
>>>>>Begin Spectral Data<<<<<
223.165	-8.06
223.4	-8.06
223.635	-8.06
223.869	-25.06
224.104	-24.06
224.338	-6.06
224.573	-18.06
224.808	-15.06
225.042	3.94
225.277	-6.06
225.511	-4.06
225.746	-1.06
225.98	7.94
226.215	8.94
226.449	11.94
226.683	23.94
226.918	27.94
227.152	22.94
227.387	46.94
227.621	44.94
227.856	45.94
228.09	50.94
228.324	39.94
228.559	65.94
228.793	56.94
229.027	65.94
229.262	68.94
229.496	66.94
229.73	84.94
229.964	74.94
230.199	79.94
230.433	94.94
230.667	82.94
230.901	80.94
231.136	80.94
231.37	72.94
231.604	84.94
231.838	83.94
232.072	77.94
232.306	69.94
232.541	77.94
232.775	84.94
233.009	76.94
233.243	81.94
233.477	76.94
233.711	79.94
233.945	86.94
234.179	82.94
234.413	81.94
234.647	78.94
234.881	77.94
235.115	81.94
235.349	69.94
235.583	82.94
235.817	81.94
236.051	89.94
236.285	76.94
236.519	77.94
236.753	89.94
236.987	80.94
237.221	87.94
237.455	81.94
237.689	78.94
237.922	83.94
238.156	83.94
238.39	78.94
238.624	71.94
238.858	78.94
239.091	73.94
239.325	77.94
239.559	77.94
239.793	68.94
240.027	74.94
240.26	74.94
240.494	77.94
240.728	75.94
240.961	75.94
241.195	80.94
241.429	68.94
241.662	85.94
241.896	68.94
242.13	85.94
242.363	81.94
242.597	67.94
242.83	74.94
243.064	82.94
243.298	88.94
243.531	61.94
243.765	83.94
243.998	68.94
244.232	99.94
244.465	93.94
244.699	87.94
244.932	73.94
245.166	85.94
245.399	68.94
245.633	77.94
245.866	92.94
246.099	62.94
246.333	76.94
246.566	51.94
246.8	76.94
247.033	97.94
247.266	76.94
247.5	84.94
247.733	79.94
247.966	86.94
248.2	74.94
248.433	75.94
248.666	84.94
248.899	85.94
249.133	63.94
249.366	102.94
249.599	91.94
249.832	74.94
250.066	80.94
250.299	74.94
250.532	80.94
250.765	84.94
250.998	81.94
251.231	67.94
251.465	90.94
251.698	84.94
251.931	74.94
252.164	93.94
252.397	75.94
252.63	74.94
252.863	69.94
253.096	84.94
253.329	62.94
253.562	94.94
253.795	85.94
254.028	76.94
254.261	86.94
254.494	87.94
254.727	76.94
254.96	80.94
255.193	74.94
255.426	86.94
255.659	84.94
255.892	72.94
256.124	87.94
256.357	68.94
256.59	85.94
256.823	70.94
257.056	88.94
257.289	81.94
257.521	87.94
257.754	72.94
257.987	85.94
258.22	63.94
258.452	76.94
258.685	67.94
258.918	76.94
259.151	66.94
259.383	80.94
259.616	71.94
259.849	86.94
260.081	83.94
260.314	74.94
260.547	93.94
260.779	82.94
261.012	81.94
261.244	80.94
261.477	80.94
261.71	90.94
261.942	123.94
262.175	125.94
262.407	91.94
262.64	82.94
262.872	84.94
263.105	80.94
263.337	91.94
263.57	90.94
263.802	92.94
264.035	92.94
264.267	77.94
264.499	86.94
264.732	86.94
264.964	84.94
265.197	71.94
265.429	75.94
265.661	90.94
265.894	89.94
266.126	88.94
266.358	94.94
266.591	77.94
266.823	81.94
267.055	96.94
267.287	79.94
267.52	81.94
267.752	101.94
267.984	77.94
268.216	89.94
268.448	85.94
268.681	91.94
268.913	81.94
269.145	81.94
269.377	75.94
269.609	80.94
269.841	80.94
270.073	89.94
270.306	76.94
270.538	78.94
270.77	91.94
271.002	76.94
271.234	78.94
271.466	100.94
271.698	100.94
271.93	84.94
272.162	82.94
272.394	80.94
272.626	86.94
272.858	83.94
273.09	93.94
273.322	74.94
273.553	86.94
273.785	69.94
274.017	93.94
274.249	84.94
274.481	83.94
274.713	83.94
274.945	95.94
275.176	80.94
275.408	81.94
275.64	84.94
275.872	81.94
276.104	99.94
276.335	89.94
276.567	97.94
276.799	114.94
277.031	111.94
277.262	100.94
277.494	98.94
277.726	95.94
277.957	78.94
278.189	86.94
278.421	92.94
278.652	87.94
278.884	79.94
279.115	83.94
279.347	81.94
279.579	92.94
279.81	93.94
280.042	90.94
280.273	83.94
280.505	77.94
280.736	80.94
280.968	80.94
281.199	81.94
281.431	87.94
281.662	94.94
281.894	81.94
282.125	89.94
282.356	121.94
282.588	136.94
282.819	115.94
283.051	88.94
283.282	92.94
283.513	97.94
283.745	105.94
283.976	78.94
284.207	83.94
284.439	88.94
284.67	92.94
284.901	76.94
285.132	77.94
285.364	95.94
285.595	66.94
285.826	95.94
286.057	73.94
286.288	92.94
286.52	73.94
286.751	93.94
286.982	74.94
287.213	78.94
287.444	93.94
287.675	77.94
287.906	82.94
288.138	101.94
288.369	86.94
288.6	87.94
288.831	88.94
289.062	98.94
289.293	97.94
289.524	97.94
289.755	80.94
289.986	82.94
290.217	93.94
290.448	74.94
290.679	85.94
290.91	77.94
291.141	78.94
291.371	93.94
291.602	84.94
291.833	98.94
292.064	83.94
292.295	86.94
292.526	84.94
292.757	94.94
292.987	96.94
293.218	76.94
293.449	97.94
293.68	86.94
293.91	95.94
294.141	89.94
294.372	79.94
294.603	91.94
294.833	81.94
295.064	76.94
295.295	96.94
295.525	110.94
295.756	92.94
295.987	112.94
296.217	124.94
296.448	130.94
296.679	96.94
296.909	82.94
297.14	82.94
297.37	94.94
297.601	92.94
297.831	94.94
298.062	84.94
298.292	82.94
298.523	83.94
298.753	70.94
298.984	76.94
299.214	87.94
299.445	86.94
299.675	102.94
299.905	92.94
300.136	85.94
300.366	77.94
300.597	93.94
300.827	90.94
301.057	109.94
301.288	87.94
301.518	101.94
301.748	82.94
301.979	85.94
302.209	89.94
302.439	82.94
302.669	91.94
302.9	84.94
303.13	87.94
303.36	100.94
303.59	97.94
303.82	110.94
304.051	78.94
304.281	88.94
304.511	100.94
304.741	92.94
304.971	84.94
305.201	81.94
305.431	84.94
305.661	99.94
305.891	86.94
306.121	95.94
306.352	112.94
306.582	108.94
306.812	81.94
307.042	72.94
307.272	98.94
307.502	83.94
307.731	87.94
307.961	99.94
308.191	96.94
308.421	86.94
308.651	91.94
308.881	72.94
309.111	80.94
309.341	102.94
309.571	92.94
309.8	96.94
310.03	101.94
310.26	102.94
310.49	106.94
310.72	90.94
310.949	109.94
311.179	98.94
311.409	88.94
311.639	100.94
311.868	98.94
312.098	96.94
312.328	102.94
312.557	96.94
312.787	104.94
313.017	97.94
313.246	100.94
313.476	92.94
313.706	86.94
313.935	84.94
314.165	102.94
314.394	92.94
314.624	97.94
314.853	94.94
315.083	86.94
315.312	99.94
315.542	86.94
315.771	78.94
316.001	96.94
316.23	110.94
316.46	88.94
316.689	94.94
316.919	103.94
317.148	101.94
317.377	76.94
317.607	96.94
317.836	86.94
318.065	112.94
318.295	89.94
318.524	88.94
318.753	95.94
318.983	105.94
319.212	116.94
319.441	94.94
319.67	94.94
319.9	88.94
320.129	93.94
320.358	94.94
320.587	97.94
320.816	94.94
321.046	97.94
321.275	94.94
321.504	80.94
321.733	91.94
321.962	104.94
322.191	106.94
322.42	109.94
322.649	102.94
322.878	114.94
323.108	113.94
323.337	123.94
323.566	136.94
323.795	170.94
324.024	230.94
324.253	435.94
324.482	963.94
324.71	2069.94
324.939	2852.94
325.168	1043.94
325.397	298.94
325.626	165.94
325.855	145.94
326.084	144.94
326.313	141.94
326.542	153.94
326.77	236.94
326.999	509.94
327.228	1112.94
327.457	2124.94
327.686	1733.94
327.914	440.94
328.143	212.94
328.372	145.94
328.6	132.94
328.829	103.94
329.058	130.94
329.287	145.94
329.515	114.94
329.744	100.94
329.972	108.94
330.201	91.94
330.43	115.94
330.658	123.94
330.887	146.94
331.115	129.94
331.344	111.94
331.572	102.94
331.801	108.94
332.03	107.94
332.258	94.94
332.486	89.94
332.715	96.94
332.943	86.94
333.172	95.94
333.4	85.94
333.629	89.94
333.857	105.94
334.085	106.94
334.314	81.94
334.542	100.94
334.771	89.94
334.999	93.94
335.227	97.94
335.455	97.94
335.684	103.94
335.912	104.94
336.14	93.94
336.369	94.94
336.597	89.94
336.825	102.94
337.053	95.94
337.281	90.94
337.51	77.94
337.738	81.94
337.966	93.94
338.194	93.94
338.422	94.94
338.65	89.94
338.878	97.94
339.106	80.94
339.334	97.94
339.562	92.94
339.79	102.94
340.018	90.94
340.246	113.94
340.474	91.94
340.702	77.94
340.93	97.94
341.158	113.94
341.386	108.94
341.614	87.94
341.842	91.94
342.07	91.94
342.298	91.94
342.526	90.94
342.754	77.94
342.981	76.94
343.209	77.94
343.437	98.94
343.665	98.94
343.893	94.94
344.12	93.94
344.348	91.94
344.576	84.94
344.804	82.94
345.031	79.94
345.259	107.94
345.487	100.94
345.714	92.94
345.942	97.94
346.17	77.94
346.397	90.94
346.625	81.94
346.853	83.94
347.08	98.94
347.308	101.94
347.535	98.94
347.763	97.94
347.99	92.94
348.218	96.94
348.445	118.94
348.673	94.94
348.9	85.94
349.128	106.94
349.355	78.94
349.583	98.94
349.81	80.94
350.037	105.94
350.265	106.94
350.492	88.94
350.72	80.94
350.947	95.94
351.174	106.94
351.402	120.94
351.629	98.94
351.856	96.94
352.083	107.94
352.311	108.94
352.538	94.94
352.765	92.94
352.992	107.94
353.22	128.94
353.447	89.94
353.674	87.94
353.901	94.94
354.128	83.94
354.355	99.94
354.583	100.94
354.81	97.94
355.037	88.94
355.264	86.94
355.491	94.94
355.718	91.94
355.945	97.94
356.172	99.94
356.399	90.94
356.626	93.94
356.853	90.94
357.08	97.94
357.307	97.94
357.534	88.94
357.761	97.94
357.988	91.94
358.215	88.94
358.441	88.94
358.668	102.94
358.895	90.94
359.122	89.94
359.349	81.94
359.576	100.94
359.802	102.94
360.029	110.94
360.256	120.94
360.483	92.94
360.709	91.94
360.936	90.94
361.163	101.94
361.39	100.94
361.616	96.94
361.843	93.94
362.07	103.94
362.296	115.94
362.523	97.94
362.749	95.94
362.976	85.94
363.203	102.94
363.429	97.94
363.656	96.94
363.882	83.94
364.109	84.94
364.335	88.94
364.562	101.94
364.788	79.94
365.015	92.94
365.241	99.94
365.468	111.94
365.694	98.94
365.92	106.94
366.147	90.94
366.373	85.94
366.599	97.94
366.826	88.94
367.052	76.94
367.278	88.94
367.505	93.94
367.731	89.94
367.957	91.94
368.184	94.94
368.41	94.94
368.636	98.94
368.862	119.94
369.089	105.94
369.315	113.94
369.541	78.94
369.767	96.94
369.993	90.94
370.219	82.94
370.445	76.94
370.672	85.94
370.898	85.94
371.124	91.94
371.35	84.94
371.576	96.94
371.802	82.94
372.028	88.94
372.254	96.94
372.48	96.94
372.706	100.94
372.932	92.94
373.158	86.94
373.384	86.94
373.61	81.94
373.835	91.94
374.061	89.94
374.287	98.94
374.513	99.94
374.739	88.94
374.965	72.94
375.191	100.94
375.416	88.94
375.642	94.94
375.868	98.94
376.094	96.94
376.319	84.94
376.545	76.94
376.771	84.94
376.997	85.94
377.222	83.94
377.448	97.94
377.674	91.94
377.899	87.94
378.125	85.94
378.35	95.94
378.576	77.94
378.802	80.94
379.027	79.94
379.253	78.94
379.478	77.94
379.704	91.94
379.929	84.94
380.155	96.94
380.38	85.94
380.606	87.94
380.831	97.94
381.057	83.94
381.282	84.94
381.507	108.94
381.733	93.94
381.958	78.94
382.184	86.94
382.409	83.94
382.634	97.94
382.86	102.94
383.085	90.94
383.31	102.94
383.535	97.94
383.761	108.94
383.986	92.94
384.211	90.94
384.436	79.94
384.662	83.94
384.887	90.94
385.112	93.94
385.337	105.94
385.562	94.94
385.787	97.94
386.013	102.94
386.238	109.94
386.463	95.94
386.688	99.94
386.913	105.94
387.138	93.94
387.363	102.94
387.588	90.94
387.813	99.94
388.038	104.94
388.263	100.94
388.488	94.94
388.713	98.94
388.938	87.94
389.163	102.94
389.387	103.94
389.612	97.94
389.837	104.94
390.062	76.94
390.287	83.94
390.512	98.94
390.736	82.94
390.961	97.94
391.186	80.94
391.411	94.94
391.636	84.94
391.86	75.94
392.085	99.94
392.31	88.94
392.534	87.94
392.759	80.94
392.984	77.94
393.208	93.94
393.433	68.94
393.658	84.94
393.882	99.94
394.107	78.94
394.331	68.94
394.556	72.94
394.78	96.94
395.005	77.94
395.229	81.94
395.454	87.94
395.678	92.94
395.903	80.94
396.127	83.94
396.352	88.94
396.576	86.94
396.801	88.94
397.025	92.94
397.249	90.94
397.474	92.94
397.698	88.94
397.922	92.94
398.147	99.94
398.371	74.94
398.595	91.94
398.82	78.94
399.044	77.94
399.268	80.94
399.492	86.94
399.717	104.94
399.941	91.94
400.165	98.94
400.389	102.94
400.613	94.94
400.837	85.94
401.062	79.94
401.286	87.94
401.51	85.94
401.734	99.94
401.958	102.94
402.182	117.94
402.406	180.94
402.63	107.94
402.854	102.94
403.078	93.94
403.302	74.94
403.526	85.94
403.75	86.94
403.974	76.94
404.198	89.94
404.422	86.94
404.645	97.94
404.869	93.94
405.093	90.94
405.317	105.94
405.541	96.94
405.765	94.94
405.988	105.94
406.212	167.94
406.436	236.94
406.66	136.94
406.883	97.94
407.107	94.94
407.331	100.94
407.555	101.94
407.778	101.94
408.002	105.94
408.226	87.94
408.449	73.94
408.673	89.94
408.896	79.94
409.12	112.94
409.344	84.94
409.567	97.94
409.791	99.94
410.014	85.94
410.238	89.94
410.461	91.94
410.685	100.94
410.908	96.94
411.132	118.94
411.355	106.94
411.578	84.94
411.802	106.94
412.025	91.94
412.249	84.94
412.472	70.94
412.695	90.94
412.919	97.94
413.142	80.94
413.365	93.94
413.589	77.94
413.812	91.94
414.035	82.94
414.258	93.94
414.482	88.94
414.705	88.94
414.928	89.94
415.151	104.94
415.374	80.94
415.597	90.94
415.821	90.94
416.044	93.94
416.267	79.94
416.49	81.94
416.713	87.94
416.936	87.94
417.159	79.94
417.382	72.94
417.605	90.94
417.828	96.94
418.051	82.94
418.274	76.94
418.497	80.94
418.72	82.94
418.943	92.94
419.166	90.94
419.389	86.94
419.611	77.94
419.834	93.94
420.057	89.94
420.28	75.94
420.503	75.94
420.726	95.94
420.948	97.94
421.171	84.94
421.394	80.94
421.617	82.94
421.839	89.94
422.062	83.94
422.285	94.94
422.507	100.94
422.73	101.94
422.953	96.94
423.175	74.94
423.398	88.94
423.621	96.94
423.843	75.94
424.066	83.94
424.288	84.94
424.511	92.94
424.733	103.94
424.956	120.94
425.178	90.94
425.401	103.94
425.623	92.94
425.846	81.94
426.068	88.94
426.291	82.94
426.513	92.94
426.735	93.94
426.958	84.94
427.18	100.94
427.402	141.94
427.625	193.94
427.847	126.94
428.069	102.94
428.292	90.94
428.514	101.94
428.736	88.94
428.958	94.94
429.181	76.94
429.403	86.94
429.625	94.94
429.847	97.94
430.069	109.94
430.292	101.94
430.514	78.94
430.736	77.94
430.958	91.94
431.18	95.94
431.402	93.94
431.624	88.94
431.846	81.94
432.068	90.94
432.29	78.94
432.512	85.94
432.734	94.94
432.956	104.94
433.178	108.94
433.4	108.94
433.622	91.94
433.844	85.94
434.066	81.94
434.287	83.94
434.509	95.94
434.731	100.94
434.953	85.94
435.175	93.94
435.397	88.94
435.618	102.94
435.84	113.94
436.062	137.94
436.284	122.94
436.505	119.94
436.727	104.94
436.949	84.94
437.17	83.94
437.392	84.94
437.614	99.94
437.835	108.94
438.057	127.94
438.278	116.94
438.5	110.94
438.721	130.94
438.943	101.94
439.165	82.94
439.386	76.94
439.608	96.94
439.829	97.94
440.05	131.94
440.272	171.94
440.493	104.94
440.715	79.94
440.936	76.94
441.158	81.94
441.379	100.94
441.6	94.94
441.822	91.94
442.043	93.94
442.264	104.94
442.486	106.94
442.707	108.94
442.928	112.94
443.149	147.94
443.371	129.94
443.592	108.94
443.813	130.94
444.034	118.94
444.255	99.94
444.476	86.94
444.698	84.94
444.919	80.94
445.14	125.94
445.361	136.94
445.582	113.94
445.803	148.94
446.024	148.94
446.245	156.94
446.466	126.94
446.687	109.94
446.908	82.94
447.129	82.94
447.35	89.94
447.571	84.94
447.792	90.94
448.013	104.94
448.234	102.94
448.455	105.94
448.675	119.94
448.896	142.94
449.117	116.94
449.338	113.94
449.559	140.94
449.779	152.94
450	96.94
450.221	82.94
450.442	102.94
450.662	92.94
450.883	112.94
451.104	113.94
451.324	80.94
451.545	81.94
451.766	90.94
451.986	83.94
452.207	83.94
452.428	98.94
452.648	84.94
452.869	116.94
453.089	111.94
453.31	126.94
453.53	99.94
453.751	93.94
453.971	101.94
454.192	97.94
454.412	110.94
454.633	86.94
454.853	70.94
455.073	98.94
455.294	84.94
455.514	99.94
455.734	79.94
455.955	67.94
456.175	83.94
456.395	68.94
456.616	82.94
456.836	101.94
457.056	95.94
457.276	89.94
457.497	74.94
457.717	83.94
457.937	86.94
458.157	86.94
458.377	86.94
458.598	101.94
458.818	161.94
459.038	181.94
459.258	125.94
459.478	89.94
459.698	83.94
459.918	80.94
460.138	81.94
460.358	76.94
460.578	79.94
460.798	84.94
461.018	88.94
461.238	75.94
461.458	89.94
461.678	88.94
461.898	69.94
462.118	82.94
462.338	78.94
462.558	78.94
462.777	68.94
462.997	85.94
463.217	74.94
463.437	81.94
463.657	87.94
463.876	94.94
464.096	84.94
464.316	87.94
464.536	84.94
464.755	104.94
464.975	105.94
465.195	176.94
465.414	182.94
465.634	106.94
465.854	90.94
466.073	97.94
466.293	96.94
466.512	90.94
466.732	90.94
466.951	81.94
467.171	81.94
467.391	81.94
467.61	104.94
467.829	99.94
468.049	80.94
468.268	73.94
468.488	82.94
468.707	84.94
468.927	75.94
469.146	91.94
469.365	81.94
469.585	88.94
469.804	106.94
470.023	89.94
470.243	85.94
470.462	100.94
470.681	103.94
470.901	76.94
471.12	76.94
471.339	72.94
471.558	91.94
471.777	88.94
471.997	89.94
472.216	85.94
472.435	94.94
472.654	76.94
472.873	83.94
473.092	82.94
473.311	90.94
473.53	91.94
473.749	83.94
473.968	92.94
474.187	108.94
474.406	96.94
474.625	88.94
474.844	88.94
475.063	89.94
475.282	77.94
475.501	84.94
475.72	94.94
475.939	86.94
476.158	81.94
476.377	78.94
476.596	89.94
476.814	90.94
477.033	99.94
477.252	95.94
477.471	88.94
477.69	100.94
477.908	93.94
478.127	86.94
478.346	84.94
478.564	81.94
478.783	96.94
479.002	88.94
479.22	93.94
479.439	101.94
479.658	101.94
479.876	106.94
480.095	95.94
480.313	90.94
480.532	74.94
480.751	88.94
480.969	87.94
481.188	98.94
481.406	88.94
481.624	86.94
481.843	86.94
482.061	75.94
482.28	78.94
482.498	86.94
482.717	92.94
482.935	89.94
483.153	79.94
483.372	84.94
483.59	96.94
483.808	96.94
484.027	84.94
484.245	86.94
484.463	97.94
484.681	96.94
484.9	92.94
485.118	105.94
485.336	90.94
485.554	104.94
485.772	96.94
485.99	88.94
486.209	103.94
486.427	106.94
486.645	107.94
486.863	120.94
487.081	89.94
487.299	112.94
487.517	87.94
487.735	91.94
487.953	83.94
488.171	104.94
488.389	91.94
488.607	96.94
488.825	90.94
489.043	100.94
489.261	86.94
489.479	85.94
489.696	85.94
489.914	89.94
490.132	79.94
490.35	91.94
490.568	94.94
490.786	92.94
491.003	77.94
491.221	87.94
491.439	78.94
491.657	101.94
491.874	83.94
492.092	76.94
492.31	91.94
492.527	78.94
492.745	77.94
492.963	99.94
493.18	84.94
493.398	86.94
493.615	107.94
493.833	92.94
494.05	90.94
494.268	82.94
494.485	96.94
494.703	89.94
494.92	98.94
495.138	87.94
495.355	72.94
495.573	91.94
495.79	93.94
496.008	88.94
496.225	100.94
496.442	91.94
496.66	92.94
496.877	84.94
497.094	104.94
497.312	94.94
497.529	96.94
497.746	83.94
497.963	89.94
498.181	97.94
498.398	95.94
498.615	94.94
498.832	101.94
499.049	85.94
499.267	90.94
499.484	92.94
499.701	76.94
499.918	101.94
500.135	98.94
500.352	98.94
500.569	88.94
500.786	76.94
501.003	94.94
501.22	84.94
501.437	85.94
501.654	99.94
501.871	110.94
502.088	96.94
502.305	100.94
502.522	105.94
502.739	83.94
502.956	90.94
503.172	83.94
503.389	107.94
503.606	87.94
503.823	86.94
504.04	95.94
504.256	83.94
504.473	94.94
504.69	89.94
504.907	72.94
505.123	87.94
505.34	82.94
505.557	91.94
505.773	85.94
505.99	88.94
506.207	95.94
506.423	82.94
506.64	92.94
506.856	76.94
507.073	74.94
507.289	90.94
507.506	99.94
507.722	99.94
507.939	103.94
508.155	98.94
508.372	92.94
508.588	101.94
508.805	85.94
509.021	98.94
509.238	107.94
509.454	89.94
509.67	90.94
509.887	102.94
510.103	130.94
510.319	202.94
510.536	753.94
510.752	2469.94
510.968	676.94
511.184	163.94
511.401	127.94
511.617	90.94
511.833	93.94
512.049	101.94
512.265	93.94
512.481	96.94
512.698	90.94
512.914	75.94
513.13	94.94
513.346	102.94
513.562	90.94
513.778	86.94
513.994	92.94
514.21	90.94
514.426	113.94
514.642	139.94
514.858	144.94
515.074	175.94
515.29	500.94
515.506	1709.94
515.721	609.94
515.937	173.94
