Data from Uncirc_1991_H10_HRD10591_00051.txt Node
Date: Wed Jan 03 11:50:48 EST 2024
User: Yrep
Spectrometer: HR+D1059
Trigger mode: 1
Integration Time (sec): 1.000000E-1
Scans to average: 1
Electric dark correction enabled: true
Nonlinearity correction enabled: false
Boxcar width: 0
XAxis mode: Wavelengths
Number of Pixels in Spectrum: 2048
>>>>>Begin Spectral Data<<<<<
223.165	-8.25
223.4	-8.25
223.635	-8.25
223.869	-14.25
224.104	-23.25
224.338	-12.25
224.573	-24.25
224.808	-24.25
225.042	-8.25
225.277	-11.25
225.511	-0.25
225.746	6.75
225.98	3.75
226.215	12.75
226.449	21.75
226.683	26.75
226.918	30.75
227.152	23.75
227.387	43.75
227.621	40.75
227.856	52.75
228.09	31.75
228.324	50.75
228.559	52.75
228.793	47.75
229.027	61.75
229.262	77.75
229.496	67.75
229.73	82.75
229.964	83.75
230.199	81.75
230.433	72.75
230.667	82.75
230.901	74.75
231.136	78.75
231.37	77.75
231.604	66.75
231.838	78.75
232.072	80.75
232.306	92.75
232.541	92.75
232.775	84.75
233.009	86.75
233.243	75.75
233.477	78.75
233.711	82.75
233.945	87.75
234.179	76.75
234.413	71.75
234.647	75.75
234.881	92.75
235.115	78.75
235.349	85.75
235.583	89.75
235.817	81.75
236.051	79.75
236.285	82.75
236.519	74.75
236.753	63.75
236.987	84.75
237.221	82.75
237.455	92.75
237.689	94.75
237.922	67.75
238.156	80.75
238.39	78.75
238.624	76.75
238.858	78.75
239.091	64.75
239.325	72.75
239.559	90.75
239.793	92.75
240.027	85.75
240.26	86.75
240.494	70.75
240.728	75.75
240.961	82.75
241.195	75.75
241.429	84.75
241.662	69.75
241.896	71.75
242.13	74.75
242.363	67.75
242.597	76.75
242.83	84.75
243.064	77.75
243.298	71.75
243.531	74.75
243.765	76.75
243.998	86.75
244.232	81.75
244.465	76.75
244.699	82.75
244.932	94.75
245.166	62.75
245.399	100.75
245.633	69.75
245.866	82.75
246.099	76.75
246.333	74.75
246.566	83.75
246.8	80.75
247.033	90.75
247.266	80.75
247.5	84.75
247.733	86.75
247.966	74.75
248.2	75.75
248.433	80.75
248.666	88.75
248.899	74.75
249.133	63.75
249.366	76.75
249.599	90.75
249.832	86.75
250.066	77.75
250.299	82.75
250.532	71.75
250.765	74.75
250.998	87.75
251.231	90.75
251.465	76.75
251.698	83.75
251.931	78.75
252.164	75.75
252.397	84.75
252.63	81.75
252.863	74.75
253.096	76.75
253.329	86.75
253.562	69.75
253.795	71.75
254.028	76.75
254.261	81.75
254.494	85.75
254.727	75.75
254.96	70.75
255.193	71.75
255.426	80.75
255.659	78.75
255.892	84.75
256.124	88.75
256.357	95.75
256.59	83.75
256.823	83.75
257.056	95.75
257.289	80.75
257.521	79.75
257.754	94.75
257.987	79.75
258.22	87.75
258.452	80.75
258.685	71.75
258.918	90.75
259.151	84.75
259.383	103.75
259.616	85.75
259.849	87.75
260.081	93.75
260.314	79.75
260.547	92.75
260.779	81.75
261.012	88.75
261.244	67.75
261.477	90.75
261.71	95.75
261.942	99.75
262.175	114.75
262.407	96.75
262.64	86.75
262.872	83.75
263.105	78.75
263.337	78.75
263.57	85.75
263.802	93.75
264.035	79.75
264.267	71.75
264.499	76.75
264.732	88.75
264.964	95.75
265.197	84.75
265.429	79.75
265.661	82.75
265.894	84.75
266.126	78.75
266.358	83.75
266.591	86.75
266.823	93.75
267.055	106.75
267.287	76.75
267.52	82.75
267.752	78.75
267.984	82.75
268.216	87.75
268.448	96.75
268.681	77.75
268.913	82.75
269.145	82.75
269.377	92.75
269.609	83.75
269.841	80.75
270.073	83.75
270.306	97.75
270.538	87.75
270.77	96.75
271.002	102.75
271.234	77.75
271.466	98.75
271.698	103.75
271.93	86.75
272.162	88.75
272.394	98.75
272.626	82.75
272.858	91.75
273.09	91.75
273.322	93.75
273.553	85.75
273.785	93.75
274.017	74.75
274.249	75.75
274.481	94.75
274.713	85.75
274.945	97.75
275.176	90.75
275.408	78.75
275.64	72.75
275.872	75.75
276.104	84.75
276.335	78.75
276.567	102.75
276.799	104.75
277.031	90.75
277.262	103.75
277.494	88.75
277.726	106.75
277.957	97.75
278.189	74.75
278.421	80.75
278.652	93.75
278.884	82.75
279.115	83.75
279.347	83.75
279.579	95.75
279.81	83.75
280.042	94.75
280.273	96.75
280.505	87.75
280.736	79.75
280.968	90.75
281.199	98.75
281.431	92.75
281.662	89.75
281.894	85.75
282.125	104.75
282.356	123.75
282.588	123.75
282.819	125.75
283.051	98.75
283.282	90.75
283.513	89.75
283.745	95.75
283.976	83.75
284.207	83.75
284.439	91.75
284.67	102.75
284.901	82.75
285.132	81.75
285.364	92.75
285.595	90.75
285.826	87.75
286.057	96.75
286.288	92.75
286.52	97.75
286.751	82.75
286.982	99.75
287.213	90.75
287.444	90.75
287.675	86.75
287.906	98.75
288.138	90.75
288.369	78.75
288.6	76.75
288.831	80.75
289.062	103.75
289.293	78.75
289.524	82.75
289.755	100.75
289.986	91.75
290.217	80.75
290.448	84.75
290.679	74.75
290.91	87.75
291.141	83.75
291.371	88.75
291.602	93.75
291.833	105.75
292.064	89.75
292.295	93.75
292.526	91.75
292.757	87.75
292.987	84.75
293.218	76.75
293.449	85.75
293.68	89.75
293.91	93.75
294.141	94.75
294.372	90.75
294.603	79.75
294.833	93.75
295.064	88.75
295.295	86.75
295.525	98.75
295.756	100.75
295.987	118.75
296.217	129.75
296.448	130.75
296.679	91.75
296.909	101.75
297.14	102.75
297.37	94.75
297.601	91.75
297.831	91.75
298.062	95.75
298.292	95.75
298.523	106.75
298.753	101.75
298.984	100.75
299.214	95.75
299.445	93.75
299.675	100.75
299.905	82.75
300.136	85.75
300.366	100.75
300.597	92.75
300.827	75.75
301.057	106.75
301.288	93.75
301.518	98.75
301.748	80.75
301.979	91.75
302.209	79.75
302.439	87.75
302.669	97.75
302.9	88.75
303.13	88.75
303.36	88.75
303.59	102.75
303.82	103.75
304.051	91.75
304.281	79.75
304.511	82.75
304.741	90.75
304.971	85.75
305.201	91.75
305.431	109.75
305.661	87.75
305.891	93.75
306.121	94.75
306.352	85.75
306.582	100.75
306.812	86.75
307.042	94.75
307.272	120.75
307.502	99.75
307.731	87.75
307.961	91.75
308.191	90.75
308.421	101.75
308.651	88.75
308.881	87.75
309.111	98.75
309.341	93.75
309.571	93.75
309.8	94.75
310.03	98.75
310.26	110.75
310.49	89.75
310.72	94.75
310.949	105.75
311.179	102.75
311.409	96.75
311.639	97.75
311.868	95.75
312.098	102.75
312.328	104.75
312.557	111.75
312.787	96.75
313.017	99.75
313.246	100.75
313.476	83.75
313.706	117.75
313.935	109.75
314.165	102.75
314.394	101.75
314.624	102.75
314.853	90.75
315.083	93.75
315.312	87.75
315.542	93.75
315.771	97.75
316.001	100.75
316.23	87.75
316.46	80.75
316.689	95.75
316.919	97.75
317.148	70.75
317.377	95.75
317.607	94.75
317.836	82.75
318.065	85.75
318.295	79.75
318.524	84.75
318.753	90.75
318.983	84.75
319.212	101.75
319.441	112.75
319.67	103.75
319.9	94.75
320.129	103.75
320.358	94.75
320.587	106.75
320.816	89.75
321.046	110.75
321.275	113.75
321.504	108.75
321.733	92.75
321.962	100.75
322.191	103.75
322.42	93.75
322.649	113.75
322.878	124.75
323.108	103.75
323.337	124.75
323.566	132.75
323.795	159.75
324.024	239.75
324.253	432.75
324.482	951.75
324.71	1951.75
324.939	2668.75
325.168	940.75
325.397	268.75
325.626	163.75
325.855	138.75
326.084	133.75
326.313	140.75
326.542	161.75
326.77	258.75
326.999	503.75
327.228	1073.75
327.457	1977.75
327.686	1608.75
327.914	412.75
328.143	187.75
328.372	154.75
328.6	128.75
328.829	98.75
329.058	144.75
329.287	141.75
329.515	120.75
329.744	100.75
329.972	103.75
330.201	106.75
330.43	115.75
330.658	118.75
330.887	133.75
331.115	122.75
331.344	101.75
331.572	114.75
331.801	92.75
332.03	101.75
332.258	95.75
332.486	100.75
332.715	105.75
332.943	83.75
333.172	107.75
333.4	99.75
333.629	98.75
333.857	113.75
334.085	114.75
334.314	95.75
334.542	102.75
334.771	99.75
334.999	94.75
335.227	98.75
335.455	90.75
335.684	102.75
335.912	93.75
336.14	105.75
336.369	103.75
336.597	98.75
336.825	99.75
337.053	103.75
337.281	88.75
337.51	94.75
337.738	90.75
337.966	102.75
338.194	99.75
338.422	93.75
338.65	94.75
338.878	102.75
339.106	99.75
339.334	106.75
339.562	80.75
339.79	79.75
340.018	103.75
340.246	94.75
340.474	100.75
340.702	94.75
340.93	98.75
341.158	100.75
341.386	82.75
341.614	90.75
341.842	96.75
342.07	92.75
342.298	91.75
342.526	82.75
342.754	88.75
342.981	85.75
343.209	79.75
343.437	108.75
343.665	90.75
343.893	85.75
344.12	92.75
344.348	99.75
344.576	83.75
344.804	90.75
345.031	98.75
345.259	100.75
345.487	95.75
345.714	87.75
345.942	89.75
346.17	101.75
346.397	94.75
346.625	88.75
346.853	88.75
347.08	95.75
347.308	88.75
347.535	105.75
347.763	107.75
347.99	102.75
348.218	102.75
348.445	117.75
348.673	101.75
348.9	87.75
349.128	98.75
349.355	97.75
349.583	92.75
349.81	94.75
350.037	95.75
350.265	88.75
350.492	90.75
350.72	102.75
350.947	87.75
351.174	109.75
351.402	108.75
351.629	111.75
351.856	95.75
352.083	98.75
352.311	99.75
352.538	115.75
352.765	110.75
352.992	118.75
353.22	113.75
353.447	95.75
353.674	90.75
353.901	97.75
354.128	87.75
354.355	98.75
354.583	90.75
354.81	97.75
355.037	102.75
355.264	99.75
355.491	112.75
355.718	92.75
355.945	98.75
356.172	83.75
356.399	83.75
356.626	92.75
356.853	85.75
357.08	91.75
357.307	89.75
357.534	91.75
357.761	88.75
357.988	105.75
358.215	90.75
358.441	94.75
358.668	97.75
358.895	87.75
359.122	84.75
359.349	86.75
359.576	88.75
359.802	89.75
360.029	113.75
360.256	110.75
360.483	102.75
360.709	80.75
360.936	95.75
361.163	85.75
361.39	97.75
361.616	101.75
361.843	94.75
362.07	101.75
362.296	94.75
362.523	92.75
362.749	97.75
362.976	98.75
363.203	97.75
363.429	86.75
363.656	106.75
363.882	99.75
364.109	95.75
364.335	97.75
364.562	89.75
364.788	99.75
365.015	96.75
365.241	92.75
365.468	98.75
365.694	110.75
365.92	104.75
366.147	84.75
366.373	82.75
366.599	99.75
366.826	93.75
367.052	94.75
367.278	92.75
367.505	84.75
367.731	88.75
367.957	87.75
368.184	97.75
368.41	118.75
368.636	115.75
368.862	106.75
369.089	98.75
369.315	97.75
369.541	98.75
369.767	84.75
369.993	91.75
370.219	109.75
370.445	93.75
370.672	94.75
370.898	82.75
371.124	75.75
371.35	81.75
371.576	106.75
371.802	101.75
372.028	80.75
372.254	110.75
372.48	78.75
372.706	83.75
372.932	70.75
373.158	91.75
373.384	93.75
373.61	79.75
373.835	87.75
374.061	102.75
374.287	100.75
374.513	92.75
374.739	97.75
374.965	89.75
375.191	94.75
375.416	90.75
375.642	78.75
375.868	85.75
376.094	96.75
376.319	94.75
376.545	80.75
376.771	104.75
376.997	91.75
377.222	86.75
377.448	92.75
377.674	90.75
377.899	109.75
378.125	95.75
378.35	93.75
378.576	103.75
378.802	85.75
379.027	96.75
379.253	88.75
379.478	82.75
379.704	89.75
379.929	87.75
380.155	101.75
380.38	83.75
380.606	85.75
380.831	87.75
381.057	107.75
381.282	104.75
381.507	87.75
381.733	99.75
381.958	101.75
382.184	94.75
382.409	102.75
382.634	103.75
382.86	86.75
383.085	93.75
383.31	110.75
383.535	86.75
383.761	99.75
383.986	110.75
384.211	104.75
384.436	87.75
384.662	108.75
384.887	96.75
385.112	94.75
385.337	100.75
385.562	104.75
385.787	89.75
386.013	108.75
386.238	98.75
386.463	103.75
386.688	90.75
386.913	98.75
387.138	113.75
387.363	107.75
387.588	97.75
387.813	99.75
388.038	99.75
388.263	106.75
388.488	103.75
388.713	92.75
388.938	92.75
389.163	95.75
389.387	93.75
389.612	99.75
389.837	99.75
390.062	97.75
390.287	90.75
390.512	100.75
390.736	87.75
390.961	88.75
391.186	95.75
391.411	103.75
391.636	82.75
391.86	74.75
392.085	74.75
392.31	93.75
392.534	93.75
392.759	102.75
392.984	90.75
393.208	81.75
393.433	72.75
393.658	82.75
393.882	90.75
394.107	94.75
394.331	85.75
394.556	76.75
394.78	87.75
395.005	101.75
395.229	89.75
395.454	91.75
395.678	88.75
395.903	96.75
396.127	66.75
396.352	82.75
396.576	86.75
396.801	82.75
397.025	86.75
397.249	84.75
397.474	95.75
397.698	74.75
397.922	89.75
398.147	88.75
398.371	85.75
398.595	99.75
398.82	76.75
399.044	75.75
399.268	85.75
399.492	115.75
399.717	88.75
399.941	98.75
400.165	90.75
400.389	118.75
400.613	76.75
400.837	99.75
401.062	90.75
401.286	95.75
401.51	88.75
401.734	88.75
401.958	109.75
402.182	107.75
402.406	155.75
402.63	110.75
402.854	99.75
403.078	97.75
403.302	88.75
403.526	105.75
403.75	96.75
403.974	86.75
404.198	91.75
404.422	94.75
404.645	92.75
404.869	94.75
405.093	95.75
405.317	107.75
405.541	88.75
405.765	102.75
405.988	106.75
406.212	170.75
406.436	225.75
406.66	146.75
406.883	107.75
407.107	93.75
407.331	106.75
407.555	108.75
407.778	94.75
408.002	95.75
408.226	92.75
408.449	75.75
408.673	89.75
408.896	82.75
409.12	109.75
409.344	78.75
409.567	91.75
409.791	92.75
410.014	93.75
410.238	99.75
410.461	91.75
410.685	95.75
410.908	99.75
411.132	107.75
411.355	97.75
411.578	90.75
411.802	101.75
412.025	100.75
412.249	86.75
412.472	84.75
412.695	88.75
412.919	95.75
413.142	92.75
413.365	88.75
413.589	91.75
413.812	99.75
414.035	89.75
414.258	94.75
414.482	86.75
414.705	90.75
414.928	94.75
415.151	94.75
415.374	94.75
415.597	85.75
415.821	92.75
416.044	86.75
416.267	91.75
416.49	88.75
416.713	89.75
416.936	85.75
417.159	96.75
417.382	85.75
417.605	86.75
417.828	90.75
418.051	77.75
418.274	96.75
418.497	91.75
418.72	82.75
418.943	96.75
419.166	85.75
419.389	91.75
419.611	85.75
419.834	98.75
420.057	87.75
420.28	92.75
420.503	91.75
420.726	82.75
420.948	94.75
421.171	104.75
421.394	87.75
421.617	88.75
421.839	94.75
422.062	76.75
422.285	85.75
422.507	90.75
422.73	92.75
422.953	104.75
423.175	94.75
423.398	80.75
423.621	88.75
423.843	87.75
424.066	90.75
424.288	91.75
424.511	89.75
424.733	108.75
424.956	110.75
425.178	108.75
425.401	117.75
425.623	86.75
425.846	88.75
426.068	91.75
426.291	91.75
426.513	100.75
426.735	99.75
426.958	99.75
427.18	105.75
427.402	142.75
427.625	162.75
427.847	125.75
428.069	105.75
428.292	90.75
428.514	84.75
428.736	82.75
428.958	84.75
429.181	96.75
429.403	100.75
429.625	87.75
429.847	94.75
430.069	107.75
430.292	93.75
430.514	87.75
430.736	77.75
430.958	99.75
431.18	95.75
431.402	87.75
431.624	81.75
431.846	85.75
432.068	78.75
432.29	80.75
432.512	94.75
432.734	84.75
432.956	92.75
433.178	103.75
433.4	111.75
433.622	97.75
433.844	94.75
434.066	88.75
434.287	96.75
434.509	91.75
434.731	92.75
434.953	100.75
435.175	99.75
435.397	86.75
435.618	100.75
435.84	107.75
436.062	147.75
436.284	125.75
436.505	115.75
436.727	110.75
436.949	86.75
437.17	94.75
437.392	80.75
437.614	108.75
437.835	105.75
438.057	136.75
438.278	118.75
438.5	119.75
438.721	126.75
438.943	114.75
439.165	88.75
439.386	86.75
439.608	78.75
439.829	110.75
440.05	124.75
440.272	139.75
440.493	115.75
440.715	108.75
440.936	90.75
441.158	98.75
441.379	85.75
441.6	98.75
441.822	92.75
442.043	100.75
442.264	114.75
442.486	109.75
442.707	99.75
442.928	104.75
443.149	124.75
443.371	124.75
443.592	107.75
443.813	123.75
444.034	113.75
444.255	78.75
444.476	65.75
444.698	94.75
444.919	89.75
445.14	127.75
445.361	133.75
445.582	118.75
445.803	159.75
446.024	138.75
446.245	162.75
446.466	124.75
446.687	87.75
446.908	102.75
447.129	91.75
447.35	82.75
447.571	87.75
447.792	90.75
448.013	92.75
448.234	115.75
448.455	120.75
448.675	125.75
448.896	130.75
449.117	94.75
449.338	97.75
449.559	125.75
449.779	144.75
450	85.75
450.221	98.75
450.442	86.75
450.662	109.75
450.883	106.75
451.104	113.75
451.324	109.75
451.545	95.75
451.766	86.75
451.986	87.75
452.207	94.75
452.428	89.75
452.648	97.75
452.869	95.75
453.089	107.75
453.31	113.75
453.53	111.75
453.751	100.75
453.971	109.75
454.192	106.75
454.412	97.75
454.633	93.75
454.853	89.75
455.073	69.75
455.294	86.75
455.514	100.75
455.734	97.75
455.955	87.75
456.175	96.75
456.395	81.75
456.616	74.75
456.836	74.75
457.056	85.75
457.276	90.75
457.497	90.75
457.717	80.75
457.937	96.75
458.157	94.75
458.377	94.75
458.598	103.75
458.818	155.75
459.038	169.75
459.258	119.75
459.478	80.75
459.698	96.75
459.918	96.75
460.138	95.75
460.358	88.75
460.578	95.75
460.798	94.75
461.018	71.75
461.238	87.75
461.458	91.75
461.678	76.75
461.898	89.75
462.118	84.75
462.338	93.75
462.558	80.75
462.777	96.75
462.997	81.75
463.217	82.75
463.437	87.75
463.657	87.75
463.876	75.75
464.096	105.75
464.316	87.75
464.536	89.75
464.755	86.75
464.975	105.75
465.195	153.75
465.414	160.75
465.634	96.75
465.854	90.75
466.073	83.75
466.293	82.75
466.512	85.75
466.732	84.75
466.951	84.75
467.171	83.75
467.391	107.75
467.61	103.75
467.829	83.75
468.049	87.75
468.268	89.75
468.488	99.75
468.707	78.75
468.927	78.75
469.146	90.75
469.365	80.75
469.585	101.75
469.804	97.75
470.023	95.75
470.243	87.75
470.462	102.75
470.681	102.75
470.901	80.75
471.12	90.75
471.339	86.75
471.558	90.75
471.777	97.75
471.997	83.75
472.216	102.75
472.435	104.75
472.654	82.75
472.873	101.75
473.092	96.75
473.311	90.75
473.53	99.75
473.749	104.75
473.968	98.75
474.187	98.75
474.406	100.75
474.625	74.75
474.844	83.75
475.063	74.75
475.282	93.75
475.501	87.75
475.72	77.75
475.939	88.75
476.158	82.75
476.377	92.75
476.596	80.75
476.814	90.75
477.033	98.75
477.252	88.75
477.471	85.75
477.69	87.75
477.908	98.75
478.127	95.75
478.346	71.75
478.564	83.75
478.783	94.75
479.002	83.75
479.22	102.75
479.439	104.75
479.658	94.75
479.876	97.75
480.095	71.75
480.313	60.75
480.532	88.75
480.751	95.75
480.969	94.75
481.188	101.75
481.406	99.75
481.624	99.75
481.843	94.75
482.061	87.75
482.28	89.75
482.498	92.75
482.717	87.75
482.935	71.75
483.153	93.75
483.372	92.75
483.59	94.75
483.808	90.75
484.027	92.75
484.245	92.75
484.463	102.75
484.681	88.75
484.9	83.75
485.118	102.75
485.336	95.75
485.554	91.75
485.772	104.75
485.99	100.75
486.209	99.75
486.427	88.75
486.645	114.75
486.863	116.75
487.081	103.75
487.299	98.75
487.517	100.75
487.735	97.75
487.953	99.75
488.171	92.75
488.389	96.75
488.607	99.75
488.825	85.75
489.043	92.75
489.261	81.75
489.479	74.75
489.696	84.75
489.914	86.75
490.132	98.75
490.35	88.75
490.568	103.75
490.786	93.75
491.003	79.75
491.221	98.75
491.439	95.75
491.657	75.75
491.874	88.75
492.092	79.75
492.31	95.75
492.527	95.75
492.745	97.75
492.963	98.75
493.18	71.75
493.398	84.75
493.615	100.75
493.833	98.75
494.05	85.75
494.268	83.75
494.485	90.75
494.703	84.75
494.92	103.75
495.138	82.75
495.355	94.75
495.573	94.75
495.79	99.75
496.008	91.75
496.225	94.75
496.442	81.75
496.66	84.75
496.877	90.75
497.094	85.75
497.312	96.75
497.529	75.75
497.746	96.75
497.963	90.75
498.181	99.75
498.398	86.75
498.615	108.75
498.832	90.75
499.049	84.75
499.267	97.75
499.484	103.75
499.701	86.75
499.918	81.75
500.135	87.75
500.352	94.75
500.569	85.75
500.786	89.75
501.003	94.75
501.22	97.75
501.437	104.75
501.654	83.75
501.871	103.75
502.088	101.75
502.305	100.75
502.522	95.75
502.739	86.75
502.956	84.75
503.172	95.75
503.389	87.75
503.606	99.75
503.823	87.75
504.04	85.75
504.256	96.75
504.473	81.75
504.69	98.75
504.907	106.75
505.123	90.75
505.34	95.75
505.557	106.75
505.773	103.75
505.99	87.75
506.207	84.75
506.423	93.75
506.64	92.75
506.856	92.75
507.073	92.75
507.289	96.75
507.506	96.75
507.722	112.75
507.939	123.75
508.155	96.75
508.372	97.75
508.588	98.75
508.805	78.75
509.021	88.75
509.238	104.75
509.454	110.75
509.67	91.75
509.887	111.75
510.103	129.75
510.319	198.75
510.536	733.75
510.752	2252.75
510.968	624.75
511.184	158.75
511.401	123.75
511.617	100.75
511.833	100.75
512.049	85.75
512.265	88.75
512.481	96.75
512.698	90.75
512.914	84.75
513.13	104.75
513.346	87.75
513.562	98.75
513.778	88.75
513.994	115.75
514.21	101.75
514.426	119.75
514.642	126.75
514.858	141.75
515.074	176.75
515.29	464.75
