Data from Uncirc_1991_H10_HRD10591_00013.txt Node
Date: Wed Jan 03 11:50:40 EST 2024
User: Yrep
Spectrometer: HR+D1059
Trigger mode: 1
Integration Time (sec): 1.000000E-1
Scans to average: 1
Electric dark correction enabled: true
Nonlinearity correction enabled: false
Boxcar width: 0
XAxis mode: Wavelengths
Number of Pixels in Spectrum: 2048
>>>>>Begin Spectral Data<<<<<
223.165	-31.12
223.4	-31.12
223.635	-31.12
223.869	-34.12
224.104	-20.12
224.338	-4.12
224.573	-16.12
224.808	-6.12
225.042	-6.12
225.277	-10.12
225.511	-10.12
225.746	10.88
225.98	-3.12
226.215	15.88
226.449	11.88
226.683	19.88
226.918	51.88
227.152	30.88
227.387	25.88
227.621	46.88
227.856	54.88
228.09	47.88
228.324	54.88
228.559	59.88
228.793	63.88
229.027	63.88
229.262	63.88
229.496	69.88
229.73	90.88
229.964	77.88
230.199	61.88
230.433	74.88
230.667	78.88
230.901	71.88
231.136	80.88
231.37	77.88
231.604	74.88
231.838	80.88
232.072	76.88
232.306	58.88
232.541	85.88
232.775	67.88
233.009	74.88
233.243	86.88
233.477	77.88
233.711	68.88
233.945	79.88
234.179	79.88
234.413	70.88
234.647	67.88
234.881	79.88
235.115	80.88
235.349	85.88
235.583	64.88
235.817	90.88
236.051	81.88
236.285	76.88
236.519	76.88
236.753	75.88
236.987	72.88
237.221	73.88
237.455	77.88
237.689	72.88
237.922	81.88
238.156	61.88
238.39	73.88
238.624	83.88
238.858	64.88
239.091	63.88
239.325	73.88
239.559	65.88
239.793	77.88
240.027	81.88
240.26	63.88
240.494	77.88
240.728	72.88
240.961	67.88
241.195	76.88
241.429	69.88
241.662	75.88
241.896	75.88
242.13	85.88
242.363	76.88
242.597	77.88
242.83	85.88
243.064	62.88
243.298	66.88
243.531	80.88
243.765	87.88
243.998	66.88
244.232	65.88
244.465	55.88
244.699	93.88
244.932	71.88
245.166	81.88
245.399	75.88
245.633	77.88
245.866	90.88
246.099	90.88
246.333	83.88
246.566	90.88
246.8	76.88
247.033	86.88
247.266	79.88
247.5	73.88
247.733	76.88
247.966	78.88
248.2	72.88
248.433	65.88
248.666	68.88
248.899	72.88
249.133	71.88
249.366	82.88
249.599	93.88
249.832	89.88
250.066	82.88
250.299	78.88
250.532	81.88
250.765	81.88
250.998	81.88
251.231	87.88
251.465	78.88
251.698	69.88
251.931	80.88
252.164	87.88
252.397	93.88
252.63	77.88
252.863	80.88
253.096	78.88
253.329	77.88
253.562	86.88
253.795	68.88
254.028	95.88
254.261	87.88
254.494	89.88
254.727	75.88
254.96	66.88
255.193	66.88
255.426	91.88
255.659	73.88
255.892	80.88
256.124	79.88
256.357	79.88
256.59	67.88
256.823	77.88
257.056	79.88
257.289	71.88
257.521	81.88
257.754	77.88
257.987	70.88
258.22	87.88
258.452	82.88
258.685	83.88
258.918	74.88
259.151	77.88
259.383	67.88
259.616	86.88
259.849	91.88
260.081	88.88
260.314	89.88
260.547	81.88
260.779	85.88
261.012	91.88
261.244	76.88
261.477	84.88
261.71	90.88
261.942	104.88
262.175	100.88
262.407	77.88
262.64	72.88
262.872	80.88
263.105	85.88
263.337	90.88
263.57	77.88
263.802	77.88
264.035	87.88
264.267	85.88
264.499	74.88
264.732	84.88
264.964	72.88
265.197	79.88
265.429	72.88
265.661	79.88
265.894	95.88
266.126	97.88
266.358	82.88
266.591	81.88
266.823	87.88
267.055	75.88
267.287	78.88
267.52	76.88
267.752	75.88
267.984	71.88
268.216	89.88
268.448	86.88
268.681	78.88
268.913	80.88
269.145	77.88
269.377	88.88
269.609	87.88
269.841	87.88
270.073	82.88
270.306	81.88
270.538	84.88
270.77	77.88
271.002	76.88
271.234	79.88
271.466	74.88
271.698	91.88
271.93	78.88
272.162	86.88
272.394	92.88
272.626	87.88
272.858	87.88
273.09	86.88
273.322	92.88
273.553	95.88
273.785	84.88
274.017	94.88
274.249	90.88
274.481	88.88
274.713	95.88
274.945	76.88
275.176	80.88
275.408	80.88
275.64	78.88
275.872	85.88
276.104	91.88
276.335	89.88
276.567	98.88
276.799	113.88
277.031	100.88
277.262	102.88
277.494	83.88
277.726	87.88
277.957	91.88
278.189	69.88
278.421	76.88
278.652	81.88
278.884	81.88
279.115	81.88
279.347	92.88
279.579	94.88
279.81	90.88
280.042	91.88
280.273	95.88
280.505	81.88
280.736	83.88
280.968	77.88
281.199	82.88
281.431	84.88
281.662	71.88
281.894	89.88
282.125	115.88
282.356	113.88
282.588	125.88
282.819	121.88
283.051	92.88
283.282	80.88
283.513	93.88
283.745	77.88
283.976	82.88
284.207	91.88
284.439	74.88
284.67	75.88
284.901	92.88
285.132	89.88
285.364	75.88
285.595	89.88
285.826	76.88
286.057	97.88
286.288	88.88
286.52	81.88
286.751	103.88
286.982	87.88
287.213	78.88
287.444	85.88
287.675	83.88
287.906	89.88
288.138	72.88
288.369	93.88
288.6	84.88
288.831	92.88
289.062	81.88
289.293	87.88
289.524	84.88
289.755	71.88
289.986	72.88
290.217	88.88
290.448	88.88
290.679	91.88
290.91	89.88
291.141	80.88
291.371	91.88
291.602	83.88
291.833	90.88
292.064	98.88
292.295	82.88
292.526	80.88
292.757	96.88
292.987	86.88
293.218	92.88
293.449	96.88
293.68	89.88
293.91	82.88
294.141	89.88
294.372	83.88
294.603	77.88
294.833	79.88
295.064	82.88
295.295	81.88
295.525	96.88
295.756	89.88
295.987	111.88
296.217	130.88
296.448	121.88
296.679	103.88
296.909	80.88
297.14	88.88
297.37	73.88
297.601	84.88
297.831	81.88
298.062	75.88
298.292	92.88
298.523	91.88
298.753	97.88
298.984	92.88
299.214	97.88
299.445	88.88
299.675	100.88
299.905	88.88
300.136	96.88
300.366	77.88
300.597	77.88
300.827	87.88
301.057	77.88
301.288	113.88
301.518	92.88
301.748	75.88
301.979	101.88
302.209	87.88
302.439	97.88
302.669	80.88
302.9	83.88
303.13	100.88
303.36	93.88
303.59	100.88
303.82	84.88
304.051	85.88
304.281	85.88
304.511	84.88
304.741	82.88
304.971	89.88
305.201	89.88
305.431	82.88
305.661	75.88
305.891	87.88
306.121	83.88
306.352	84.88
306.582	97.88
306.812	89.88
307.042	91.88
307.272	88.88
307.502	96.88
307.731	81.88
307.961	86.88
308.191	97.88
308.421	93.88
308.651	84.88
308.881	104.88
309.111	99.88
309.341	85.88
309.571	108.88
309.8	91.88
310.03	87.88
310.26	88.88
310.49	95.88
310.72	93.88
310.949	82.88
311.179	84.88
311.409	85.88
311.639	99.88
311.868	100.88
312.098	96.88
312.328	87.88
312.557	91.88
312.787	88.88
313.017	87.88
313.246	94.88
313.476	87.88
313.706	95.88
313.935	90.88
314.165	93.88
314.394	106.88
314.624	93.88
314.853	86.88
315.083	89.88
315.312	97.88
315.542	88.88
315.771	99.88
316.001	87.88
316.23	86.88
316.46	89.88
316.689	97.88
316.919	89.88
317.148	104.88
317.377	94.88
317.607	101.88
317.836	91.88
318.065	85.88
318.295	84.88
318.524	84.88
318.753	83.88
318.983	94.88
319.212	98.88
319.441	100.88
319.67	104.88
319.9	96.88
320.129	96.88
320.358	91.88
320.587	83.88
320.816	103.88
321.046	94.88
321.275	101.88
321.504	98.88
321.733	87.88
321.962	89.88
322.191	106.88
322.42	94.88
322.649	108.88
322.878	106.88
323.108	118.88
323.337	122.88
323.566	142.88
323.795	149.88
324.024	192.88
324.253	378.88
324.482	823.88
324.71	1761.88
324.939	2414.88
325.168	828.88
325.397	247.88
325.626	152.88
325.855	139.88
326.084	101.88
326.313	138.88
326.542	140.88
326.77	232.88
326.999	466.88
327.228	948.88
327.457	1843.88
327.686	1479.88
327.914	389.88
328.143	188.88
328.372	132.88
328.6	122.88
328.829	123.88
329.058	126.88
329.287	128.88
329.515	107.88
329.744	96.88
329.972	103.88
330.201	112.88
330.43	101.88
330.658	119.88
330.887	128.88
331.115	110.88
331.344	86.88
331.572	105.88
331.801	95.88
332.03	90.88
332.258	72.88
332.486	96.88
332.715	99.88
332.943	88.88
333.172	100.88
333.4	110.88
333.629	96.88
333.857	97.88
334.085	104.88
334.314	99.88
334.542	87.88
334.771	100.88
334.999	95.88
335.227	107.88
335.455	92.88
335.684	98.88
335.912	91.88
336.14	106.88
336.369	87.88
336.597	86.88
336.825	93.88
337.053	75.88
337.281	96.88
337.51	80.88
337.738	83.88
337.966	75.88
338.194	84.88
338.422	89.88
338.65	89.88
338.878	92.88
339.106	91.88
339.334	97.88
339.562	90.88
339.79	84.88
340.018	90.88
340.246	85.88
340.474	77.88
340.702	95.88
340.93	94.88
341.158	94.88
341.386	90.88
341.614	100.88
341.842	97.88
342.07	84.88
342.298	84.88
342.526	92.88
342.754	79.88
342.981	89.88
343.209	88.88
343.437	96.88
343.665	80.88
343.893	95.88
344.12	87.88
344.348	92.88
344.576	68.88
344.804	93.88
345.031	87.88
345.259	82.88
345.487	95.88
345.714	97.88
345.942	90.88
346.17	82.88
346.397	85.88
346.625	81.88
346.853	85.88
347.08	85.88
347.308	92.88
347.535	96.88
347.763	95.88
347.99	107.88
348.218	99.88
348.445	107.88
348.673	95.88
348.9	86.88
349.128	97.88
349.355	83.88
349.583	90.88
349.81	97.88
350.037	108.88
350.265	98.88
350.492	100.88
350.72	99.88
350.947	96.88
351.174	103.88
351.402	113.88
351.629	101.88
351.856	110.88
352.083	100.88
352.311	95.88
352.538	102.88
352.765	99.88
352.992	100.88
353.22	111.88
353.447	97.88
353.674	99.88
353.901	95.88
354.128	92.88
354.355	105.88
354.583	96.88
354.81	93.88
355.037	111.88
355.264	104.88
355.491	88.88
355.718	82.88
355.945	96.88
356.172	100.88
356.399	88.88
356.626	98.88
356.853	89.88
357.08	95.88
357.307	87.88
357.534	102.88
357.761	95.88
357.988	89.88
358.215	108.88
358.441	90.88
358.668	83.88
358.895	93.88
359.122	62.88
359.349	87.88
359.576	83.88
359.802	94.88
360.029	109.88
360.256	104.88
360.483	99.88
360.709	78.88
360.936	82.88
361.163	87.88
361.39	100.88
361.616	100.88
361.843	92.88
362.07	96.88
362.296	101.88
362.523	89.88
362.749	93.88
362.976	104.88
363.203	81.88
363.429	88.88
363.656	83.88
363.882	97.88
364.109	92.88
364.335	89.88
364.562	98.88
364.788	84.88
365.015	93.88
365.241	107.88
365.468	94.88
365.694	98.88
365.92	91.88
366.147	99.88
366.373	98.88
366.599	90.88
366.826	82.88
367.052	84.88
367.278	89.88
367.505	85.88
367.731	77.88
367.957	89.88
368.184	85.88
368.41	107.88
368.636	94.88
368.862	102.88
369.089	95.88
369.315	102.88
369.541	92.88
369.767	100.88
369.993	97.88
370.219	84.88
370.445	90.88
370.672	90.88
370.898	82.88
371.124	86.88
371.35	94.88
371.576	78.88
371.802	76.88
372.028	85.88
372.254	75.88
372.48	69.88
372.706	80.88
372.932	82.88
373.158	80.88
373.384	78.88
373.61	74.88
373.835	86.88
374.061	79.88
374.287	85.88
374.513	83.88
374.739	82.88
374.965	80.88
375.191	86.88
375.416	94.88
375.642	94.88
375.868	101.88
376.094	85.88
376.319	96.88
376.545	83.88
376.771	81.88
376.997	91.88
377.222	86.88
377.448	92.88
377.674	90.88
377.899	74.88
378.125	91.88
378.35	89.88
378.576	83.88
378.802	79.88
379.027	85.88
379.253	99.88
379.478	93.88
379.704	94.88
379.929	90.88
380.155	89.88
380.38	91.88
380.606	79.88
380.831	84.88
381.057	108.88
381.282	91.88
381.507	87.88
381.733	99.88
381.958	85.88
382.184	97.88
382.409	100.88
382.634	96.88
382.86	88.88
383.085	93.88
383.31	91.88
383.535	105.88
383.761	99.88
383.986	101.88
384.211	91.88
384.436	91.88
384.662	91.88
384.887	104.88
385.112	96.88
385.337	100.88
385.562	82.88
385.787	89.88
386.013	78.88
386.238	109.88
386.463	112.88
386.688	104.88
386.913	97.88
387.138	107.88
387.363	93.88
387.588	115.88
387.813	107.88
388.038	97.88
388.263	103.88
388.488	105.88
388.713	100.88
388.938	94.88
389.163	87.88
389.387	94.88
389.612	87.88
389.837	93.88
390.062	100.88
390.287	100.88
390.512	88.88
390.736	79.88
390.961	96.88
391.186	88.88
391.411	100.88
391.636	92.88
391.86	80.88
392.085	87.88
392.31	79.88
392.534	82.88
392.759	87.88
392.984	101.88
393.208	96.88
393.433	96.88
393.658	88.88
393.882	69.88
394.107	89.88
394.331	90.88
394.556	90.88
394.78	86.88
395.005	95.88
395.229	90.88
395.454	82.88
395.678	71.88
395.903	96.88
396.127	91.88
396.352	88.88
396.576	84.88
396.801	83.88
397.025	91.88
397.249	83.88
397.474	98.88
397.698	82.88
397.922	82.88
398.147	84.88
398.371	98.88
398.595	88.88
398.82	67.88
399.044	84.88
399.268	76.88
399.492	88.88
399.717	71.88
399.941	72.88
400.165	85.88
400.389	90.88
400.613	83.88
400.837	92.88
401.062	84.88
401.286	96.88
401.51	87.88
401.734	73.88
401.958	91.88
402.182	114.88
402.406	135.88
402.63	93.88
402.854	90.88
403.078	84.88
403.302	89.88
403.526	79.88
403.75	72.88
403.974	83.88
404.198	81.88
404.422	96.88
404.645	101.88
404.869	100.88
405.093	86.88
405.317	89.88
405.541	97.88
405.765	95.88
405.988	115.88
406.212	162.88
406.436	211.88
406.66	141.88
406.883	87.88
407.107	89.88
407.331	102.88
407.555	97.88
407.778	103.88
408.002	93.88
408.226	77.88
408.449	87.88
408.673	95.88
408.896	101.88
409.12	104.88
409.344	82.88
409.567	81.88
409.791	93.88
410.014	87.88
410.238	87.88
410.461	79.88
410.685	100.88
410.908	87.88
411.132	96.88
411.355	92.88
411.578	81.88
411.802	86.88
412.025	74.88
412.249	83.88
412.472	80.88
412.695	95.88
412.919	83.88
413.142	89.88
413.365	85.88
413.589	84.88
413.812	90.88
414.035	77.88
414.258	105.88
414.482	101.88
414.705	85.88
414.928	72.88
415.151	87.88
415.374	96.88
415.597	87.88
415.821	83.88
416.044	80.88
416.267	99.88
416.49	84.88
416.713	84.88
416.936	76.88
417.159	79.88
417.382	63.88
417.605	100.88
417.828	83.88
418.051	77.88
418.274	88.88
418.497	78.88
418.72	80.88
418.943	72.88
419.166	77.88
419.389	101.88
419.611	79.88
419.834	87.88
420.057	97.88
420.28	86.88
420.503	71.88
420.726	77.88
420.948	95.88
421.171	91.88
421.394	94.88
421.617	93.88
421.839	88.88
422.062	95.88
422.285	102.88
422.507	99.88
422.73	93.88
422.953	88.88
423.175	91.88
423.398	85.88
423.621	83.88
423.843	80.88
424.066	75.88
424.288	86.88
424.511	94.88
424.733	98.88
424.956	105.88
425.178	95.88
425.401	90.88
425.623	107.88
425.846	86.88
426.068	97.88
426.291	98.88
426.513	75.88
426.735	86.88
426.958	88.88
427.18	100.88
427.402	128.88
427.625	156.88
427.847	115.88
428.069	89.88
428.292	104.88
428.514	70.88
428.736	90.88
428.958	79.88
429.181	77.88
429.403	80.88
429.625	89.88
429.847	98.88
430.069	94.88
430.292	88.88
430.514	88.88
430.736	89.88
430.958	85.88
431.18	78.88
431.402	79.88
431.624	83.88
431.846	72.88
432.068	73.88
432.29	93.88
432.512	80.88
432.734	83.88
432.956	105.88
433.178	116.88
433.4	103.88
433.622	89.88
433.844	84.88
434.066	91.88
434.287	83.88
434.509	88.88
434.731	73.88
434.953	67.88
435.175	87.88
435.397	86.88
435.618	78.88
435.84	108.88
436.062	131.88
436.284	129.88
436.505	94.88
436.727	90.88
436.949	74.88
437.17	90.88
437.392	79.88
437.614	89.88
437.835	105.88
438.057	110.88
438.278	126.88
438.5	114.88
438.721	132.88
438.943	90.88
439.165	74.88
439.386	93.88
439.608	73.88
439.829	84.88
440.05	128.88
440.272	134.88
440.493	97.88
440.715	98.88
440.936	82.88
441.158	80.88
441.379	88.88
441.6	97.88
441.822	92.88
442.043	92.88
442.264	104.88
442.486	111.88
442.707	90.88
442.928	100.88
443.149	126.88
443.371	123.88
443.592	118.88
443.813	119.88
444.034	115.88
444.255	94.88
444.476	85.88
444.698	75.88
444.919	82.88
445.14	132.88
445.361	120.88
445.582	125.88
445.803	130.88
446.024	142.88
446.245	140.88
446.466	113.88
446.687	93.88
446.908	85.88
447.129	74.88
447.35	70.88
447.571	83.88
447.792	93.88
448.013	108.88
448.234	101.88
448.455	104.88
448.675	121.88
448.896	114.88
449.117	111.88
449.338	89.88
449.559	136.88
449.779	135.88
450	79.88
450.221	94.88
450.442	77.88
450.662	85.88
450.883	96.88
451.104	101.88
451.324	87.88
451.545	109.88
451.766	86.88
451.986	96.88
452.207	79.88
452.428	77.88
452.648	98.88
452.869	100.88
453.089	113.88
453.31	100.88
453.53	85.88
453.751	98.88
453.971	81.88
454.192	111.88
454.412	94.88
454.633	82.88
454.853	93.88
455.073	88.88
455.294	78.88
455.514	91.88
455.734	93.88
455.955	99.88
456.175	91.88
456.395	82.88
456.616	96.88
456.836	79.88
457.056	91.88
457.276	88.88
457.497	82.88
457.717	75.88
457.937	73.88
458.157	101.88
458.377	81.88
458.598	107.88
458.818	145.88
459.038	143.88
459.258	120.88
459.478	93.88
459.698	71.88
459.918	80.88
460.138	89.88
460.358	87.88
460.578	91.88
460.798	90.88
461.018	91.88
461.238	96.88
461.458	88.88
461.678	82.88
461.898	102.88
462.118	93.88
462.338	83.88
462.558	70.88
462.777	96.88
462.997	80.88
463.217	74.88
463.437	89.88
463.657	96.88
463.876	86.88
464.096	92.88
464.316	92.88
464.536	70.88
464.755	87.88
464.975	108.88
465.195	167.88
465.414	155.88
465.634	109.88
465.854	91.88
466.073	83.88
466.293	74.88
466.512	72.88
466.732	72.88
466.951	82.88
467.171	82.88
467.391	98.88
467.61	99.88
467.829	95.88
468.049	83.88
468.268	84.88
468.488	85.88
468.707	88.88
468.927	81.88
469.146	90.88
469.365	85.88
469.585	91.88
469.804	88.88
470.023	84.88
470.243	87.88
470.462	91.88
470.681	103.88
470.901	91.88
471.12	81.88
471.339	89.88
471.558	86.88
471.777	95.88
471.997	89.88
472.216	89.88
472.435	72.88
472.654	81.88
472.873	82.88
473.092	83.88
473.311	77.88
473.53	82.88
473.749	67.88
473.968	103.88
474.187	102.88
474.406	89.88
474.625	84.88
474.844	89.88
475.063	87.88
475.282	82.88
475.501	83.88
475.72	72.88
475.939	85.88
476.158	84.88
476.377	68.88
476.596	75.88
476.814	82.88
477.033	102.88
477.252	76.88
477.471	84.88
477.69	89.88
477.908	81.88
478.127	90.88
478.346	90.88
478.564	81.88
478.783	96.88
479.002	91.88
479.22	77.88
479.439	106.88
479.658	96.88
479.876	93.88
480.095	90.88
480.313	87.88
480.532	60.88
480.751	100.88
480.969	85.88
481.188	104.88
481.406	107.88
481.624	83.88
481.843	86.88
482.061	93.88
482.28	82.88
482.498	94.88
482.717	86.88
482.935	76.88
483.153	92.88
483.372	82.88
483.59	80.88
483.808	80.88
484.027	89.88
484.245	87.88
484.463	85.88
484.681	111.88
484.9	76.88
485.118	98.88
485.336	94.88
485.554	92.88
485.772	91.88
485.99	121.88
486.209	98.88
486.427	104.88
486.645	122.88
486.863	104.88
487.081	94.88
487.299	98.88
487.517	91.88
487.735	97.88
487.953	85.88
488.171	102.88
488.389	105.88
488.607	84.88
488.825	84.88
489.043	88.88
489.261	91.88
489.479	88.88
489.696	73.88
489.914	73.88
490.132	82.88
490.35	88.88
490.568	84.88
490.786	84.88
491.003	90.88
491.221	97.88
491.439	99.88
491.657	101.88
491.874	96.88
492.092	77.88
492.31	95.88
492.527	82.88
492.745	86.88
492.963	82.88
493.18	96.88
493.398	91.88
493.615	108.88
493.833	88.88
494.05	90.88
494.268	88.88
494.485	85.88
494.703	80.88
494.92	86.88
495.138	81.88
495.355	81.88
495.573	94.88
495.79	73.88
496.008	87.88
496.225	88.88
496.442	75.88
496.66	80.88
496.877	76.88
497.094	94.88
497.312	94.88
497.529	91.88
497.746	102.88
497.963	84.88
498.181	93.88
498.398	96.88
498.615	101.88
498.832	102.88
499.049	87.88
499.267	81.88
499.484	93.88
499.701	82.88
499.918	97.88
500.135	79.88
500.352	83.88
500.569	83.88
500.786	82.88
501.003	98.88
501.22	75.88
501.437	93.88
501.654	84.88
501.871	111.88
502.088	83.88
502.305	107.88
502.522	92.88
502.739	89.88
502.956	87.88
503.172	107.88
503.389	99.88
503.606	106.88
503.823	90.88
504.04	84.88
504.256	90.88
504.473	83.88
504.69	90.88
504.907	99.88
505.123	80.88
505.34	85.88
505.557	86.88
505.773	80.88
505.99	85.88
506.207	78.88
506.423	83.88
506.64	107.88
506.856	78.88
507.073	90.88
507.289	86.88
507.506	103.88
507.722	106.88
507.939	135.88
508.155	96.88
508.372	93.88
508.588	96.88
508.805	77.88
509.021	83.88
509.238	91.88
509.454	102.88
509.67	94.88
509.887	100.88
510.103	136.88
510.319	207.88
510.536	660.88
510.752	2025.88
510.968	567.88
511.184	162.88
511.401	95.88
511.617	87.88
511.833	92.88
512.049	93.88
512.265	89.88
512.481	80.88
512.698	68.88
512.914	94.88
513.13	93.88
513.346	87.88
513.562	94.88
513.778	103.88
513.994	103.88
514.21	105.88
514.426	114.88
514.642	121.88
514.858	117.88
515.074	156.88
515.29	402.88
515.506	1290.88
515.721	496.88
515.937	159.88
516.153	103.88
516.369	101.88
