Data from Uncirc_1991_H10_HRD10591_00054.txt Node
Date: Wed Jan 03 11:50:49 EST 2024
User: Yrep
Spectrometer: HR+D1059
Trigger mode: 1
Integration Time (sec): 1.000000E-1
Scans to average: 1
Electric dark correction enabled: true
Nonlinearity correction enabled: false
Boxcar width: 0
XAxis mode: Wavelengths
Number of Pixels in Spectrum: 2048
>>>>>Begin Spectral Data<<<<<
223.165	-26.62
223.4	-26.62
223.635	-26.62
223.869	-16.62
224.104	-25.62
224.338	-0.62
224.573	-18.62
224.808	-14.62
225.042	-3.62
225.277	2.38
225.511	-4.62
225.746	1.38
225.98	9.38
226.215	21.38
226.449	23.38
226.683	27.38
226.918	11.38
227.152	14.38
227.387	19.38
227.621	22.38
227.856	37.38
228.09	42.38
228.324	57.38
228.559	72.38
228.793	53.38
229.027	67.38
229.262	56.38
229.496	79.38
229.73	73.38
229.964	83.38
230.199	67.38
230.433	79.38
230.667	69.38
230.901	77.38
231.136	83.38
231.37	88.38
231.604	78.38
231.838	73.38
232.072	73.38
232.306	72.38
232.541	91.38
232.775	84.38
233.009	71.38
233.243	79.38
233.477	67.38
233.711	72.38
233.945	79.38
234.179	72.38
234.413	87.38
234.647	88.38
234.881	76.38
235.115	72.38
235.349	79.38
235.583	70.38
235.817	92.38
236.051	79.38
236.285	60.38
236.519	68.38
236.753	73.38
236.987	71.38
237.221	80.38
237.455	83.38
237.689	75.38
237.922	89.38
238.156	79.38
238.39	69.38
238.624	69.38
238.858	97.38
239.091	75.38
239.325	79.38
239.559	64.38
239.793	84.38
240.027	76.38
240.26	74.38
240.494	64.38
240.728	69.38
240.961	76.38
241.195	75.38
241.429	66.38
241.662	76.38
241.896	67.38
242.13	55.38
242.363	88.38
242.597	72.38
242.83	64.38
243.064	58.38
243.298	79.38
243.531	64.38
243.765	76.38
243.998	87.38
244.232	68.38
244.465	97.38
244.699	69.38
244.932	75.38
245.166	89.38
245.399	69.38
245.633	76.38
245.866	75.38
246.099	73.38
246.333	78.38
246.566	79.38
246.8	80.38
247.033	78.38
247.266	79.38
247.5	78.38
247.733	76.38
247.966	93.38
248.2	80.38
248.433	82.38
248.666	72.38
248.899	86.38
249.133	99.38
249.366	91.38
249.599	89.38
249.832	84.38
250.066	93.38
250.299	82.38
250.532	56.38
250.765	88.38
250.998	79.38
251.231	76.38
251.465	74.38
251.698	78.38
251.931	77.38
252.164	64.38
252.397	71.38
252.63	83.38
252.863	75.38
253.096	78.38
253.329	80.38
253.562	79.38
253.795	66.38
254.028	72.38
254.261	84.38
254.494	81.38
254.727	73.38
254.96	74.38
255.193	77.38
255.426	91.38
255.659	84.38
255.892	90.38
256.124	77.38
256.357	73.38
256.59	66.38
256.823	75.38
257.056	71.38
257.289	67.38
257.521	75.38
257.754	82.38
257.987	73.38
258.22	85.38
258.452	75.38
258.685	89.38
258.918	77.38
259.151	73.38
259.383	69.38
259.616	77.38
259.849	80.38
260.081	87.38
260.314	80.38
260.547	80.38
260.779	76.38
261.012	84.38
261.244	75.38
261.477	97.38
261.71	96.38
261.942	96.38
262.175	119.38
262.407	83.38
262.64	78.38
262.872	76.38
263.105	68.38
263.337	78.38
263.57	87.38
263.802	99.38
264.035	87.38
264.267	89.38
264.499	79.38
264.732	85.38
264.964	87.38
265.197	91.38
265.429	87.38
265.661	82.38
265.894	88.38
266.126	79.38
266.358	88.38
266.591	87.38
266.823	67.38
267.055	55.38
267.287	74.38
267.52	79.38
267.752	89.38
267.984	113.38
268.216	83.38
268.448	84.38
268.681	82.38
268.913	66.38
269.145	66.38
269.377	64.38
269.609	81.38
269.841	77.38
270.073	88.38
270.306	67.38
270.538	72.38
270.77	97.38
271.002	96.38
271.234	90.38
271.466	68.38
271.698	72.38
271.93	80.38
272.162	80.38
272.394	77.38
272.626	88.38
272.858	88.38
273.09	74.38
273.322	97.38
273.553	87.38
273.785	84.38
274.017	79.38
274.249	83.38
274.481	83.38
274.713	87.38
274.945	90.38
275.176	72.38
275.408	79.38
275.64	86.38
275.872	81.38
276.104	93.38
276.335	89.38
276.567	101.38
276.799	103.38
277.031	86.38
277.262	79.38
277.494	76.38
277.726	93.38
277.957	87.38
278.189	99.38
278.421	96.38
278.652	84.38
278.884	77.38
279.115	77.38
279.347	75.38
279.579	87.38
279.81	98.38
280.042	72.38
280.273	79.38
280.505	88.38
280.736	84.38
280.968	79.38
281.199	88.38
281.431	88.38
281.662	92.38
281.894	102.38
282.125	84.38
282.356	111.38
282.588	123.38
282.819	104.38
283.051	88.38
283.282	86.38
283.513	100.38
283.745	85.38
283.976	87.38
284.207	89.38
284.439	83.38
284.67	97.38
284.901	85.38
285.132	91.38
285.364	83.38
285.595	101.38
285.826	82.38
286.057	84.38
286.288	96.38
286.52	84.38
286.751	76.38
286.982	80.38
287.213	72.38
287.444	80.38
287.675	89.38
287.906	92.38
288.138	94.38
288.369	91.38
288.6	101.38
288.831	75.38
289.062	93.38
289.293	79.38
289.524	88.38
289.755	76.38
289.986	91.38
290.217	101.38
290.448	95.38
290.679	94.38
290.91	76.38
291.141	78.38
291.371	98.38
291.602	84.38
291.833	97.38
292.064	89.38
292.295	82.38
292.526	101.38
292.757	77.38
292.987	79.38
293.218	88.38
293.449	85.38
293.68	90.38
293.91	81.38
294.141	88.38
294.372	86.38
294.603	99.38
294.833	78.38
295.064	91.38
295.295	96.38
295.525	102.38
295.756	91.38
295.987	113.38
296.217	119.38
296.448	119.38
296.679	96.38
296.909	107.38
297.14	87.38
297.37	93.38
297.601	89.38
297.831	95.38
298.062	88.38
298.292	86.38
298.523	85.38
298.753	83.38
298.984	88.38
299.214	95.38
299.445	96.38
299.675	93.38
299.905	99.38
300.136	89.38
300.366	71.38
300.597	82.38
300.827	92.38
301.057	85.38
301.288	91.38
301.518	87.38
301.748	87.38
301.979	92.38
302.209	87.38
302.439	99.38
302.669	79.38
302.9	107.38
303.13	96.38
303.36	94.38
303.59	109.38
303.82	107.38
304.051	99.38
304.281	92.38
304.511	105.38
304.741	77.38
304.971	83.38
305.201	88.38
305.431	73.38
305.661	72.38
305.891	91.38
306.121	91.38
306.352	94.38
306.582	114.38
306.812	99.38
307.042	92.38
307.272	81.38
307.502	86.38
307.731	111.38
307.961	87.38
308.191	84.38
308.421	78.38
308.651	81.38
308.881	84.38
309.111	91.38
309.341	90.38
309.571	101.38
309.8	95.38
310.03	99.38
310.26	113.38
310.49	105.38
310.72	82.38
310.949	88.38
311.179	94.38
311.409	91.38
311.639	89.38
311.868	97.38
312.098	81.38
312.328	89.38
312.557	109.38
312.787	104.38
313.017	83.38
313.246	91.38
313.476	87.38
313.706	91.38
313.935	93.38
314.165	92.38
314.394	101.38
314.624	105.38
314.853	91.38
315.083	90.38
315.312	79.38
315.542	89.38
315.771	98.38
316.001	91.38
316.23	90.38
316.46	73.38
316.689	81.38
316.919	96.38
317.148	107.38
317.377	97.38
317.607	98.38
317.836	82.38
318.065	79.38
318.295	101.38
318.524	94.38
318.753	88.38
318.983	92.38
319.212	93.38
319.441	91.38
319.67	93.38
319.9	96.38
320.129	84.38
320.358	86.38
320.587	93.38
320.816	82.38
321.046	90.38
321.275	109.38
321.504	93.38
321.733	79.38
321.962	101.38
322.191	100.38
322.42	95.38
322.649	113.38
322.878	118.38
323.108	115.38
323.337	128.38
323.566	129.38
323.795	168.38
324.024	211.38
324.253	435.38
324.482	928.38
324.71	1861.38
324.939	2471.38
325.168	891.38
325.397	255.38
325.626	155.38
325.855	135.38
326.084	124.38
326.313	118.38
326.542	152.38
326.77	236.38
326.999	491.38
327.228	990.38
327.457	1902.38
327.686	1471.38
327.914	394.38
328.143	186.38
328.372	156.38
328.6	120.38
328.829	109.38
329.058	115.38
329.287	117.38
329.515	101.38
329.744	97.38
329.972	109.38
330.201	111.38
330.43	100.38
330.658	109.38
330.887	133.38
331.115	118.38
331.344	113.38
331.572	109.38
331.801	100.38
332.03	90.38
332.258	96.38
332.486	90.38
332.715	98.38
332.943	80.38
333.172	95.38
333.4	80.38
333.629	100.38
333.857	99.38
334.085	92.38
334.314	82.38
334.542	98.38
334.771	97.38
334.999	98.38
335.227	99.38
335.455	92.38
335.684	100.38
335.912	97.38
336.14	95.38
336.369	90.38
336.597	92.38
336.825	95.38
337.053	83.38
337.281	89.38
337.51	93.38
337.738	80.38
337.966	87.38
338.194	93.38
338.422	87.38
338.65	90.38
338.878	90.38
339.106	97.38
339.334	100.38
339.562	94.38
339.79	90.38
340.018	94.38
340.246	90.38
340.474	100.38
340.702	94.38
340.93	84.38
341.158	86.38
341.386	93.38
341.614	73.38
341.842	80.38
342.07	69.38
342.298	98.38
342.526	78.38
342.754	90.38
342.981	81.38
343.209	95.38
343.437	103.38
343.665	100.38
343.893	83.38
344.12	89.38
344.348	85.38
344.576	94.38
344.804	87.38
345.031	87.38
345.259	94.38
345.487	98.38
345.714	109.38
345.942	90.38
346.17	80.38
346.397	88.38
346.625	90.38
346.853	81.38
347.08	81.38
347.308	91.38
347.535	97.38
347.763	93.38
347.99	88.38
348.218	106.38
348.445	92.38
348.673	99.38
348.9	98.38
349.128	108.38
349.355	92.38
349.583	93.38
349.81	93.38
350.037	93.38
350.265	101.38
350.492	92.38
350.72	91.38
350.947	106.38
351.174	100.38
351.402	99.38
351.629	94.38
351.856	110.38
352.083	109.38
352.311	103.38
352.538	108.38
352.765	116.38
352.992	113.38
353.22	90.38
353.447	107.38
353.674	83.38
353.901	92.38
354.128	96.38
354.355	98.38
354.583	95.38
354.81	76.38
355.037	91.38
355.264	69.38
355.491	73.38
355.718	79.38
355.945	95.38
356.172	81.38
356.399	91.38
356.626	96.38
356.853	78.38
357.08	99.38
357.307	97.38
357.534	78.38
357.761	89.38
357.988	86.38
358.215	84.38
358.441	85.38
358.668	70.38
358.895	78.38
359.122	76.38
359.349	85.38
359.576	81.38
359.802	98.38
360.029	119.38
360.256	101.38
360.483	98.38
360.709	88.38
360.936	96.38
361.163	93.38
361.39	83.38
361.616	92.38
361.843	89.38
362.07	98.38
362.296	97.38
362.523	68.38
362.749	63.38
362.976	82.38
363.203	94.38
363.429	90.38
363.656	94.38
363.882	89.38
364.109	100.38
364.335	87.38
364.562	89.38
364.788	72.38
365.015	105.38
365.241	98.38
365.468	101.38
365.694	103.38
365.92	91.38
366.147	89.38
366.373	95.38
366.599	83.38
366.826	98.38
367.052	88.38
367.278	88.38
367.505	84.38
367.731	84.38
367.957	103.38
368.184	82.38
368.41	95.38
368.636	109.38
368.862	124.38
369.089	97.38
369.315	77.38
369.541	76.38
369.767	84.38
369.993	84.38
370.219	85.38
370.445	85.38
370.672	87.38
370.898	101.38
371.124	91.38
371.35	80.38
371.576	87.38
371.802	84.38
372.028	88.38
372.254	112.38
372.48	88.38
372.706	91.38
372.932	80.38
373.158	91.38
373.384	87.38
373.61	82.38
373.835	73.38
374.061	77.38
374.287	73.38
374.513	93.38
374.739	81.38
374.965	89.38
375.191	81.38
375.416	86.38
375.642	98.38
375.868	73.38
376.094	88.38
376.319	92.38
376.545	86.38
376.771	82.38
376.997	92.38
377.222	78.38
377.448	82.38
377.674	102.38
377.899	90.38
378.125	89.38
378.35	78.38
378.576	90.38
378.802	84.38
379.027	88.38
379.253	88.38
379.478	94.38
379.704	98.38
379.929	95.38
380.155	90.38
380.38	97.38
380.606	84.38
380.831	105.38
381.057	90.38
381.282	84.38
381.507	91.38
381.733	90.38
381.958	86.38
382.184	96.38
382.409	94.38
382.634	109.38
382.86	96.38
383.085	85.38
383.31	101.38
383.535	93.38
383.761	105.38
383.986	101.38
384.211	93.38
384.436	91.38
384.662	96.38
384.887	91.38
385.112	98.38
385.337	106.38
385.562	81.38
385.787	108.38
386.013	98.38
386.238	107.38
386.463	97.38
386.688	105.38
386.913	95.38
387.138	111.38
387.363	97.38
387.588	87.38
387.813	91.38
388.038	88.38
388.263	102.38
388.488	101.38
388.713	79.38
388.938	83.38
389.163	101.38
389.387	96.38
389.612	87.38
389.837	77.38
390.062	101.38
390.287	75.38
390.512	97.38
390.736	93.38
390.961	94.38
391.186	73.38
391.411	84.38
391.636	103.38
391.86	83.38
392.085	76.38
392.31	77.38
392.534	73.38
392.759	71.38
392.984	77.38
393.208	95.38
393.433	84.38
393.658	78.38
393.882	89.38
394.107	67.38
394.331	74.38
394.556	74.38
394.78	100.38
395.005	85.38
395.229	71.38
395.454	87.38
395.678	92.38
395.903	80.38
396.127	72.38
396.352	80.38
396.576	73.38
396.801	95.38
397.025	90.38
397.249	82.38
397.474	69.38
397.698	77.38
397.922	85.38
398.147	82.38
398.371	87.38
398.595	96.38
398.82	88.38
399.044	96.38
399.268	101.38
399.492	90.38
399.717	88.38
399.941	87.38
400.165	82.38
400.389	81.38
400.613	88.38
400.837	80.38
401.062	98.38
401.286	66.38
401.51	90.38
401.734	97.38
401.958	96.38
402.182	100.38
402.406	159.38
402.63	103.38
402.854	103.38
403.078	79.38
403.302	91.38
403.526	76.38
403.75	80.38
403.974	86.38
404.198	83.38
404.422	99.38
404.645	88.38
404.869	72.38
405.093	82.38
405.317	87.38
405.541	104.38
405.765	106.38
405.988	126.38
406.212	153.38
406.436	216.38
406.66	130.38
406.883	98.38
407.107	96.38
407.331	103.38
407.555	93.38
407.778	87.38
408.002	83.38
408.226	84.38
408.449	86.38
408.673	105.38
408.896	100.38
409.12	77.38
409.344	93.38
409.567	83.38
409.791	78.38
410.014	91.38
410.238	84.38
410.461	90.38
410.685	91.38
410.908	97.38
411.132	78.38
411.355	94.38
411.578	85.38
411.802	98.38
412.025	65.38
412.249	85.38
412.472	96.38
412.695	86.38
412.919	83.38
413.142	86.38
413.365	85.38
413.589	77.38
413.812	84.38
414.035	89.38
414.258	84.38
414.482	85.38
414.705	84.38
414.928	94.38
415.151	87.38
415.374	96.38
415.597	82.38
415.821	82.38
416.044	80.38
416.267	92.38
416.49	65.38
416.713	86.38
416.936	80.38
417.159	85.38
417.382	104.38
417.605	71.38
417.828	91.38
418.051	87.38
418.274	72.38
418.497	80.38
418.72	93.38
418.943	75.38
419.166	84.38
419.389	80.38
419.611	96.38
419.834	91.38
420.057	89.38
420.28	75.38
420.503	83.38
420.726	89.38
420.948	89.38
421.171	88.38
421.394	100.38
421.617	96.38
421.839	86.38
422.062	80.38
422.285	83.38
422.507	87.38
422.73	94.38
422.953	98.38
423.175	96.38
423.398	85.38
423.621	88.38
423.843	85.38
424.066	83.38
424.288	78.38
424.511	94.38
424.733	117.38
424.956	126.38
425.178	95.38
425.401	101.38
425.623	107.38
425.846	88.38
426.068	89.38
426.291	96.38
426.513	88.38
426.735	99.38
426.958	101.38
427.18	91.38
427.402	153.38
427.625	179.38
427.847	127.38
428.069	87.38
428.292	88.38
428.514	85.38
428.736	80.38
428.958	83.38
429.181	73.38
429.403	73.38
429.625	97.38
429.847	109.38
430.069	91.38
430.292	88.38
430.514	71.38
430.736	81.38
430.958	81.38
431.18	78.38
431.402	88.38
431.624	73.38
431.846	74.38
432.068	77.38
432.29	88.38
432.512	77.38
432.734	100.38
432.956	89.38
433.178	99.38
433.4	87.38
433.622	87.38
433.844	99.38
434.066	76.38
434.287	79.38
434.509	84.38
434.731	92.38
434.953	88.38
435.175	89.38
435.397	86.38
435.618	87.38
435.84	98.38
436.062	122.38
436.284	110.38
436.505	107.38
436.727	105.38
436.949	83.38
437.17	99.38
437.392	91.38
437.614	88.38
437.835	109.38
438.057	121.38
438.278	120.38
438.5	115.38
438.721	136.38
438.943	117.38
439.165	91.38
439.386	95.38
439.608	92.38
439.829	88.38
440.05	121.38
440.272	151.38
440.493	109.38
440.715	94.38
440.936	88.38
441.158	83.38
441.379	84.38
441.6	92.38
441.822	99.38
442.043	101.38
442.264	112.38
442.486	105.38
442.707	95.38
442.928	115.38
443.149	122.38
443.371	119.38
443.592	119.38
443.813	111.38
444.034	92.38
444.255	94.38
444.476	97.38
444.698	105.38
444.919	85.38
445.14	140.38
445.361	124.38
445.582	127.38
445.803	139.38
446.024	150.38
446.245	144.38
446.466	125.38
446.687	91.38
446.908	81.38
447.129	82.38
447.35	95.38
447.571	89.38
447.792	94.38
448.013	71.38
448.234	102.38
448.455	112.38
448.675	123.38
448.896	125.38
449.117	99.38
449.338	94.38
449.559	137.38
449.779	148.38
450	98.38
450.221	75.38
450.442	75.38
450.662	105.38
450.883	110.38
451.104	111.38
451.324	94.38
451.545	72.38
451.766	90.38
451.986	83.38
452.207	82.38
452.428	89.38
452.648	98.38
452.869	98.38
453.089	99.38
453.31	111.38
453.53	98.38
453.751	95.38
453.971	106.38
454.192	114.38
454.412	98.38
454.633	90.38
454.853	85.38
455.073	87.38
455.294	81.38
455.514	90.38
455.734	87.38
455.955	79.38
456.175	83.38
456.395	82.38
456.616	90.38
456.836	81.38
457.056	80.38
457.276	86.38
457.497	80.38
457.717	74.38
457.937	73.38
458.157	82.38
458.377	91.38
458.598	103.38
458.818	151.38
459.038	156.38
459.258	123.38
459.478	84.38
459.698	80.38
459.918	85.38
460.138	76.38
460.358	101.38
460.578	89.38
460.798	103.38
461.018	89.38
461.238	84.38
461.458	75.38
461.678	68.38
461.898	85.38
462.118	96.38
462.338	76.38
462.558	88.38
462.777	83.38
462.997	88.38
463.217	87.38
463.437	83.38
463.657	97.38
463.876	85.38
464.096	81.38
464.316	95.38
464.536	96.38
464.755	105.38
464.975	104.38
465.195	171.38
465.414	142.38
465.634	87.38
465.854	77.38
466.073	75.38
466.293	95.38
466.512	82.38
466.732	85.38
466.951	85.38
467.171	88.38
467.391	89.38
467.61	97.38
467.829	91.38
468.049	84.38
468.268	88.38
468.488	84.38
468.707	74.38
468.927	85.38
469.146	91.38
469.365	74.38
469.585	83.38
469.804	81.38
470.023	95.38
470.243	96.38
470.462	110.38
470.681	106.38
470.901	95.38
471.12	69.38
471.339	91.38
471.558	72.38
471.777	83.38
471.997	76.38
472.216	87.38
472.435	86.38
472.654	90.38
472.873	77.38
473.092	80.38
473.311	79.38
473.53	84.38
473.749	76.38
473.968	97.38
474.187	103.38
474.406	101.38
474.625	91.38
474.844	74.38
475.063	87.38
475.282	97.38
475.501	78.38
475.72	84.38
475.939	84.38
476.158	83.38
476.377	106.38
476.596	95.38
476.814	77.38
477.033	88.38
477.252	77.38
477.471	97.38
477.69	100.38
477.908	87.38
478.127	96.38
478.346	94.38
478.564	93.38
478.783	78.38
479.002	82.38
479.22	77.38
479.439	99.38
479.658	112.38
479.876	89.38
480.095	94.38
480.313	100.38
480.532	112.38
480.751	97.38
480.969	85.38
481.188	91.38
481.406	75.38
481.624	87.38
481.843	84.38
482.061	80.38
482.28	87.38
482.498	77.38
482.717	86.38
482.935	87.38
483.153	83.38
483.372	96.38
483.59	83.38
483.808	75.38
484.027	92.38
484.245	100.38
484.463	93.38
484.681	82.38
484.9	89.38
485.118	95.38
485.336	88.38
485.554	83.38
485.772	107.38
485.99	88.38
486.209	85.38
486.427	91.38
486.645	104.38
486.863	103.38
487.081	91.38
487.299	92.38
487.517	104.38
487.735	84.38
487.953	85.38
488.171	91.38
488.389	92.38
488.607	88.38
488.825	87.38
489.043	88.38
489.261	97.38
489.479	87.38
489.696	85.38
489.914	76.38
490.132	83.38
490.35	82.38
490.568	92.38
490.786	80.38
491.003	87.38
491.221	82.38
491.439	92.38
491.657	83.38
491.874	96.38
492.092	86.38
492.31	91.38
492.527	76.38
492.745	86.38
492.963	90.38
493.18	94.38
493.398	84.38
493.615	101.38
493.833	90.38
494.05	94.38
494.268	94.38
494.485	83.38
494.703	84.38
494.92	90.38
495.138	89.38
495.355	96.38
495.573	91.38
495.79	97.38
496.008	98.38
496.225	75.38
496.442	93.38
496.66	100.38
496.877	75.38
497.094	88.38
497.312	93.38
497.529	90.38
497.746	88.38
497.963	82.38
498.181	96.38
498.398	95.38
498.615	111.38
498.832	92.38
499.049	95.38
499.267	92.38
499.484	82.38
499.701	83.38
499.918	96.38
500.135	98.38
500.352	91.38
500.569	89.38
500.786	83.38
501.003	83.38
501.22	88.38
501.437	98.38
501.654	95.38
501.871	95.38
502.088	72.38
502.305	93.38
502.522	87.38
502.739	82.38
502.956	91.38
503.172	85.38
503.389	92.38
503.606	112.38
503.823	110.38
504.04	94.38
504.256	80.38
504.473	91.38
504.69	112.38
504.907	93.38
505.123	84.38
505.34	94.38
505.557	79.38
505.773	91.38
505.99	99.38
506.207	100.38
506.423	112.38
506.64	92.38
506.856	74.38
507.073	95.38
507.289	88.38
507.506	88.38
507.722	105.38
507.939	106.38
508.155	98.38
508.372	90.38
508.588	101.38
508.805	99.38
509.021	100.38
509.238	98.38
509.454	96.38
509.67	100.38
509.887	113.38
510.103	122.38
510.319	204.38
510.536	747.38
510.752	2312.38
510.968	633.38
511.184	142.38
511.401	115.38
511.617	107.38
511.833	89.38
512.049	104.38
512.265	101.38
512.481	112.38
512.698	93.38
512.914	91.38
513.13	96.38
513.346	101.38
513.562	79.38
513.778	92.38
513.994	97.38
514.21	108.38
514.426	103.38
514.642	124.38
514.858	116.38
515.074	180.38
515.29	443.38
515.506	1509.38
515.721	524.38
515.937	150.38
516.153	109.38
516.369	107.38
516.585	105.38
