Data from Uncirc_1991_H10_HRD10591_00075.txt Node
Date: Wed Jan 03 11:50:53 EST 2024
User: Yrep
Spectrometer: HR+D1059
Trigger mode: 1
Integration Time (sec): 1.000000E-1
Scans to average: 1
Electric dark correction enabled: true
Nonlinearity correction enabled: false
Boxcar width: 0
XAxis mode: Wavelengths
Number of Pixels in Spectrum: 2048
>>>>>Begin Spectral Data<<<<<
223.165	-14.38
223.4	-14.38
223.635	-14.38
223.869	-21.38
224.104	-17.38
224.338	-17.38
224.573	-0.38
224.808	-18.38
225.042	-11.38
225.277	-7.38
225.511	-3.38
225.746	-1.38
225.98	16.62
226.215	21.62
226.449	12.62
226.683	18.62
226.918	11.62
227.152	31.62
227.387	31.62
227.621	33.62
227.856	41.62
228.09	46.62
228.324	45.62
228.559	53.62
228.793	69.62
229.027	67.62
229.262	69.62
229.496	66.62
229.73	88.62
229.964	69.62
230.199	73.62
230.433	73.62
230.667	83.62
230.901	80.62
231.136	67.62
231.37	78.62
231.604	86.62
231.838	87.62
232.072	71.62
232.306	77.62
232.541	77.62
232.775	68.62
233.009	87.62
233.243	91.62
233.477	80.62
233.711	98.62
233.945	75.62
234.179	87.62
234.413	73.62
234.647	80.62
234.881	70.62
235.115	77.62
235.349	70.62
235.583	87.62
235.817	83.62
236.051	69.62
236.285	69.62
236.519	80.62
236.753	77.62
236.987	87.62
237.221	84.62
237.455	75.62
237.689	81.62
237.922	79.62
238.156	72.62
238.39	72.62
238.624	74.62
238.858	86.62
239.091	75.62
239.325	87.62
239.559	83.62
239.793	75.62
240.027	70.62
240.26	79.62
240.494	85.62
240.728	76.62
240.961	70.62
241.195	72.62
241.429	79.62
241.662	69.62
241.896	70.62
242.13	76.62
242.363	83.62
242.597	84.62
242.83	76.62
243.064	77.62
243.298	80.62
243.531	89.62
243.765	85.62
243.998	88.62
244.232	85.62
244.465	75.62
244.699	98.62
244.932	69.62
245.166	83.62
245.399	88.62
245.633	64.62
245.866	86.62
246.099	66.62
246.333	80.62
246.566	83.62
246.8	73.62
247.033	79.62
247.266	95.62
247.5	79.62
247.733	84.62
247.966	77.62
248.2	70.62
248.433	86.62
248.666	83.62
248.899	68.62
249.133	85.62
249.366	115.62
249.599	82.62
249.832	91.62
250.066	92.62
250.299	82.62
250.532	77.62
250.765	77.62
250.998	88.62
251.231	84.62
251.465	81.62
251.698	86.62
251.931	78.62
252.164	91.62
252.397	79.62
252.63	69.62
252.863	78.62
253.096	79.62
253.329	97.62
253.562	83.62
253.795	91.62
254.028	95.62
254.261	83.62
254.494	84.62
254.727	87.62
254.96	91.62
255.193	81.62
255.426	71.62
255.659	68.62
255.892	85.62
256.124	84.62
256.357	88.62
256.59	85.62
256.823	74.62
257.056	72.62
257.289	77.62
257.521	85.62
257.754	70.62
257.987	79.62
258.22	79.62
258.452	83.62
258.685	77.62
258.918	89.62
259.151	80.62
259.383	84.62
259.616	82.62
259.849	96.62
260.081	90.62
260.314	93.62
260.547	79.62
260.779	87.62
261.012	84.62
261.244	84.62
261.477	92.62
261.71	94.62
261.942	111.62
262.175	121.62
262.407	104.62
262.64	93.62
262.872	94.62
263.105	87.62
263.337	95.62
263.57	97.62
263.802	81.62
264.035	83.62
264.267	86.62
264.499	91.62
264.732	83.62
264.964	101.62
265.197	83.62
265.429	90.62
265.661	84.62
265.894	95.62
266.126	90.62
266.358	94.62
266.591	82.62
266.823	75.62
267.055	85.62
267.287	82.62
267.52	77.62
267.752	88.62
267.984	84.62
268.216	103.62
268.448	86.62
268.681	94.62
268.913	93.62
269.145	83.62
269.377	77.62
269.609	93.62
269.841	84.62
270.073	75.62
270.306	81.62
270.538	78.62
270.77	78.62
271.002	77.62
271.234	91.62
271.466	72.62
271.698	94.62
271.93	83.62
272.162	75.62
272.394	82.62
272.626	98.62
272.858	98.62
273.09	79.62
273.322	86.62
273.553	83.62
273.785	88.62
274.017	76.62
274.249	85.62
274.481	67.62
274.713	87.62
274.945	93.62
275.176	70.62
275.408	81.62
275.64	89.62
275.872	93.62
276.104	93.62
276.335	89.62
276.567	100.62
276.799	102.62
277.031	80.62
277.262	101.62
277.494	93.62
277.726	93.62
277.957	77.62
278.189	91.62
278.421	86.62
278.652	83.62
278.884	87.62
279.115	85.62
279.347	93.62
279.579	81.62
279.81	105.62
280.042	86.62
280.273	77.62
280.505	88.62
280.736	95.62
280.968	96.62
281.199	96.62
281.431	95.62
281.662	86.62
281.894	89.62
282.125	83.62
282.356	109.62
282.588	126.62
282.819	109.62
283.051	98.62
283.282	83.62
283.513	58.62
283.745	93.62
283.976	81.62
284.207	92.62
284.439	94.62
284.67	84.62
284.901	83.62
285.132	79.62
285.364	77.62
285.595	87.62
285.826	83.62
286.057	86.62
286.288	94.62
286.52	90.62
286.751	80.62
286.982	95.62
287.213	94.62
287.444	93.62
287.675	75.62
287.906	97.62
288.138	101.62
288.369	100.62
288.6	85.62
288.831	99.62
289.062	85.62
289.293	90.62
289.524	81.62
289.755	68.62
289.986	87.62
290.217	89.62
290.448	82.62
290.679	87.62
290.91	88.62
291.141	98.62
291.371	95.62
291.602	79.62
291.833	88.62
292.064	97.62
292.295	92.62
292.526	87.62
292.757	93.62
292.987	71.62
293.218	86.62
293.449	88.62
293.68	88.62
293.91	83.62
294.141	104.62
294.372	102.62
294.603	84.62
294.833	100.62
295.064	100.62
295.295	106.62
295.525	98.62
295.756	104.62
295.987	113.62
296.217	141.62
296.448	134.62
296.679	84.62
296.909	95.62
297.14	96.62
297.37	83.62
297.601	84.62
297.831	94.62
298.062	89.62
298.292	84.62
298.523	84.62
298.753	73.62
298.984	89.62
299.214	91.62
299.445	98.62
299.675	77.62
299.905	81.62
300.136	103.62
300.366	87.62
300.597	107.62
300.827	92.62
301.057	116.62
301.288	111.62
301.518	95.62
301.748	82.62
301.979	104.62
302.209	98.62
302.439	91.62
302.669	93.62
302.9	83.62
303.13	81.62
303.36	91.62
303.59	112.62
303.82	115.62
304.051	93.62
304.281	94.62
304.511	89.62
304.741	84.62
304.971	97.62
305.201	96.62
305.431	79.62
305.661	112.62
305.891	93.62
306.121	99.62
306.352	105.62
306.582	102.62
306.812	99.62
307.042	101.62
307.272	88.62
307.502	99.62
307.731	111.62
307.961	91.62
308.191	85.62
308.421	96.62
308.651	89.62
308.881	76.62
309.111	91.62
309.341	95.62
309.571	101.62
309.8	80.62
310.03	100.62
310.26	96.62
310.49	78.62
310.72	91.62
310.949	111.62
311.179	113.62
311.409	91.62
311.639	99.62
311.868	90.62
312.098	94.62
312.328	109.62
312.557	105.62
312.787	119.62
313.017	100.62
313.246	101.62
313.476	100.62
313.706	83.62
313.935	104.62
314.165	102.62
314.394	80.62
314.624	89.62
314.853	95.62
315.083	100.62
315.312	106.62
315.542	93.62
315.771	90.62
316.001	95.62
316.23	85.62
316.46	91.62
316.689	91.62
316.919	96.62
317.148	85.62
317.377	105.62
317.607	90.62
317.836	87.62
318.065	100.62
318.295	77.62
318.524	106.62
318.753	93.62
318.983	93.62
319.212	110.62
319.441	106.62
319.67	116.62
319.9	87.62
320.129	99.62
320.358	96.62
320.587	103.62
320.816	122.62
321.046	115.62
321.275	100.62
321.504	99.62
321.733	94.62
321.962	96.62
322.191	100.62
322.42	113.62
322.649	111.62
322.878	108.62
323.108	116.62
323.337	123.62
323.566	152.62
323.795	161.62
324.024	209.62
324.253	405.62
324.482	898.62
324.71	1888.62
324.939	2509.62
325.168	896.62
325.397	273.62
325.626	164.62
325.855	126.62
326.084	140.62
326.313	136.62
326.542	171.62
326.77	251.62
326.999	488.62
327.228	1014.62
327.457	1881.62
327.686	1528.62
327.914	420.62
328.143	198.62
328.372	144.62
328.6	143.62
328.829	120.62
329.058	125.62
329.287	120.62
329.515	106.62
329.744	113.62
329.972	100.62
330.201	95.62
330.43	108.62
330.658	125.62
330.887	135.62
331.115	123.62
331.344	97.62
331.572	95.62
331.801	94.62
332.03	89.62
332.258	99.62
332.486	110.62
332.715	92.62
332.943	87.62
333.172	97.62
333.4	100.62
333.629	108.62
333.857	106.62
334.085	105.62
334.314	95.62
334.542	97.62
334.771	109.62
334.999	100.62
335.227	102.62
335.455	116.62
335.684	98.62
335.912	101.62
336.14	98.62
336.369	103.62
336.597	97.62
336.825	109.62
337.053	97.62
337.281	86.62
337.51	103.62
337.738	98.62
337.966	86.62
338.194	100.62
338.422	97.62
338.65	93.62
338.878	105.62
339.106	85.62
339.334	91.62
339.562	86.62
339.79	83.62
340.018	96.62
340.246	97.62
340.474	84.62
340.702	93.62
340.93	86.62
341.158	96.62
341.386	114.62
341.614	93.62
341.842	91.62
342.07	85.62
342.298	94.62
342.526	98.62
342.754	87.62
342.981	97.62
343.209	92.62
343.437	96.62
343.665	100.62
343.893	81.62
344.12	106.62
344.348	97.62
344.576	81.62
344.804	103.62
345.031	97.62
345.259	94.62
345.487	104.62
345.714	103.62
345.942	105.62
346.17	100.62
346.397	82.62
346.625	97.62
346.853	91.62
347.08	86.62
347.308	105.62
347.535	92.62
347.763	96.62
347.99	113.62
348.218	86.62
348.445	120.62
348.673	104.62
348.9	94.62
349.128	104.62
349.355	97.62
349.583	80.62
349.81	110.62
350.037	91.62
350.265	102.62
350.492	112.62
350.72	104.62
350.947	95.62
351.174	112.62
351.402	124.62
351.629	102.62
351.856	103.62
352.083	102.62
352.311	105.62
352.538	104.62
352.765	99.62
352.992	126.62
353.22	107.62
353.447	104.62
353.674	107.62
353.901	100.62
354.128	79.62
354.355	86.62
354.583	102.62
354.81	95.62
355.037	113.62
355.264	93.62
355.491	97.62
355.718	90.62
355.945	91.62
356.172	101.62
356.399	92.62
356.626	88.62
356.853	86.62
357.08	113.62
357.307	97.62
357.534	105.62
357.761	97.62
357.988	98.62
358.215	97.62
358.441	99.62
358.668	72.62
358.895	100.62
359.122	103.62
359.349	89.62
359.576	84.62
359.802	99.62
360.029	109.62
360.256	105.62
360.483	100.62
360.709	100.62
360.936	111.62
361.163	109.62
361.39	100.62
361.616	92.62
361.843	92.62
362.07	91.62
362.296	94.62
362.523	82.62
362.749	94.62
362.976	82.62
363.203	87.62
363.429	93.62
363.656	105.62
363.882	83.62
364.109	84.62
364.335	86.62
364.562	94.62
364.788	97.62
365.015	102.62
365.241	92.62
365.468	110.62
365.694	78.62
365.92	90.62
366.147	104.62
366.373	89.62
366.599	86.62
366.826	88.62
367.052	85.62
367.278	85.62
367.505	91.62
367.731	85.62
367.957	93.62
368.184	91.62
368.41	101.62
368.636	113.62
368.862	139.62
369.089	105.62
369.315	101.62
369.541	110.62
369.767	87.62
369.993	96.62
370.219	102.62
370.445	81.62
370.672	86.62
370.898	92.62
371.124	87.62
371.35	86.62
371.576	109.62
371.802	86.62
372.028	107.62
372.254	102.62
372.48	89.62
372.706	100.62
372.932	98.62
373.158	79.62
373.384	91.62
373.61	82.62
373.835	94.62
374.061	85.62
374.287	87.62
374.513	75.62
374.739	87.62
374.965	88.62
375.191	94.62
375.416	96.62
375.642	90.62
375.868	85.62
376.094	94.62
376.319	81.62
376.545	88.62
376.771	88.62
376.997	96.62
377.222	88.62
377.448	89.62
377.674	92.62
377.899	88.62
378.125	78.62
378.35	96.62
378.576	88.62
378.802	89.62
379.027	99.62
379.253	81.62
379.478	88.62
379.704	96.62
379.929	88.62
380.155	88.62
380.38	86.62
380.606	99.62
380.831	89.62
381.057	97.62
381.282	101.62
381.507	94.62
381.733	79.62
381.958	100.62
382.184	105.62
382.409	84.62
382.634	100.62
382.86	101.62
383.085	99.62
383.31	95.62
383.535	100.62
383.761	91.62
383.986	102.62
384.211	108.62
384.436	98.62
384.662	95.62
384.887	101.62
385.112	99.62
385.337	107.62
385.562	95.62
385.787	97.62
386.013	105.62
386.238	104.62
386.463	91.62
386.688	97.62
386.913	94.62
387.138	92.62
387.363	94.62
387.588	95.62
387.813	89.62
388.038	101.62
388.263	109.62
388.488	102.62
388.713	111.62
388.938	100.62
389.163	104.62
389.387	92.62
389.612	85.62
389.837	91.62
390.062	91.62
390.287	93.62
390.512	98.62
390.736	96.62
390.961	88.62
391.186	89.62
391.411	93.62
391.636	64.62
391.86	88.62
392.085	77.62
392.31	91.62
392.534	77.62
392.759	96.62
392.984	89.62
393.208	109.62
393.433	92.62
393.658	90.62
393.882	71.62
394.107	83.62
394.331	99.62
394.556	97.62
394.78	87.62
395.005	85.62
395.229	75.62
395.454	83.62
395.678	88.62
395.903	71.62
396.127	92.62
396.352	95.62
396.576	86.62
396.801	91.62
397.025	91.62
397.249	83.62
397.474	92.62
397.698	96.62
397.922	94.62
398.147	93.62
398.371	79.62
398.595	73.62
398.82	87.62
399.044	78.62
399.268	81.62
399.492	80.62
399.717	84.62
399.941	92.62
400.165	100.62
400.389	99.62
400.613	83.62
400.837	92.62
401.062	100.62
401.286	101.62
401.51	95.62
401.734	98.62
401.958	93.62
402.182	130.62
402.406	153.62
402.63	118.62
402.854	101.62
403.078	103.62
403.302	76.62
403.526	93.62
403.75	75.62
403.974	79.62
404.198	88.62
404.422	94.62
404.645	91.62
404.869	93.62
405.093	95.62
405.317	92.62
405.541	95.62
405.765	104.62
405.988	130.62
406.212	181.62
406.436	239.62
406.66	155.62
406.883	100.62
407.107	118.62
407.331	83.62
407.555	85.62
407.778	94.62
408.002	100.62
408.226	79.62
408.449	86.62
408.673	90.62
408.896	100.62
409.12	116.62
409.344	91.62
409.567	76.62
409.791	101.62
410.014	89.62
410.238	113.62
410.461	96.62
410.685	77.62
410.908	86.62
411.132	102.62
411.355	105.62
411.578	84.62
411.802	89.62
412.025	81.62
412.249	98.62
412.472	100.62
412.695	103.62
412.919	99.62
413.142	96.62
413.365	93.62
413.589	91.62
413.812	94.62
414.035	111.62
414.258	86.62
414.482	97.62
414.705	83.62
414.928	100.62
415.151	104.62
415.374	102.62
415.597	84.62
415.821	89.62
416.044	91.62
416.267	70.62
416.49	88.62
416.713	85.62
416.936	82.62
417.159	103.62
417.382	90.62
417.605	89.62
417.828	90.62
418.051	91.62
418.274	85.62
418.497	92.62
418.72	95.62
418.943	95.62
419.166	86.62
419.389	85.62
419.611	83.62
419.834	90.62
420.057	85.62
420.28	95.62
420.503	101.62
420.726	88.62
420.948	83.62
421.171	95.62
421.394	87.62
421.617	80.62
421.839	109.62
422.062	87.62
422.285	117.62
422.507	101.62
422.73	105.62
422.953	75.62
423.175	85.62
423.398	93.62
423.621	85.62
423.843	94.62
424.066	81.62
424.288	100.62
424.511	87.62
424.733	95.62
424.956	104.62
425.178	93.62
425.401	100.62
425.623	116.62
425.846	95.62
426.068	91.62
426.291	101.62
426.513	91.62
426.735	95.62
426.958	92.62
427.18	103.62
427.402	128.62
427.625	176.62
427.847	133.62
428.069	106.62
428.292	92.62
428.514	85.62
428.736	85.62
428.958	72.62
429.181	87.62
429.403	95.62
429.625	86.62
429.847	105.62
430.069	103.62
430.292	92.62
430.514	93.62
430.736	85.62
430.958	85.62
431.18	91.62
431.402	96.62
431.624	91.62
431.846	99.62
432.068	78.62
432.29	81.62
432.512	81.62
432.734	103.62
432.956	88.62
433.178	102.62
433.4	105.62
433.622	95.62
433.844	97.62
434.066	98.62
434.287	82.62
434.509	91.62
434.731	85.62
434.953	83.62
435.175	91.62
435.397	97.62
435.618	93.62
435.84	111.62
436.062	125.62
436.284	123.62
436.505	99.62
436.727	95.62
436.949	91.62
437.17	99.62
437.392	81.62
437.614	93.62
437.835	100.62
438.057	128.62
438.278	110.62
438.5	106.62
438.721	123.62
438.943	83.62
439.165	100.62
439.386	80.62
439.608	96.62
439.829	100.62
440.05	132.62
440.272	144.62
440.493	92.62
440.715	98.62
440.936	81.62
441.158	99.62
441.379	102.62
441.6	106.62
441.822	113.62
442.043	86.62
442.264	88.62
442.486	109.62
442.707	98.62
442.928	108.62
443.149	140.62
443.371	128.62
443.592	115.62
443.813	121.62
444.034	113.62
444.255	84.62
444.476	64.62
444.698	84.62
444.919	83.62
445.14	134.62
445.361	121.62
445.582	116.62
445.803	143.62
446.024	147.62
446.245	134.62
446.466	124.62
446.687	89.62
446.908	99.62
447.129	92.62
447.35	96.62
447.571	98.62
447.792	86.62
448.013	102.62
448.234	108.62
448.455	79.62
448.675	105.62
448.896	111.62
449.117	101.62
449.338	110.62
449.559	131.62
449.779	133.62
450	89.62
450.221	99.62
450.442	89.62
450.662	102.62
450.883	98.62
451.104	107.62
451.324	97.62
451.545	80.62
451.766	81.62
451.986	85.62
452.207	88.62
452.428	109.62
452.648	101.62
452.869	118.62
453.089	127.62
453.31	117.62
453.53	94.62
453.751	84.62
453.971	90.62
454.192	103.62
454.412	91.62
454.633	92.62
454.853	80.62
455.073	78.62
455.294	100.62
455.514	118.62
455.734	100.62
455.955	93.62
456.175	88.62
456.395	82.62
456.616	88.62
456.836	88.62
457.056	77.62
457.276	82.62
457.497	88.62
457.717	89.62
457.937	95.62
458.157	89.62
458.377	84.62
458.598	119.62
458.818	143.62
459.038	160.62
459.258	111.62
459.478	96.62
459.698	92.62
459.918	85.62
460.138	85.62
460.358	79.62
460.578	94.62
460.798	93.62
461.018	98.62
461.238	82.62
461.458	94.62
461.678	85.62
461.898	75.62
462.118	89.62
462.338	83.62
462.558	86.62
462.777	75.62
462.997	96.62
463.217	79.62
463.437	96.62
463.657	85.62
463.876	91.62
464.096	82.62
464.316	79.62
464.536	92.62
464.755	105.62
464.975	110.62
465.195	161.62
465.414	161.62
465.634	87.62
465.854	92.62
466.073	81.62
466.293	85.62
466.512	94.62
466.732	90.62
466.951	83.62
467.171	87.62
467.391	93.62
467.61	100.62
467.829	93.62
468.049	94.62
468.268	78.62
468.488	86.62
468.707	78.62
468.927	92.62
469.146	94.62
469.365	91.62
469.585	105.62
469.804	95.62
470.023	97.62
470.243	96.62
470.462	113.62
470.681	101.62
470.901	88.62
471.12	99.62
471.339	86.62
471.558	81.62
471.777	111.62
471.997	83.62
472.216	87.62
472.435	84.62
472.654	82.62
472.873	84.62
473.092	86.62
473.311	75.62
473.53	91.62
473.749	89.62
473.968	100.62
474.187	100.62
474.406	89.62
474.625	87.62
474.844	99.62
475.063	94.62
475.282	82.62
475.501	88.62
475.72	91.62
475.939	87.62
476.158	94.62
476.377	102.62
476.596	75.62
476.814	93.62
477.033	104.62
477.252	98.62
477.471	73.62
477.69	107.62
477.908	97.62
478.127	85.62
478.346	76.62
478.564	96.62
478.783	94.62
479.002	104.62
479.22	95.62
479.439	94.62
479.658	103.62
479.876	111.62
480.095	91.62
480.313	96.62
480.532	87.62
480.751	105.62
480.969	106.62
481.188	91.62
481.406	97.62
481.624	100.62
481.843	82.62
482.061	93.62
482.28	92.62
482.498	82.62
482.717	102.62
482.935	89.62
483.153	81.62
483.372	108.62
483.59	99.62
483.808	86.62
484.027	76.62
484.245	99.62
484.463	90.62
484.681	86.62
484.9	97.62
485.118	95.62
485.336	91.62
485.554	102.62
485.772	87.62
485.99	83.62
486.209	108.62
486.427	116.62
486.645	104.62
486.863	109.62
487.081	95.62
487.299	109.62
487.517	103.62
487.735	89.62
487.953	80.62
488.171	104.62
488.389	96.62
488.607	106.62
488.825	95.62
489.043	95.62
489.261	97.62
489.479	84.62
489.696	86.62
489.914	76.62
490.132	89.62
490.35	108.62
490.568	88.62
490.786	88.62
491.003	111.62
491.221	80.62
491.439	97.62
491.657	91.62
491.874	106.62
492.092	97.62
492.31	96.62
492.527	95.62
492.745	102.62
492.963	91.62
493.18	91.62
493.398	88.62
493.615	101.62
493.833	97.62
494.05	84.62
494.268	87.62
494.485	96.62
494.703	109.62
494.92	87.62
495.138	89.62
495.355	91.62
495.573	93.62
495.79	98.62
496.008	99.62
496.225	95.62
496.442	88.62
496.66	79.62
496.877	96.62
497.094	94.62
497.312	92.62
497.529	82.62
497.746	101.62
497.963	87.62
498.181	89.62
498.398	92.62
498.615	99.62
498.832	111.62
499.049	105.62
499.267	86.62
499.484	101.62
499.701	111.62
499.918	103.62
500.135	87.62
500.352	81.62
500.569	82.62
500.786	101.62
501.003	79.62
501.22	83.62
501.437	93.62
501.654	97.62
501.871	112.62
502.088	89.62
502.305	90.62
502.522	93.62
502.739	91.62
502.956	77.62
503.172	99.62
503.389	108.62
503.606	86.62
503.823	89.62
504.04	97.62
504.256	96.62
504.473	84.62
504.69	88.62
504.907	97.62
505.123	110.62
505.34	99.62
505.557	98.62
505.773	79.62
505.99	102.62
506.207	92.62
506.423	94.62
506.64	95.62
506.856	84.62
507.073	109.62
507.289	97.62
507.506	88.62
507.722	111.62
507.939	115.62
508.155	90.62
508.372	93.62
508.588	98.62
508.805	90.62
509.021	109.62
509.238	109.62
509.454	86.62
509.67	101.62
509.887	125.62
510.103	121.62
510.319	215.62
510.536	801.62
510.752	2376.62
510.968	660.62
511.184	152.62
511.401	117.62
511.617	99.62
511.833	93.62
512.049	96.62
512.265	103.62
512.481	103.62
512.698	104.62
512.914	99.62
513.13	80.62
513.346	92.62
513.562	86.62
513.778	87.62
513.994	87.62
514.21	103.62
514.426	120.62
514.642	159.62
514.858	125.62
