Data from Uncirc_1991_H10_HRD10591_00056.txt Node
Date: Wed Jan 03 11:50:49 EST 2024
User: Yrep
Spectrometer: HR+D1059
Trigger mode: 1
Integration Time (sec): 1.000000E-1
Scans to average: 1
Electric dark correction enabled: true
Nonlinearity correction enabled: false
Boxcar width: 0
XAxis mode: Wavelengths
Number of Pixels in Spectrum: 2048
>>>>>Begin Spectral Data<<<<<
223.165	-16.25
223.4	-16.25
223.635	-16.25
223.869	-16.25
224.104	-25.25
224.338	-28.25
224.573	-12.25
224.808	-11.25
225.042	-7.25
225.277	4.75
225.511	-1.25
225.746	-9.25
225.98	11.75
226.215	14.75
226.449	19.75
226.683	22.75
226.918	22.75
227.152	30.75
227.387	32.75
227.621	32.75
227.856	36.75
228.09	44.75
228.324	48.75
228.559	51.75
228.793	65.75
229.027	61.75
229.262	83.75
229.496	63.75
229.73	95.75
229.964	94.75
230.199	59.75
230.433	85.75
230.667	74.75
230.901	77.75
231.136	78.75
231.37	88.75
231.604	71.75
231.838	77.75
232.072	80.75
232.306	86.75
232.541	65.75
232.775	86.75
233.009	96.75
233.243	84.75
233.477	75.75
233.711	65.75
233.945	80.75
234.179	84.75
234.413	92.75
234.647	81.75
234.881	98.75
235.115	82.75
235.349	68.75
235.583	66.75
235.817	90.75
236.051	92.75
236.285	85.75
236.519	75.75
236.753	79.75
236.987	85.75
237.221	87.75
237.455	83.75
237.689	72.75
237.922	77.75
238.156	80.75
238.39	74.75
238.624	71.75
238.858	60.75
239.091	84.75
239.325	72.75
239.559	80.75
239.793	78.75
240.027	95.75
240.26	82.75
240.494	78.75
240.728	76.75
240.961	83.75
241.195	69.75
241.429	76.75
241.662	68.75
241.896	90.75
242.13	81.75
242.363	68.75
242.597	92.75
242.83	75.75
243.064	72.75
243.298	76.75
243.531	78.75
243.765	91.75
243.998	80.75
244.232	82.75
244.465	79.75
244.699	71.75
244.932	78.75
245.166	87.75
245.399	80.75
245.633	71.75
245.866	77.75
246.099	78.75
246.333	87.75
246.566	78.75
246.8	71.75
247.033	84.75
247.266	79.75
247.5	68.75
247.733	76.75
247.966	90.75
248.2	68.75
248.433	90.75
248.666	74.75
248.899	86.75
249.133	95.75
249.366	102.75
249.599	96.75
249.832	95.75
250.066	85.75
250.299	85.75
250.532	72.75
250.765	78.75
250.998	95.75
251.231	83.75
251.465	80.75
251.698	77.75
251.931	72.75
252.164	84.75
252.397	74.75
252.63	76.75
252.863	82.75
253.096	75.75
253.329	79.75
253.562	70.75
253.795	71.75
254.028	82.75
254.261	92.75
254.494	99.75
254.727	92.75
254.96	93.75
255.193	91.75
255.426	67.75
255.659	91.75
255.892	86.75
256.124	72.75
256.357	88.75
256.59	86.75
256.823	86.75
257.056	81.75
257.289	81.75
257.521	67.75
257.754	84.75
257.987	78.75
258.22	74.75
258.452	79.75
258.685	81.75
258.918	85.75
259.151	79.75
259.383	72.75
259.616	67.75
259.849	82.75
260.081	91.75
260.314	65.75
260.547	98.75
260.779	79.75
261.012	77.75
261.244	87.75
261.477	88.75
261.71	112.75
261.942	120.75
262.175	120.75
262.407	90.75
262.64	84.75
262.872	85.75
263.105	82.75
263.337	92.75
263.57	79.75
263.802	74.75
264.035	75.75
264.267	74.75
264.499	91.75
264.732	90.75
264.964	88.75
265.197	80.75
265.429	74.75
265.661	72.75
265.894	78.75
266.126	79.75
266.358	85.75
266.591	91.75
266.823	83.75
267.055	90.75
267.287	102.75
267.52	91.75
267.752	73.75
267.984	74.75
268.216	86.75
268.448	91.75
268.681	95.75
268.913	90.75
269.145	97.75
269.377	90.75
269.609	71.75
269.841	82.75
270.073	81.75
270.306	96.75
270.538	80.75
270.77	84.75
271.002	70.75
271.234	81.75
271.466	90.75
271.698	94.75
271.93	79.75
272.162	95.75
272.394	91.75
272.626	86.75
272.858	78.75
273.09	64.75
273.322	89.75
273.553	73.75
273.785	84.75
274.017	91.75
274.249	90.75
274.481	78.75
274.713	97.75
274.945	95.75
275.176	80.75
275.408	92.75
275.64	86.75
275.872	80.75
276.104	82.75
276.335	89.75
276.567	109.75
276.799	114.75
277.031	91.75
277.262	95.75
277.494	65.75
277.726	82.75
277.957	80.75
278.189	85.75
278.421	85.75
278.652	99.75
278.884	84.75
279.115	96.75
279.347	94.75
279.579	87.75
279.81	83.75
280.042	92.75
280.273	93.75
280.505	86.75
280.736	76.75
280.968	87.75
281.199	90.75
281.431	91.75
281.662	93.75
281.894	90.75
282.125	108.75
282.356	122.75
282.588	154.75
282.819	131.75
283.051	87.75
283.282	79.75
283.513	85.75
283.745	75.75
283.976	93.75
284.207	88.75
284.439	94.75
284.67	97.75
284.901	101.75
285.132	87.75
285.364	79.75
285.595	95.75
285.826	89.75
286.057	100.75
286.288	84.75
286.52	79.75
286.751	84.75
286.982	91.75
287.213	86.75
287.444	74.75
287.675	80.75
287.906	79.75
288.138	86.75
288.369	100.75
288.6	99.75
288.831	82.75
289.062	98.75
289.293	85.75
289.524	86.75
289.755	92.75
289.986	80.75
290.217	95.75
290.448	82.75
290.679	91.75
290.91	88.75
291.141	86.75
291.371	90.75
291.602	93.75
291.833	76.75
292.064	95.75
292.295	87.75
292.526	100.75
292.757	94.75
292.987	92.75
293.218	97.75
293.449	82.75
293.68	89.75
293.91	92.75
294.141	96.75
294.372	92.75
294.603	95.75
294.833	97.75
295.064	94.75
295.295	96.75
295.525	94.75
295.756	115.75
295.987	113.75
296.217	148.75
296.448	140.75
296.679	104.75
296.909	90.75
297.14	90.75
297.37	82.75
297.601	88.75
297.831	83.75
298.062	92.75
298.292	96.75
298.523	87.75
298.753	85.75
298.984	86.75
299.214	101.75
299.445	84.75
299.675	95.75
299.905	84.75
300.136	88.75
300.366	95.75
300.597	93.75
300.827	86.75
301.057	112.75
301.288	96.75
301.518	91.75
301.748	92.75
301.979	100.75
302.209	85.75
302.439	86.75
302.669	100.75
302.9	86.75
303.13	97.75
303.36	94.75
303.59	87.75
303.82	114.75
304.051	101.75
304.281	87.75
304.511	92.75
304.741	81.75
304.971	90.75
305.201	94.75
305.431	84.75
305.661	86.75
305.891	88.75
306.121	102.75
306.352	96.75
306.582	95.75
306.812	89.75
307.042	94.75
307.272	102.75
307.502	85.75
307.731	91.75
307.961	90.75
308.191	91.75
308.421	86.75
308.651	100.75
308.881	94.75
309.111	99.75
309.341	102.75
309.571	94.75
309.8	100.75
310.03	99.75
310.26	107.75
310.49	101.75
310.72	95.75
310.949	118.75
311.179	107.75
311.409	97.75
311.639	106.75
311.868	87.75
312.098	83.75
312.328	86.75
312.557	102.75
312.787	108.75
313.017	110.75
313.246	100.75
313.476	99.75
313.706	91.75
313.935	93.75
314.165	110.75
314.394	101.75
314.624	100.75
314.853	106.75
315.083	85.75
315.312	99.75
315.542	98.75
315.771	99.75
316.001	92.75
316.23	90.75
316.46	82.75
316.689	90.75
316.919	90.75
317.148	96.75
317.377	87.75
317.607	92.75
317.836	91.75
318.065	97.75
318.295	95.75
318.524	84.75
318.753	99.75
318.983	104.75
319.212	109.75
319.441	112.75
319.67	117.75
319.9	104.75
320.129	94.75
320.358	94.75
320.587	97.75
320.816	109.75
321.046	94.75
321.275	82.75
321.504	100.75
321.733	93.75
321.962	97.75
322.191	108.75
322.42	99.75
322.649	104.75
322.878	119.75
323.108	142.75
323.337	126.75
323.566	143.75
323.795	151.75
324.024	198.75
324.253	426.75
324.482	890.75
324.71	1775.75
324.939	2292.75
325.168	880.75
325.397	260.75
325.626	160.75
325.855	149.75
326.084	122.75
326.313	127.75
326.542	152.75
326.77	233.75
326.999	455.75
327.228	944.75
327.457	1711.75
327.686	1369.75
327.914	370.75
328.143	188.75
328.372	160.75
328.6	121.75
328.829	117.75
329.058	135.75
329.287	139.75
329.515	118.75
329.744	109.75
329.972	98.75
330.201	108.75
330.43	116.75
330.658	134.75
330.887	165.75
331.115	122.75
331.344	100.75
331.572	118.75
331.801	109.75
332.03	107.75
332.258	96.75
332.486	80.75
332.715	107.75
332.943	100.75
333.172	89.75
333.4	102.75
333.629	114.75
333.857	131.75
334.085	101.75
334.314	96.75
334.542	95.75
334.771	104.75
334.999	106.75
335.227	86.75
335.455	87.75
335.684	110.75
335.912	99.75
336.14	92.75
336.369	108.75
336.597	115.75
336.825	98.75
337.053	100.75
337.281	82.75
337.51	95.75
337.738	106.75
337.966	79.75
338.194	95.75
338.422	98.75
338.65	92.75
338.878	108.75
339.106	94.75
339.334	86.75
339.562	91.75
339.79	88.75
340.018	101.75
340.246	96.75
340.474	88.75
340.702	99.75
340.93	93.75
341.158	91.75
341.386	94.75
341.614	97.75
341.842	103.75
342.07	103.75
342.298	88.75
342.526	84.75
342.754	104.75
342.981	99.75
343.209	84.75
343.437	110.75
343.665	92.75
343.893	92.75
344.12	90.75
344.348	94.75
344.576	91.75
344.804	79.75
345.031	102.75
345.259	87.75
345.487	109.75
345.714	106.75
345.942	99.75
346.17	92.75
346.397	86.75
346.625	95.75
346.853	114.75
347.08	104.75
347.308	95.75
347.535	100.75
347.763	105.75
347.99	102.75
348.218	104.75
348.445	109.75
348.673	106.75
348.9	104.75
349.128	109.75
349.355	102.75
349.583	92.75
349.81	82.75
350.037	101.75
350.265	97.75
350.492	90.75
350.72	93.75
350.947	99.75
351.174	122.75
351.402	104.75
351.629	105.75
351.856	104.75
352.083	98.75
352.311	112.75
352.538	109.75
352.765	118.75
352.992	125.75
353.22	113.75
353.447	104.75
353.674	99.75
353.901	102.75
354.128	86.75
354.355	94.75
354.583	87.75
354.81	93.75
355.037	86.75
355.264	98.75
355.491	97.75
355.718	99.75
355.945	100.75
356.172	102.75
356.399	93.75
356.626	103.75
356.853	103.75
357.08	82.75
357.307	101.75
357.534	86.75
357.761	97.75
357.988	82.75
358.215	85.75
358.441	103.75
358.668	92.75
358.895	94.75
359.122	93.75
359.349	103.75
359.576	101.75
359.802	111.75
360.029	111.75
360.256	119.75
360.483	106.75
360.709	78.75
360.936	97.75
361.163	99.75
361.39	99.75
361.616	83.75
361.843	97.75
362.07	94.75
362.296	107.75
362.523	95.75
362.749	82.75
362.976	92.75
363.203	91.75
363.429	84.75
363.656	95.75
363.882	85.75
364.109	80.75
364.335	98.75
364.562	98.75
364.788	96.75
365.015	106.75
365.241	90.75
365.468	112.75
365.694	107.75
365.92	97.75
366.147	99.75
366.373	78.75
366.599	98.75
366.826	96.75
367.052	89.75
367.278	91.75
367.505	98.75
367.731	84.75
367.957	99.75
368.184	98.75
368.41	115.75
368.636	102.75
368.862	120.75
369.089	114.75
369.315	96.75
369.541	100.75
369.767	93.75
369.993	76.75
370.219	87.75
370.445	85.75
370.672	88.75
370.898	93.75
371.124	75.75
371.35	90.75
371.576	88.75
371.802	88.75
372.028	81.75
372.254	87.75
372.48	89.75
372.706	94.75
372.932	80.75
373.158	87.75
373.384	92.75
373.61	93.75
373.835	80.75
374.061	88.75
374.287	88.75
374.513	86.75
374.739	97.75
374.965	92.75
375.191	85.75
375.416	90.75
375.642	83.75
375.868	102.75
376.094	101.75
376.319	88.75
376.545	95.75
376.771	97.75
376.997	86.75
377.222	95.75
377.448	87.75
377.674	75.75
377.899	101.75
378.125	88.75
378.35	82.75
378.576	91.75
378.802	110.75
379.027	94.75
379.253	101.75
379.478	98.75
379.704	97.75
379.929	95.75
380.155	87.75
380.38	88.75
380.606	94.75
380.831	83.75
381.057	98.75
381.282	97.75
381.507	100.75
381.733	87.75
381.958	96.75
382.184	88.75
382.409	99.75
382.634	106.75
382.86	91.75
383.085	106.75
383.31	106.75
383.535	103.75
383.761	87.75
383.986	86.75
384.211	96.75
384.436	89.75
384.662	97.75
384.887	89.75
385.112	95.75
385.337	116.75
385.562	96.75
385.787	112.75
386.013	103.75
386.238	101.75
386.463	104.75
386.688	113.75
386.913	109.75
387.138	114.75
387.363	111.75
387.588	108.75
387.813	79.75
388.038	88.75
388.263	107.75
388.488	110.75
388.713	100.75
388.938	102.75
389.163	83.75
389.387	101.75
389.612	86.75
389.837	104.75
390.062	111.75
390.287	106.75
390.512	87.75
390.736	84.75
390.961	99.75
391.186	94.75
391.411	92.75
391.636	90.75
391.86	87.75
392.085	91.75
392.31	88.75
392.534	87.75
392.759	104.75
392.984	76.75
393.208	92.75
393.433	90.75
393.658	90.75
393.882	76.75
394.107	87.75
394.331	95.75
394.556	90.75
394.78	82.75
395.005	102.75
395.229	92.75
395.454	91.75
395.678	87.75
395.903	87.75
396.127	93.75
396.352	89.75
396.576	93.75
396.801	83.75
397.025	88.75
397.249	98.75
397.474	81.75
397.698	93.75
397.922	78.75
398.147	99.75
398.371	71.75
398.595	88.75
398.82	93.75
399.044	88.75
399.268	84.75
399.492	82.75
399.717	88.75
399.941	101.75
400.165	100.75
400.389	111.75
400.613	91.75
400.837	91.75
401.062	89.75
401.286	96.75
401.51	95.75
401.734	88.75
401.958	94.75
402.182	133.75
402.406	179.75
402.63	136.75
402.854	95.75
403.078	111.75
403.302	94.75
403.526	94.75
403.75	92.75
403.974	95.75
404.198	68.75
404.422	96.75
404.645	77.75
404.869	84.75
405.093	114.75
405.317	111.75
405.541	110.75
405.765	101.75
405.988	134.75
406.212	173.75
406.436	246.75
406.66	159.75
406.883	106.75
407.107	98.75
407.331	103.75
407.555	92.75
407.778	103.75
408.002	82.75
408.226	92.75
408.449	91.75
408.673	84.75
408.896	90.75
409.12	114.75
409.344	96.75
409.567	85.75
409.791	96.75
410.014	101.75
410.238	99.75
410.461	98.75
410.685	91.75
410.908	92.75
411.132	101.75
411.355	113.75
411.578	86.75
411.802	87.75
412.025	82.75
412.249	86.75
412.472	94.75
412.695	90.75
412.919	86.75
413.142	90.75
413.365	83.75
413.589	91.75
413.812	103.75
414.035	97.75
414.258	100.75
414.482	99.75
414.705	92.75
414.928	96.75
415.151	87.75
415.374	92.75
415.597	85.75
415.821	91.75
416.044	96.75
416.267	85.75
416.49	80.75
416.713	96.75
416.936	93.75
417.159	94.75
417.382	91.75
417.605	95.75
417.828	93.75
418.051	82.75
418.274	104.75
418.497	82.75
418.72	82.75
418.943	87.75
419.166	89.75
419.389	80.75
419.611	88.75
419.834	78.75
420.057	100.75
420.28	89.75
420.503	96.75
420.726	91.75
420.948	86.75
421.171	100.75
421.394	89.75
421.617	110.75
421.839	98.75
422.062	81.75
422.285	95.75
422.507	113.75
422.73	98.75
422.953	105.75
423.175	78.75
423.398	91.75
423.621	95.75
423.843	98.75
424.066	88.75
424.288	80.75
424.511	90.75
424.733	109.75
424.956	106.75
425.178	106.75
425.401	90.75
425.623	112.75
425.846	91.75
426.068	97.75
426.291	90.75
426.513	104.75
426.735	87.75
426.958	108.75
427.18	106.75
427.402	129.75
427.625	199.75
427.847	135.75
428.069	96.75
428.292	97.75
428.514	90.75
428.736	88.75
428.958	94.75
429.181	86.75
429.403	92.75
429.625	86.75
429.847	102.75
430.069	123.75
430.292	99.75
430.514	98.75
430.736	88.75
430.958	88.75
431.18	72.75
431.402	88.75
431.624	85.75
431.846	82.75
432.068	63.75
432.29	82.75
432.512	78.75
432.734	88.75
432.956	94.75
433.178	90.75
433.4	69.75
433.622	98.75
433.844	90.75
434.066	84.75
434.287	79.75
434.509	94.75
434.731	90.75
434.953	98.75
435.175	78.75
435.397	84.75
435.618	102.75
435.84	101.75
436.062	126.75
436.284	114.75
436.505	103.75
436.727	104.75
436.949	98.75
437.17	87.75
437.392	83.75
437.614	101.75
437.835	110.75
438.057	136.75
438.278	116.75
438.5	118.75
438.721	150.75
438.943	114.75
439.165	87.75
439.386	78.75
439.608	81.75
439.829	104.75
440.05	130.75
440.272	166.75
440.493	116.75
440.715	80.75
440.936	99.75
441.158	79.75
441.379	71.75
441.6	104.75
441.822	100.75
442.043	113.75
442.264	106.75
442.486	99.75
442.707	86.75
442.928	103.75
443.149	133.75
443.371	138.75
443.592	114.75
443.813	127.75
444.034	120.75
444.255	104.75
444.476	77.75
444.698	84.75
444.919	98.75
445.14	144.75
445.361	118.75
445.582	124.75
445.803	168.75
446.024	152.75
446.245	156.75
446.466	108.75
446.687	84.75
446.908	91.75
447.129	90.75
447.35	86.75
447.571	94.75
447.792	110.75
448.013	104.75
448.234	104.75
448.455	124.75
448.675	119.75
448.896	129.75
449.117	108.75
449.338	105.75
449.559	154.75
449.779	157.75
450	104.75
450.221	92.75
450.442	86.75
450.662	100.75
450.883	110.75
451.104	119.75
451.324	91.75
451.545	87.75
451.766	76.75
451.986	81.75
452.207	88.75
452.428	75.75
452.648	115.75
452.869	118.75
453.089	127.75
453.31	117.75
453.53	100.75
453.751	100.75
453.971	114.75
454.192	114.75
454.412	94.75
454.633	94.75
454.853	80.75
455.073	76.75
455.294	86.75
455.514	99.75
455.734	92.75
455.955	78.75
456.175	67.75
456.395	98.75
456.616	87.75
456.836	75.75
457.056	79.75
457.276	82.75
457.497	91.75
457.717	75.75
457.937	96.75
458.157	74.75
458.377	92.75
458.598	119.75
458.818	157.75
459.038	172.75
459.258	142.75
459.478	92.75
459.698	93.75
459.918	76.75
460.138	83.75
460.358	76.75
460.578	86.75
460.798	98.75
461.018	87.75
461.238	95.75
461.458	103.75
461.678	88.75
461.898	80.75
462.118	93.75
462.338	98.75
462.558	87.75
462.777	88.75
462.997	85.75
463.217	90.75
463.437	82.75
463.657	78.75
463.876	85.75
464.096	98.75
464.316	88.75
464.536	107.75
464.755	93.75
464.975	111.75
465.195	181.75
465.414	184.75
465.634	113.75
465.854	103.75
466.073	95.75
466.293	97.75
466.512	85.75
466.732	94.75
466.951	92.75
467.171	95.75
467.391	97.75
467.61	117.75
467.829	109.75
468.049	97.75
468.268	85.75
468.488	94.75
468.707	84.75
468.927	86.75
469.146	98.75
469.365	95.75
469.585	105.75
469.804	97.75
470.023	90.75
470.243	90.75
470.462	115.75
470.681	122.75
470.901	108.75
471.12	91.75
471.339	88.75
471.558	85.75
471.777	86.75
471.997	73.75
472.216	100.75
472.435	99.75
472.654	95.75
472.873	83.75
473.092	92.75
473.311	82.75
473.53	76.75
473.749	100.75
473.968	94.75
474.187	114.75
474.406	96.75
474.625	82.75
474.844	86.75
475.063	81.75
475.282	78.75
475.501	92.75
475.72	99.75
475.939	99.75
476.158	90.75
476.377	91.75
476.596	99.75
476.814	86.75
477.033	102.75
477.252	94.75
477.471	86.75
477.69	91.75
477.908	76.75
478.127	100.75
478.346	78.75
478.564	95.75
478.783	94.75
479.002	89.75
479.22	90.75
479.439	103.75
479.658	106.75
479.876	107.75
480.095	82.75
480.313	97.75
480.532	88.75
480.751	103.75
480.969	95.75
481.188	89.75
481.406	107.75
481.624	100.75
481.843	90.75
482.061	89.75
482.28	83.75
482.498	84.75
482.717	93.75
482.935	88.75
483.153	97.75
483.372	89.75
483.59	88.75
483.808	104.75
484.027	82.75
484.245	94.75
484.463	102.75
484.681	104.75
484.9	86.75
485.118	92.75
485.336	86.75
485.554	112.75
485.772	95.75
485.99	115.75
486.209	114.75
486.427	103.75
486.645	124.75
486.863	113.75
487.081	109.75
487.299	106.75
487.517	94.75
487.735	97.75
487.953	108.75
488.171	96.75
488.389	82.75
488.607	98.75
488.825	93.75
489.043	89.75
489.261	87.75
489.479	82.75
489.696	84.75
489.914	90.75
490.132	99.75
490.35	89.75
490.568	96.75
490.786	98.75
491.003	93.75
491.221	80.75
491.439	97.75
491.657	102.75
491.874	100.75
492.092	83.75
492.31	99.75
492.527	86.75
492.745	103.75
492.963	94.75
493.18	79.75
493.398	86.75
493.615	92.75
493.833	100.75
494.05	86.75
494.268	95.75
494.485	98.75
494.703	88.75
494.92	86.75
495.138	102.75
495.355	84.75
495.573	100.75
495.79	91.75
496.008	93.75
496.225	87.75
496.442	97.75
496.66	88.75
496.877	109.75
497.094	94.75
497.312	109.75
497.529	99.75
497.746	108.75
497.963	94.75
498.181	102.75
498.398	97.75
498.615	110.75
498.832	107.75
499.049	93.75
499.267	87.75
499.484	87.75
499.701	97.75
499.918	76.75
500.135	85.75
500.352	97.75
500.569	96.75
500.786	92.75
501.003	91.75
501.22	93.75
501.437	83.75
501.654	115.75
501.871	107.75
502.088	90.75
502.305	91.75
502.522	94.75
502.739	97.75
502.956	94.75
503.172	98.75
503.389	101.75
503.606	102.75
503.823	86.75
504.04	97.75
504.256	113.75
504.473	92.75
504.69	89.75
504.907	95.75
505.123	85.75
505.34	86.75
505.557	94.75
505.773	96.75
505.99	77.75
506.207	90.75
506.423	91.75
506.64	87.75
506.856	90.75
507.073	83.75
507.289	95.75
507.506	98.75
507.722	113.75
507.939	107.75
508.155	95.75
508.372	82.75
508.588	102.75
508.805	97.75
509.021	101.75
509.238	109.75
509.454	96.75
509.67	109.75
509.887	96.75
510.103	148.75
510.319	221.75
510.536	849.75
510.752	2779.75
510.968	722.75
511.184	156.75
511.401	121.75
511.617	92.75
511.833	89.75
512.049	108.75
512.265	109.75
512.481	98.75
512.698	107.75
512.914	98.75
513.13	98.75
513.346	93.75
513.562	109.75
513.778	81.75
513.994	98.75
514.21	109.75
514.426	112.75
514.642	151.75
514.858	147.75
