Data from Uncirc_1991_H10_HRD10591_00028.txt Node
Date: Wed Jan 03 11:50:43 EST 2024
User: Yrep
Spectrometer: HR+D1059
Trigger mode: 1
Integration Time (sec): 1.000000E-1
Scans to average: 1
Electric dark correction enabled: true
Nonlinearity correction enabled: false
Boxcar width: 0
XAxis mode: Wavelengths
Number of Pixels in Spectrum: 2048
>>>>>Begin Spectral Data<<<<<
223.165	-17.56
223.4	-17.56
223.635	-17.56
223.869	-10.56
224.104	-25.56
224.338	-7.56
224.573	-13.56
224.808	-12.56
225.042	-5.56
225.277	-10.56
225.511	-6.56
225.746	-1.56
225.98	18.44
226.215	9.44
226.449	22.44
226.683	25.44
226.918	29.44
227.152	6.44
227.387	34.44
227.621	41.44
227.856	35.44
228.09	48.44
228.324	56.44
228.559	65.44
228.793	57.44
229.027	65.44
229.262	75.44
229.496	85.44
229.73	77.44
229.964	69.44
230.199	85.44
230.433	82.44
230.667	99.44
230.901	71.44
231.136	81.44
231.37	71.44
231.604	88.44
231.838	75.44
232.072	89.44
232.306	82.44
232.541	87.44
232.775	83.44
233.009	87.44
233.243	85.44
233.477	86.44
233.711	76.44
233.945	82.44
234.179	81.44
234.413	73.44
234.647	81.44
234.881	71.44
235.115	63.44
235.349	90.44
235.583	76.44
235.817	87.44
236.051	96.44
236.285	90.44
236.519	86.44
236.753	82.44
236.987	85.44
237.221	99.44
237.455	116.44
237.689	77.44
237.922	80.44
238.156	85.44
238.39	80.44
238.624	86.44
238.858	78.44
239.091	77.44
239.325	71.44
239.559	87.44
239.793	85.44
240.027	84.44
240.26	74.44
240.494	86.44
240.728	73.44
240.961	80.44
241.195	69.44
241.429	68.44
241.662	65.44
241.896	78.44
242.13	65.44
242.363	79.44
242.597	74.44
242.83	75.44
243.064	85.44
243.298	75.44
243.531	80.44
243.765	76.44
243.998	92.44
244.232	75.44
244.465	96.44
244.699	74.44
244.932	84.44
245.166	64.44
245.399	90.44
245.633	84.44
245.866	75.44
246.099	93.44
246.333	77.44
246.566	84.44
246.8	75.44
247.033	87.44
247.266	72.44
247.5	89.44
247.733	85.44
247.966	78.44
248.2	75.44
248.433	74.44
248.666	87.44
248.899	85.44
249.133	93.44
249.366	96.44
249.599	92.44
249.832	94.44
250.066	86.44
250.299	89.44
250.532	84.44
250.765	75.44
250.998	82.44
251.231	74.44
251.465	92.44
251.698	89.44
251.931	79.44
252.164	79.44
252.397	70.44
252.63	86.44
252.863	65.44
253.096	71.44
253.329	91.44
253.562	80.44
253.795	76.44
254.028	90.44
254.261	67.44
254.494	78.44
254.727	89.44
254.96	85.44
255.193	87.44
255.426	82.44
255.659	71.44
255.892	81.44
256.124	83.44
256.357	69.44
256.59	83.44
256.823	80.44
257.056	73.44
257.289	84.44
257.521	83.44
257.754	89.44
257.987	87.44
258.22	85.44
258.452	78.44
258.685	88.44
258.918	85.44
259.151	88.44
259.383	70.44
259.616	92.44
259.849	81.44
260.081	100.44
260.314	77.44
260.547	81.44
260.779	88.44
261.012	54.44
261.244	78.44
261.477	92.44
261.71	86.44
261.942	101.44
262.175	123.44
262.407	89.44
262.64	74.44
262.872	87.44
263.105	76.44
263.337	95.44
263.57	90.44
263.802	92.44
264.035	75.44
264.267	77.44
264.499	94.44
264.732	92.44
264.964	83.44
265.197	90.44
265.429	86.44
265.661	93.44
265.894	77.44
266.126	76.44
266.358	81.44
266.591	76.44
266.823	75.44
267.055	77.44
267.287	98.44
267.52	79.44
267.752	91.44
267.984	94.44
268.216	85.44
268.448	90.44
268.681	78.44
268.913	82.44
269.145	86.44
269.377	91.44
269.609	77.44
269.841	99.44
270.073	91.44
270.306	74.44
270.538	81.44
270.77	90.44
271.002	82.44
271.234	94.44
271.466	86.44
271.698	81.44
271.93	90.44
272.162	93.44
272.394	90.44
272.626	81.44
272.858	83.44
273.09	81.44
273.322	74.44
273.553	92.44
273.785	90.44
274.017	81.44
274.249	92.44
274.481	93.44
274.713	90.44
274.945	81.44
275.176	86.44
275.408	93.44
275.64	81.44
275.872	94.44
276.104	89.44
276.335	92.44
276.567	98.44
276.799	98.44
277.031	109.44
277.262	90.44
277.494	89.44
277.726	89.44
277.957	101.44
278.189	93.44
278.421	92.44
278.652	83.44
278.884	80.44
279.115	87.44
279.347	91.44
279.579	99.44
279.81	93.44
280.042	80.44
280.273	91.44
280.505	79.44
280.736	87.44
280.968	89.44
281.199	95.44
281.431	89.44
281.662	94.44
281.894	97.44
282.125	93.44
282.356	118.44
282.588	145.44
282.819	118.44
283.051	81.44
283.282	98.44
283.513	94.44
283.745	95.44
283.976	97.44
284.207	87.44
284.439	96.44
284.67	90.44
284.901	92.44
285.132	103.44
285.364	83.44
285.595	86.44
285.826	98.44
286.057	88.44
286.288	98.44
286.52	100.44
286.751	84.44
286.982	84.44
287.213	78.44
287.444	90.44
287.675	84.44
287.906	97.44
288.138	95.44
288.369	78.44
288.6	102.44
288.831	81.44
289.062	92.44
289.293	87.44
289.524	87.44
289.755	82.44
289.986	79.44
290.217	81.44
290.448	88.44
290.679	96.44
290.91	96.44
291.141	79.44
291.371	86.44
291.602	83.44
291.833	100.44
292.064	99.44
292.295	87.44
292.526	103.44
292.757	99.44
292.987	85.44
293.218	84.44
293.449	94.44
293.68	91.44
293.91	91.44
294.141	89.44
294.372	66.44
294.603	97.44
294.833	101.44
295.064	90.44
295.295	100.44
295.525	100.44
295.756	98.44
295.987	128.44
296.217	147.44
296.448	128.44
296.679	87.44
296.909	77.44
297.14	81.44
297.37	97.44
297.601	86.44
297.831	82.44
298.062	97.44
298.292	96.44
298.523	109.44
298.753	104.44
298.984	89.44
299.214	85.44
299.445	111.44
299.675	81.44
299.905	103.44
300.136	84.44
300.366	87.44
300.597	96.44
300.827	99.44
301.057	115.44
301.288	101.44
301.518	74.44
301.748	102.44
301.979	97.44
302.209	101.44
302.439	86.44
302.669	97.44
302.9	91.44
303.13	94.44
303.36	90.44
303.59	118.44
303.82	94.44
304.051	89.44
304.281	87.44
304.511	83.44
304.741	84.44
304.971	87.44
305.201	90.44
305.431	89.44
305.661	93.44
305.891	81.44
306.121	101.44
306.352	98.44
306.582	107.44
306.812	89.44
307.042	96.44
307.272	87.44
307.502	76.44
307.731	95.44
307.961	86.44
308.191	82.44
308.421	86.44
308.651	97.44
308.881	88.44
309.111	83.44
309.341	105.44
309.571	88.44
309.8	87.44
310.03	115.44
310.26	103.44
310.49	102.44
310.72	116.44
310.949	112.44
311.179	98.44
311.409	95.44
311.639	91.44
311.868	103.44
312.098	99.44
312.328	101.44
312.557	101.44
312.787	116.44
313.017	111.44
313.246	98.44
313.476	86.44
313.706	76.44
313.935	98.44
314.165	100.44
314.394	86.44
314.624	106.44
314.853	89.44
315.083	92.44
315.312	83.44
315.542	89.44
315.771	99.44
316.001	81.44
316.23	69.44
316.46	93.44
316.689	88.44
316.919	92.44
317.148	95.44
317.377	100.44
317.607	97.44
317.836	105.44
318.065	83.44
318.295	97.44
318.524	94.44
318.753	98.44
318.983	110.44
319.212	97.44
319.441	97.44
319.67	105.44
319.9	102.44
320.129	98.44
320.358	97.44
320.587	88.44
320.816	97.44
321.046	96.44
321.275	103.44
321.504	95.44
321.733	92.44
321.962	88.44
322.191	107.44
322.42	116.44
322.649	113.44
322.878	113.44
323.108	129.44
323.337	124.44
323.566	129.44
323.795	157.44
324.024	243.44
324.253	449.44
324.482	989.44
324.71	2156.44
324.939	2921.44
325.168	1039.44
325.397	285.44
325.626	149.44
325.855	130.44
326.084	130.44
326.313	150.44
326.542	183.44
326.77	250.44
326.999	514.44
327.228	1142.44
327.457	2225.44
327.686	1780.44
327.914	446.44
328.143	215.44
328.372	182.44
328.6	139.44
328.829	124.44
329.058	141.44
329.287	142.44
329.515	124.44
329.744	83.44
329.972	91.44
330.201	90.44
330.43	125.44
330.658	129.44
330.887	165.44
331.115	133.44
331.344	118.44
331.572	103.44
331.801	98.44
332.03	101.44
332.258	103.44
332.486	92.44
332.715	99.44
332.943	97.44
333.172	103.44
333.4	88.44
333.629	117.44
333.857	110.44
334.085	101.44
334.314	90.44
334.542	83.44
334.771	90.44
334.999	96.44
335.227	95.44
335.455	89.44
335.684	105.44
335.912	102.44
336.14	102.44
336.369	104.44
336.597	102.44
336.825	103.44
337.053	88.44
337.281	108.44
337.51	85.44
337.738	96.44
337.966	100.44
338.194	92.44
338.422	104.44
338.65	103.44
338.878	103.44
339.106	101.44
339.334	91.44
339.562	98.44
339.79	84.44
340.018	108.44
340.246	82.44
340.474	88.44
340.702	98.44
340.93	89.44
341.158	90.44
341.386	95.44
341.614	97.44
341.842	101.44
342.07	79.44
342.298	96.44
342.526	94.44
342.754	94.44
342.981	83.44
343.209	81.44
343.437	78.44
343.665	83.44
343.893	88.44
344.12	86.44
344.348	90.44
344.576	77.44
344.804	95.44
345.031	103.44
345.259	108.44
345.487	102.44
345.714	83.44
345.942	96.44
346.17	107.44
346.397	89.44
346.625	101.44
346.853	94.44
347.08	85.44
347.308	95.44
347.535	101.44
347.763	116.44
347.99	102.44
348.218	103.44
348.445	103.44
348.673	96.44
348.9	90.44
349.128	96.44
349.355	92.44
349.583	101.44
349.81	89.44
350.037	91.44
350.265	102.44
350.492	95.44
350.72	79.44
350.947	100.44
351.174	101.44
351.402	101.44
351.629	109.44
351.856	94.44
352.083	107.44
352.311	115.44
352.538	110.44
352.765	96.44
352.992	122.44
353.22	103.44
353.447	119.44
353.674	95.44
353.901	114.44
354.128	85.44
354.355	86.44
354.583	83.44
354.81	84.44
355.037	91.44
355.264	91.44
355.491	103.44
355.718	87.44
355.945	95.44
356.172	101.44
356.399	100.44
356.626	92.44
356.853	93.44
357.08	111.44
357.307	101.44
357.534	75.44
357.761	90.44
357.988	84.44
358.215	79.44
358.441	91.44
358.668	91.44
358.895	95.44
359.122	96.44
359.349	96.44
359.576	84.44
359.802	90.44
360.029	132.44
360.256	122.44
360.483	113.44
360.709	87.44
360.936	86.44
361.163	99.44
361.39	81.44
361.616	101.44
361.843	76.44
362.07	90.44
362.296	103.44
362.523	95.44
362.749	82.44
362.976	86.44
363.203	98.44
363.429	93.44
363.656	94.44
363.882	101.44
364.109	102.44
364.335	91.44
364.562	101.44
364.788	102.44
365.015	82.44
365.241	82.44
365.468	98.44
365.694	107.44
365.92	100.44
366.147	87.44
366.373	87.44
366.599	87.44
366.826	86.44
367.052	81.44
367.278	92.44
367.505	85.44
367.731	99.44
367.957	85.44
368.184	86.44
368.41	116.44
368.636	110.44
368.862	128.44
369.089	98.44
369.315	86.44
369.541	82.44
369.767	85.44
369.993	103.44
370.219	94.44
370.445	79.44
370.672	79.44
370.898	97.44
371.124	95.44
371.35	81.44
371.576	81.44
371.802	90.44
372.028	86.44
372.254	87.44
372.48	94.44
372.706	106.44
372.932	89.44
373.158	89.44
373.384	83.44
373.61	93.44
373.835	85.44
374.061	97.44
374.287	92.44
374.513	89.44
374.739	92.44
374.965	108.44
375.191	100.44
375.416	75.44
375.642	76.44
375.868	87.44
376.094	107.44
376.319	83.44
376.545	81.44
376.771	81.44
376.997	99.44
377.222	78.44
377.448	86.44
377.674	89.44
377.899	96.44
378.125	74.44
378.35	112.44
378.576	99.44
378.802	103.44
379.027	81.44
379.253	93.44
379.478	77.44
379.704	78.44
379.929	86.44
380.155	105.44
380.38	86.44
380.606	98.44
380.831	100.44
381.057	87.44
381.282	85.44
381.507	91.44
381.733	106.44
381.958	100.44
382.184	78.44
382.409	101.44
382.634	98.44
382.86	93.44
383.085	97.44
383.31	90.44
383.535	95.44
383.761	91.44
383.986	92.44
384.211	97.44
384.436	100.44
384.662	96.44
384.887	91.44
385.112	99.44
385.337	85.44
385.562	102.44
385.787	99.44
386.013	106.44
386.238	113.44
386.463	98.44
386.688	108.44
386.913	98.44
387.138	87.44
387.363	106.44
387.588	94.44
387.813	100.44
388.038	103.44
388.263	98.44
388.488	107.44
388.713	84.44
388.938	98.44
389.163	95.44
389.387	97.44
389.612	93.44
389.837	84.44
390.062	97.44
390.287	101.44
390.512	93.44
390.736	96.44
390.961	89.44
391.186	89.44
391.411	95.44
391.636	86.44
391.86	99.44
392.085	85.44
392.31	90.44
392.534	88.44
392.759	107.44
392.984	81.44
393.208	84.44
393.433	96.44
393.658	101.44
393.882	79.44
394.107	100.44
394.331	84.44
394.556	98.44
394.78	91.44
395.005	89.44
395.229	80.44
395.454	94.44
395.678	92.44
395.903	81.44
396.127	84.44
396.352	94.44
396.576	82.44
396.801	86.44
397.025	95.44
397.249	85.44
397.474	86.44
397.698	88.44
397.922	95.44
398.147	84.44
398.371	93.44
398.595	87.44
398.82	84.44
399.044	91.44
399.268	97.44
399.492	79.44
399.717	96.44
399.941	85.44
400.165	89.44
400.389	90.44
400.613	73.44
400.837	100.44
401.062	84.44
401.286	81.44
401.51	84.44
401.734	92.44
401.958	116.44
402.182	130.44
402.406	160.44
402.63	109.44
402.854	91.44
403.078	87.44
403.302	84.44
403.526	75.44
403.75	90.44
403.974	92.44
404.198	94.44
404.422	91.44
404.645	78.44
404.869	86.44
405.093	89.44
405.317	100.44
405.541	90.44
405.765	102.44
405.988	126.44
406.212	195.44
406.436	245.44
406.66	155.44
406.883	116.44
407.107	88.44
407.331	104.44
407.555	100.44
407.778	116.44
408.002	93.44
408.226	99.44
408.449	85.44
408.673	81.44
408.896	98.44
409.12	110.44
409.344	87.44
409.567	77.44
409.791	92.44
410.014	102.44
410.238	101.44
410.461	98.44
410.685	107.44
410.908	100.44
411.132	117.44
411.355	103.44
411.578	93.44
411.802	97.44
412.025	98.44
412.249	86.44
412.472	90.44
412.695	78.44
412.919	77.44
413.142	74.44
413.365	102.44
413.589	91.44
413.812	97.44
414.035	94.44
414.258	87.44
414.482	86.44
414.705	86.44
414.928	76.44
415.151	91.44
415.374	94.44
415.597	104.44
415.821	94.44
416.044	85.44
416.267	103.44
416.49	90.44
416.713	105.44
416.936	108.44
417.159	97.44
417.382	88.44
417.605	87.44
417.828	93.44
418.051	99.44
418.274	77.44
418.497	82.44
418.72	85.44
418.943	77.44
419.166	94.44
419.389	90.44
419.611	101.44
419.834	82.44
420.057	87.44
420.28	99.44
420.503	95.44
420.726	95.44
420.948	102.44
421.171	102.44
421.394	114.44
421.617	84.44
421.839	86.44
422.062	90.44
422.285	90.44
422.507	85.44
422.73	109.44
422.953	92.44
423.175	98.44
423.398	91.44
423.621	91.44
423.843	88.44
424.066	84.44
424.288	82.44
424.511	102.44
424.733	96.44
424.956	126.44
425.178	112.44
425.401	111.44
425.623	115.44
425.846	101.44
426.068	100.44
426.291	94.44
426.513	85.44
426.735	93.44
426.958	105.44
427.18	109.44
427.402	159.44
427.625	193.44
427.847	127.44
428.069	121.44
428.292	94.44
428.514	98.44
428.736	102.44
428.958	87.44
429.181	86.44
429.403	81.44
429.625	109.44
429.847	93.44
430.069	113.44
430.292	114.44
430.514	88.44
430.736	90.44
430.958	90.44
431.18	74.44
431.402	98.44
431.624	87.44
431.846	54.44
432.068	90.44
432.29	93.44
432.512	93.44
432.734	80.44
432.956	90.44
433.178	109.44
433.4	98.44
433.622	98.44
433.844	89.44
434.066	106.44
434.287	110.44
434.509	95.44
434.731	97.44
434.953	98.44
435.175	108.44
435.397	101.44
435.618	107.44
435.84	118.44
436.062	144.44
436.284	125.44
436.505	98.44
436.727	111.44
436.949	100.44
437.17	111.44
437.392	88.44
437.614	97.44
437.835	126.44
438.057	134.44
438.278	137.44
438.5	111.44
438.721	163.44
438.943	117.44
439.165	89.44
439.386	105.44
439.608	95.44
439.829	115.44
440.05	138.44
440.272	170.44
440.493	107.44
440.715	96.44
440.936	87.44
441.158	103.44
441.379	81.44
441.6	90.44
441.822	96.44
442.043	108.44
442.264	111.44
442.486	107.44
442.707	98.44
442.928	107.44
443.149	160.44
443.371	149.44
443.592	121.44
443.813	125.44
444.034	123.44
444.255	97.44
444.476	94.44
444.698	98.44
444.919	85.44
445.14	133.44
445.361	124.44
445.582	127.44
445.803	176.44
446.024	160.44
446.245	173.44
446.466	132.44
446.687	93.44
446.908	96.44
447.129	89.44
447.35	86.44
447.571	87.44
447.792	100.44
448.013	89.44
448.234	128.44
448.455	102.44
448.675	156.44
448.896	131.44
449.117	113.44
449.338	109.44
449.559	156.44
449.779	167.44
450	109.44
450.221	76.44
450.442	102.44
450.662	106.44
450.883	124.44
451.104	142.44
451.324	116.44
451.545	79.44
451.766	86.44
451.986	88.44
452.207	81.44
452.428	95.44
452.648	109.44
452.869	119.44
453.089	112.44
453.31	116.44
453.53	101.44
453.751	94.44
453.971	113.44
454.192	117.44
454.412	94.44
454.633	90.44
454.853	97.44
455.073	81.44
455.294	90.44
455.514	109.44
455.734	109.44
455.955	86.44
456.175	90.44
456.395	94.44
456.616	98.44
456.836	89.44
457.056	92.44
457.276	69.44
457.497	81.44
457.717	78.44
457.937	97.44
458.157	92.44
458.377	99.44
458.598	122.44
458.818	174.44
459.038	192.44
459.258	129.44
459.478	82.44
459.698	84.44
459.918	81.44
460.138	99.44
460.358	102.44
460.578	93.44
460.798	92.44
461.018	75.44
461.238	81.44
461.458	81.44
461.678	83.44
461.898	83.44
462.118	90.44
462.338	91.44
462.558	93.44
462.777	91.44
462.997	84.44
463.217	83.44
463.437	85.44
463.657	81.44
463.876	99.44
464.096	91.44
464.316	85.44
464.536	98.44
464.755	96.44
464.975	114.44
465.195	176.44
465.414	163.44
465.634	99.44
465.854	85.44
466.073	94.44
466.293	101.44
466.512	84.44
466.732	94.44
466.951	86.44
467.171	89.44
467.391	97.44
467.61	110.44
467.829	94.44
468.049	94.44
468.268	90.44
468.488	77.44
468.707	102.44
468.927	92.44
469.146	98.44
469.365	83.44
469.585	97.44
469.804	96.44
470.023	92.44
470.243	97.44
470.462	108.44
470.681	106.44
470.901	96.44
471.12	84.44
471.339	77.44
471.558	88.44
471.777	100.44
471.997	89.44
472.216	89.44
472.435	94.44
472.654	82.44
472.873	82.44
473.092	99.44
473.311	85.44
473.53	89.44
473.749	91.44
473.968	97.44
474.187	118.44
474.406	103.44
474.625	103.44
474.844	78.44
475.063	75.44
475.282	84.44
475.501	95.44
475.72	95.44
475.939	105.44
476.158	98.44
476.377	75.44
476.596	83.44
476.814	93.44
477.033	97.44
477.252	96.44
477.471	93.44
477.69	91.44
477.908	97.44
478.127	93.44
478.346	93.44
478.564	97.44
478.783	99.44
479.002	99.44
479.22	91.44
479.439	102.44
479.658	127.44
479.876	107.44
480.095	84.44
480.313	97.44
480.532	98.44
480.751	88.44
480.969	89.44
481.188	100.44
481.406	95.44
481.624	100.44
481.843	91.44
482.061	95.44
482.28	98.44
482.498	95.44
482.717	85.44
482.935	88.44
483.153	78.44
483.372	93.44
483.59	93.44
483.808	86.44
484.027	101.44
484.245	99.44
484.463	97.44
484.681	108.44
484.9	99.44
485.118	108.44
485.336	91.44
485.554	98.44
485.772	103.44
485.99	96.44
486.209	108.44
486.427	117.44
486.645	98.44
486.863	118.44
487.081	96.44
487.299	91.44
487.517	89.44
487.735	101.44
487.953	94.44
488.171	78.44
488.389	92.44
488.607	81.44
488.825	93.44
489.043	94.44
489.261	97.44
489.479	75.44
489.696	91.44
489.914	91.44
490.132	79.44
490.35	81.44
490.568	73.44
490.786	93.44
491.003	91.44
491.221	96.44
491.439	84.44
491.657	84.44
491.874	103.44
492.092	86.44
492.31	102.44
492.527	86.44
492.745	89.44
492.963	104.44
493.18	99.44
493.398	103.44
493.615	107.44
493.833	106.44
494.05	93.44
494.268	105.44
494.485	82.44
494.703	95.44
494.92	92.44
495.138	84.44
495.355	90.44
495.573	103.44
495.79	81.44
496.008	97.44
496.225	102.44
496.442	86.44
496.66	107.44
496.877	104.44
497.094	105.44
497.312	93.44
497.529	99.44
497.746	97.44
497.963	94.44
498.181	99.44
498.398	113.44
498.615	123.44
498.832	97.44
499.049	97.44
499.267	103.44
499.484	87.44
499.701	97.44
499.918	94.44
500.135	102.44
500.352	92.44
500.569	101.44
500.786	91.44
501.003	94.44
501.22	87.44
501.437	99.44
501.654	104.44
501.871	114.44
502.088	89.44
502.305	90.44
502.522	93.44
502.739	85.44
502.956	82.44
503.172	95.44
503.389	87.44
503.606	106.44
503.823	107.44
504.04	94.44
504.256	98.44
504.473	88.44
504.69	84.44
504.907	97.44
505.123	105.44
505.34	96.44
505.557	110.44
505.773	101.44
505.99	89.44
506.207	95.44
506.423	79.44
506.64	92.44
506.856	99.44
507.073	97.44
507.289	94.44
507.506	98.44
507.722	121.44
507.939	123.44
508.155	105.44
508.372	98.44
508.588	96.44
508.805	108.44
509.021	89.44
509.238	83.44
509.454	99.44
509.67	99.44
509.887	111.44
510.103	121.44
510.319	229.44
510.536	777.44
510.752	2478.44
510.968	703.44
511.184	166.44
511.401	113.44
511.617	91.44
511.833	90.44
512.049	99.44
512.265	102.44
512.481	82.44
512.698	99.44
512.914	95.44
513.13	79.44
513.346	88.44
513.562	105.44
513.778	99.44
513.994	114.44
514.21	102.44
514.426	124.44
514.642	154.44
514.858	139.44
