Data from Uncirc_1991_H10_HRD10591_00048.txt Node
Date: Wed Jan 03 11:50:47 EST 2024
User: Yrep
Spectrometer: HR+D1059
Trigger mode: 1
Integration Time (sec): 1.000000E-1
Scans to average: 1
Electric dark correction enabled: true
Nonlinearity correction enabled: false
Boxcar width: 0
XAxis mode: Wavelengths
Number of Pixels in Spectrum: 2048
>>>>>Begin Spectral Data<<<<<
223.165	-14.12
223.4	-14.12
223.635	-14.12
223.869	-25.12
224.104	-8.12
224.338	-37.12
224.573	-15.12
224.808	-2.12
225.042	-9.12
225.277	-3.12
225.511	-1.12
225.746	5.88
225.98	-5.12
226.215	8.88
226.449	14.88
226.683	21.88
226.918	34.88
227.152	33.88
227.387	52.88
227.621	39.88
227.856	56.88
228.09	52.88
228.324	52.88
228.559	62.88
228.793	59.88
229.027	65.88
229.262	71.88
229.496	70.88
229.73	78.88
229.964	80.88
230.199	86.88
230.433	81.88
230.667	90.88
230.901	85.88
231.136	74.88
231.37	76.88
231.604	79.88
231.838	68.88
232.072	79.88
232.306	91.88
232.541	66.88
232.775	82.88
233.009	79.88
233.243	69.88
233.477	59.88
233.711	94.88
233.945	85.88
234.179	82.88
234.413	91.88
234.647	93.88
234.881	82.88
235.115	93.88
235.349	93.88
235.583	69.88
235.817	72.88
236.051	87.88
236.285	82.88
236.519	87.88
236.753	84.88
236.987	72.88
237.221	85.88
237.455	70.88
237.689	83.88
237.922	80.88
238.156	79.88
238.39	94.88
238.624	82.88
238.858	83.88
239.091	64.88
239.325	73.88
239.559	70.88
239.793	68.88
240.027	91.88
240.26	87.88
240.494	70.88
240.728	83.88
240.961	72.88
241.195	68.88
241.429	78.88
241.662	73.88
241.896	77.88
242.13	69.88
242.363	72.88
242.597	78.88
242.83	79.88
243.064	87.88
243.298	87.88
243.531	81.88
243.765	79.88
243.998	78.88
244.232	75.88
244.465	68.88
244.699	93.88
244.932	74.88
245.166	75.88
245.399	90.88
245.633	87.88
245.866	95.88
246.099	82.88
246.333	86.88
246.566	72.88
246.8	79.88
247.033	69.88
247.266	72.88
247.5	87.88
247.733	67.88
247.966	77.88
248.2	84.88
248.433	82.88
248.666	83.88
248.899	83.88
249.133	76.88
249.366	83.88
249.599	103.88
249.832	85.88
250.066	72.88
250.299	75.88
250.532	83.88
250.765	71.88
250.998	96.88
251.231	87.88
251.465	95.88
251.698	81.88
251.931	77.88
252.164	85.88
252.397	85.88
252.63	89.88
252.863	78.88
253.096	80.88
253.329	89.88
253.562	83.88
253.795	83.88
254.028	89.88
254.261	82.88
254.494	91.88
254.727	78.88
254.96	81.88
255.193	73.88
255.426	74.88
255.659	89.88
255.892	89.88
256.124	73.88
256.357	76.88
256.59	73.88
256.823	75.88
257.056	91.88
257.289	78.88
257.521	83.88
257.754	85.88
257.987	86.88
258.22	100.88
258.452	101.88
258.685	87.88
258.918	84.88
259.151	84.88
259.383	94.88
259.616	83.88
259.849	86.88
260.081	94.88
260.314	77.88
260.547	92.88
260.779	75.88
261.012	83.88
261.244	73.88
261.477	86.88
261.71	95.88
261.942	108.88
262.175	106.88
262.407	88.88
262.64	90.88
262.872	89.88
263.105	88.88
263.337	93.88
263.57	83.88
263.802	95.88
264.035	87.88
264.267	83.88
264.499	81.88
264.732	80.88
264.964	92.88
265.197	97.88
265.429	95.88
265.661	99.88
265.894	98.88
266.126	69.88
266.358	83.88
266.591	86.88
266.823	75.88
267.055	81.88
267.287	86.88
267.52	77.88
267.752	96.88
267.984	103.88
268.216	102.88
268.448	88.88
268.681	80.88
268.913	91.88
269.145	96.88
269.377	79.88
269.609	90.88
269.841	99.88
270.073	68.88
270.306	81.88
270.538	79.88
270.77	85.88
271.002	85.88
271.234	92.88
271.466	93.88
271.698	86.88
271.93	91.88
272.162	87.88
272.394	81.88
272.626	94.88
272.858	98.88
273.09	84.88
273.322	83.88
273.553	76.88
273.785	85.88
274.017	91.88
274.249	93.88
274.481	94.88
274.713	67.88
274.945	88.88
275.176	89.88
275.408	95.88
275.64	94.88
275.872	79.88
276.104	85.88
276.335	106.88
276.567	101.88
276.799	105.88
277.031	98.88
277.262	82.88
277.494	97.88
277.726	93.88
277.957	84.88
278.189	93.88
278.421	99.88
278.652	83.88
278.884	104.88
279.115	97.88
279.347	80.88
279.579	89.88
279.81	91.88
280.042	84.88
280.273	91.88
280.505	88.88
280.736	96.88
280.968	80.88
281.199	93.88
281.431	90.88
281.662	83.88
281.894	92.88
282.125	106.88
282.356	111.88
282.588	162.88
282.819	110.88
283.051	90.88
283.282	87.88
283.513	96.88
283.745	100.88
283.976	77.88
284.207	80.88
284.439	76.88
284.67	106.88
284.901	88.88
285.132	103.88
285.364	87.88
285.595	91.88
285.826	87.88
286.057	103.88
286.288	80.88
286.52	91.88
286.751	91.88
286.982	96.88
287.213	79.88
287.444	86.88
287.675	85.88
287.906	64.88
288.138	91.88
288.369	101.88
288.6	92.88
288.831	85.88
289.062	79.88
289.293	89.88
289.524	77.88
289.755	101.88
289.986	89.88
290.217	92.88
290.448	92.88
290.679	96.88
290.91	103.88
291.141	78.88
291.371	72.88
291.602	96.88
291.833	101.88
292.064	104.88
292.295	101.88
292.526	85.88
292.757	97.88
292.987	86.88
293.218	80.88
293.449	73.88
293.68	103.88
293.91	83.88
294.141	77.88
294.372	87.88
294.603	83.88
294.833	87.88
295.064	101.88
295.295	100.88
295.525	101.88
295.756	106.88
295.987	112.88
296.217	142.88
296.448	110.88
296.679	102.88
296.909	83.88
297.14	105.88
297.37	84.88
297.601	79.88
297.831	83.88
298.062	87.88
298.292	96.88
298.523	107.88
298.753	94.88
298.984	105.88
299.214	86.88
299.445	101.88
299.675	92.88
299.905	101.88
300.136	93.88
300.366	77.88
300.597	90.88
300.827	86.88
301.057	101.88
301.288	93.88
301.518	84.88
301.748	79.88
301.979	102.88
302.209	86.88
302.439	91.88
302.669	88.88
302.9	99.88
303.13	92.88
303.36	83.88
303.59	111.88
303.82	95.88
304.051	93.88
304.281	101.88
304.511	105.88
304.741	77.88
304.971	97.88
305.201	83.88
305.431	90.88
305.661	89.88
305.891	92.88
306.121	100.88
306.352	96.88
306.582	97.88
306.812	101.88
307.042	91.88
307.272	82.88
307.502	100.88
307.731	91.88
307.961	91.88
308.191	85.88
308.421	96.88
308.651	98.88
308.881	95.88
309.111	87.88
309.341	104.88
309.571	104.88
309.8	97.88
310.03	106.88
310.26	102.88
310.49	100.88
310.72	98.88
310.949	107.88
311.179	91.88
311.409	108.88
311.639	75.88
311.868	96.88
312.098	88.88
312.328	105.88
312.557	101.88
312.787	107.88
313.017	108.88
313.246	85.88
313.476	112.88
313.706	83.88
313.935	94.88
314.165	100.88
314.394	101.88
314.624	104.88
314.853	91.88
315.083	91.88
315.312	85.88
315.542	111.88
315.771	92.88
316.001	97.88
316.23	84.88
316.46	77.88
316.689	85.88
316.919	102.88
317.148	84.88
317.377	86.88
317.607	100.88
317.836	102.88
318.065	93.88
318.295	105.88
318.524	106.88
318.753	100.88
318.983	104.88
319.212	96.88
319.441	99.88
319.67	100.88
319.9	77.88
320.129	93.88
320.358	98.88
320.587	117.88
320.816	97.88
321.046	103.88
321.275	106.88
321.504	96.88
321.733	102.88
321.962	93.88
322.191	111.88
322.42	103.88
322.649	121.88
322.878	120.88
323.108	114.88
323.337	113.88
323.566	130.88
323.795	155.88
324.024	222.88
324.253	414.88
324.482	879.88
324.71	1861.88
324.939	2577.88
325.168	934.88
325.397	271.88
325.626	172.88
325.855	145.88
326.084	143.88
326.313	143.88
326.542	164.88
326.77	262.88
326.999	477.88
327.228	1023.88
327.457	1953.88
327.686	1592.88
327.914	414.88
328.143	197.88
328.372	142.88
328.6	115.88
328.829	105.88
329.058	133.88
329.287	143.88
329.515	110.88
329.744	95.88
329.972	97.88
330.201	104.88
330.43	100.88
330.658	116.88
330.887	145.88
331.115	119.88
331.344	111.88
331.572	113.88
331.801	101.88
332.03	107.88
332.258	108.88
332.486	91.88
332.715	102.88
332.943	97.88
333.172	99.88
333.4	106.88
333.629	109.88
333.857	115.88
334.085	104.88
334.314	90.88
334.542	91.88
334.771	96.88
334.999	92.88
335.227	106.88
335.455	89.88
335.684	100.88
335.912	107.88
336.14	90.88
336.369	100.88
336.597	106.88
336.825	104.88
337.053	87.88
337.281	93.88
337.51	103.88
337.738	101.88
337.966	95.88
338.194	97.88
338.422	93.88
338.65	91.88
338.878	95.88
339.106	83.88
339.334	94.88
339.562	76.88
339.79	90.88
340.018	110.88
340.246	92.88
340.474	83.88
340.702	109.88
340.93	91.88
341.158	90.88
341.386	93.88
341.614	95.88
341.842	96.88
342.07	83.88
342.298	93.88
342.526	94.88
342.754	104.88
342.981	87.88
343.209	95.88
343.437	97.88
343.665	94.88
343.893	101.88
344.12	99.88
344.348	88.88
344.576	91.88
344.804	87.88
345.031	108.88
345.259	114.88
345.487	100.88
345.714	95.88
345.942	92.88
346.17	99.88
346.397	84.88
346.625	88.88
346.853	95.88
347.08	91.88
347.308	96.88
347.535	102.88
347.763	106.88
347.99	104.88
348.218	96.88
348.445	118.88
348.673	106.88
348.9	92.88
349.128	93.88
349.355	101.88
349.583	102.88
349.81	86.88
350.037	97.88
350.265	89.88
350.492	93.88
350.72	95.88
350.947	104.88
351.174	109.88
351.402	113.88
351.629	96.88
351.856	86.88
352.083	100.88
352.311	112.88
352.538	122.88
352.765	122.88
352.992	108.88
353.22	113.88
353.447	107.88
353.674	109.88
353.901	89.88
354.128	79.88
354.355	98.88
354.583	103.88
354.81	96.88
355.037	107.88
355.264	98.88
355.491	98.88
355.718	97.88
355.945	97.88
356.172	94.88
356.399	104.88
356.626	102.88
356.853	76.88
357.08	88.88
357.307	98.88
357.534	91.88
357.761	94.88
357.988	85.88
358.215	89.88
358.441	92.88
358.668	107.88
358.895	92.88
359.122	91.88
359.349	100.88
359.576	89.88
359.802	103.88
360.029	110.88
360.256	128.88
360.483	97.88
360.709	87.88
360.936	108.88
361.163	98.88
361.39	97.88
361.616	96.88
361.843	97.88
362.07	82.88
362.296	88.88
362.523	107.88
362.749	93.88
362.976	98.88
363.203	99.88
363.429	88.88
363.656	91.88
363.882	84.88
364.109	86.88
364.335	81.88
364.562	104.88
364.788	94.88
365.015	85.88
365.241	97.88
365.468	102.88
365.694	100.88
365.92	83.88
366.147	83.88
366.373	100.88
366.599	97.88
366.826	85.88
367.052	91.88
367.278	104.88
367.505	93.88
367.731	100.88
367.957	103.88
368.184	93.88
368.41	99.88
368.636	108.88
368.862	131.88
369.089	97.88
369.315	80.88
369.541	92.88
369.767	96.88
369.993	94.88
370.219	90.88
370.445	92.88
370.672	86.88
370.898	98.88
371.124	84.88
371.35	80.88
371.576	98.88
371.802	88.88
372.028	89.88
372.254	94.88
372.48	94.88
372.706	90.88
372.932	100.88
373.158	93.88
373.384	103.88
373.61	87.88
373.835	87.88
374.061	92.88
374.287	87.88
374.513	99.88
374.739	94.88
374.965	87.88
375.191	97.88
375.416	93.88
375.642	83.88
375.868	87.88
376.094	100.88
376.319	75.88
376.545	95.88
376.771	104.88
376.997	95.88
377.222	79.88
377.448	88.88
377.674	96.88
377.899	96.88
378.125	87.88
378.35	98.88
378.576	100.88
378.802	83.88
379.027	83.88
379.253	100.88
379.478	102.88
379.704	85.88
379.929	95.88
380.155	84.88
380.38	94.88
380.606	102.88
380.831	103.88
381.057	114.88
381.282	99.88
381.507	99.88
381.733	107.88
381.958	97.88
382.184	96.88
382.409	100.88
382.634	103.88
382.86	109.88
383.085	95.88
383.31	106.88
383.535	99.88
383.761	93.88
383.986	107.88
384.211	92.88
384.436	91.88
384.662	86.88
384.887	105.88
385.112	108.88
385.337	101.88
385.562	106.88
385.787	105.88
386.013	100.88
386.238	129.88
386.463	101.88
386.688	103.88
386.913	99.88
387.138	108.88
387.363	111.88
387.588	85.88
387.813	89.88
388.038	100.88
388.263	111.88
388.488	82.88
388.713	96.88
388.938	97.88
389.163	91.88
389.387	95.88
389.612	104.88
389.837	97.88
390.062	103.88
390.287	100.88
390.512	93.88
390.736	99.88
390.961	101.88
391.186	79.88
391.411	97.88
391.636	106.88
391.86	104.88
392.085	85.88
392.31	91.88
392.534	106.88
392.759	98.88
392.984	91.88
393.208	79.88
393.433	96.88
393.658	82.88
393.882	95.88
394.107	104.88
394.331	87.88
394.556	92.88
394.78	111.88
395.005	93.88
395.229	80.88
395.454	88.88
395.678	89.88
395.903	99.88
396.127	100.88
396.352	90.88
396.576	100.88
396.801	91.88
397.025	86.88
397.249	79.88
397.474	78.88
397.698	105.88
397.922	92.88
398.147	87.88
398.371	91.88
398.595	93.88
398.82	84.88
399.044	77.88
399.268	103.88
399.492	92.88
399.717	97.88
399.941	101.88
400.165	116.88
400.389	109.88
400.613	93.88
400.837	89.88
401.062	89.88
401.286	94.88
401.51	100.88
401.734	92.88
401.958	95.88
402.182	115.88
402.406	159.88
402.63	108.88
402.854	87.88
403.078	99.88
403.302	92.88
403.526	81.88
403.75	93.88
403.974	77.88
404.198	96.88
404.422	105.88
404.645	96.88
404.869	95.88
405.093	91.88
405.317	84.88
405.541	93.88
405.765	109.88
405.988	120.88
406.212	188.88
406.436	233.88
406.66	155.88
406.883	94.88
407.107	100.88
407.331	104.88
407.555	97.88
407.778	87.88
408.002	97.88
408.226	104.88
408.449	82.88
408.673	87.88
408.896	84.88
409.12	95.88
409.344	82.88
409.567	84.88
409.791	105.88
410.014	97.88
410.238	101.88
410.461	91.88
410.685	97.88
410.908	100.88
411.132	117.88
411.355	104.88
411.578	97.88
411.802	99.88
412.025	87.88
412.249	98.88
412.472	94.88
412.695	79.88
412.919	103.88
413.142	88.88
413.365	69.88
413.589	93.88
413.812	83.88
414.035	88.88
414.258	97.88
414.482	87.88
414.705	99.88
414.928	81.88
415.151	82.88
415.374	106.88
415.597	87.88
415.821	91.88
416.044	94.88
416.267	84.88
416.49	101.88
416.713	103.88
416.936	96.88
417.159	99.88
417.382	87.88
417.605	103.88
417.828	100.88
418.051	90.88
418.274	101.88
418.497	83.88
418.72	92.88
418.943	96.88
419.166	83.88
419.389	96.88
419.611	95.88
419.834	97.88
420.057	82.88
420.28	79.88
420.503	85.88
420.726	86.88
420.948	95.88
421.171	79.88
421.394	102.88
421.617	91.88
421.839	78.88
422.062	91.88
422.285	79.88
422.507	101.88
422.73	106.88
422.953	80.88
423.175	89.88
423.398	89.88
423.621	77.88
423.843	84.88
424.066	94.88
424.288	99.88
424.511	99.88
424.733	107.88
424.956	121.88
425.178	88.88
425.401	110.88
425.623	115.88
425.846	110.88
426.068	107.88
426.291	86.88
426.513	85.88
426.735	103.88
426.958	91.88
427.18	100.88
427.402	148.88
427.625	163.88
427.847	134.88
428.069	97.88
428.292	75.88
428.514	98.88
428.736	85.88
428.958	86.88
429.181	85.88
429.403	87.88
429.625	82.88
429.847	93.88
430.069	117.88
430.292	105.88
430.514	91.88
430.736	82.88
430.958	101.88
431.18	92.88
431.402	87.88
431.624	83.88
431.846	109.88
432.068	95.88
432.29	94.88
432.512	90.88
432.734	91.88
432.956	80.88
433.178	88.88
433.4	95.88
433.622	96.88
433.844	87.88
434.066	104.88
434.287	92.88
434.509	89.88
434.731	90.88
434.953	90.88
435.175	84.88
435.397	99.88
435.618	94.88
435.84	112.88
436.062	137.88
436.284	128.88
436.505	98.88
436.727	101.88
436.949	96.88
437.17	104.88
437.392	93.88
437.614	85.88
437.835	113.88
438.057	113.88
438.278	128.88
438.5	103.88
438.721	143.88
438.943	120.88
439.165	83.88
439.386	105.88
439.608	104.88
439.829	111.88
440.05	137.88
440.272	160.88
440.493	113.88
440.715	98.88
440.936	93.88
441.158	83.88
441.379	95.88
441.6	105.88
441.822	87.88
442.043	93.88
442.264	113.88
442.486	119.88
442.707	102.88
442.928	112.88
443.149	130.88
443.371	139.88
443.592	115.88
443.813	126.88
444.034	113.88
444.255	84.88
444.476	94.88
444.698	89.88
444.919	104.88
445.14	143.88
445.361	137.88
445.582	140.88
445.803	155.88
446.024	162.88
446.245	160.88
446.466	116.88
446.687	97.88
446.908	81.88
447.129	98.88
447.35	87.88
447.571	84.88
447.792	101.88
448.013	105.88
448.234	99.88
448.455	105.88
448.675	117.88
448.896	133.88
449.117	116.88
449.338	104.88
449.559	144.88
449.779	153.88
450	110.88
450.221	95.88
450.442	84.88
450.662	91.88
450.883	96.88
451.104	120.88
451.324	91.88
451.545	91.88
451.766	99.88
451.986	81.88
452.207	96.88
452.428	86.88
452.648	100.88
452.869	121.88
453.089	132.88
453.31	123.88
453.53	83.88
453.751	97.88
453.971	103.88
454.192	106.88
454.412	90.88
454.633	96.88
454.853	72.88
455.073	84.88
455.294	91.88
455.514	104.88
455.734	87.88
455.955	85.88
456.175	81.88
456.395	94.88
456.616	95.88
456.836	86.88
457.056	91.88
457.276	82.88
457.497	72.88
457.717	82.88
457.937	78.88
458.157	92.88
458.377	92.88
458.598	110.88
458.818	159.88
459.038	155.88
459.258	119.88
459.478	85.88
459.698	95.88
459.918	92.88
460.138	87.88
460.358	96.88
460.578	83.88
460.798	89.88
461.018	92.88
461.238	81.88
461.458	83.88
461.678	103.88
461.898	81.88
462.118	81.88
462.338	95.88
462.558	76.88
462.777	83.88
462.997	85.88
463.217	97.88
463.437	95.88
463.657	83.88
463.876	92.88
464.096	102.88
464.316	85.88
464.536	87.88
464.755	94.88
464.975	114.88
465.195	166.88
465.414	161.88
465.634	97.88
465.854	96.88
466.073	94.88
466.293	91.88
466.512	92.88
466.732	73.88
466.951	108.88
467.171	92.88
467.391	97.88
467.61	110.88
467.829	114.88
468.049	87.88
468.268	88.88
468.488	93.88
468.707	92.88
468.927	84.88
469.146	92.88
469.365	87.88
469.585	85.88
469.804	86.88
470.023	99.88
470.243	96.88
470.462	89.88
470.681	121.88
470.901	112.88
471.12	87.88
471.339	91.88
471.558	93.88
471.777	96.88
471.997	92.88
472.216	97.88
472.435	85.88
472.654	86.88
472.873	85.88
473.092	96.88
473.311	75.88
473.53	93.88
473.749	107.88
473.968	117.88
474.187	118.88
474.406	115.88
474.625	93.88
474.844	92.88
475.063	80.88
475.282	79.88
475.501	85.88
475.72	98.88
475.939	85.88
476.158	60.88
476.377	91.88
476.596	108.88
476.814	92.88
477.033	79.88
477.252	79.88
477.471	93.88
477.69	87.88
477.908	95.88
478.127	95.88
478.346	97.88
478.564	93.88
478.783	95.88
479.002	100.88
479.22	95.88
479.439	107.88
479.658	96.88
479.876	94.88
480.095	93.88
480.313	84.88
480.532	101.88
480.751	91.88
480.969	86.88
481.188	83.88
481.406	94.88
481.624	88.88
481.843	91.88
482.061	88.88
482.28	90.88
482.498	88.88
482.717	82.88
482.935	75.88
483.153	83.88
483.372	85.88
483.59	88.88
483.808	89.88
484.027	93.88
484.245	85.88
484.463	80.88
484.681	91.88
484.9	88.88
485.118	103.88
485.336	102.88
485.554	94.88
485.772	106.88
485.99	104.88
486.209	97.88
486.427	107.88
486.645	101.88
486.863	112.88
487.081	95.88
487.299	102.88
487.517	92.88
487.735	115.88
487.953	100.88
488.171	95.88
488.389	111.88
488.607	98.88
488.825	105.88
489.043	92.88
489.261	76.88
489.479	73.88
489.696	93.88
489.914	92.88
490.132	84.88
490.35	87.88
490.568	100.88
490.786	84.88
491.003	103.88
491.221	80.88
491.439	80.88
491.657	105.88
491.874	102.88
492.092	88.88
492.31	95.88
492.527	93.88
492.745	87.88
492.963	106.88
493.18	85.88
493.398	86.88
493.615	95.88
493.833	107.88
494.05	102.88
494.268	95.88
494.485	82.88
494.703	102.88
494.92	92.88
495.138	95.88
495.355	88.88
495.573	98.88
495.79	78.88
496.008	89.88
496.225	93.88
496.442	80.88
496.66	90.88
496.877	89.88
497.094	108.88
497.312	68.88
497.529	94.88
497.746	99.88
497.963	103.88
498.181	110.88
498.398	97.88
498.615	108.88
498.832	101.88
499.049	79.88
499.267	96.88
499.484	99.88
499.701	96.88
499.918	99.88
500.135	82.88
500.352	79.88
500.569	79.88
500.786	91.88
501.003	87.88
501.22	90.88
501.437	101.88
501.654	93.88
501.871	117.88
502.088	96.88
502.305	94.88
502.522	91.88
502.739	91.88
502.956	101.88
503.172	103.88
503.389	92.88
503.606	100.88
503.823	108.88
504.04	87.88
504.256	83.88
504.473	83.88
504.69	97.88
504.907	89.88
505.123	89.88
505.34	88.88
505.557	102.88
505.773	87.88
505.99	95.88
506.207	87.88
506.423	96.88
506.64	94.88
506.856	80.88
507.073	102.88
507.289	105.88
507.506	102.88
507.722	114.88
507.939	113.88
508.155	109.88
508.372	101.88
508.588	97.88
508.805	111.88
509.021	104.88
509.238	109.88
509.454	105.88
509.67	93.88
509.887	109.88
510.103	132.88
510.319	217.88
510.536	729.88
510.752	2346.88
510.968	637.88
511.184	155.88
511.401	127.88
511.617	99.88
511.833	78.88
512.049	89.88
512.265	93.88
512.481	96.88
512.698	103.88
512.914	95.88
513.13	86.88
513.346	87.88
513.562	95.88
513.778	94.88
513.994	98.88
514.21	95.88
514.426	133.88
