Data from Uncirc_1991_H10_HRD10591_00062.txt Node
Date: Wed Jan 03 11:50:50 EST 2024
User: Yrep
Spectrometer: HR+D1059
Trigger mode: 1
Integration Time (sec): 1.000000E-1
Scans to average: 1
Electric dark correction enabled: true
Nonlinearity correction enabled: false
Boxcar width: 0
XAxis mode: Wavelengths
Number of Pixels in Spectrum: 2048
>>>>>Begin Spectral Data<<<<<
223.165	-22.75
223.4	-22.75
223.635	-22.75
223.869	-25.75
224.104	-21.75
224.338	-9.75
224.573	-6.75
224.808	-13.75
225.042	-6.75
225.277	3.25
225.511	-8.75
225.746	12.25
225.98	12.25
226.215	0.25
226.449	9.25
226.683	15.25
226.918	24.25
227.152	39.25
227.387	45.25
227.621	21.25
227.856	60.25
228.09	52.25
228.324	67.25
228.559	63.25
228.793	64.25
229.027	55.25
229.262	78.25
229.496	62.25
229.73	72.25
229.964	92.25
230.199	88.25
230.433	63.25
230.667	76.25
230.901	76.25
231.136	72.25
231.37	71.25
231.604	82.25
231.838	88.25
232.072	86.25
232.306	96.25
232.541	70.25
232.775	90.25
233.009	97.25
233.243	76.25
233.477	85.25
233.711	81.25
233.945	85.25
234.179	80.25
234.413	84.25
234.647	69.25
234.881	88.25
235.115	85.25
235.349	91.25
235.583	87.25
235.817	78.25
236.051	78.25
236.285	73.25
236.519	72.25
236.753	93.25
236.987	87.25
237.221	104.25
237.455	89.25
237.689	89.25
237.922	74.25
238.156	69.25
238.39	76.25
238.624	84.25
238.858	86.25
239.091	89.25
239.325	76.25
239.559	89.25
239.793	82.25
240.027	72.25
240.26	82.25
240.494	74.25
240.728	71.25
240.961	77.25
241.195	78.25
241.429	86.25
241.662	90.25
241.896	78.25
242.13	73.25
242.363	78.25
242.597	82.25
242.83	86.25
243.064	82.25
243.298	83.25
243.531	78.25
243.765	90.25
243.998	97.25
244.232	68.25
244.465	92.25
244.699	70.25
244.932	73.25
245.166	64.25
245.399	88.25
245.633	97.25
245.866	76.25
246.099	84.25
246.333	85.25
246.566	80.25
246.8	77.25
247.033	85.25
247.266	83.25
247.5	89.25
247.733	82.25
247.966	81.25
248.2	87.25
248.433	86.25
248.666	73.25
248.899	99.25
249.133	102.25
249.366	96.25
249.599	108.25
249.832	85.25
250.066	85.25
250.299	77.25
250.532	73.25
250.765	88.25
250.998	86.25
251.231	83.25
251.465	89.25
251.698	79.25
251.931	79.25
252.164	98.25
252.397	84.25
252.63	71.25
252.863	87.25
253.096	70.25
253.329	84.25
253.562	97.25
253.795	91.25
254.028	72.25
254.261	93.25
254.494	79.25
254.727	87.25
254.96	91.25
255.193	81.25
255.426	81.25
255.659	76.25
255.892	86.25
256.124	77.25
256.357	84.25
256.59	96.25
256.823	77.25
257.056	103.25
257.289	88.25
257.521	82.25
257.754	94.25
257.987	82.25
258.22	87.25
258.452	87.25
258.685	92.25
258.918	84.25
259.151	90.25
259.383	97.25
259.616	72.25
259.849	86.25
260.081	76.25
260.314	86.25
260.547	83.25
260.779	98.25
261.012	72.25
261.244	89.25
261.477	80.25
261.71	100.25
261.942	113.25
262.175	120.25
262.407	105.25
262.64	77.25
262.872	87.25
263.105	82.25
263.337	94.25
263.57	92.25
263.802	76.25
264.035	79.25
264.267	83.25
264.499	84.25
264.732	81.25
264.964	81.25
265.197	81.25
265.429	82.25
265.661	87.25
265.894	82.25
266.126	80.25
266.358	90.25
266.591	87.25
266.823	80.25
267.055	79.25
267.287	81.25
267.52	73.25
267.752	87.25
267.984	95.25
268.216	93.25
268.448	84.25
268.681	107.25
268.913	104.25
269.145	71.25
269.377	107.25
269.609	88.25
269.841	94.25
270.073	93.25
270.306	76.25
270.538	105.25
270.77	90.25
271.002	90.25
271.234	82.25
271.466	92.25
271.698	88.25
271.93	95.25
272.162	87.25
272.394	99.25
272.626	103.25
272.858	102.25
273.09	78.25
273.322	89.25
273.553	68.25
273.785	89.25
274.017	92.25
274.249	92.25
274.481	80.25
274.713	85.25
274.945	102.25
275.176	94.25
275.408	93.25
275.64	87.25
275.872	85.25
276.104	93.25
276.335	91.25
276.567	95.25
276.799	119.25
277.031	109.25
277.262	98.25
277.494	89.25
277.726	85.25
277.957	88.25
278.189	80.25
278.421	94.25
278.652	76.25
278.884	86.25
279.115	88.25
279.347	89.25
279.579	93.25
279.81	88.25
280.042	79.25
280.273	92.25
280.505	89.25
280.736	89.25
280.968	89.25
281.199	92.25
281.431	90.25
281.662	82.25
281.894	83.25
282.125	97.25
282.356	133.25
282.588	162.25
282.819	125.25
283.051	85.25
283.282	102.25
283.513	101.25
283.745	85.25
283.976	96.25
284.207	92.25
284.439	91.25
284.67	87.25
284.901	92.25
285.132	76.25
285.364	94.25
285.595	83.25
285.826	77.25
286.057	95.25
286.288	99.25
286.52	91.25
286.751	98.25
286.982	82.25
287.213	88.25
287.444	103.25
287.675	98.25
287.906	90.25
288.138	89.25
288.369	89.25
288.6	93.25
288.831	82.25
289.062	106.25
289.293	88.25
289.524	97.25
289.755	94.25
289.986	93.25
290.217	97.25
290.448	93.25
290.679	81.25
290.91	84.25
291.141	98.25
291.371	95.25
291.602	103.25
291.833	83.25
292.064	89.25
292.295	100.25
292.526	77.25
292.757	82.25
292.987	97.25
293.218	93.25
293.449	91.25
293.68	90.25
293.91	108.25
294.141	107.25
294.372	100.25
294.603	97.25
294.833	96.25
295.064	90.25
295.295	97.25
295.525	82.25
295.756	89.25
295.987	116.25
296.217	150.25
296.448	134.25
296.679	103.25
296.909	97.25
297.14	85.25
297.37	89.25
297.601	89.25
297.831	98.25
298.062	96.25
298.292	100.25
298.523	95.25
298.753	104.25
298.984	97.25
299.214	88.25
299.445	97.25
299.675	106.25
299.905	98.25
300.136	92.25
300.366	87.25
300.597	92.25
300.827	110.25
301.057	101.25
301.288	92.25
301.518	85.25
301.748	76.25
301.979	108.25
302.209	93.25
302.439	100.25
302.669	104.25
302.9	104.25
303.13	100.25
303.36	102.25
303.59	104.25
303.82	120.25
304.051	102.25
304.281	97.25
304.511	101.25
304.741	112.25
304.971	94.25
305.201	92.25
305.431	97.25
305.661	98.25
305.891	101.25
306.121	79.25
306.352	106.25
306.582	96.25
306.812	96.25
307.042	86.25
307.272	90.25
307.502	98.25
307.731	104.25
307.961	113.25
308.191	96.25
308.421	106.25
308.651	97.25
308.881	88.25
309.111	91.25
309.341	99.25
309.571	91.25
309.8	102.25
310.03	112.25
310.26	100.25
310.49	101.25
310.72	96.25
310.949	99.25
311.179	94.25
311.409	93.25
311.639	116.25
311.868	106.25
312.098	89.25
312.328	97.25
312.557	104.25
312.787	115.25
313.017	96.25
313.246	96.25
313.476	110.25
313.706	101.25
313.935	94.25
314.165	121.25
314.394	110.25
314.624	94.25
314.853	102.25
315.083	100.25
315.312	91.25
315.542	101.25
315.771	105.25
316.001	93.25
316.23	94.25
316.46	94.25
316.689	81.25
316.919	90.25
317.148	104.25
317.377	105.25
317.607	101.25
317.836	102.25
318.065	102.25
318.295	102.25
318.524	98.25
318.753	96.25
318.983	102.25
319.212	102.25
319.441	112.25
319.67	113.25
319.9	98.25
320.129	95.25
320.358	95.25
320.587	105.25
320.816	112.25
321.046	112.25
321.275	106.25
321.504	99.25
321.733	98.25
321.962	90.25
322.191	101.25
322.42	106.25
322.649	108.25
322.878	126.25
323.108	135.25
323.337	140.25
323.566	140.25
323.795	159.25
324.024	209.25
324.253	444.25
324.482	982.25
324.71	2034.25
324.939	2744.25
325.168	991.25
325.397	292.25
325.626	180.25
325.855	141.25
326.084	117.25
326.313	148.25
326.542	154.25
326.77	248.25
326.999	498.25
327.228	1094.25
327.457	2045.25
327.686	1620.25
327.914	433.25
328.143	229.25
328.372	165.25
328.6	138.25
328.829	131.25
329.058	137.25
329.287	131.25
329.515	121.25
329.744	108.25
329.972	115.25
330.201	113.25
330.43	112.25
330.658	126.25
330.887	172.25
331.115	142.25
331.344	98.25
331.572	104.25
331.801	119.25
332.03	119.25
332.258	95.25
332.486	99.25
332.715	105.25
332.943	98.25
333.172	106.25
333.4	93.25
333.629	118.25
333.857	121.25
334.085	108.25
334.314	101.25
334.542	111.25
334.771	100.25
334.999	102.25
335.227	95.25
335.455	101.25
335.684	100.25
335.912	80.25
336.14	87.25
336.369	87.25
336.597	107.25
336.825	96.25
337.053	100.25
337.281	110.25
337.51	95.25
337.738	96.25
337.966	97.25
338.194	104.25
338.422	118.25
338.65	102.25
338.878	95.25
339.106	96.25
339.334	94.25
339.562	94.25
339.79	96.25
340.018	101.25
340.246	96.25
340.474	97.25
340.702	102.25
340.93	102.25
341.158	105.25
341.386	87.25
341.614	100.25
341.842	98.25
342.07	106.25
342.298	107.25
342.526	96.25
342.754	106.25
342.981	84.25
343.209	94.25
343.437	92.25
343.665	89.25
343.893	85.25
344.12	100.25
344.348	92.25
344.576	90.25
344.804	99.25
345.031	105.25
345.259	107.25
345.487	105.25
345.714	81.25
345.942	85.25
346.17	93.25
346.397	94.25
346.625	92.25
346.853	96.25
347.08	87.25
347.308	94.25
347.535	104.25
347.763	97.25
347.99	100.25
348.218	100.25
348.445	112.25
348.673	103.25
348.9	102.25
349.128	92.25
349.355	94.25
349.583	101.25
349.81	95.25
350.037	95.25
350.265	113.25
350.492	82.25
350.72	102.25
350.947	110.25
351.174	120.25
351.402	102.25
351.629	100.25
351.856	91.25
352.083	108.25
352.311	110.25
352.538	108.25
352.765	125.25
352.992	108.25
353.22	116.25
353.447	94.25
353.674	117.25
353.901	106.25
354.128	100.25
354.355	95.25
354.583	90.25
354.81	106.25
355.037	109.25
355.264	111.25
355.491	106.25
355.718	99.25
355.945	101.25
356.172	88.25
356.399	83.25
356.626	88.25
356.853	89.25
357.08	76.25
357.307	94.25
357.534	96.25
357.761	99.25
357.988	101.25
358.215	106.25
358.441	97.25
358.668	106.25
358.895	105.25
359.122	102.25
359.349	96.25
359.576	91.25
359.802	112.25
360.029	121.25
360.256	132.25
360.483	105.25
360.709	116.25
360.936	99.25
361.163	96.25
361.39	102.25
361.616	109.25
361.843	89.25
362.07	92.25
362.296	99.25
362.523	89.25
362.749	82.25
362.976	105.25
363.203	90.25
363.429	101.25
363.656	80.25
363.882	87.25
364.109	96.25
364.335	101.25
364.562	102.25
364.788	105.25
365.015	75.25
365.241	97.25
365.468	118.25
365.694	118.25
365.92	94.25
366.147	99.25
366.373	84.25
366.599	93.25
366.826	98.25
367.052	88.25
367.278	96.25
367.505	100.25
367.731	101.25
367.957	93.25
368.184	93.25
368.41	102.25
368.636	116.25
368.862	116.25
369.089	103.25
369.315	95.25
369.541	86.25
369.767	95.25
369.993	96.25
370.219	104.25
370.445	90.25
370.672	85.25
370.898	92.25
371.124	86.25
371.35	91.25
371.576	92.25
371.802	85.25
372.028	89.25
372.254	88.25
372.48	94.25
372.706	101.25
372.932	86.25
373.158	94.25
373.384	88.25
373.61	105.25
373.835	93.25
374.061	97.25
374.287	95.25
374.513	93.25
374.739	89.25
374.965	81.25
375.191	88.25
375.416	94.25
375.642	83.25
375.868	102.25
376.094	93.25
376.319	78.25
376.545	95.25
376.771	92.25
376.997	93.25
377.222	96.25
377.448	99.25
377.674	91.25
377.899	89.25
378.125	92.25
378.35	92.25
378.576	94.25
378.802	87.25
379.027	91.25
379.253	101.25
379.478	105.25
379.704	90.25
379.929	89.25
380.155	99.25
380.38	98.25
380.606	86.25
380.831	91.25
381.057	91.25
381.282	104.25
381.507	88.25
381.733	99.25
381.958	94.25
382.184	111.25
382.409	96.25
382.634	100.25
382.86	106.25
383.085	95.25
383.31	90.25
383.535	93.25
383.761	90.25
383.986	94.25
384.211	106.25
384.436	103.25
384.662	109.25
384.887	101.25
385.112	109.25
385.337	95.25
385.562	93.25
385.787	101.25
386.013	106.25
386.238	107.25
386.463	110.25
386.688	114.25
386.913	109.25
387.138	90.25
387.363	107.25
387.588	94.25
387.813	95.25
388.038	100.25
388.263	91.25
388.488	94.25
388.713	88.25
388.938	109.25
389.163	95.25
389.387	103.25
389.612	105.25
389.837	85.25
390.062	92.25
390.287	93.25
390.512	104.25
390.736	93.25
390.961	94.25
391.186	82.25
391.411	101.25
391.636	88.25
391.86	88.25
392.085	89.25
392.31	94.25
392.534	81.25
392.759	95.25
392.984	74.25
393.208	100.25
393.433	99.25
393.658	85.25
393.882	97.25
394.107	93.25
394.331	95.25
394.556	81.25
394.78	92.25
395.005	82.25
395.229	79.25
395.454	90.25
395.678	92.25
395.903	88.25
396.127	110.25
396.352	101.25
396.576	94.25
396.801	93.25
397.025	97.25
397.249	94.25
397.474	73.25
397.698	96.25
397.922	98.25
398.147	100.25
398.371	97.25
398.595	90.25
398.82	90.25
399.044	87.25
399.268	82.25
399.492	87.25
399.717	102.25
399.941	88.25
400.165	102.25
400.389	108.25
400.613	103.25
400.837	98.25
401.062	103.25
401.286	73.25
401.51	103.25
401.734	108.25
401.958	100.25
402.182	135.25
402.406	160.25
402.63	128.25
402.854	90.25
403.078	88.25
403.302	79.25
403.526	95.25
403.75	86.25
403.974	99.25
404.198	98.25
404.422	74.25
404.645	90.25
404.869	80.25
405.093	93.25
405.317	100.25
405.541	91.25
405.765	93.25
405.988	124.25
406.212	195.25
406.436	257.25
406.66	176.25
406.883	102.25
407.107	100.25
407.331	94.25
407.555	111.25
407.778	99.25
408.002	92.25
408.226	93.25
408.449	89.25
408.673	98.25
408.896	110.25
409.12	90.25
409.344	94.25
409.567	97.25
409.791	91.25
410.014	104.25
410.238	100.25
410.461	92.25
410.685	94.25
410.908	108.25
411.132	104.25
411.355	106.25
411.578	100.25
411.802	100.25
412.025	97.25
412.249	87.25
412.472	95.25
412.695	92.25
412.919	101.25
413.142	111.25
413.365	95.25
413.589	82.25
413.812	87.25
414.035	87.25
414.258	95.25
414.482	110.25
414.705	86.25
414.928	92.25
415.151	86.25
415.374	85.25
415.597	97.25
415.821	92.25
416.044	88.25
416.267	87.25
416.49	88.25
416.713	97.25
416.936	72.25
417.159	96.25
417.382	96.25
417.605	88.25
417.828	100.25
418.051	110.25
418.274	89.25
418.497	86.25
418.72	90.25
418.943	88.25
419.166	72.25
419.389	85.25
419.611	96.25
419.834	76.25
420.057	100.25
420.28	85.25
420.503	88.25
420.726	87.25
420.948	96.25
421.171	92.25
421.394	103.25
421.617	105.25
421.839	93.25
422.062	97.25
422.285	97.25
422.507	101.25
422.73	114.25
422.953	98.25
423.175	89.25
423.398	96.25
423.621	82.25
423.843	73.25
424.066	96.25
424.288	90.25
424.511	105.25
424.733	116.25
424.956	120.25
425.178	104.25
425.401	108.25
425.623	106.25
425.846	85.25
426.068	96.25
426.291	104.25
426.513	95.25
426.735	92.25
426.958	112.25
427.18	105.25
427.402	152.25
427.625	192.25
427.847	162.25
428.069	109.25
428.292	84.25
428.514	98.25
428.736	85.25
428.958	86.25
429.181	97.25
429.403	97.25
429.625	98.25
429.847	106.25
430.069	121.25
430.292	97.25
430.514	81.25
430.736	78.25
430.958	100.25
431.18	92.25
431.402	91.25
431.624	89.25
431.846	81.25
432.068	100.25
432.29	76.25
432.512	94.25
432.734	83.25
432.956	105.25
433.178	88.25
433.4	99.25
433.622	108.25
433.844	98.25
434.066	94.25
434.287	80.25
434.509	96.25
434.731	88.25
434.953	109.25
435.175	97.25
435.397	108.25
435.618	90.25
435.84	107.25
436.062	148.25
436.284	134.25
436.505	114.25
436.727	111.25
436.949	92.25
437.17	67.25
437.392	88.25
437.614	89.25
437.835	117.25
438.057	137.25
438.278	109.25
438.5	98.25
438.721	141.25
438.943	115.25
439.165	93.25
439.386	87.25
439.608	88.25
439.829	103.25
440.05	140.25
440.272	174.25
440.493	105.25
440.715	102.25
440.936	100.25
441.158	98.25
441.379	93.25
441.6	101.25
441.822	118.25
442.043	96.25
442.264	117.25
442.486	118.25
442.707	92.25
442.928	109.25
443.149	157.25
443.371	146.25
443.592	121.25
443.813	103.25
444.034	123.25
444.255	110.25
444.476	89.25
444.698	91.25
444.919	96.25
445.14	143.25
445.361	125.25
445.582	122.25
445.803	177.25
446.024	164.25
446.245	150.25
446.466	134.25
446.687	94.25
446.908	96.25
447.129	93.25
447.35	93.25
447.571	93.25
447.792	98.25
448.013	106.25
448.234	111.25
448.455	106.25
448.675	118.25
448.896	143.25
449.117	106.25
449.338	102.25
449.559	152.25
449.779	159.25
450	97.25
450.221	90.25
450.442	82.25
450.662	94.25
450.883	113.25
451.104	132.25
451.324	90.25
451.545	101.25
451.766	82.25
451.986	83.25
452.207	92.25
452.428	89.25
452.648	109.25
452.869	112.25
453.089	132.25
453.31	134.25
453.53	95.25
453.751	102.25
453.971	99.25
454.192	119.25
454.412	88.25
454.633	98.25
454.853	97.25
455.073	101.25
455.294	102.25
455.514	121.25
455.734	99.25
455.955	97.25
456.175	78.25
456.395	88.25
456.616	92.25
456.836	99.25
457.056	89.25
457.276	86.25
457.497	67.25
457.717	96.25
457.937	92.25
458.157	93.25
458.377	95.25
458.598	108.25
458.818	159.25
459.038	183.25
459.258	118.25
459.478	87.25
459.698	106.25
459.918	93.25
460.138	88.25
460.358	86.25
460.578	95.25
460.798	94.25
461.018	109.25
461.238	93.25
461.458	80.25
461.678	88.25
461.898	93.25
462.118	88.25
462.338	84.25
462.558	90.25
462.777	82.25
462.997	84.25
463.217	94.25
463.437	76.25
463.657	79.25
463.876	86.25
464.096	84.25
464.316	108.25
464.536	101.25
464.755	129.25
464.975	111.25
465.195	169.25
465.414	179.25
465.634	99.25
465.854	107.25
466.073	91.25
466.293	86.25
466.512	98.25
466.732	89.25
466.951	92.25
467.171	96.25
467.391	101.25
467.61	96.25
467.829	106.25
468.049	89.25
468.268	94.25
468.488	94.25
468.707	80.25
468.927	87.25
469.146	80.25
469.365	78.25
469.585	95.25
469.804	114.25
470.023	110.25
470.243	102.25
470.462	97.25
470.681	119.25
470.901	103.25
471.12	91.25
471.339	76.25
471.558	103.25
471.777	93.25
471.997	88.25
472.216	89.25
472.435	81.25
472.654	86.25
472.873	68.25
473.092	94.25
473.311	89.25
473.53	84.25
473.749	72.25
473.968	100.25
474.187	121.25
474.406	121.25
474.625	87.25
474.844	89.25
475.063	90.25
475.282	80.25
475.501	92.25
475.72	90.25
475.939	86.25
476.158	87.25
476.377	103.25
476.596	98.25
476.814	98.25
477.033	102.25
477.252	100.25
477.471	92.25
477.69	88.25
477.908	96.25
478.127	104.25
478.346	84.25
478.564	98.25
478.783	104.25
479.002	108.25
479.22	92.25
479.439	97.25
479.658	113.25
479.876	102.25
480.095	90.25
480.313	94.25
480.532	93.25
480.751	95.25
480.969	84.25
481.188	84.25
481.406	98.25
481.624	110.25
481.843	94.25
482.061	101.25
482.28	87.25
482.498	81.25
482.717	74.25
482.935	90.25
483.153	93.25
483.372	96.25
483.59	82.25
483.808	110.25
484.027	93.25
484.245	89.25
484.463	85.25
484.681	92.25
484.9	97.25
485.118	96.25
485.336	98.25
485.554	98.25
485.772	107.25
485.99	110.25
486.209	106.25
486.427	110.25
486.645	101.25
486.863	108.25
487.081	102.25
487.299	89.25
487.517	95.25
487.735	112.25
487.953	96.25
488.171	100.25
488.389	94.25
488.607	103.25
488.825	101.25
489.043	92.25
489.261	93.25
489.479	100.25
489.696	97.25
489.914	100.25
490.132	97.25
490.35	97.25
490.568	87.25
490.786	96.25
491.003	89.25
491.221	93.25
491.439	80.25
491.657	101.25
491.874	106.25
492.092	96.25
492.31	93.25
492.527	92.25
492.745	81.25
492.963	99.25
493.18	88.25
493.398	91.25
493.615	102.25
493.833	100.25
494.05	97.25
494.268	93.25
494.485	87.25
494.703	96.25
494.92	85.25
495.138	98.25
495.355	83.25
495.573	87.25
495.79	73.25
496.008	86.25
496.225	95.25
496.442	90.25
496.66	96.25
496.877	88.25
497.094	100.25
497.312	84.25
497.529	89.25
497.746	96.25
497.963	74.25
498.181	100.25
498.398	102.25
498.615	99.25
498.832	111.25
499.049	88.25
499.267	102.25
499.484	84.25
499.701	96.25
499.918	85.25
500.135	96.25
500.352	90.25
500.569	95.25
500.786	92.25
501.003	101.25
501.22	92.25
501.437	93.25
501.654	111.25
501.871	120.25
502.088	97.25
502.305	94.25
502.522	92.25
502.739	89.25
502.956	83.25
503.172	96.25
503.389	97.25
503.606	117.25
503.823	103.25
504.04	105.25
504.256	100.25
504.473	97.25
504.69	86.25
504.907	81.25
505.123	99.25
505.34	87.25
505.557	88.25
505.773	84.25
505.99	82.25
506.207	100.25
506.423	100.25
506.64	111.25
506.856	98.25
507.073	98.25
507.289	95.25
507.506	103.25
507.722	109.25
507.939	118.25
508.155	105.25
508.372	106.25
508.588	101.25
508.805	96.25
509.021	104.25
509.238	110.25
509.454	106.25
509.67	113.25
509.887	115.25
510.103	128.25
510.319	222.25
510.536	812.25
510.752	2638.25
510.968	724.25
511.184	165.25
511.401	112.25
511.617	105.25
511.833	96.25
512.049	105.25
512.265	96.25
512.481	92.25
512.698	85.25
512.914	102.25
513.13	89.25
513.346	96.25
513.562	103.25
513.778	107.25
