Data from Uncirc_1991_H10_HRD10591_00099.txt Node
Date: Wed Jan 03 11:50:58 EST 2024
User: Yrep
Spectrometer: HR+D1059
Trigger mode: 1
Integration Time (sec): 1.000000E-1
Scans to average: 1
Electric dark correction enabled: true
Nonlinearity correction enabled: false
Boxcar width: 0
XAxis mode: Wavelengths
Number of Pixels in Spectrum: 2048
>>>>>Begin Spectral Data<<<<<
223.165	-19.44
223.4	-19.44
223.635	-19.44
223.869	-8.44
224.104	-16.44
224.338	-8.44
224.573	-18.44
224.808	-10.44
225.042	-9.44
225.277	-6.44
225.511	-18.44
225.746	8.56
225.98	17.56
226.215	2.56
226.449	8.56
226.683	29.56
226.918	19.56
227.152	29.56
227.387	25.56
227.621	38.56
227.856	39.56
228.09	56.56
228.324	61.56
228.559	56.56
228.793	64.56
229.027	64.56
229.262	69.56
229.496	72.56
229.73	90.56
229.964	95.56
230.199	75.56
230.433	95.56
230.667	95.56
230.901	80.56
231.136	81.56
231.37	68.56
231.604	85.56
231.838	82.56
232.072	66.56
232.306	81.56
232.541	81.56
232.775	84.56
233.009	73.56
233.243	75.56
233.477	78.56
233.711	86.56
233.945	90.56
234.179	92.56
234.413	81.56
234.647	79.56
234.881	57.56
235.115	85.56
235.349	85.56
235.583	78.56
235.817	89.56
236.051	76.56
236.285	88.56
236.519	89.56
236.753	82.56
236.987	79.56
237.221	87.56
237.455	81.56
237.689	73.56
237.922	73.56
238.156	66.56
238.39	66.56
238.624	83.56
238.858	80.56
239.091	96.56
239.325	90.56
239.559	83.56
239.793	83.56
240.027	71.56
240.26	73.56
240.494	89.56
240.728	89.56
240.961	79.56
241.195	84.56
241.429	87.56
241.662	85.56
241.896	77.56
242.13	81.56
242.363	79.56
242.597	78.56
242.83	86.56
243.064	76.56
243.298	78.56
243.531	78.56
243.765	94.56
243.998	80.56
244.232	80.56
244.465	78.56
244.699	87.56
244.932	80.56
245.166	97.56
245.399	86.56
245.633	76.56
245.866	82.56
246.099	86.56
246.333	86.56
246.566	81.56
246.8	82.56
247.033	88.56
247.266	92.56
247.5	79.56
247.733	89.56
247.966	81.56
248.2	68.56
248.433	87.56
248.666	90.56
248.899	93.56
249.133	88.56
249.366	103.56
249.599	82.56
249.832	59.56
250.066	74.56
250.299	71.56
250.532	90.56
250.765	77.56
250.998	96.56
251.231	84.56
251.465	89.56
251.698	81.56
251.931	74.56
252.164	100.56
252.397	73.56
252.63	82.56
252.863	79.56
253.096	87.56
253.329	83.56
253.562	86.56
253.795	80.56
254.028	92.56
254.261	70.56
254.494	87.56
254.727	86.56
254.96	98.56
255.193	82.56
255.426	91.56
255.659	83.56
255.892	82.56
256.124	81.56
256.357	91.56
256.59	96.56
256.823	78.56
257.056	82.56
257.289	103.56
257.521	81.56
257.754	79.56
257.987	81.56
258.22	73.56
258.452	94.56
258.685	87.56
258.918	96.56
259.151	79.56
259.383	80.56
259.616	86.56
259.849	77.56
260.081	75.56
260.314	78.56
260.547	64.56
260.779	74.56
261.012	93.56
261.244	82.56
261.477	112.56
261.71	101.56
261.942	111.56
262.175	110.56
262.407	101.56
262.64	90.56
262.872	99.56
263.105	89.56
263.337	95.56
263.57	93.56
263.802	85.56
264.035	75.56
264.267	88.56
264.499	77.56
264.732	89.56
264.964	71.56
265.197	87.56
265.429	81.56
265.661	90.56
265.894	86.56
266.126	75.56
266.358	85.56
266.591	93.56
266.823	77.56
267.055	75.56
267.287	77.56
267.52	71.56
267.752	90.56
267.984	95.56
268.216	81.56
268.448	83.56
268.681	96.56
268.913	82.56
269.145	89.56
269.377	83.56
269.609	80.56
269.841	90.56
270.073	91.56
270.306	83.56
270.538	94.56
270.77	97.56
271.002	80.56
271.234	94.56
271.466	85.56
271.698	98.56
271.93	85.56
272.162	85.56
272.394	94.56
272.626	83.56
272.858	101.56
273.09	94.56
273.322	81.56
273.553	83.56
273.785	95.56
274.017	85.56
274.249	95.56
274.481	88.56
274.713	87.56
274.945	93.56
275.176	93.56
275.408	88.56
275.64	85.56
275.872	101.56
276.104	103.56
276.335	93.56
276.567	95.56
276.799	105.56
277.031	105.56
277.262	103.56
277.494	82.56
277.726	96.56
277.957	88.56
278.189	77.56
278.421	94.56
278.652	103.56
278.884	95.56
279.115	96.56
279.347	111.56
279.579	80.56
279.81	87.56
280.042	95.56
280.273	81.56
280.505	82.56
280.736	78.56
280.968	83.56
281.199	90.56
281.431	79.56
281.662	100.56
281.894	104.56
282.125	98.56
282.356	102.56
282.588	140.56
282.819	107.56
283.051	91.56
283.282	93.56
283.513	98.56
283.745	96.56
283.976	92.56
284.207	80.56
284.439	96.56
284.67	90.56
284.901	94.56
285.132	106.56
285.364	98.56
285.595	102.56
285.826	97.56
286.057	115.56
286.288	89.56
286.52	79.56
286.751	79.56
286.982	93.56
287.213	90.56
287.444	95.56
287.675	96.56
287.906	84.56
288.138	104.56
288.369	98.56
288.6	106.56
288.831	88.56
289.062	76.56
289.293	95.56
289.524	94.56
289.755	91.56
289.986	89.56
290.217	89.56
290.448	77.56
290.679	81.56
290.91	94.56
291.141	94.56
291.371	90.56
291.602	96.56
291.833	101.56
292.064	105.56
292.295	93.56
292.526	79.56
292.757	79.56
292.987	105.56
293.218	102.56
293.449	97.56
293.68	86.56
293.91	79.56
294.141	98.56
294.372	86.56
294.603	85.56
294.833	83.56
295.064	91.56
295.295	93.56
295.525	90.56
295.756	94.56
295.987	121.56
296.217	130.56
296.448	108.56
296.679	90.56
296.909	70.56
297.14	98.56
297.37	101.56
297.601	85.56
297.831	95.56
298.062	94.56
298.292	87.56
298.523	93.56
298.753	83.56
298.984	96.56
299.214	94.56
299.445	96.56
299.675	93.56
299.905	97.56
300.136	97.56
300.366	106.56
300.597	89.56
300.827	93.56
301.057	98.56
301.288	93.56
301.518	98.56
301.748	90.56
301.979	96.56
302.209	92.56
302.439	85.56
302.669	89.56
302.9	84.56
303.13	71.56
303.36	96.56
303.59	110.56
303.82	105.56
304.051	104.56
304.281	106.56
304.511	95.56
304.741	94.56
304.971	80.56
305.201	75.56
305.431	93.56
305.661	111.56
305.891	91.56
306.121	89.56
306.352	112.56
306.582	108.56
306.812	111.56
307.042	105.56
307.272	80.56
307.502	88.56
307.731	105.56
307.961	94.56
308.191	89.56
308.421	97.56
308.651	90.56
308.881	106.56
309.111	95.56
309.341	105.56
309.571	95.56
309.8	105.56
310.03	105.56
310.26	101.56
310.49	95.56
310.72	99.56
310.949	104.56
311.179	115.56
311.409	114.56
311.639	98.56
311.868	105.56
312.098	109.56
312.328	101.56
312.557	98.56
312.787	97.56
313.017	96.56
313.246	94.56
313.476	79.56
313.706	88.56
313.935	99.56
314.165	109.56
314.394	104.56
314.624	103.56
314.853	104.56
315.083	83.56
315.312	90.56
315.542	110.56
315.771	99.56
316.001	101.56
316.23	79.56
316.46	89.56
316.689	95.56
316.919	102.56
317.148	96.56
317.377	93.56
317.607	90.56
317.836	104.56
318.065	101.56
318.295	86.56
318.524	95.56
318.753	92.56
318.983	99.56
319.212	89.56
319.441	104.56
319.67	98.56
319.9	105.56
320.129	88.56
320.358	102.56
320.587	101.56
320.816	108.56
321.046	99.56
321.275	105.56
321.504	100.56
321.733	94.56
321.962	111.56
322.191	96.56
322.42	112.56
322.649	118.56
322.878	97.56
323.108	103.56
323.337	129.56
323.566	144.56
323.795	158.56
324.024	239.56
324.253	418.56
324.482	883.56
324.71	1885.56
324.939	2575.56
325.168	899.56
325.397	271.56
325.626	175.56
325.855	122.56
326.084	137.56
326.313	128.56
326.542	148.56
326.77	234.56
326.999	491.56
327.228	1019.56
327.457	1928.56
327.686	1523.56
327.914	399.56
328.143	206.56
328.372	144.56
328.6	118.56
328.829	119.56
329.058	132.56
329.287	134.56
329.515	104.56
329.744	120.56
329.972	107.56
330.201	117.56
330.43	118.56
330.658	113.56
330.887	138.56
331.115	120.56
331.344	98.56
331.572	93.56
331.801	97.56
332.03	114.56
332.258	111.56
332.486	89.56
332.715	98.56
332.943	95.56
333.172	93.56
333.4	99.56
333.629	101.56
333.857	112.56
334.085	97.56
334.314	96.56
334.542	104.56
334.771	96.56
334.999	104.56
335.227	103.56
335.455	105.56
335.684	105.56
335.912	98.56
336.14	83.56
336.369	95.56
336.597	94.56
336.825	98.56
337.053	116.56
337.281	97.56
337.51	91.56
337.738	95.56
337.966	78.56
338.194	94.56
338.422	88.56
338.65	93.56
338.878	77.56
339.106	99.56
339.334	104.56
339.562	84.56
339.79	90.56
340.018	93.56
340.246	93.56
340.474	100.56
340.702	97.56
340.93	87.56
341.158	90.56
341.386	94.56
341.614	112.56
341.842	103.56
342.07	93.56
342.298	88.56
342.526	81.56
342.754	94.56
342.981	104.56
343.209	96.56
343.437	98.56
343.665	97.56
343.893	97.56
344.12	94.56
344.348	95.56
344.576	91.56
344.804	101.56
345.031	94.56
345.259	82.56
345.487	87.56
345.714	107.56
345.942	89.56
346.17	97.56
346.397	89.56
346.625	91.56
346.853	101.56
347.08	99.56
347.308	104.56
347.535	94.56
347.763	97.56
347.99	97.56
348.218	101.56
348.445	107.56
348.673	98.56
348.9	97.56
349.128	98.56
349.355	89.56
349.583	95.56
349.81	98.56
350.037	93.56
350.265	105.56
350.492	88.56
350.72	109.56
350.947	127.56
351.174	103.56
351.402	107.56
351.629	117.56
351.856	107.56
352.083	106.56
352.311	114.56
352.538	109.56
352.765	99.56
352.992	112.56
353.22	113.56
353.447	107.56
353.674	100.56
353.901	83.56
354.128	102.56
354.355	90.56
354.583	91.56
354.81	99.56
355.037	85.56
355.264	90.56
355.491	107.56
355.718	102.56
355.945	106.56
356.172	105.56
356.399	81.56
356.626	95.56
356.853	98.56
357.08	101.56
357.307	105.56
357.534	97.56
357.761	88.56
357.988	100.56
358.215	93.56
358.441	93.56
358.668	89.56
358.895	82.56
359.122	95.56
359.349	91.56
359.576	114.56
359.802	120.56
360.029	101.56
360.256	108.56
360.483	101.56
360.709	88.56
360.936	107.56
361.163	109.56
361.39	97.56
361.616	104.56
361.843	89.56
362.07	90.56
362.296	99.56
362.523	93.56
362.749	87.56
362.976	93.56
363.203	99.56
363.429	97.56
363.656	95.56
363.882	94.56
364.109	95.56
364.335	100.56
364.562	96.56
364.788	110.56
365.015	98.56
365.241	118.56
365.468	110.56
365.694	107.56
365.92	87.56
366.147	94.56
366.373	96.56
366.599	90.56
366.826	96.56
367.052	96.56
367.278	91.56
367.505	86.56
367.731	102.56
367.957	108.56
368.184	90.56
368.41	104.56
368.636	107.56
368.862	114.56
369.089	103.56
369.315	87.56
369.541	90.56
369.767	107.56
369.993	97.56
370.219	102.56
370.445	104.56
370.672	86.56
370.898	89.56
371.124	97.56
371.35	92.56
371.576	97.56
371.802	89.56
372.028	95.56
372.254	107.56
372.48	95.56
372.706	82.56
372.932	103.56
373.158	87.56
373.384	91.56
373.61	94.56
373.835	98.56
374.061	93.56
374.287	101.56
374.513	89.56
374.739	84.56
374.965	101.56
375.191	97.56
375.416	86.56
375.642	95.56
375.868	99.56
376.094	83.56
376.319	97.56
376.545	87.56
376.771	87.56
376.997	98.56
377.222	92.56
377.448	94.56
377.674	101.56
377.899	103.56
378.125	73.56
378.35	93.56
378.576	100.56
378.802	97.56
379.027	87.56
379.253	107.56
379.478	101.56
379.704	96.56
379.929	91.56
380.155	98.56
380.38	83.56
380.606	96.56
380.831	111.56
381.057	108.56
381.282	108.56
381.507	93.56
381.733	90.56
381.958	96.56
382.184	110.56
382.409	96.56
382.634	100.56
382.86	97.56
383.085	102.56
383.31	101.56
383.535	105.56
383.761	95.56
383.986	102.56
384.211	105.56
384.436	104.56
384.662	90.56
384.887	92.56
385.112	103.56
385.337	97.56
385.562	90.56
385.787	99.56
386.013	106.56
386.238	108.56
386.463	111.56
386.688	97.56
386.913	87.56
387.138	95.56
387.363	106.56
387.588	92.56
387.813	96.56
388.038	110.56
388.263	103.56
388.488	90.56
388.713	101.56
388.938	95.56
389.163	99.56
389.387	101.56
389.612	99.56
389.837	99.56
390.062	97.56
390.287	97.56
390.512	97.56
390.736	91.56
390.961	95.56
391.186	95.56
391.411	88.56
391.636	98.56
391.86	90.56
392.085	85.56
392.31	93.56
392.534	85.56
392.759	90.56
392.984	93.56
393.208	88.56
393.433	96.56
393.658	91.56
393.882	93.56
394.107	87.56
394.331	87.56
394.556	95.56
394.78	102.56
395.005	73.56
395.229	92.56
395.454	90.56
395.678	95.56
395.903	91.56
396.127	92.56
396.352	95.56
396.576	82.56
396.801	102.56
397.025	99.56
397.249	91.56
397.474	82.56
397.698	93.56
397.922	104.56
398.147	94.56
398.371	88.56
398.595	93.56
398.82	89.56
399.044	86.56
399.268	86.56
399.492	89.56
399.717	92.56
399.941	93.56
400.165	96.56
400.389	102.56
400.613	100.56
400.837	98.56
401.062	102.56
401.286	97.56
401.51	105.56
401.734	106.56
401.958	102.56
402.182	114.56
402.406	170.56
402.63	108.56
402.854	101.56
403.078	93.56
403.302	90.56
403.526	92.56
403.75	95.56
403.974	101.56
404.198	91.56
404.422	95.56
404.645	90.56
404.869	91.56
405.093	110.56
405.317	99.56
405.541	92.56
405.765	101.56
405.988	103.56
406.212	170.56
406.436	231.56
406.66	137.56
406.883	107.56
407.107	101.56
407.331	100.56
407.555	108.56
407.778	97.56
408.002	89.56
408.226	86.56
408.449	95.56
408.673	93.56
408.896	113.56
409.12	118.56
409.344	78.56
409.567	118.56
409.791	85.56
410.014	90.56
410.238	93.56
410.461	81.56
410.685	98.56
410.908	100.56
411.132	102.56
411.355	106.56
411.578	99.56
411.802	88.56
412.025	91.56
412.249	75.56
412.472	86.56
412.695	93.56
412.919	95.56
413.142	93.56
413.365	90.56
413.589	91.56
413.812	81.56
414.035	94.56
414.258	71.56
414.482	93.56
414.705	110.56
414.928	92.56
415.151	101.56
415.374	89.56
415.597	94.56
415.821	98.56
416.044	91.56
416.267	86.56
416.49	90.56
416.713	87.56
416.936	93.56
417.159	82.56
417.382	97.56
417.605	79.56
417.828	89.56
418.051	106.56
418.274	85.56
418.497	93.56
418.72	78.56
418.943	104.56
419.166	109.56
419.389	88.56
419.611	99.56
419.834	94.56
420.057	86.56
420.28	94.56
420.503	89.56
420.726	89.56
420.948	88.56
421.171	95.56
421.394	101.56
421.617	93.56
421.839	83.56
422.062	85.56
422.285	87.56
422.507	122.56
422.73	107.56
422.953	101.56
423.175	94.56
423.398	98.56
423.621	98.56
423.843	100.56
424.066	93.56
424.288	85.56
424.511	90.56
424.733	102.56
424.956	97.56
425.178	109.56
425.401	113.56
425.623	109.56
425.846	99.56
426.068	101.56
426.291	94.56
426.513	97.56
426.735	97.56
426.958	106.56
427.18	96.56
427.402	128.56
427.625	147.56
427.847	111.56
428.069	100.56
428.292	83.56
428.514	90.56
428.736	85.56
428.958	78.56
429.181	95.56
429.403	88.56
429.625	91.56
429.847	88.56
430.069	116.56
430.292	97.56
430.514	87.56
430.736	103.56
430.958	91.56
431.18	101.56
431.402	85.56
431.624	90.56
431.846	100.56
432.068	95.56
432.29	84.56
432.512	84.56
432.734	92.56
432.956	93.56
433.178	77.56
433.4	102.56
433.622	87.56
433.844	95.56
434.066	90.56
434.287	90.56
434.509	95.56
434.731	91.56
434.953	95.56
435.175	90.56
435.397	91.56
435.618	99.56
435.84	104.56
436.062	128.56
436.284	137.56
436.505	110.56
436.727	110.56
436.949	98.56
437.17	84.56
437.392	87.56
437.614	95.56
437.835	122.56
438.057	125.56
438.278	123.56
438.5	104.56
438.721	130.56
438.943	105.56
439.165	95.56
439.386	83.56
439.608	90.56
439.829	99.56
440.05	124.56
440.272	150.56
440.493	104.56
440.715	96.56
440.936	74.56
441.158	95.56
441.379	79.56
441.6	96.56
441.822	82.56
442.043	101.56
442.264	117.56
442.486	102.56
442.707	106.56
442.928	107.56
443.149	124.56
443.371	125.56
443.592	114.56
443.813	115.56
444.034	122.56
444.255	105.56
444.476	103.56
444.698	84.56
444.919	79.56
445.14	136.56
445.361	130.56
445.582	123.56
445.803	143.56
446.024	139.56
446.245	142.56
446.466	126.56
446.687	98.56
446.908	106.56
447.129	88.56
447.35	84.56
447.571	101.56
447.792	97.56
448.013	97.56
448.234	100.56
448.455	96.56
448.675	126.56
448.896	123.56
449.117	102.56
449.338	121.56
449.559	129.56
449.779	148.56
450	95.56
450.221	91.56
450.442	107.56
450.662	111.56
450.883	96.56
451.104	101.56
451.324	89.56
451.545	84.56
451.766	93.56
451.986	96.56
452.207	97.56
452.428	102.56
452.648	95.56
452.869	122.56
453.089	108.56
453.31	113.56
453.53	99.56
453.751	90.56
453.971	104.56
454.192	117.56
454.412	80.56
454.633	79.56
454.853	90.56
455.073	87.56
455.294	83.56
455.514	85.56
455.734	98.56
455.955	88.56
456.175	81.56
456.395	87.56
456.616	96.56
456.836	87.56
457.056	104.56
457.276	90.56
457.497	92.56
457.717	86.56
457.937	97.56
458.157	87.56
458.377	92.56
458.598	113.56
458.818	146.56
459.038	161.56
459.258	109.56
459.478	86.56
459.698	87.56
459.918	97.56
460.138	87.56
460.358	100.56
460.578	90.56
460.798	81.56
461.018	85.56
461.238	99.56
461.458	88.56
461.678	82.56
461.898	76.56
462.118	93.56
462.338	98.56
462.558	87.56
462.777	86.56
462.997	101.56
463.217	78.56
463.437	81.56
463.657	95.56
463.876	99.56
464.096	97.56
464.316	96.56
464.536	87.56
464.755	83.56
464.975	112.56
465.195	166.56
465.414	175.56
465.634	91.56
465.854	100.56
466.073	93.56
466.293	89.56
466.512	93.56
466.732	88.56
466.951	87.56
467.171	102.56
467.391	87.56
467.61	99.56
467.829	95.56
468.049	93.56
468.268	85.56
468.488	99.56
468.707	93.56
468.927	91.56
469.146	97.56
469.365	85.56
469.585	105.56
469.804	86.56
470.023	87.56
470.243	87.56
470.462	109.56
470.681	112.56
470.901	93.56
471.12	88.56
471.339	85.56
471.558	89.56
471.777	88.56
471.997	89.56
472.216	78.56
472.435	107.56
472.654	79.56
472.873	89.56
473.092	85.56
473.311	84.56
473.53	96.56
473.749	100.56
473.968	108.56
474.187	106.56
474.406	97.56
474.625	100.56
474.844	87.56
475.063	90.56
475.282	93.56
475.501	86.56
475.72	89.56
475.939	77.56
476.158	95.56
476.377	88.56
476.596	73.56
476.814	89.56
477.033	95.56
477.252	89.56
477.471	97.56
477.69	95.56
477.908	95.56
478.127	88.56
478.346	103.56
478.564	91.56
478.783	94.56
479.002	93.56
479.22	94.56
479.439	102.56
479.658	101.56
479.876	101.56
480.095	107.56
480.313	103.56
480.532	85.56
480.751	93.56
480.969	94.56
481.188	96.56
481.406	94.56
481.624	98.56
481.843	100.56
482.061	86.56
482.28	105.56
482.498	85.56
482.717	95.56
482.935	91.56
483.153	85.56
483.372	109.56
483.59	91.56
483.808	95.56
484.027	96.56
484.245	97.56
484.463	100.56
484.681	93.56
484.9	85.56
485.118	104.56
485.336	95.56
485.554	94.56
485.772	106.56
485.99	117.56
486.209	92.56
486.427	106.56
486.645	107.56
486.863	117.56
487.081	114.56
487.299	88.56
487.517	104.56
487.735	99.56
487.953	98.56
488.171	96.56
488.389	92.56
488.607	100.56
488.825	92.56
489.043	90.56
489.261	111.56
489.479	95.56
489.696	97.56
489.914	76.56
490.132	94.56
490.35	101.56
490.568	79.56
490.786	98.56
491.003	87.56
491.221	87.56
491.439	99.56
491.657	96.56
491.874	103.56
492.092	104.56
492.31	86.56
492.527	82.56
492.745	95.56
492.963	96.56
493.18	89.56
493.398	95.56
493.615	102.56
493.833	100.56
494.05	114.56
494.268	95.56
494.485	93.56
494.703	94.56
494.92	90.56
495.138	98.56
495.355	94.56
495.573	108.56
495.79	100.56
496.008	88.56
496.225	87.56
496.442	96.56
496.66	93.56
496.877	96.56
497.094	104.56
497.312	92.56
497.529	101.56
497.746	95.56
497.963	88.56
498.181	85.56
498.398	98.56
498.615	109.56
498.832	89.56
499.049	89.56
499.267	87.56
499.484	91.56
499.701	98.56
499.918	102.56
500.135	80.56
500.352	98.56
500.569	87.56
500.786	95.56
501.003	90.56
501.22	98.56
501.437	90.56
501.654	98.56
501.871	110.56
502.088	100.56
502.305	93.56
502.522	113.56
502.739	102.56
502.956	93.56
503.172	90.56
503.389	81.56
503.606	101.56
503.823	93.56
504.04	99.56
504.256	104.56
504.473	88.56
504.69	100.56
504.907	95.56
505.123	81.56
505.34	90.56
505.557	104.56
505.773	80.56
505.99	86.56
506.207	90.56
506.423	84.56
506.64	88.56
506.856	70.56
507.073	88.56
507.289	87.56
507.506	97.56
507.722	129.56
507.939	108.56
508.155	109.56
508.372	98.56
508.588	95.56
508.805	105.56
509.021	79.56
509.238	90.56
509.454	75.56
509.67	117.56
509.887	119.56
510.103	134.56
510.319	216.56
510.536	723.56
510.752	2253.56
510.968	609.56
511.184	147.56
511.401	112.56
511.617	101.56
511.833	85.56
512.049	91.56
512.265	97.56
512.481	96.56
512.698	95.56
512.914	98.56
513.13	82.56
513.346	106.56
513.562	87.56
513.778	95.56
513.994	114.56
514.21	111.56
514.426	109.56
