Data from Uncirc_1991_H10_HRD10591_00064.txt Node
Date: Wed Jan 03 11:50:51 EST 2024
User: Yrep
Spectrometer: HR+D1059
Trigger mode: 1
Integration Time (sec): 1.000000E-1
Scans to average: 1
Electric dark correction enabled: true
Nonlinearity correction enabled: false
Boxcar width: 0
XAxis mode: Wavelengths
Number of Pixels in Spectrum: 2048
>>>>>Begin Spectral Data<<<<<
223.165	-18.62
223.4	-18.62
223.635	-18.62
223.869	-29.62
224.104	-9.62
224.338	-7.62
224.573	-13.62
224.808	-10.62
225.042	-4.62
225.277	-24.62
225.511	2.38
225.746	13.38
225.98	7.38
226.215	8.38
226.449	11.38
226.683	19.38
226.918	27.38
227.152	29.38
227.387	27.38
227.621	42.38
227.856	49.38
228.09	36.38
228.324	34.38
228.559	71.38
228.793	58.38
229.027	79.38
229.262	79.38
229.496	62.38
229.73	95.38
229.964	88.38
230.199	67.38
230.433	67.38
230.667	80.38
230.901	75.38
231.136	73.38
231.37	84.38
231.604	78.38
231.838	77.38
232.072	80.38
232.306	72.38
232.541	74.38
232.775	75.38
233.009	79.38
233.243	84.38
233.477	76.38
233.711	79.38
233.945	90.38
234.179	81.38
234.413	63.38
234.647	71.38
234.881	81.38
235.115	79.38
235.349	73.38
235.583	91.38
235.817	78.38
236.051	73.38
236.285	64.38
236.519	57.38
236.753	77.38
236.987	96.38
237.221	82.38
237.455	98.38
237.689	78.38
237.922	79.38
238.156	66.38
238.39	82.38
238.624	69.38
238.858	68.38
239.091	65.38
239.325	72.38
239.559	87.38
239.793	77.38
240.027	73.38
240.26	75.38
240.494	67.38
240.728	72.38
240.961	65.38
241.195	79.38
241.429	79.38
241.662	75.38
241.896	85.38
242.13	76.38
242.363	77.38
242.597	61.38
242.83	92.38
243.064	96.38
243.298	69.38
243.531	71.38
243.765	59.38
243.998	85.38
244.232	95.38
244.465	70.38
244.699	78.38
244.932	63.38
245.166	76.38
245.399	93.38
245.633	86.38
245.866	87.38
246.099	74.38
246.333	61.38
246.566	79.38
246.8	71.38
247.033	64.38
247.266	82.38
247.5	89.38
247.733	70.38
247.966	64.38
248.2	81.38
248.433	56.38
248.666	79.38
248.899	81.38
249.133	85.38
249.366	79.38
249.599	115.38
249.832	79.38
250.066	73.38
250.299	77.38
250.532	95.38
250.765	75.38
250.998	64.38
251.231	83.38
251.465	82.38
251.698	86.38
251.931	92.38
252.164	82.38
252.397	68.38
252.63	78.38
252.863	89.38
253.096	81.38
253.329	77.38
253.562	72.38
253.795	75.38
254.028	78.38
254.261	68.38
254.494	75.38
254.727	88.38
254.96	84.38
255.193	73.38
255.426	94.38
255.659	88.38
255.892	81.38
256.124	84.38
256.357	80.38
256.59	75.38
256.823	78.38
257.056	84.38
257.289	83.38
257.521	88.38
257.754	77.38
257.987	69.38
258.22	83.38
258.452	68.38
258.685	90.38
258.918	92.38
259.151	83.38
259.383	79.38
259.616	75.38
259.849	94.38
260.081	88.38
260.314	88.38
260.547	68.38
260.779	84.38
261.012	93.38
261.244	97.38
261.477	90.38
261.71	73.38
261.942	94.38
262.175	116.38
262.407	85.38
262.64	86.38
262.872	79.38
263.105	86.38
263.337	95.38
263.57	81.38
263.802	81.38
264.035	83.38
264.267	83.38
264.499	83.38
264.732	92.38
264.964	85.38
265.197	87.38
265.429	78.38
265.661	77.38
265.894	72.38
266.126	66.38
266.358	76.38
266.591	80.38
266.823	84.38
267.055	83.38
267.287	68.38
267.52	85.38
267.752	83.38
267.984	83.38
268.216	77.38
268.448	74.38
268.681	73.38
268.913	89.38
269.145	72.38
269.377	85.38
269.609	81.38
269.841	85.38
270.073	77.38
270.306	94.38
270.538	75.38
270.77	80.38
271.002	92.38
271.234	79.38
271.466	98.38
271.698	86.38
271.93	87.38
272.162	80.38
272.394	89.38
272.626	76.38
272.858	85.38
273.09	76.38
273.322	82.38
273.553	72.38
273.785	83.38
274.017	79.38
274.249	75.38
274.481	84.38
274.713	89.38
274.945	100.38
275.176	80.38
275.408	88.38
275.64	78.38
275.872	87.38
276.104	89.38
276.335	102.38
276.567	95.38
276.799	97.38
277.031	115.38
277.262	95.38
277.494	80.38
277.726	80.38
277.957	104.38
278.189	71.38
278.421	76.38
278.652	83.38
278.884	85.38
279.115	78.38
279.347	85.38
279.579	76.38
279.81	78.38
280.042	96.38
280.273	93.38
280.505	91.38
280.736	83.38
280.968	80.38
281.199	84.38
281.431	80.38
281.662	83.38
281.894	97.38
282.125	96.38
282.356	108.38
282.588	139.38
282.819	111.38
283.051	87.38
283.282	98.38
283.513	93.38
283.745	82.38
283.976	84.38
284.207	84.38
284.439	82.38
284.67	93.38
284.901	90.38
285.132	85.38
285.364	58.38
285.595	82.38
285.826	79.38
286.057	79.38
286.288	78.38
286.52	89.38
286.751	84.38
286.982	75.38
287.213	94.38
287.444	82.38
287.675	71.38
287.906	79.38
288.138	104.38
288.369	82.38
288.6	91.38
288.831	83.38
289.062	92.38
289.293	75.38
289.524	82.38
289.755	87.38
289.986	88.38
290.217	84.38
290.448	105.38
290.679	78.38
290.91	85.38
291.141	99.38
291.371	84.38
291.602	68.38
291.833	85.38
292.064	83.38
292.295	85.38
292.526	89.38
292.757	90.38
292.987	83.38
293.218	84.38
293.449	87.38
293.68	79.38
293.91	97.38
294.141	89.38
294.372	85.38
294.603	84.38
294.833	90.38
295.064	96.38
295.295	85.38
295.525	91.38
295.756	98.38
295.987	109.38
296.217	158.38
296.448	123.38
296.679	106.38
296.909	102.38
297.14	78.38
297.37	79.38
297.601	88.38
297.831	82.38
298.062	88.38
298.292	96.38
298.523	88.38
298.753	90.38
298.984	79.38
299.214	87.38
299.445	85.38
299.675	96.38
299.905	86.38
300.136	74.38
300.366	99.38
300.597	92.38
300.827	88.38
301.057	96.38
301.288	99.38
301.518	76.38
301.748	77.38
301.979	95.38
302.209	87.38
302.439	88.38
302.669	99.38
302.9	82.38
303.13	88.38
303.36	100.38
303.59	105.38
303.82	119.38
304.051	100.38
304.281	97.38
304.511	88.38
304.741	74.38
304.971	83.38
305.201	71.38
305.431	89.38
305.661	88.38
305.891	92.38
306.121	91.38
306.352	102.38
306.582	105.38
306.812	95.38
307.042	93.38
307.272	101.38
307.502	93.38
307.731	93.38
307.961	91.38
308.191	81.38
308.421	88.38
308.651	91.38
308.881	85.38
309.111	81.38
309.341	88.38
309.571	89.38
309.8	96.38
310.03	92.38
310.26	87.38
310.49	99.38
310.72	107.38
310.949	102.38
311.179	108.38
311.409	90.38
311.639	84.38
311.868	94.38
312.098	100.38
312.328	111.38
312.557	98.38
312.787	99.38
313.017	112.38
313.246	102.38
313.476	92.38
313.706	91.38
313.935	99.38
314.165	103.38
314.394	118.38
314.624	90.38
314.853	111.38
315.083	101.38
315.312	92.38
315.542	96.38
315.771	92.38
316.001	93.38
316.23	83.38
316.46	98.38
316.689	87.38
316.919	97.38
317.148	84.38
317.377	88.38
317.607	89.38
317.836	94.38
318.065	101.38
318.295	80.38
318.524	91.38
318.753	87.38
318.983	89.38
319.212	115.38
319.441	105.38
319.67	91.38
319.9	98.38
320.129	77.38
320.358	88.38
320.587	95.38
320.816	107.38
321.046	109.38
321.275	92.38
321.504	94.38
321.733	98.38
321.962	112.38
322.191	94.38
322.42	106.38
322.649	122.38
322.878	138.38
323.108	136.38
323.337	130.38
323.566	138.38
323.795	176.38
324.024	215.38
324.253	435.38
324.482	1011.38
324.71	2159.38
324.939	3036.38
325.168	1053.38
325.397	288.38
325.626	175.38
325.855	147.38
326.084	142.38
326.313	138.38
326.542	177.38
326.77	250.38
326.999	531.38
327.228	1173.38
327.457	2267.38
327.686	1831.38
327.914	458.38
328.143	219.38
328.372	160.38
328.6	151.38
328.829	132.38
329.058	135.38
329.287	139.38
329.515	119.38
329.744	96.38
329.972	98.38
330.201	97.38
330.43	126.38
330.658	130.38
330.887	168.38
331.115	146.38
331.344	109.38
331.572	107.38
331.801	112.38
332.03	105.38
332.258	90.38
332.486	101.38
332.715	98.38
332.943	91.38
333.172	107.38
333.4	103.38
333.629	99.38
333.857	102.38
334.085	102.38
334.314	101.38
334.542	97.38
334.771	88.38
334.999	96.38
335.227	103.38
335.455	93.38
335.684	89.38
335.912	89.38
336.14	82.38
336.369	89.38
336.597	124.38
336.825	99.38
337.053	84.38
337.281	94.38
337.51	99.38
337.738	106.38
337.966	87.38
338.194	93.38
338.422	93.38
338.65	101.38
338.878	92.38
339.106	86.38
339.334	92.38
339.562	94.38
339.79	100.38
340.018	97.38
340.246	86.38
340.474	94.38
340.702	94.38
340.93	86.38
341.158	89.38
341.386	93.38
341.614	90.38
341.842	82.38
342.07	76.38
342.298	104.38
342.526	91.38
342.754	93.38
342.981	83.38
343.209	93.38
343.437	90.38
343.665	82.38
343.893	81.38
344.12	83.38
344.348	81.38
344.576	99.38
344.804	84.38
345.031	112.38
345.259	97.38
345.487	110.38
345.714	100.38
345.942	95.38
346.17	93.38
346.397	91.38
346.625	95.38
346.853	105.38
347.08	96.38
347.308	89.38
347.535	97.38
347.763	109.38
347.99	87.38
348.218	90.38
348.445	107.38
348.673	104.38
348.9	92.38
349.128	99.38
349.355	91.38
349.583	88.38
349.81	101.38
350.037	104.38
350.265	76.38
350.492	105.38
350.72	87.38
350.947	99.38
351.174	111.38
351.402	96.38
351.629	92.38
351.856	114.38
352.083	99.38
352.311	95.38
352.538	109.38
352.765	122.38
352.992	93.38
353.22	109.38
353.447	98.38
353.674	109.38
353.901	82.38
354.128	96.38
354.355	99.38
354.583	108.38
354.81	106.38
355.037	97.38
355.264	90.38
355.491	76.38
355.718	84.38
355.945	77.38
356.172	79.38
356.399	95.38
356.626	97.38
356.853	90.38
357.08	96.38
357.307	88.38
357.534	93.38
357.761	103.38
357.988	103.38
358.215	90.38
358.441	94.38
358.668	82.38
358.895	93.38
359.122	90.38
359.349	83.38
359.576	98.38
359.802	96.38
360.029	128.38
360.256	126.38
360.483	96.38
360.709	93.38
360.936	98.38
361.163	75.38
361.39	89.38
361.616	88.38
361.843	84.38
362.07	88.38
362.296	105.38
362.523	94.38
362.749	79.38
362.976	91.38
363.203	99.38
363.429	92.38
363.656	96.38
363.882	89.38
364.109	88.38
364.335	74.38
364.562	89.38
364.788	95.38
365.015	100.38
365.241	93.38
365.468	105.38
365.694	121.38
365.92	104.38
366.147	92.38
366.373	91.38
366.599	89.38
366.826	91.38
367.052	102.38
367.278	98.38
367.505	88.38
367.731	94.38
367.957	97.38
368.184	94.38
368.41	91.38
368.636	115.38
368.862	133.38
369.089	124.38
369.315	99.38
369.541	66.38
369.767	80.38
369.993	99.38
370.219	92.38
370.445	91.38
370.672	80.38
370.898	82.38
371.124	82.38
371.35	87.38
371.576	97.38
371.802	96.38
372.028	79.38
372.254	93.38
372.48	89.38
372.706	90.38
372.932	95.38
373.158	76.38
373.384	82.38
373.61	84.38
373.835	93.38
374.061	95.38
374.287	81.38
374.513	88.38
374.739	88.38
374.965	88.38
375.191	88.38
375.416	91.38
375.642	95.38
375.868	86.38
376.094	81.38
376.319	87.38
376.545	80.38
376.771	100.38
376.997	88.38
377.222	94.38
377.448	97.38
377.674	79.38
377.899	86.38
378.125	91.38
378.35	85.38
378.576	93.38
378.802	88.38
379.027	91.38
379.253	84.38
379.478	74.38
379.704	85.38
379.929	89.38
380.155	104.38
380.38	98.38
380.606	83.38
380.831	99.38
381.057	93.38
381.282	87.38
381.507	85.38
381.733	93.38
381.958	104.38
382.184	97.38
382.409	107.38
382.634	105.38
382.86	96.38
383.085	97.38
383.31	98.38
383.535	107.38
383.761	85.38
383.986	90.38
384.211	98.38
384.436	98.38
384.662	84.38
384.887	95.38
385.112	97.38
385.337	100.38
385.562	94.38
385.787	109.38
386.013	117.38
386.238	115.38
386.463	99.38
386.688	111.38
386.913	108.38
387.138	103.38
387.363	80.38
387.588	88.38
387.813	106.38
388.038	109.38
388.263	101.38
388.488	111.38
388.713	87.38
388.938	97.38
389.163	92.38
389.387	101.38
389.612	89.38
389.837	98.38
390.062	85.38
390.287	83.38
390.512	83.38
390.736	83.38
390.961	93.38
391.186	91.38
391.411	93.38
391.636	82.38
391.86	66.38
392.085	75.38
392.31	84.38
392.534	68.38
392.759	82.38
392.984	88.38
393.208	90.38
393.433	87.38
393.658	95.38
393.882	89.38
394.107	80.38
394.331	84.38
394.556	85.38
394.78	93.38
395.005	88.38
395.229	77.38
395.454	84.38
395.678	84.38
395.903	93.38
396.127	96.38
396.352	103.38
396.576	94.38
396.801	78.38
397.025	89.38
397.249	88.38
397.474	81.38
397.698	77.38
397.922	82.38
398.147	87.38
398.371	80.38
398.595	91.38
398.82	97.38
399.044	85.38
399.268	73.38
399.492	92.38
399.717	86.38
399.941	110.38
400.165	93.38
400.389	105.38
400.613	87.38
400.837	77.38
401.062	96.38
401.286	99.38
401.51	82.38
401.734	82.38
401.958	104.38
402.182	122.38
402.406	162.38
402.63	129.38
402.854	108.38
403.078	87.38
403.302	93.38
403.526	94.38
403.75	88.38
403.974	87.38
404.198	85.38
404.422	96.38
404.645	88.38
404.869	95.38
405.093	81.38
405.317	100.38
405.541	96.38
405.765	111.38
405.988	129.38
406.212	204.38
406.436	228.38
406.66	156.38
406.883	115.38
407.107	106.38
407.331	102.38
407.555	110.38
407.778	100.38
408.002	90.38
408.226	98.38
408.449	93.38
408.673	94.38
408.896	93.38
409.12	97.38
409.344	90.38
409.567	93.38
409.791	99.38
410.014	95.38
410.238	91.38
410.461	89.38
410.685	97.38
410.908	98.38
411.132	105.38
411.355	89.38
411.578	101.38
411.802	87.38
412.025	98.38
412.249	88.38
412.472	94.38
412.695	88.38
412.919	81.38
413.142	82.38
413.365	79.38
413.589	76.38
413.812	90.38
414.035	86.38
414.258	78.38
414.482	85.38
414.705	79.38
414.928	69.38
415.151	82.38
415.374	90.38
415.597	87.38
415.821	90.38
416.044	74.38
416.267	75.38
416.49	81.38
416.713	89.38
416.936	84.38
417.159	69.38
417.382	84.38
417.605	98.38
417.828	103.38
418.051	98.38
418.274	75.38
418.497	82.38
418.72	96.38
418.943	85.38
419.166	97.38
419.389	83.38
419.611	92.38
419.834	87.38
420.057	76.38
420.28	85.38
420.503	99.38
420.726	84.38
420.948	84.38
421.171	90.38
421.394	97.38
421.617	92.38
421.839	95.38
422.062	92.38
422.285	95.38
422.507	106.38
422.73	92.38
422.953	85.38
423.175	84.38
423.398	92.38
423.621	85.38
423.843	87.38
424.066	92.38
424.288	88.38
424.511	95.38
424.733	104.38
424.956	109.38
425.178	101.38
425.401	106.38
425.623	105.38
425.846	83.38
426.068	91.38
426.291	96.38
426.513	86.38
426.735	79.38
426.958	95.38
427.18	109.38
427.402	167.38
427.625	196.38
427.847	146.38
428.069	101.38
428.292	87.38
428.514	91.38
428.736	83.38
428.958	84.38
429.181	92.38
429.403	91.38
429.625	95.38
429.847	99.38
430.069	110.38
430.292	97.38
430.514	85.38
430.736	89.38
430.958	92.38
431.18	71.38
431.402	85.38
431.624	77.38
431.846	69.38
432.068	74.38
432.29	94.38
432.512	85.38
432.734	92.38
432.956	100.38
433.178	103.38
433.4	106.38
433.622	93.38
433.844	83.38
434.066	97.38
434.287	88.38
434.509	94.38
434.731	79.38
434.953	95.38
435.175	93.38
435.397	92.38
435.618	87.38
435.84	109.38
436.062	167.38
436.284	138.38
436.505	98.38
436.727	116.38
436.949	98.38
437.17	85.38
437.392	81.38
437.614	89.38
437.835	109.38
438.057	131.38
438.278	131.38
438.5	111.38
438.721	181.38
438.943	111.38
439.165	97.38
439.386	101.38
439.608	98.38
439.829	93.38
440.05	146.38
440.272	176.38
440.493	98.38
440.715	89.38
440.936	95.38
441.158	82.38
441.379	92.38
441.6	94.38
441.822	90.38
442.043	95.38
442.264	127.38
442.486	107.38
442.707	94.38
442.928	103.38
443.149	139.38
443.371	149.38
443.592	115.38
443.813	139.38
444.034	109.38
444.255	87.38
444.476	81.38
444.698	79.38
444.919	88.38
445.14	153.38
445.361	122.38
445.582	139.38
445.803	163.38
446.024	175.38
446.245	159.38
446.466	122.38
446.687	92.38
446.908	94.38
447.129	76.38
447.35	93.38
447.571	85.38
447.792	82.38
448.013	120.38
448.234	104.38
448.455	103.38
448.675	135.38
448.896	141.38
449.117	124.38
449.338	109.38
449.559	133.38
449.779	148.38
450	99.38
450.221	91.38
450.442	88.38
450.662	95.38
450.883	113.38
451.104	109.38
451.324	96.38
451.545	88.38
451.766	89.38
451.986	80.38
452.207	82.38
452.428	79.38
452.648	109.38
452.869	115.38
453.089	106.38
453.31	124.38
453.53	100.38
453.751	99.38
453.971	101.38
454.192	123.38
454.412	89.38
454.633	88.38
454.853	75.38
455.073	86.38
455.294	95.38
455.514	105.38
455.734	78.38
455.955	79.38
456.175	84.38
456.395	83.38
456.616	96.38
456.836	82.38
457.056	81.38
457.276	85.38
457.497	85.38
457.717	67.38
457.937	98.38
458.157	83.38
458.377	95.38
458.598	109.38
458.818	164.38
459.038	169.38
459.258	124.38
459.478	90.38
459.698	86.38
459.918	92.38
460.138	82.38
460.358	67.38
460.578	81.38
460.798	101.38
461.018	93.38
461.238	77.38
461.458	92.38
461.678	77.38
461.898	74.38
462.118	91.38
462.338	93.38
462.558	96.38
462.777	89.38
462.997	92.38
463.217	77.38
463.437	98.38
463.657	75.38
463.876	88.38
464.096	78.38
464.316	98.38
464.536	103.38
464.755	100.38
464.975	111.38
465.195	171.38
465.414	184.38
465.634	97.38
465.854	88.38
466.073	101.38
466.293	94.38
466.512	96.38
466.732	84.38
466.951	84.38
467.171	92.38
467.391	101.38
467.61	101.38
467.829	87.38
468.049	78.38
468.268	84.38
468.488	80.38
468.707	79.38
468.927	92.38
469.146	73.38
469.365	77.38
469.585	86.38
469.804	109.38
470.023	89.38
470.243	98.38
470.462	108.38
470.681	114.38
470.901	88.38
471.12	80.38
471.339	81.38
471.558	90.38
471.777	89.38
471.997	85.38
472.216	94.38
472.435	87.38
472.654	100.38
472.873	91.38
473.092	97.38
473.311	85.38
473.53	89.38
473.749	76.38
473.968	88.38
474.187	122.38
474.406	104.38
474.625	98.38
474.844	97.38
475.063	84.38
475.282	77.38
475.501	82.38
475.72	83.38
475.939	87.38
476.158	97.38
476.377	81.38
476.596	85.38
476.814	95.38
477.033	81.38
477.252	91.38
477.471	81.38
477.69	96.38
477.908	85.38
478.127	93.38
478.346	92.38
478.564	80.38
478.783	88.38
479.002	80.38
479.22	100.38
479.439	96.38
479.658	93.38
479.876	89.38
480.095	86.38
480.313	88.38
480.532	87.38
480.751	87.38
480.969	89.38
481.188	95.38
481.406	76.38
481.624	91.38
481.843	92.38
482.061	86.38
482.28	91.38
482.498	85.38
482.717	88.38
482.935	81.38
483.153	87.38
483.372	73.38
483.59	93.38
483.808	90.38
484.027	94.38
484.245	90.38
484.463	93.38
484.681	83.38
484.9	79.38
485.118	93.38
485.336	91.38
485.554	85.38
485.772	92.38
485.99	96.38
486.209	101.38
486.427	99.38
486.645	105.38
486.863	108.38
487.081	81.38
487.299	91.38
487.517	100.38
487.735	99.38
487.953	79.38
488.171	83.38
488.389	96.38
488.607	98.38
488.825	84.38
489.043	91.38
489.261	95.38
489.479	72.38
489.696	79.38
489.914	95.38
490.132	97.38
490.35	94.38
490.568	83.38
490.786	72.38
491.003	92.38
491.221	103.38
491.439	89.38
491.657	97.38
491.874	91.38
492.092	87.38
492.31	64.38
492.527	75.38
492.745	86.38
492.963	98.38
493.18	111.38
493.398	98.38
493.615	98.38
493.833	97.38
494.05	82.38
494.268	87.38
494.485	92.38
494.703	86.38
494.92	95.38
495.138	86.38
495.355	103.38
495.573	90.38
495.79	100.38
496.008	83.38
496.225	74.38
496.442	84.38
496.66	85.38
496.877	81.38
497.094	88.38
497.312	98.38
497.529	82.38
497.746	89.38
497.963	82.38
498.181	99.38
498.398	100.38
498.615	99.38
498.832	92.38
499.049	94.38
499.267	112.38
499.484	80.38
499.701	87.38
499.918	86.38
500.135	90.38
500.352	83.38
500.569	89.38
500.786	94.38
501.003	91.38
501.22	93.38
501.437	93.38
501.654	97.38
501.871	115.38
502.088	96.38
502.305	90.38
502.522	77.38
502.739	84.38
502.956	77.38
503.172	90.38
503.389	99.38
503.606	96.38
503.823	89.38
504.04	75.38
504.256	95.38
504.473	88.38
504.69	91.38
504.907	96.38
505.123	88.38
505.34	93.38
505.557	92.38
505.773	86.38
505.99	77.38
506.207	88.38
506.423	82.38
506.64	96.38
506.856	90.38
507.073	87.38
507.289	100.38
507.506	106.38
507.722	120.38
507.939	102.38
508.155	92.38
508.372	80.38
508.588	96.38
508.805	91.38
509.021	94.38
509.238	109.38
509.454	104.38
509.67	102.38
509.887	94.38
510.103	143.38
510.319	210.38
510.536	764.38
510.752	2421.38
510.968	683.38
511.184	151.38
511.401	121.38
511.617	120.38
511.833	86.38
512.049	99.38
512.265	77.38
512.481	100.38
512.698	87.38
512.914	93.38
513.13	97.38
513.346	85.38
513.562	103.38
513.778	87.38
513.994	93.38
514.21	105.38
514.426	132.38
514.642	140.38
514.858	138.38
515.074	185.38
515.29	523.38
515.506	1713.38
515.721	625.38
515.937	162.38
