Data from Uncirc_1991_H10_HRD10591_00011.txt Node
Date: Wed Jan 03 11:50:40 EST 2024
User: Yrep
Spectrometer: HR+D1059
Trigger mode: 1
Integration Time (sec): 1.000000E-1
Scans to average: 1
Electric dark correction enabled: true
Nonlinearity correction enabled: false
Boxcar width: 0
XAxis mode: Wavelengths
Number of Pixels in Spectrum: 2048
>>>>>Begin Spectral Data<<<<<
223.165	-13.62
223.4	-13.62
223.635	-13.62
223.869	-19.62
224.104	-14.62
224.338	-16.62
224.573	-21.62
224.808	-17.62
225.042	-14.62
225.277	0.38
225.511	-3.62
225.746	-2.62
225.98	9.38
226.215	29.38
226.449	18.38
226.683	12.38
226.918	21.38
227.152	33.38
227.387	34.38
227.621	31.38
227.856	36.38
228.09	51.38
228.324	60.38
228.559	61.38
228.793	68.38
229.027	69.38
229.262	68.38
229.496	70.38
229.73	101.38
229.964	91.38
230.199	84.38
230.433	78.38
230.667	59.38
230.901	73.38
231.136	86.38
231.37	82.38
231.604	74.38
231.838	74.38
232.072	74.38
232.306	82.38
232.541	72.38
232.775	81.38
233.009	81.38
233.243	92.38
233.477	80.38
233.711	67.38
233.945	89.38
234.179	79.38
234.413	81.38
234.647	80.38
234.881	100.38
235.115	83.38
235.349	78.38
235.583	82.38
235.817	80.38
236.051	84.38
236.285	80.38
236.519	68.38
236.753	71.38
236.987	83.38
237.221	70.38
237.455	98.38
237.689	73.38
237.922	61.38
238.156	79.38
238.39	76.38
238.624	75.38
238.858	73.38
239.091	71.38
239.325	73.38
239.559	74.38
239.793	91.38
240.027	74.38
240.26	76.38
240.494	80.38
240.728	79.38
240.961	69.38
241.195	75.38
241.429	77.38
241.662	76.38
241.896	87.38
242.13	76.38
242.363	84.38
242.597	75.38
242.83	69.38
243.064	71.38
243.298	82.38
243.531	82.38
243.765	71.38
243.998	70.38
244.232	71.38
244.465	80.38
244.699	74.38
244.932	83.38
245.166	93.38
245.399	83.38
245.633	75.38
245.866	87.38
246.099	73.38
246.333	72.38
246.566	74.38
246.8	71.38
247.033	95.38
247.266	79.38
247.5	78.38
247.733	69.38
247.966	71.38
248.2	88.38
248.433	81.38
248.666	86.38
248.899	76.38
249.133	95.38
249.366	99.38
249.599	82.38
249.832	75.38
250.066	86.38
250.299	85.38
250.532	82.38
250.765	82.38
250.998	81.38
251.231	87.38
251.465	79.38
251.698	93.38
251.931	83.38
252.164	75.38
252.397	77.38
252.63	78.38
252.863	83.38
253.096	87.38
253.329	89.38
253.562	73.38
253.795	89.38
254.028	91.38
254.261	92.38
254.494	91.38
254.727	82.38
254.96	77.38
255.193	73.38
255.426	76.38
255.659	75.38
255.892	85.38
256.124	82.38
256.357	81.38
256.59	82.38
256.823	81.38
257.056	78.38
257.289	81.38
257.521	89.38
257.754	76.38
257.987	96.38
258.22	93.38
258.452	91.38
258.685	80.38
258.918	93.38
259.151	94.38
259.383	97.38
259.616	89.38
259.849	75.38
260.081	93.38
260.314	85.38
260.547	78.38
260.779	95.38
261.012	90.38
261.244	91.38
261.477	93.38
261.71	101.38
261.942	100.38
262.175	120.38
262.407	88.38
262.64	75.38
262.872	72.38
263.105	97.38
263.337	88.38
263.57	77.38
263.802	87.38
264.035	86.38
264.267	82.38
264.499	91.38
264.732	79.38
264.964	95.38
265.197	81.38
265.429	80.38
265.661	79.38
265.894	87.38
266.126	90.38
266.358	76.38
266.591	74.38
266.823	77.38
267.055	75.38
267.287	79.38
267.52	85.38
267.752	75.38
267.984	71.38
268.216	93.38
268.448	97.38
268.681	91.38
268.913	90.38
269.145	83.38
269.377	81.38
269.609	81.38
269.841	81.38
270.073	103.38
270.306	85.38
270.538	87.38
270.77	74.38
271.002	76.38
271.234	80.38
271.466	84.38
271.698	95.38
271.93	78.38
272.162	75.38
272.394	85.38
272.626	93.38
272.858	101.38
273.09	93.38
273.322	76.38
273.553	80.38
273.785	90.38
274.017	76.38
274.249	86.38
274.481	81.38
274.713	85.38
274.945	69.38
275.176	77.38
275.408	86.38
275.64	94.38
275.872	74.38
276.104	79.38
276.335	91.38
276.567	100.38
276.799	116.38
277.031	113.38
277.262	108.38
277.494	82.38
277.726	103.38
277.957	84.38
278.189	85.38
278.421	98.38
278.652	98.38
278.884	84.38
279.115	89.38
279.347	94.38
279.579	73.38
279.81	95.38
280.042	94.38
280.273	87.38
280.505	95.38
280.736	81.38
280.968	84.38
281.199	90.38
281.431	93.38
281.662	81.38
281.894	86.38
282.125	89.38
282.356	117.38
282.588	149.38
282.819	117.38
283.051	81.38
283.282	86.38
283.513	77.38
283.745	85.38
283.976	89.38
284.207	78.38
284.439	82.38
284.67	79.38
284.901	100.38
285.132	84.38
285.364	85.38
285.595	71.38
285.826	72.38
286.057	85.38
286.288	93.38
286.52	78.38
286.751	81.38
286.982	72.38
287.213	80.38
287.444	82.38
287.675	82.38
287.906	99.38
288.138	94.38
288.369	91.38
288.6	100.38
288.831	79.38
289.062	91.38
289.293	99.38
289.524	84.38
289.755	92.38
289.986	83.38
290.217	89.38
290.448	90.38
290.679	87.38
290.91	94.38
291.141	90.38
291.371	69.38
291.602	83.38
291.833	84.38
292.064	89.38
292.295	94.38
292.526	94.38
292.757	75.38
292.987	76.38
293.218	90.38
293.449	83.38
293.68	93.38
293.91	86.38
294.141	101.38
294.372	85.38
294.603	86.38
294.833	97.38
295.064	86.38
295.295	95.38
295.525	81.38
295.756	99.38
295.987	121.38
296.217	136.38
296.448	141.38
296.679	105.38
296.909	82.38
297.14	69.38
297.37	99.38
297.601	98.38
297.831	83.38
298.062	94.38
298.292	102.38
298.523	101.38
298.753	90.38
298.984	91.38
299.214	77.38
299.445	85.38
299.675	78.38
299.905	101.38
300.136	73.38
300.366	81.38
300.597	85.38
300.827	83.38
301.057	104.38
301.288	111.38
301.518	75.38
301.748	93.38
301.979	103.38
302.209	99.38
302.439	98.38
302.669	81.38
302.9	85.38
303.13	101.38
303.36	85.38
303.59	96.38
303.82	96.38
304.051	105.38
304.281	83.38
304.511	83.38
304.741	82.38
304.971	85.38
305.201	84.38
305.431	85.38
305.661	81.38
305.891	103.38
306.121	104.38
306.352	94.38
306.582	100.38
306.812	86.38
307.042	80.38
307.272	83.38
307.502	97.38
307.731	99.38
307.961	84.38
308.191	82.38
308.421	105.38
308.651	93.38
308.881	99.38
309.111	97.38
309.341	82.38
309.571	93.38
309.8	106.38
310.03	94.38
310.26	96.38
310.49	91.38
310.72	89.38
310.949	99.38
311.179	100.38
311.409	97.38
311.639	87.38
311.868	103.38
312.098	98.38
312.328	96.38
312.557	98.38
312.787	102.38
313.017	112.38
313.246	93.38
313.476	92.38
313.706	83.38
313.935	101.38
314.165	109.38
314.394	106.38
314.624	98.38
314.853	109.38
315.083	91.38
315.312	95.38
315.542	85.38
315.771	87.38
316.001	84.38
316.23	103.38
316.46	83.38
316.689	93.38
316.919	91.38
317.148	84.38
317.377	88.38
317.607	93.38
317.836	88.38
318.065	90.38
318.295	95.38
318.524	95.38
318.753	87.38
318.983	112.38
319.212	101.38
319.441	101.38
319.67	95.38
319.9	101.38
320.129	92.38
320.358	97.38
320.587	85.38
320.816	90.38
321.046	107.38
321.275	113.38
321.504	102.38
321.733	89.38
321.962	111.38
322.191	107.38
322.42	101.38
322.649	126.38
322.878	107.38
323.108	116.38
323.337	127.38
323.566	137.38
323.795	159.38
324.024	227.38
324.253	458.38
324.482	960.38
324.71	2025.38
324.939	2748.38
325.168	981.38
325.397	285.38
325.626	157.38
325.855	147.38
326.084	121.38
326.313	134.38
326.542	171.38
326.77	237.38
326.999	531.38
327.228	1078.38
327.457	2034.38
327.686	1657.38
327.914	425.38
328.143	213.38
328.372	154.38
328.6	138.38
328.829	112.38
329.058	129.38
329.287	125.38
329.515	126.38
329.744	95.38
329.972	101.38
330.201	105.38
330.43	107.38
330.658	115.38
330.887	138.38
331.115	147.38
331.344	107.38
331.572	103.38
331.801	95.38
332.03	99.38
332.258	115.38
332.486	91.38
332.715	102.38
332.943	103.38
333.172	100.38
333.4	94.38
333.629	121.38
333.857	123.38
334.085	111.38
334.314	91.38
334.542	98.38
334.771	113.38
334.999	109.38
335.227	95.38
335.455	93.38
335.684	97.38
335.912	99.38
336.14	97.38
336.369	103.38
336.597	89.38
336.825	88.38
337.053	89.38
337.281	81.38
337.51	96.38
337.738	97.38
337.966	94.38
338.194	90.38
338.422	112.38
338.65	93.38
338.878	85.38
339.106	86.38
339.334	91.38
339.562	94.38
339.79	86.38
340.018	90.38
340.246	104.38
340.474	95.38
340.702	90.38
340.93	92.38
341.158	94.38
341.386	103.38
341.614	83.38
341.842	103.38
342.07	80.38
342.298	89.38
342.526	91.38
342.754	88.38
342.981	95.38
343.209	102.38
343.437	81.38
343.665	81.38
343.893	78.38
344.12	98.38
344.348	102.38
344.576	89.38
344.804	97.38
345.031	84.38
345.259	116.38
345.487	94.38
345.714	89.38
345.942	92.38
346.17	98.38
346.397	113.38
346.625	97.38
346.853	94.38
347.08	95.38
347.308	80.38
347.535	96.38
347.763	96.38
347.99	94.38
348.218	97.38
348.445	107.38
348.673	99.38
348.9	94.38
349.128	88.38
349.355	102.38
349.583	85.38
349.81	87.38
350.037	78.38
350.265	95.38
350.492	91.38
350.72	94.38
350.947	97.38
351.174	108.38
351.402	85.38
351.629	105.38
351.856	93.38
352.083	106.38
352.311	100.38
352.538	112.38
352.765	107.38
352.992	92.38
353.22	130.38
353.447	109.38
353.674	101.38
353.901	93.38
354.128	91.38
354.355	99.38
354.583	83.38
354.81	102.38
355.037	98.38
355.264	93.38
355.491	95.38
355.718	87.38
355.945	93.38
356.172	103.38
356.399	89.38
356.626	91.38
356.853	85.38
357.08	86.38
357.307	95.38
357.534	81.38
357.761	81.38
357.988	80.38
358.215	92.38
358.441	91.38
358.668	84.38
358.895	85.38
359.122	90.38
359.349	95.38
359.576	87.38
359.802	97.38
360.029	107.38
360.256	121.38
360.483	108.38
360.709	103.38
360.936	91.38
361.163	101.38
361.39	108.38
361.616	97.38
361.843	88.38
362.07	97.38
362.296	93.38
362.523	93.38
362.749	98.38
362.976	100.38
363.203	95.38
363.429	97.38
363.656	84.38
363.882	100.38
364.109	101.38
364.335	89.38
364.562	100.38
364.788	94.38
365.015	109.38
365.241	91.38
365.468	96.38
365.694	93.38
365.92	97.38
366.147	100.38
366.373	86.38
366.599	80.38
366.826	87.38
367.052	95.38
367.278	91.38
367.505	90.38
367.731	104.38
367.957	94.38
368.184	84.38
368.41	100.38
368.636	117.38
368.862	119.38
369.089	118.38
369.315	92.38
369.541	91.38
369.767	84.38
369.993	102.38
370.219	84.38
370.445	96.38
370.672	82.38
370.898	87.38
371.124	76.38
371.35	92.38
371.576	84.38
371.802	76.38
372.028	86.38
372.254	90.38
372.48	85.38
372.706	89.38
372.932	82.38
373.158	87.38
373.384	101.38
373.61	79.38
373.835	94.38
374.061	78.38
374.287	101.38
374.513	91.38
374.739	85.38
374.965	91.38
375.191	91.38
375.416	85.38
375.642	87.38
375.868	89.38
376.094	95.38
376.319	88.38
376.545	96.38
376.771	83.38
376.997	66.38
377.222	81.38
377.448	85.38
377.674	87.38
377.899	87.38
378.125	94.38
378.35	94.38
378.576	87.38
378.802	77.38
379.027	79.38
379.253	99.38
379.478	85.38
379.704	87.38
379.929	93.38
380.155	89.38
380.38	85.38
380.606	107.38
380.831	82.38
381.057	86.38
381.282	81.38
381.507	90.38
381.733	89.38
381.958	109.38
382.184	111.38
382.409	95.38
382.634	99.38
382.86	82.38
383.085	85.38
383.31	92.38
383.535	100.38
383.761	110.38
383.986	93.38
384.211	95.38
384.436	97.38
384.662	80.38
384.887	109.38
385.112	103.38
385.337	102.38
385.562	114.38
385.787	95.38
386.013	94.38
386.238	114.38
386.463	107.38
386.688	102.38
386.913	93.38
387.138	97.38
387.363	92.38
387.588	109.38
387.813	107.38
388.038	91.38
388.263	108.38
388.488	95.38
388.713	94.38
388.938	93.38
389.163	103.38
389.387	99.38
389.612	88.38
389.837	87.38
390.062	85.38
390.287	87.38
390.512	100.38
390.736	84.38
390.961	92.38
391.186	105.38
391.411	92.38
391.636	103.38
391.86	82.38
392.085	83.38
392.31	96.38
392.534	92.38
392.759	87.38
392.984	86.38
393.208	94.38
393.433	98.38
393.658	83.38
393.882	78.38
394.107	84.38
394.331	93.38
394.556	90.38
394.78	93.38
395.005	89.38
395.229	83.38
395.454	80.38
395.678	84.38
395.903	86.38
396.127	92.38
396.352	85.38
396.576	79.38
396.801	86.38
397.025	92.38
397.249	91.38
397.474	87.38
397.698	81.38
397.922	90.38
398.147	80.38
398.371	81.38
398.595	83.38
398.82	82.38
399.044	82.38
399.268	68.38
399.492	97.38
399.717	90.38
399.941	89.38
400.165	87.38
400.389	93.38
400.613	84.38
400.837	88.38
401.062	75.38
401.286	84.38
401.51	107.38
401.734	92.38
401.958	101.38
402.182	132.38
402.406	180.38
402.63	138.38
402.854	96.38
403.078	84.38
403.302	94.38
403.526	94.38
403.75	85.38
403.974	88.38
404.198	80.38
404.422	98.38
404.645	87.38
404.869	78.38
405.093	111.38
405.317	100.38
405.541	97.38
405.765	108.38
405.988	137.38
406.212	169.38
406.436	259.38
406.66	165.38
406.883	96.38
407.107	89.38
407.331	86.38
407.555	111.38
407.778	105.38
408.002	84.38
408.226	81.38
408.449	78.38
408.673	92.38
408.896	89.38
409.12	103.38
409.344	106.38
409.567	82.38
409.791	113.38
410.014	82.38
410.238	92.38
410.461	86.38
410.685	100.38
410.908	106.38
411.132	105.38
411.355	99.38
411.578	96.38
411.802	96.38
412.025	104.38
412.249	87.38
412.472	92.38
412.695	91.38
412.919	92.38
413.142	79.38
413.365	75.38
413.589	90.38
413.812	87.38
414.035	91.38
414.258	95.38
414.482	90.38
414.705	92.38
414.928	78.38
415.151	87.38
415.374	105.38
415.597	86.38
415.821	81.38
416.044	90.38
416.267	86.38
416.49	85.38
416.713	91.38
416.936	89.38
417.159	80.38
417.382	84.38
417.605	89.38
417.828	114.38
418.051	91.38
418.274	93.38
418.497	85.38
418.72	82.38
418.943	92.38
419.166	76.38
419.389	79.38
419.611	84.38
419.834	93.38
420.057	82.38
420.28	84.38
420.503	82.38
420.726	90.38
420.948	97.38
421.171	102.38
421.394	65.38
421.617	79.38
421.839	97.38
422.062	98.38
422.285	94.38
422.507	91.38
422.73	87.38
422.953	87.38
423.175	106.38
423.398	88.38
423.621	96.38
423.843	88.38
424.066	97.38
424.288	79.38
424.511	81.38
424.733	91.38
424.956	115.38
425.178	106.38
425.401	100.38
425.623	90.38
425.846	100.38
426.068	98.38
426.291	92.38
426.513	86.38
426.735	75.38
426.958	105.38
427.18	113.38
427.402	158.38
427.625	187.38
427.847	141.38
428.069	97.38
428.292	90.38
428.514	98.38
428.736	84.38
428.958	87.38
429.181	87.38
429.403	91.38
429.625	87.38
429.847	89.38
430.069	91.38
430.292	96.38
430.514	78.38
430.736	95.38
430.958	86.38
431.18	85.38
431.402	83.38
431.624	90.38
431.846	89.38
432.068	76.38
432.29	76.38
432.512	85.38
432.734	83.38
432.956	86.38
433.178	91.38
433.4	87.38
433.622	86.38
433.844	95.38
434.066	92.38
434.287	87.38
434.509	93.38
434.731	88.38
434.953	78.38
435.175	97.38
435.397	93.38
435.618	94.38
435.84	100.38
436.062	122.38
436.284	122.38
436.505	96.38
436.727	115.38
436.949	89.38
437.17	78.38
437.392	73.38
437.614	107.38
437.835	111.38
438.057	131.38
438.278	118.38
438.5	109.38
438.721	116.38
438.943	106.38
439.165	97.38
439.386	83.38
439.608	84.38
439.829	106.38
440.05	126.38
440.272	141.38
440.493	106.38
440.715	95.38
440.936	86.38
441.158	93.38
441.379	89.38
441.6	95.38
441.822	93.38
442.043	80.38
442.264	96.38
442.486	108.38
442.707	92.38
442.928	105.38
443.149	135.38
443.371	148.38
443.592	95.38
443.813	124.38
444.034	107.38
444.255	96.38
444.476	99.38
444.698	85.38
444.919	85.38
445.14	135.38
445.361	132.38
445.582	119.38
445.803	135.38
446.024	127.38
446.245	148.38
446.466	111.38
446.687	103.38
446.908	87.38
447.129	90.38
447.35	99.38
447.571	86.38
447.792	92.38
448.013	94.38
448.234	110.38
448.455	110.38
448.675	116.38
448.896	130.38
449.117	104.38
449.338	95.38
449.559	143.38
449.779	152.38
450	96.38
450.221	83.38
450.442	91.38
450.662	97.38
450.883	107.38
451.104	121.38
451.324	95.38
451.545	85.38
451.766	94.38
451.986	83.38
452.207	80.38
452.428	105.38
452.648	102.38
452.869	102.38
453.089	118.38
453.31	138.38
453.53	98.38
453.751	84.38
453.971	102.38
454.192	112.38
454.412	85.38
454.633	89.38
454.853	91.38
455.073	79.38
455.294	84.38
455.514	115.38
455.734	84.38
455.955	93.38
456.175	90.38
456.395	97.38
456.616	81.38
456.836	94.38
457.056	92.38
457.276	91.38
457.497	89.38
457.717	81.38
457.937	67.38
458.157	85.38
458.377	90.38
458.598	116.38
458.818	167.38
459.038	161.38
459.258	127.38
459.478	85.38
459.698	89.38
459.918	82.38
460.138	83.38
460.358	80.38
460.578	70.38
460.798	93.38
461.018	101.38
461.238	93.38
461.458	87.38
461.678	81.38
461.898	83.38
462.118	95.38
462.338	94.38
462.558	77.38
462.777	97.38
462.997	80.38
463.217	87.38
463.437	92.38
463.657	87.38
463.876	84.38
464.096	91.38
464.316	94.38
464.536	106.38
464.755	94.38
464.975	96.38
465.195	194.38
465.414	180.38
465.634	93.38
465.854	107.38
466.073	88.38
466.293	105.38
466.512	95.38
466.732	79.38
466.951	93.38
467.171	97.38
467.391	86.38
467.61	106.38
467.829	108.38
468.049	101.38
468.268	85.38
468.488	82.38
468.707	86.38
468.927	90.38
469.146	87.38
469.365	91.38
469.585	83.38
469.804	99.38
470.023	93.38
470.243	96.38
470.462	103.38
470.681	107.38
470.901	85.38
471.12	82.38
471.339	86.38
471.558	91.38
471.777	81.38
471.997	88.38
472.216	85.38
472.435	90.38
472.654	97.38
472.873	88.38
473.092	97.38
473.311	83.38
473.53	89.38
473.749	89.38
473.968	99.38
474.187	121.38
474.406	91.38
474.625	77.38
474.844	87.38
475.063	92.38
475.282	81.38
475.501	99.38
475.72	87.38
475.939	89.38
476.158	79.38
476.377	98.38
476.596	94.38
476.814	98.38
477.033	94.38
477.252	102.38
477.471	87.38
477.69	77.38
477.908	93.38
478.127	95.38
478.346	83.38
478.564	94.38
478.783	100.38
479.002	97.38
479.22	94.38
479.439	107.38
479.658	94.38
479.876	99.38
480.095	80.38
480.313	87.38
480.532	86.38
480.751	84.38
480.969	86.38
481.188	106.38
481.406	96.38
481.624	89.38
481.843	99.38
482.061	82.38
482.28	82.38
482.498	91.38
482.717	70.38
482.935	95.38
483.153	77.38
483.372	94.38
483.59	92.38
483.808	97.38
484.027	78.38
484.245	83.38
484.463	93.38
484.681	104.38
484.9	89.38
485.118	82.38
485.336	84.38
485.554	97.38
485.772	114.38
485.99	97.38
486.209	106.38
486.427	100.38
486.645	90.38
486.863	106.38
487.081	87.38
487.299	87.38
487.517	94.38
487.735	95.38
487.953	95.38
488.171	95.38
488.389	106.38
488.607	99.38
488.825	71.38
489.043	95.38
489.261	87.38
489.479	90.38
489.696	97.38
489.914	80.38
490.132	90.38
490.35	103.38
490.568	88.38
490.786	93.38
491.003	82.38
491.221	92.38
491.439	82.38
491.657	86.38
491.874	88.38
492.092	109.38
492.31	89.38
492.527	89.38
492.745	109.38
492.963	95.38
493.18	100.38
493.398	80.38
493.615	91.38
493.833	95.38
494.05	101.38
494.268	72.38
494.485	86.38
494.703	98.38
494.92	86.38
495.138	102.38
495.355	98.38
495.573	91.38
495.79	95.38
496.008	94.38
496.225	93.38
496.442	85.38
496.66	94.38
496.877	85.38
497.094	85.38
497.312	78.38
497.529	80.38
497.746	95.38
497.963	97.38
498.181	95.38
498.398	99.38
498.615	95.38
498.832	95.38
499.049	92.38
499.267	113.38
499.484	87.38
499.701	93.38
499.918	85.38
500.135	101.38
500.352	95.38
500.569	80.38
500.786	104.38
501.003	91.38
501.22	82.38
501.437	98.38
501.654	107.38
501.871	116.38
502.088	107.38
502.305	88.38
502.522	93.38
502.739	93.38
502.956	85.38
503.172	91.38
503.389	89.38
503.606	111.38
503.823	110.38
504.04	94.38
504.256	111.38
504.473	77.38
504.69	93.38
504.907	87.38
505.123	93.38
505.34	89.38
505.557	92.38
505.773	96.38
505.99	103.38
506.207	96.38
506.423	98.38
506.64	97.38
506.856	99.38
507.073	109.38
507.289	102.38
507.506	90.38
507.722	117.38
507.939	117.38
508.155	111.38
508.372	89.38
508.588	96.38
508.805	102.38
509.021	85.38
509.238	99.38
509.454	108.38
509.67	117.38
509.887	111.38
510.103	139.38
510.319	237.38
510.536	825.38
510.752	2676.38
510.968	726.38
511.184	167.38
511.401	134.38
511.617	93.38
511.833	92.38
512.049	95.38
512.265	95.38
512.481	99.38
512.698	96.38
512.914	97.38
513.13	90.38
513.346	95.38
513.562	78.38
513.778	102.38
513.994	96.38
514.21	91.38
514.426	122.38
514.642	128.38
514.858	131.38
515.074	188.38
515.29	542.38
515.506	1842.38
515.721	671.38
