Data from Uncirc_1991_H10_HRD10591_00100.txt Node
Date: Wed Jan 03 11:50:58 EST 2024
User: Yrep
Spectrometer: HR+D1059
Trigger mode: 1
Integration Time (sec): 1.000000E-1
Scans to average: 1
Electric dark correction enabled: true
Nonlinearity correction enabled: false
Boxcar width: 0
XAxis mode: Wavelengths
Number of Pixels in Spectrum: 2048
>>>>>Begin Spectral Data<<<<<
223.165	-13.25
223.4	-13.25
223.635	-13.25
223.869	-20.25
224.104	-17.25
224.338	-20.25
224.573	-22.25
224.808	-12.25
225.042	-11.25
225.277	-9.25
225.511	7.75
225.746	1.75
225.98	11.75
226.215	16.75
226.449	11.75
226.683	15.75
226.918	23.75
227.152	36.75
227.387	37.75
227.621	34.75
227.856	39.75
228.09	46.75
228.324	53.75
228.559	54.75
228.793	57.75
229.027	55.75
229.262	58.75
229.496	67.75
229.73	78.75
229.964	94.75
230.199	84.75
230.433	72.75
230.667	76.75
230.901	62.75
231.136	73.75
231.37	75.75
231.604	73.75
231.838	82.75
232.072	81.75
232.306	77.75
232.541	86.75
232.775	79.75
233.009	72.75
233.243	79.75
233.477	73.75
233.711	91.75
233.945	88.75
234.179	89.75
234.413	79.75
234.647	75.75
234.881	81.75
235.115	79.75
235.349	72.75
235.583	73.75
235.817	84.75
236.051	83.75
236.285	69.75
236.519	62.75
236.753	65.75
236.987	71.75
237.221	87.75
237.455	83.75
237.689	83.75
237.922	84.75
238.156	64.75
238.39	79.75
238.624	74.75
238.858	71.75
239.091	65.75
239.325	75.75
239.559	83.75
239.793	75.75
240.027	74.75
240.26	86.75
240.494	83.75
240.728	71.75
240.961	72.75
241.195	73.75
241.429	81.75
241.662	75.75
241.896	73.75
242.13	73.75
242.363	75.75
242.597	85.75
242.83	54.75
243.064	71.75
243.298	86.75
243.531	79.75
243.765	78.75
243.998	70.75
244.232	77.75
244.465	73.75
244.699	86.75
244.932	71.75
245.166	79.75
245.399	88.75
245.633	76.75
245.866	97.75
246.099	79.75
246.333	80.75
246.566	78.75
246.8	81.75
247.033	87.75
247.266	77.75
247.5	84.75
247.733	80.75
247.966	82.75
248.2	80.75
248.433	74.75
248.666	80.75
248.899	83.75
249.133	94.75
249.366	95.75
249.599	93.75
249.832	71.75
250.066	81.75
250.299	77.75
250.532	82.75
250.765	74.75
250.998	64.75
251.231	84.75
251.465	66.75
251.698	81.75
251.931	80.75
252.164	73.75
252.397	77.75
252.63	76.75
252.863	71.75
253.096	80.75
253.329	68.75
253.562	69.75
253.795	77.75
254.028	85.75
254.261	85.75
254.494	86.75
254.727	91.75
254.96	77.75
255.193	80.75
255.426	91.75
255.659	80.75
255.892	87.75
256.124	61.75
256.357	74.75
256.59	81.75
256.823	75.75
257.056	87.75
257.289	71.75
257.521	64.75
257.754	66.75
257.987	79.75
258.22	86.75
258.452	79.75
258.685	74.75
258.918	77.75
259.151	78.75
259.383	81.75
259.616	67.75
259.849	77.75
260.081	76.75
260.314	83.75
260.547	84.75
260.779	80.75
261.012	66.75
261.244	80.75
261.477	95.75
261.71	100.75
261.942	109.75
262.175	107.75
262.407	107.75
262.64	73.75
262.872	91.75
263.105	78.75
263.337	71.75
263.57	59.75
263.802	93.75
264.035	72.75
264.267	72.75
264.499	94.75
264.732	81.75
264.964	83.75
265.197	75.75
265.429	84.75
265.661	90.75
265.894	80.75
266.126	85.75
266.358	77.75
266.591	75.75
266.823	99.75
267.055	88.75
267.287	92.75
267.52	84.75
267.752	83.75
267.984	81.75
268.216	88.75
268.448	79.75
268.681	79.75
268.913	84.75
269.145	81.75
269.377	79.75
269.609	80.75
269.841	98.75
270.073	75.75
270.306	81.75
270.538	78.75
270.77	66.75
271.002	73.75
271.234	73.75
271.466	83.75
271.698	83.75
271.93	81.75
272.162	69.75
272.394	89.75
272.626	79.75
272.858	91.75
273.09	93.75
273.322	76.75
273.553	74.75
273.785	84.75
274.017	94.75
274.249	104.75
274.481	82.75
274.713	83.75
274.945	92.75
275.176	78.75
275.408	86.75
275.64	85.75
275.872	82.75
276.104	80.75
276.335	88.75
276.567	113.75
276.799	103.75
277.031	103.75
277.262	103.75
277.494	82.75
277.726	90.75
277.957	91.75
278.189	81.75
278.421	81.75
278.652	87.75
278.884	84.75
279.115	73.75
279.347	87.75
279.579	97.75
279.81	79.75
280.042	97.75
280.273	84.75
280.505	74.75
280.736	85.75
280.968	94.75
281.199	75.75
281.431	96.75
281.662	75.75
281.894	81.75
282.125	112.75
282.356	132.75
282.588	160.75
282.819	135.75
283.051	93.75
283.282	79.75
283.513	90.75
283.745	85.75
283.976	86.75
284.207	85.75
284.439	81.75
284.67	90.75
284.901	84.75
285.132	85.75
285.364	82.75
285.595	96.75
285.826	77.75
286.057	77.75
286.288	95.75
286.52	101.75
286.751	87.75
286.982	100.75
287.213	86.75
287.444	84.75
287.675	81.75
287.906	80.75
288.138	73.75
288.369	97.75
288.6	91.75
288.831	86.75
289.062	94.75
289.293	88.75
289.524	97.75
289.755	78.75
289.986	73.75
290.217	76.75
290.448	104.75
290.679	89.75
290.91	86.75
291.141	92.75
291.371	91.75
291.602	91.75
291.833	87.75
292.064	96.75
292.295	84.75
292.526	87.75
292.757	90.75
292.987	96.75
293.218	81.75
293.449	81.75
293.68	94.75
293.91	87.75
294.141	78.75
294.372	89.75
294.603	77.75
294.833	96.75
295.064	91.75
295.295	93.75
295.525	82.75
295.756	91.75
295.987	108.75
296.217	140.75
296.448	113.75
296.679	101.75
296.909	81.75
297.14	82.75
297.37	85.75
297.601	92.75
297.831	88.75
298.062	87.75
298.292	84.75
298.523	73.75
298.753	68.75
298.984	81.75
299.214	88.75
299.445	83.75
299.675	104.75
299.905	103.75
300.136	83.75
300.366	96.75
300.597	96.75
300.827	89.75
301.057	101.75
301.288	89.75
301.518	103.75
301.748	87.75
301.979	95.75
302.209	105.75
302.439	95.75
302.669	82.75
302.9	89.75
303.13	83.75
303.36	89.75
303.59	98.75
303.82	98.75
304.051	86.75
304.281	93.75
304.511	88.75
304.741	77.75
304.971	88.75
305.201	105.75
305.431	88.75
305.661	64.75
305.891	86.75
306.121	102.75
306.352	104.75
306.582	117.75
306.812	98.75
307.042	100.75
307.272	82.75
307.502	90.75
307.731	95.75
307.961	89.75
308.191	102.75
308.421	92.75
308.651	81.75
308.881	86.75
309.111	94.75
309.341	91.75
309.571	107.75
309.8	88.75
310.03	92.75
310.26	100.75
310.49	103.75
310.72	96.75
310.949	99.75
311.179	113.75
311.409	95.75
311.639	100.75
311.868	101.75
312.098	96.75
312.328	112.75
312.557	107.75
312.787	119.75
313.017	114.75
313.246	96.75
313.476	91.75
313.706	90.75
313.935	92.75
314.165	101.75
314.394	102.75
314.624	75.75
314.853	97.75
315.083	95.75
315.312	87.75
315.542	81.75
315.771	81.75
316.001	88.75
316.23	74.75
316.46	92.75
316.689	101.75
316.919	85.75
317.148	103.75
317.377	84.75
317.607	87.75
317.836	88.75
318.065	90.75
318.295	87.75
318.524	85.75
318.753	87.75
318.983	101.75
319.212	97.75
319.441	111.75
319.67	97.75
319.9	107.75
320.129	95.75
320.358	77.75
320.587	105.75
320.816	99.75
321.046	91.75
321.275	97.75
321.504	91.75
321.733	91.75
321.962	109.75
322.191	110.75
322.42	90.75
322.649	112.75
322.878	114.75
323.108	121.75
323.337	115.75
323.566	147.75
323.795	183.75
324.024	220.75
324.253	446.75
324.482	946.75
324.71	1994.75
324.939	2677.75
325.168	980.75
325.397	265.75
325.626	152.75
325.855	137.75
326.084	136.75
326.313	130.75
326.542	162.75
326.77	238.75
326.999	490.75
327.228	1064.75
327.457	1959.75
327.686	1550.75
327.914	413.75
328.143	211.75
328.372	161.75
328.6	153.75
328.829	129.75
329.058	139.75
329.287	129.75
329.515	112.75
329.744	111.75
329.972	99.75
330.201	94.75
330.43	126.75
330.658	126.75
330.887	169.75
331.115	154.75
331.344	107.75
331.572	108.75
331.801	106.75
332.03	104.75
332.258	106.75
332.486	82.75
332.715	85.75
332.943	92.75
333.172	94.75
333.4	106.75
333.629	102.75
333.857	128.75
334.085	101.75
334.314	87.75
334.542	121.75
334.771	112.75
334.999	88.75
335.227	105.75
335.455	107.75
335.684	93.75
335.912	90.75
336.14	99.75
336.369	88.75
336.597	110.75
336.825	111.75
337.053	95.75
337.281	89.75
337.51	77.75
337.738	80.75
337.966	85.75
338.194	98.75
338.422	91.75
338.65	89.75
338.878	108.75
339.106	83.75
339.334	98.75
339.562	90.75
339.79	100.75
340.018	88.75
340.246	84.75
340.474	100.75
340.702	105.75
340.93	81.75
341.158	104.75
341.386	103.75
341.614	99.75
341.842	108.75
342.07	83.75
342.298	95.75
342.526	92.75
342.754	102.75
342.981	87.75
343.209	84.75
343.437	83.75
343.665	88.75
343.893	94.75
344.12	81.75
344.348	90.75
344.576	93.75
344.804	81.75
345.031	96.75
345.259	99.75
345.487	87.75
345.714	85.75
345.942	97.75
346.17	97.75
346.397	88.75
346.625	99.75
346.853	91.75
347.08	101.75
347.308	91.75
347.535	95.75
347.763	101.75
347.99	98.75
348.218	107.75
348.445	108.75
348.673	88.75
348.9	101.75
349.128	91.75
349.355	98.75
349.583	99.75
349.81	91.75
350.037	101.75
350.265	93.75
350.492	99.75
350.72	90.75
350.947	91.75
351.174	110.75
351.402	105.75
351.629	107.75
351.856	100.75
352.083	103.75
352.311	106.75
352.538	107.75
352.765	110.75
352.992	111.75
353.22	111.75
353.447	93.75
353.674	98.75
353.901	105.75
354.128	92.75
354.355	97.75
354.583	101.75
354.81	91.75
355.037	85.75
355.264	91.75
355.491	79.75
355.718	103.75
355.945	93.75
356.172	89.75
356.399	99.75
356.626	92.75
356.853	82.75
357.08	84.75
357.307	95.75
357.534	91.75
357.761	89.75
357.988	67.75
358.215	87.75
358.441	84.75
358.668	79.75
358.895	85.75
359.122	88.75
359.349	92.75
359.576	88.75
359.802	92.75
360.029	114.75
360.256	108.75
360.483	103.75
360.709	94.75
360.936	95.75
361.163	99.75
361.39	75.75
361.616	88.75
361.843	97.75
362.07	96.75
362.296	92.75
362.523	94.75
362.749	88.75
362.976	93.75
363.203	80.75
363.429	77.75
363.656	90.75
363.882	79.75
364.109	66.75
364.335	91.75
364.562	77.75
364.788	91.75
365.015	89.75
365.241	103.75
365.468	112.75
365.694	104.75
365.92	101.75
366.147	84.75
366.373	107.75
366.599	105.75
366.826	95.75
367.052	88.75
367.278	97.75
367.505	90.75
367.731	107.75
367.957	95.75
368.184	90.75
368.41	100.75
368.636	106.75
368.862	126.75
369.089	109.75
369.315	109.75
369.541	92.75
369.767	97.75
369.993	98.75
370.219	97.75
370.445	81.75
370.672	63.75
370.898	101.75
371.124	95.75
371.35	94.75
371.576	94.75
371.802	86.75
372.028	91.75
372.254	85.75
372.48	81.75
372.706	75.75
372.932	73.75
373.158	88.75
373.384	95.75
373.61	81.75
373.835	87.75
374.061	81.75
374.287	90.75
374.513	92.75
374.739	96.75
374.965	88.75
375.191	85.75
375.416	96.75
375.642	86.75
375.868	89.75
376.094	83.75
376.319	91.75
376.545	85.75
376.771	89.75
376.997	91.75
377.222	93.75
377.448	93.75
377.674	90.75
377.899	82.75
378.125	79.75
378.35	84.75
378.576	79.75
378.802	97.75
379.027	90.75
379.253	84.75
379.478	100.75
379.704	91.75
379.929	88.75
380.155	79.75
380.38	98.75
380.606	84.75
380.831	93.75
381.057	97.75
381.282	87.75
381.507	95.75
381.733	93.75
381.958	93.75
382.184	98.75
382.409	92.75
382.634	89.75
382.86	83.75
383.085	94.75
383.31	96.75
383.535	92.75
383.761	92.75
383.986	90.75
384.211	97.75
384.436	99.75
384.662	93.75
384.887	101.75
385.112	90.75
385.337	95.75
385.562	99.75
385.787	93.75
386.013	103.75
386.238	110.75
386.463	99.75
386.688	92.75
386.913	102.75
387.138	104.75
387.363	81.75
387.588	98.75
387.813	96.75
388.038	107.75
388.263	105.75
388.488	104.75
388.713	108.75
388.938	83.75
389.163	99.75
389.387	89.75
389.612	87.75
389.837	89.75
390.062	90.75
390.287	94.75
390.512	91.75
390.736	96.75
390.961	94.75
391.186	91.75
391.411	98.75
391.636	97.75
391.86	97.75
392.085	92.75
392.31	82.75
392.534	82.75
392.759	94.75
392.984	81.75
393.208	93.75
393.433	73.75
393.658	85.75
393.882	74.75
394.107	77.75
394.331	74.75
394.556	95.75
394.78	92.75
395.005	83.75
395.229	83.75
395.454	74.75
395.678	87.75
395.903	76.75
396.127	99.75
396.352	87.75
396.576	94.75
396.801	92.75
397.025	95.75
397.249	95.75
397.474	94.75
397.698	84.75
397.922	87.75
398.147	95.75
398.371	82.75
398.595	89.75
398.82	85.75
399.044	81.75
399.268	81.75
399.492	72.75
399.717	92.75
399.941	100.75
400.165	89.75
400.389	91.75
400.613	84.75
400.837	76.75
401.062	92.75
401.286	84.75
401.51	90.75
401.734	91.75
401.958	97.75
402.182	123.75
402.406	181.75
402.63	137.75
402.854	107.75
403.078	90.75
403.302	85.75
403.526	93.75
403.75	81.75
403.974	79.75
404.198	81.75
404.422	95.75
404.645	81.75
404.869	95.75
405.093	100.75
405.317	98.75
405.541	108.75
405.765	106.75
405.988	126.75
406.212	198.75
406.436	271.75
406.66	170.75
406.883	111.75
407.107	99.75
407.331	103.75
407.555	105.75
407.778	94.75
408.002	87.75
408.226	88.75
408.449	97.75
408.673	104.75
408.896	101.75
409.12	92.75
409.344	107.75
409.567	92.75
409.791	91.75
410.014	82.75
410.238	90.75
410.461	79.75
410.685	87.75
410.908	95.75
411.132	96.75
411.355	109.75
411.578	81.75
411.802	77.75
412.025	91.75
412.249	83.75
412.472	85.75
412.695	86.75
412.919	99.75
413.142	82.75
413.365	83.75
413.589	80.75
413.812	83.75
414.035	92.75
414.258	87.75
414.482	90.75
414.705	74.75
414.928	81.75
415.151	91.75
415.374	79.75
415.597	77.75
415.821	93.75
416.044	81.75
416.267	90.75
416.49	93.75
416.713	91.75
416.936	78.75
417.159	82.75
417.382	89.75
417.605	87.75
417.828	100.75
418.051	94.75
418.274	87.75
418.497	87.75
418.72	76.75
418.943	90.75
419.166	89.75
419.389	82.75
419.611	73.75
419.834	91.75
420.057	88.75
420.28	84.75
420.503	90.75
420.726	91.75
420.948	97.75
421.171	93.75
421.394	100.75
421.617	82.75
421.839	97.75
422.062	82.75
422.285	88.75
422.507	97.75
422.73	104.75
422.953	92.75
423.175	95.75
423.398	100.75
423.621	87.75
423.843	88.75
424.066	75.75
424.288	81.75
424.511	89.75
424.733	108.75
424.956	128.75
425.178	112.75
425.401	89.75
425.623	109.75
425.846	108.75
426.068	92.75
426.291	76.75
426.513	104.75
426.735	86.75
426.958	111.75
427.18	100.75
427.402	151.75
427.625	186.75
427.847	137.75
428.069	107.75
428.292	85.75
428.514	96.75
428.736	81.75
428.958	101.75
429.181	93.75
429.403	76.75
429.625	94.75
429.847	105.75
430.069	100.75
430.292	105.75
430.514	82.75
430.736	80.75
430.958	74.75
431.18	81.75
431.402	84.75
431.624	79.75
431.846	93.75
432.068	86.75
432.29	75.75
432.512	100.75
432.734	90.75
432.956	88.75
433.178	102.75
433.4	107.75
433.622	91.75
433.844	97.75
434.066	91.75
434.287	88.75
434.509	88.75
434.731	86.75
434.953	83.75
435.175	83.75
435.397	87.75
435.618	101.75
435.84	96.75
436.062	140.75
436.284	128.75
436.505	131.75
436.727	103.75
436.949	83.75
437.17	89.75
437.392	93.75
437.614	98.75
437.835	114.75
438.057	133.75
438.278	112.75
438.5	101.75
438.721	123.75
438.943	98.75
439.165	79.75
439.386	91.75
439.608	104.75
439.829	105.75
440.05	135.75
440.272	141.75
440.493	111.75
440.715	87.75
440.936	84.75
441.158	92.75
441.379	88.75
441.6	88.75
441.822	110.75
442.043	88.75
442.264	125.75
442.486	98.75
442.707	90.75
442.928	106.75
443.149	138.75
443.371	159.75
443.592	108.75
443.813	114.75
444.034	111.75
444.255	96.75
444.476	98.75
444.698	86.75
444.919	76.75
445.14	126.75
445.361	122.75
445.582	117.75
445.803	162.75
446.024	162.75
446.245	171.75
446.466	111.75
446.687	83.75
446.908	87.75
447.129	101.75
447.35	89.75
447.571	81.75
447.792	98.75
448.013	116.75
448.234	120.75
448.455	97.75
448.675	114.75
448.896	144.75
449.117	89.75
449.338	118.75
449.559	139.75
449.779	153.75
450	105.75
450.221	100.75
450.442	99.75
450.662	93.75
450.883	104.75
451.104	101.75
451.324	103.75
451.545	84.75
451.766	84.75
451.986	89.75
452.207	100.75
452.428	92.75
452.648	91.75
452.869	116.75
453.089	112.75
453.31	119.75
453.53	92.75
453.751	83.75
453.971	101.75
454.192	129.75
454.412	99.75
454.633	83.75
454.853	80.75
455.073	81.75
455.294	107.75
455.514	115.75
455.734	95.75
455.955	83.75
456.175	75.75
456.395	91.75
456.616	82.75
456.836	101.75
457.056	96.75
457.276	80.75
457.497	76.75
457.717	79.75
457.937	81.75
458.157	92.75
458.377	97.75
458.598	114.75
458.818	186.75
459.038	179.75
459.258	125.75
459.478	90.75
459.698	92.75
459.918	102.75
460.138	81.75
460.358	93.75
460.578	89.75
460.798	90.75
461.018	89.75
461.238	69.75
461.458	92.75
461.678	83.75
461.898	82.75
462.118	85.75
462.338	85.75
462.558	80.75
462.777	83.75
462.997	92.75
463.217	74.75
463.437	90.75
463.657	95.75
463.876	93.75
464.096	97.75
464.316	97.75
464.536	98.75
464.755	93.75
464.975	113.75
465.195	181.75
465.414	190.75
465.634	106.75
465.854	78.75
466.073	91.75
466.293	79.75
466.512	80.75
466.732	84.75
466.951	92.75
467.171	107.75
467.391	98.75
467.61	101.75
467.829	93.75
468.049	92.75
468.268	96.75
468.488	88.75
468.707	82.75
468.927	75.75
469.146	81.75
469.365	79.75
469.585	85.75
469.804	86.75
470.023	91.75
470.243	84.75
470.462	98.75
470.681	129.75
470.901	92.75
471.12	83.75
471.339	90.75
471.558	89.75
471.777	80.75
471.997	83.75
472.216	86.75
472.435	74.75
472.654	75.75
472.873	92.75
473.092	76.75
473.311	85.75
473.53	78.75
473.749	85.75
473.968	98.75
474.187	107.75
474.406	82.75
474.625	95.75
474.844	96.75
475.063	91.75
475.282	72.75
475.501	90.75
475.72	90.75
475.939	73.75
476.158	83.75
476.377	78.75
476.596	77.75
476.814	101.75
477.033	88.75
477.252	80.75
477.471	75.75
477.69	87.75
477.908	81.75
478.127	83.75
478.346	71.75
478.564	88.75
478.783	85.75
479.002	103.75
479.22	90.75
479.439	101.75
479.658	113.75
479.876	109.75
480.095	81.75
480.313	77.75
480.532	102.75
480.751	91.75
480.969	95.75
481.188	92.75
481.406	85.75
481.624	80.75
481.843	92.75
482.061	86.75
482.28	90.75
482.498	74.75
482.717	98.75
482.935	85.75
483.153	76.75
483.372	81.75
483.59	100.75
483.808	96.75
484.027	95.75
484.245	95.75
484.463	96.75
484.681	104.75
484.9	95.75
485.118	102.75
485.336	97.75
485.554	103.75
485.772	95.75
485.99	103.75
486.209	99.75
486.427	116.75
486.645	124.75
486.863	114.75
487.081	101.75
487.299	103.75
487.517	87.75
487.735	91.75
487.953	86.75
488.171	91.75
488.389	100.75
488.607	108.75
488.825	90.75
489.043	83.75
489.261	81.75
489.479	95.75
489.696	94.75
489.914	91.75
490.132	80.75
490.35	94.75
490.568	88.75
490.786	80.75
491.003	77.75
491.221	80.75
491.439	90.75
491.657	101.75
491.874	91.75
492.092	98.75
492.31	95.75
492.527	80.75
492.745	79.75
492.963	82.75
493.18	87.75
493.398	85.75
493.615	89.75
493.833	83.75
494.05	91.75
494.268	82.75
494.485	75.75
494.703	93.75
494.92	81.75
495.138	93.75
495.355	75.75
495.573	96.75
495.79	93.75
496.008	92.75
496.225	79.75
496.442	91.75
496.66	90.75
496.877	106.75
497.094	90.75
497.312	98.75
497.529	83.75
497.746	92.75
497.963	102.75
498.181	84.75
498.398	87.75
498.615	96.75
498.832	107.75
499.049	94.75
499.267	82.75
499.484	89.75
499.701	87.75
499.918	101.75
500.135	100.75
500.352	99.75
500.569	91.75
500.786	92.75
501.003	92.75
501.22	101.75
501.437	86.75
501.654	97.75
501.871	107.75
502.088	96.75
502.305	88.75
502.522	93.75
502.739	93.75
502.956	84.75
503.172	92.75
503.389	95.75
503.606	118.75
503.823	101.75
504.04	95.75
504.256	67.75
504.473	82.75
504.69	87.75
504.907	101.75
505.123	106.75
505.34	87.75
505.557	83.75
505.773	93.75
505.99	100.75
506.207	71.75
506.423	81.75
506.64	91.75
506.856	85.75
507.073	86.75
507.289	91.75
507.506	102.75
507.722	127.75
507.939	116.75
508.155	88.75
508.372	88.75
508.588	96.75
508.805	83.75
509.021	94.75
509.238	87.75
509.454	113.75
509.67	119.75
509.887	120.75
510.103	151.75
510.319	240.75
510.536	902.75
510.752	2877.75
510.968	763.75
511.184	177.75
511.401	120.75
511.617	92.75
511.833	101.75
512.049	97.75
512.265	89.75
512.481	104.75
512.698	90.75
512.914	96.75
513.13	93.75
513.346	77.75
513.562	88.75
513.778	101.75
513.994	102.75
514.21	116.75
514.426	132.75
514.642	165.75
514.858	152.75
515.074	201.75
515.29	571.75
515.506	1967.75
