Data from Uncirc_1991_H10_HRD10591_00031.txt Node
Date: Wed Jan 03 11:50:44 EST 2024
User: Yrep
Spectrometer: HR+D1059
Trigger mode: 1
Integration Time (sec): 1.000000E-1
Scans to average: 1
Electric dark correction enabled: true
Nonlinearity correction enabled: false
Boxcar width: 0
XAxis mode: Wavelengths
Number of Pixels in Spectrum: 2048
>>>>>Begin Spectral Data<<<<<
223.165	-26.19
223.4	-26.19
223.635	-26.19
223.869	-10.19
224.104	-6.19
224.338	-18.19
224.573	-23.19
224.808	-7.19
225.042	-25.19
225.277	-15.19
225.511	0.81
225.746	-2.19
225.98	11.81
226.215	3.81
226.449	19.81
226.683	11.81
226.918	40.81
227.152	44.81
227.387	23.81
227.621	46.81
227.856	50.81
228.09	46.81
228.324	32.81
228.559	62.81
228.793	59.81
229.027	55.81
229.262	69.81
229.496	76.81
229.73	93.81
229.964	72.81
230.199	66.81
230.433	78.81
230.667	78.81
230.901	85.81
231.136	76.81
231.37	76.81
231.604	77.81
231.838	86.81
232.072	82.81
232.306	87.81
232.541	81.81
232.775	79.81
233.009	72.81
233.243	79.81
233.477	81.81
233.711	75.81
233.945	68.81
234.179	80.81
234.413	84.81
234.647	92.81
234.881	76.81
235.115	71.81
235.349	78.81
235.583	70.81
235.817	62.81
236.051	80.81
236.285	68.81
236.519	72.81
236.753	68.81
236.987	86.81
237.221	80.81
237.455	82.81
237.689	78.81
237.922	67.81
238.156	70.81
238.39	69.81
238.624	88.81
238.858	71.81
239.091	76.81
239.325	62.81
239.559	79.81
239.793	78.81
240.027	78.81
240.26	66.81
240.494	78.81
240.728	76.81
240.961	75.81
241.195	84.81
241.429	71.81
241.662	71.81
241.896	65.81
242.13	87.81
242.363	84.81
242.597	80.81
242.83	83.81
243.064	86.81
243.298	67.81
243.531	67.81
243.765	77.81
243.998	82.81
244.232	84.81
244.465	86.81
244.699	81.81
244.932	79.81
245.166	78.81
245.399	75.81
245.633	72.81
245.866	66.81
246.099	83.81
246.333	80.81
246.566	67.81
246.8	84.81
247.033	69.81
247.266	94.81
247.5	84.81
247.733	70.81
247.966	72.81
248.2	90.81
248.433	74.81
248.666	80.81
248.899	82.81
249.133	74.81
249.366	100.81
249.599	109.81
249.832	80.81
250.066	85.81
250.299	80.81
250.532	83.81
250.765	76.81
250.998	83.81
251.231	83.81
251.465	76.81
251.698	90.81
251.931	87.81
252.164	92.81
252.397	76.81
252.63	78.81
252.863	94.81
253.096	90.81
253.329	83.81
253.562	81.81
253.795	72.81
254.028	86.81
254.261	75.81
254.494	86.81
254.727	78.81
254.96	92.81
255.193	83.81
255.426	78.81
255.659	82.81
255.892	98.81
256.124	72.81
256.357	82.81
256.59	82.81
256.823	75.81
257.056	91.81
257.289	78.81
257.521	83.81
257.754	75.81
257.987	75.81
258.22	85.81
258.452	72.81
258.685	83.81
258.918	80.81
259.151	85.81
259.383	90.81
259.616	72.81
259.849	74.81
260.081	82.81
260.314	78.81
260.547	82.81
260.779	90.81
261.012	75.81
261.244	87.81
261.477	96.81
261.71	86.81
261.942	100.81
262.175	101.81
262.407	90.81
262.64	91.81
262.872	87.81
263.105	85.81
263.337	78.81
263.57	79.81
263.802	80.81
264.035	84.81
264.267	80.81
264.499	93.81
264.732	92.81
264.964	94.81
265.197	90.81
265.429	87.81
265.661	82.81
265.894	90.81
266.126	62.81
266.358	79.81
266.591	81.81
266.823	82.81
267.055	75.81
267.287	99.81
267.52	78.81
267.752	84.81
267.984	84.81
268.216	82.81
268.448	84.81
268.681	76.81
268.913	83.81
269.145	78.81
269.377	76.81
269.609	92.81
269.841	96.81
270.073	81.81
270.306	85.81
270.538	78.81
270.77	94.81
271.002	78.81
271.234	83.81
271.466	78.81
271.698	86.81
271.93	83.81
272.162	91.81
272.394	81.81
272.626	79.81
272.858	92.81
273.09	83.81
273.322	80.81
273.553	84.81
273.785	89.81
274.017	84.81
274.249	91.81
274.481	83.81
274.713	94.81
274.945	97.81
275.176	74.81
275.408	91.81
275.64	110.81
275.872	64.81
276.104	78.81
276.335	101.81
276.567	102.81
276.799	111.81
277.031	99.81
277.262	92.81
277.494	90.81
277.726	85.81
277.957	81.81
278.189	78.81
278.421	73.81
278.652	87.81
278.884	84.81
279.115	106.81
279.347	91.81
279.579	86.81
279.81	91.81
280.042	78.81
280.273	87.81
280.505	102.81
280.736	88.81
280.968	93.81
281.199	100.81
281.431	88.81
281.662	68.81
281.894	90.81
282.125	122.81
282.356	118.81
282.588	150.81
282.819	127.81
283.051	92.81
283.282	84.81
283.513	100.81
283.745	92.81
283.976	79.81
284.207	92.81
284.439	93.81
284.67	93.81
284.901	92.81
285.132	94.81
285.364	96.81
285.595	103.81
285.826	95.81
286.057	78.81
286.288	80.81
286.52	86.81
286.751	78.81
286.982	86.81
287.213	64.81
287.444	78.81
287.675	79.81
287.906	95.81
288.138	72.81
288.369	95.81
288.6	107.81
288.831	81.81
289.062	79.81
289.293	93.81
289.524	77.81
289.755	93.81
289.986	87.81
290.217	86.81
290.448	83.81
290.679	91.81
290.91	101.81
291.141	80.81
291.371	86.81
291.602	96.81
291.833	94.81
292.064	104.81
292.295	85.81
292.526	83.81
292.757	89.81
292.987	84.81
293.218	94.81
293.449	85.81
293.68	92.81
293.91	93.81
294.141	82.81
294.372	77.81
294.603	80.81
294.833	93.81
295.064	97.81
295.295	93.81
295.525	93.81
295.756	97.81
295.987	119.81
296.217	127.81
296.448	126.81
296.679	96.81
296.909	91.81
297.14	97.81
297.37	89.81
297.601	92.81
297.831	85.81
298.062	104.81
298.292	91.81
298.523	99.81
298.753	92.81
298.984	89.81
299.214	92.81
299.445	99.81
299.675	96.81
299.905	91.81
300.136	87.81
300.366	98.81
300.597	81.81
300.827	93.81
301.057	110.81
301.288	98.81
301.518	93.81
301.748	98.81
301.979	101.81
302.209	89.81
302.439	94.81
302.669	79.81
302.9	100.81
303.13	83.81
303.36	90.81
303.59	87.81
303.82	100.81
304.051	80.81
304.281	89.81
304.511	84.81
304.741	90.81
304.971	89.81
305.201	94.81
305.431	94.81
305.661	102.81
305.891	83.81
306.121	83.81
306.352	90.81
306.582	97.81
306.812	95.81
307.042	92.81
307.272	107.81
307.502	96.81
307.731	94.81
307.961	96.81
308.191	87.81
308.421	95.81
308.651	88.81
308.881	89.81
309.111	94.81
309.341	90.81
309.571	96.81
309.8	89.81
310.03	100.81
310.26	107.81
310.49	111.81
310.72	108.81
310.949	96.81
311.179	90.81
311.409	99.81
311.639	104.81
311.868	107.81
312.098	106.81
312.328	86.81
312.557	76.81
312.787	97.81
313.017	90.81
313.246	99.81
313.476	90.81
313.706	86.81
313.935	85.81
314.165	113.81
314.394	101.81
314.624	102.81
314.853	81.81
315.083	118.81
315.312	96.81
315.542	92.81
315.771	80.81
316.001	95.81
316.23	84.81
316.46	102.81
316.689	82.81
316.919	95.81
317.148	96.81
317.377	93.81
317.607	90.81
317.836	92.81
318.065	104.81
318.295	94.81
318.524	100.81
318.753	86.81
318.983	102.81
319.212	102.81
319.441	109.81
319.67	102.81
319.9	90.81
320.129	95.81
320.358	90.81
320.587	88.81
320.816	94.81
321.046	97.81
321.275	100.81
321.504	106.81
321.733	94.81
321.962	114.81
322.191	82.81
322.42	103.81
322.649	107.81
322.878	94.81
323.108	129.81
323.337	115.81
323.566	135.81
323.795	158.81
324.024	214.81
324.253	410.81
324.482	938.81
324.71	1903.81
324.939	2644.81
325.168	954.81
325.397	271.81
325.626	158.81
325.855	127.81
326.084	125.81
326.313	147.81
326.542	158.81
326.77	238.81
326.999	507.81
327.228	1030.81
327.457	1958.81
327.686	1572.81
327.914	405.81
328.143	195.81
328.372	154.81
328.6	118.81
328.829	129.81
329.058	129.81
329.287	140.81
329.515	116.81
329.744	106.81
329.972	107.81
330.201	105.81
330.43	112.81
330.658	114.81
330.887	141.81
331.115	124.81
331.344	104.81
331.572	122.81
331.801	107.81
332.03	99.81
332.258	99.81
332.486	106.81
332.715	88.81
332.943	104.81
333.172	102.81
333.4	98.81
333.629	107.81
333.857	113.81
334.085	109.81
334.314	105.81
334.542	93.81
334.771	102.81
334.999	102.81
335.227	108.81
335.455	95.81
335.684	98.81
335.912	103.81
336.14	100.81
336.369	104.81
336.597	116.81
336.825	102.81
337.053	91.81
337.281	87.81
337.51	90.81
337.738	92.81
337.966	84.81
338.194	94.81
338.422	95.81
338.65	87.81
338.878	94.81
339.106	96.81
339.334	95.81
339.562	94.81
339.79	86.81
340.018	102.81
340.246	89.81
340.474	106.81
340.702	94.81
340.93	86.81
341.158	82.81
341.386	90.81
341.614	91.81
341.842	94.81
342.07	86.81
342.298	90.81
342.526	94.81
342.754	78.81
342.981	90.81
343.209	84.81
343.437	102.81
343.665	101.81
343.893	87.81
344.12	84.81
344.348	97.81
344.576	86.81
344.804	92.81
345.031	86.81
345.259	96.81
345.487	92.81
345.714	86.81
345.942	98.81
346.17	98.81
346.397	100.81
346.625	106.81
346.853	88.81
347.08	99.81
347.308	91.81
347.535	94.81
347.763	91.81
347.99	100.81
348.218	112.81
348.445	116.81
348.673	101.81
348.9	104.81
349.128	93.81
349.355	80.81
349.583	108.81
349.81	97.81
350.037	95.81
350.265	86.81
350.492	84.81
350.72	98.81
350.947	103.81
351.174	117.81
351.402	112.81
351.629	129.81
351.856	108.81
352.083	104.81
352.311	114.81
352.538	102.81
352.765	122.81
352.992	127.81
353.22	111.81
353.447	110.81
353.674	110.81
353.901	105.81
354.128	107.81
354.355	93.81
354.583	94.81
354.81	104.81
355.037	101.81
355.264	104.81
355.491	96.81
355.718	84.81
355.945	94.81
356.172	93.81
356.399	91.81
356.626	97.81
356.853	88.81
357.08	91.81
357.307	86.81
357.534	94.81
357.761	109.81
357.988	102.81
358.215	99.81
358.441	98.81
358.668	90.81
358.895	96.81
359.122	90.81
359.349	105.81
359.576	91.81
359.802	95.81
360.029	117.81
360.256	109.81
360.483	83.81
360.709	102.81
360.936	83.81
361.163	95.81
361.39	95.81
361.616	103.81
361.843	90.81
362.07	93.81
362.296	98.81
362.523	101.81
362.749	83.81
362.976	87.81
363.203	99.81
363.429	84.81
363.656	90.81
363.882	84.81
364.109	100.81
364.335	107.81
364.562	94.81
364.788	94.81
365.015	95.81
365.241	85.81
365.468	107.81
365.694	101.81
365.92	94.81
366.147	86.81
366.373	84.81
366.599	100.81
366.826	111.81
367.052	86.81
367.278	100.81
367.505	69.81
367.731	85.81
367.957	96.81
368.184	96.81
368.41	119.81
368.636	106.81
368.862	120.81
369.089	109.81
369.315	104.81
369.541	101.81
369.767	89.81
369.993	88.81
370.219	103.81
370.445	85.81
370.672	96.81
370.898	85.81
371.124	91.81
371.35	100.81
371.576	82.81
371.802	85.81
372.028	82.81
372.254	96.81
372.48	87.81
372.706	85.81
372.932	74.81
373.158	87.81
373.384	104.81
373.61	89.81
373.835	78.81
374.061	78.81
374.287	79.81
374.513	89.81
374.739	80.81
374.965	96.81
375.191	84.81
375.416	98.81
375.642	88.81
375.868	87.81
376.094	103.81
376.319	86.81
376.545	88.81
376.771	97.81
376.997	90.81
377.222	95.81
377.448	100.81
377.674	94.81
377.899	82.81
378.125	76.81
378.35	93.81
378.576	80.81
378.802	100.81
379.027	82.81
379.253	81.81
379.478	85.81
379.704	85.81
379.929	83.81
380.155	90.81
380.38	86.81
380.606	103.81
380.831	97.81
381.057	95.81
381.282	91.81
381.507	108.81
381.733	92.81
381.958	85.81
382.184	87.81
382.409	100.81
382.634	99.81
382.86	102.81
383.085	106.81
383.31	96.81
383.535	100.81
383.761	93.81
383.986	90.81
384.211	99.81
384.436	105.81
384.662	108.81
384.887	94.81
385.112	91.81
385.337	90.81
385.562	94.81
385.787	100.81
386.013	120.81
386.238	114.81
386.463	100.81
386.688	104.81
386.913	116.81
387.138	98.81
387.363	110.81
387.588	100.81
387.813	96.81
388.038	102.81
388.263	102.81
388.488	98.81
388.713	92.81
388.938	102.81
389.163	104.81
389.387	100.81
389.612	99.81
389.837	100.81
390.062	93.81
390.287	90.81
390.512	100.81
390.736	97.81
390.961	92.81
391.186	87.81
391.411	93.81
391.636	99.81
391.86	97.81
392.085	81.81
392.31	95.81
392.534	85.81
392.759	82.81
392.984	91.81
393.208	82.81
393.433	101.81
393.658	95.81
393.882	88.81
394.107	79.81
394.331	83.81
394.556	89.81
394.78	69.81
395.005	89.81
395.229	69.81
395.454	83.81
395.678	96.81
395.903	91.81
396.127	87.81
396.352	94.81
396.576	85.81
396.801	94.81
397.025	80.81
397.249	84.81
397.474	79.81
397.698	87.81
397.922	90.81
398.147	82.81
398.371	84.81
398.595	88.81
398.82	75.81
399.044	85.81
399.268	101.81
399.492	99.81
399.717	91.81
399.941	94.81
400.165	90.81
400.389	87.81
400.613	85.81
400.837	86.81
401.062	101.81
401.286	92.81
401.51	106.81
401.734	103.81
401.958	102.81
402.182	108.81
402.406	162.81
402.63	118.81
402.854	86.81
403.078	80.81
403.302	75.81
403.526	99.81
403.75	97.81
403.974	86.81
404.198	102.81
404.422	68.81
404.645	83.81
404.869	102.81
405.093	109.81
405.317	102.81
405.541	107.81
405.765	111.81
405.988	96.81
406.212	181.81
406.436	229.81
406.66	134.81
406.883	100.81
407.107	94.81
407.331	103.81
407.555	89.81
407.778	100.81
408.002	90.81
408.226	90.81
408.449	83.81
408.673	94.81
408.896	104.81
409.12	96.81
409.344	98.81
409.567	81.81
409.791	92.81
410.014	103.81
410.238	69.81
410.461	90.81
410.685	83.81
410.908	103.81
411.132	108.81
411.355	110.81
411.578	95.81
411.802	107.81
412.025	96.81
412.249	103.81
412.472	105.81
412.695	87.81
412.919	83.81
413.142	81.81
413.365	88.81
413.589	99.81
413.812	90.81
414.035	105.81
414.258	87.81
414.482	101.81
414.705	100.81
414.928	92.81
415.151	88.81
415.374	91.81
415.597	91.81
415.821	88.81
416.044	72.81
416.267	71.81
416.49	83.81
416.713	88.81
416.936	71.81
417.159	99.81
417.382	93.81
417.605	90.81
417.828	74.81
418.051	101.81
418.274	80.81
418.497	90.81
418.72	84.81
418.943	90.81
419.166	92.81
419.389	87.81
419.611	104.81
419.834	90.81
420.057	98.81
420.28	81.81
420.503	91.81
420.726	104.81
420.948	86.81
421.171	100.81
421.394	97.81
421.617	93.81
421.839	98.81
422.062	95.81
422.285	96.81
422.507	96.81
422.73	112.81
422.953	103.81
423.175	93.81
423.398	98.81
423.621	90.81
423.843	77.81
424.066	87.81
424.288	87.81
424.511	93.81
424.733	88.81
424.956	111.81
425.178	88.81
425.401	93.81
425.623	106.81
425.846	78.81
426.068	90.81
426.291	106.81
426.513	93.81
426.735	93.81
426.958	94.81
427.18	114.81
427.402	165.81
427.625	178.81
427.847	126.81
428.069	110.81
428.292	75.81
428.514	83.81
428.736	101.81
428.958	83.81
429.181	100.81
429.403	94.81
429.625	96.81
429.847	101.81
430.069	103.81
430.292	91.81
430.514	80.81
430.736	75.81
430.958	86.81
431.18	90.81
431.402	94.81
431.624	93.81
431.846	80.81
432.068	87.81
432.29	93.81
432.512	79.81
432.734	91.81
432.956	102.81
433.178	99.81
433.4	94.81
433.622	89.81
433.844	100.81
434.066	86.81
434.287	98.81
434.509	82.81
434.731	89.81
434.953	97.81
435.175	84.81
435.397	96.81
435.618	114.81
435.84	101.81
436.062	125.81
436.284	115.81
436.505	103.81
436.727	126.81
436.949	94.81
437.17	108.81
437.392	89.81
437.614	92.81
437.835	116.81
438.057	117.81
438.278	114.81
438.5	101.81
438.721	141.81
438.943	104.81
439.165	84.81
439.386	99.81
439.608	100.81
439.829	95.81
440.05	129.81
440.272	154.81
440.493	96.81
440.715	89.81
440.936	94.81
441.158	98.81
441.379	78.81
441.6	103.81
441.822	91.81
442.043	92.81
442.264	113.81
442.486	100.81
442.707	101.81
442.928	103.81
443.149	129.81
443.371	127.81
443.592	113.81
443.813	114.81
444.034	111.81
444.255	110.81
444.476	92.81
444.698	87.81
444.919	104.81
445.14	142.81
445.361	123.81
445.582	140.81
445.803	144.81
446.024	154.81
446.245	149.81
446.466	108.81
446.687	91.81
446.908	84.81
447.129	93.81
447.35	97.81
447.571	91.81
447.792	97.81
448.013	100.81
448.234	111.81
448.455	106.81
448.675	124.81
448.896	139.81
449.117	107.81
449.338	123.81
449.559	156.81
449.779	159.81
450	97.81
450.221	102.81
450.442	105.81
450.662	85.81
450.883	109.81
451.104	115.81
451.324	112.81
451.545	88.81
451.766	99.81
451.986	92.81
452.207	101.81
452.428	99.81
452.648	98.81
452.869	104.81
453.089	102.81
453.31	112.81
453.53	91.81
453.751	94.81
453.971	111.81
454.192	117.81
454.412	91.81
454.633	79.81
454.853	86.81
455.073	91.81
455.294	89.81
455.514	98.81
455.734	87.81
455.955	91.81
456.175	84.81
456.395	82.81
456.616	89.81
456.836	85.81
457.056	97.81
457.276	85.81
457.497	79.81
457.717	99.81
457.937	91.81
458.157	85.81
458.377	96.81
458.598	106.81
458.818	134.81
459.038	160.81
459.258	115.81
459.478	93.81
459.698	100.81
459.918	76.81
460.138	84.81
460.358	93.81
460.578	90.81
460.798	102.81
461.018	93.81
461.238	95.81
461.458	82.81
461.678	83.81
461.898	90.81
462.118	92.81
462.338	89.81
462.558	83.81
462.777	80.81
462.997	91.81
463.217	87.81
463.437	90.81
463.657	93.81
463.876	96.81
464.096	88.81
464.316	93.81
464.536	91.81
464.755	82.81
464.975	112.81
465.195	167.81
465.414	169.81
465.634	92.81
465.854	90.81
466.073	103.81
466.293	74.81
466.512	85.81
466.732	88.81
466.951	94.81
467.171	88.81
467.391	101.81
467.61	115.81
467.829	100.81
468.049	95.81
468.268	94.81
468.488	77.81
468.707	91.81
468.927	98.81
469.146	91.81
469.365	73.81
469.585	93.81
469.804	106.81
470.023	100.81
470.243	87.81
470.462	98.81
470.681	106.81
470.901	96.81
471.12	88.81
471.339	74.81
471.558	91.81
471.777	82.81
471.997	83.81
472.216	85.81
472.435	78.81
472.654	88.81
472.873	94.81
473.092	95.81
473.311	88.81
473.53	86.81
473.749	91.81
473.968	91.81
474.187	101.81
474.406	98.81
474.625	91.81
474.844	86.81
475.063	78.81
475.282	89.81
475.501	88.81
475.72	100.81
475.939	103.81
476.158	89.81
476.377	94.81
476.596	91.81
476.814	98.81
477.033	95.81
477.252	90.81
477.471	87.81
477.69	94.81
477.908	92.81
478.127	100.81
478.346	100.81
478.564	93.81
478.783	100.81
479.002	99.81
479.22	97.81
479.439	100.81
479.658	103.81
479.876	92.81
480.095	70.81
480.313	85.81
480.532	79.81
480.751	97.81
480.969	92.81
481.188	84.81
481.406	96.81
481.624	100.81
481.843	88.81
482.061	80.81
482.28	80.81
482.498	97.81
482.717	78.81
482.935	84.81
483.153	96.81
483.372	88.81
483.59	102.81
483.808	103.81
484.027	82.81
484.245	79.81
484.463	86.81
484.681	106.81
484.9	101.81
485.118	82.81
485.336	88.81
485.554	99.81
485.772	89.81
485.99	108.81
486.209	92.81
486.427	107.81
486.645	104.81
486.863	96.81
487.081	102.81
487.299	92.81
487.517	87.81
487.735	95.81
487.953	92.81
488.171	98.81
488.389	97.81
488.607	90.81
488.825	96.81
489.043	104.81
489.261	93.81
489.479	107.81
489.696	76.81
489.914	88.81
490.132	82.81
490.35	99.81
490.568	84.81
490.786	92.81
491.003	97.81
491.221	82.81
491.439	90.81
491.657	96.81
491.874	99.81
492.092	85.81
492.31	102.81
492.527	87.81
492.745	73.81
492.963	100.81
493.18	92.81
493.398	100.81
493.615	95.81
493.833	88.81
494.05	88.81
494.268	99.81
494.485	95.81
494.703	87.81
494.92	81.81
495.138	87.81
495.355	83.81
495.573	94.81
495.79	95.81
496.008	94.81
496.225	102.81
496.442	97.81
496.66	109.81
496.877	90.81
497.094	90.81
497.312	81.81
497.529	95.81
497.746	84.81
497.963	82.81
498.181	91.81
498.398	104.81
498.615	124.81
498.832	103.81
499.049	117.81
499.267	88.81
499.484	95.81
499.701	85.81
499.918	71.81
500.135	99.81
500.352	90.81
500.569	88.81
500.786	98.81
501.003	87.81
501.22	73.81
501.437	102.81
501.654	98.81
501.871	112.81
502.088	82.81
502.305	95.81
502.522	92.81
502.739	96.81
502.956	94.81
503.172	94.81
503.389	94.81
503.606	115.81
503.823	101.81
504.04	87.81
504.256	103.81
504.473	85.81
504.69	76.81
504.907	88.81
505.123	93.81
505.34	93.81
505.557	89.81
505.773	84.81
505.99	103.81
506.207	95.81
506.423	80.81
506.64	98.81
506.856	91.81
507.073	88.81
507.289	95.81
507.506	90.81
507.722	103.81
507.939	105.81
508.155	97.81
508.372	93.81
508.588	91.81
508.805	103.81
509.021	90.81
509.238	82.81
509.454	94.81
509.67	96.81
509.887	116.81
510.103	117.81
510.319	193.81
510.536	699.81
510.752	2258.81
510.968	604.81
511.184	162.81
511.401	109.81
511.617	98.81
511.833	91.81
512.049	81.81
512.265	94.81
512.481	88.81
512.698	98.81
512.914	88.81
513.13	94.81
513.346	91.81
513.562	90.81
513.778	84.81
513.994	101.81
514.21	81.81
514.426	115.81
514.642	126.81
514.858	137.81
