Data from Uncirc_1991_H10_HRD10591_00096.txt Node
Date: Wed Jan 03 11:50:57 EST 2024
User: Yrep
Spectrometer: HR+D1059
Trigger mode: 1
Integration Time (sec): 1.000000E-1
Scans to average: 1
Electric dark correction enabled: true
Nonlinearity correction enabled: false
Boxcar width: 0
XAxis mode: Wavelengths
Number of Pixels in Spectrum: 2048
>>>>>Begin Spectral Data<<<<<
223.165	-21.31
223.4	-21.31
223.635	-21.31
223.869	-17.31
224.104	-16.31
224.338	-11.31
224.573	-4.31
224.808	-12.31
225.042	-18.31
225.277	-6.31
225.511	1.69
225.746	1.69
225.98	14.69
226.215	5.69
226.449	-0.31
226.683	22.69
226.918	27.69
227.152	33.69
227.387	33.69
227.621	44.69
227.856	45.69
228.09	63.69
228.324	55.69
228.559	64.69
228.793	67.69
229.027	50.69
229.262	67.69
229.496	71.69
229.73	95.69
229.964	80.69
230.199	68.69
230.433	77.69
230.667	81.69
230.901	77.69
231.136	89.69
231.37	68.69
231.604	63.69
231.838	70.69
232.072	78.69
232.306	82.69
232.541	86.69
232.775	77.69
233.009	81.69
233.243	71.69
233.477	92.69
233.711	71.69
233.945	77.69
234.179	78.69
234.413	76.69
234.647	87.69
234.881	76.69
235.115	81.69
235.349	83.69
235.583	98.69
235.817	82.69
236.051	82.69
236.285	87.69
236.519	81.69
236.753	84.69
236.987	63.69
237.221	81.69
237.455	87.69
237.689	77.69
237.922	79.69
238.156	80.69
238.39	70.69
238.624	82.69
238.858	69.69
239.091	83.69
239.325	90.69
239.559	75.69
239.793	64.69
240.027	63.69
240.26	86.69
240.494	70.69
240.728	79.69
240.961	73.69
241.195	73.69
241.429	66.69
241.662	73.69
241.896	65.69
242.13	73.69
242.363	71.69
242.597	83.69
242.83	73.69
243.064	73.69
243.298	72.69
243.531	85.69
243.765	74.69
243.998	99.69
244.232	84.69
244.465	81.69
244.699	89.69
244.932	83.69
245.166	77.69
245.399	81.69
245.633	73.69
245.866	77.69
246.099	68.69
246.333	74.69
246.566	69.69
246.8	76.69
247.033	75.69
247.266	54.69
247.5	88.69
247.733	77.69
247.966	92.69
248.2	78.69
248.433	83.69
248.666	74.69
248.899	73.69
249.133	86.69
249.366	91.69
249.599	105.69
249.832	94.69
250.066	77.69
250.299	86.69
250.532	71.69
250.765	76.69
250.998	85.69
251.231	93.69
251.465	78.69
251.698	69.69
251.931	66.69
252.164	67.69
252.397	86.69
252.63	70.69
252.863	79.69
253.096	85.69
253.329	89.69
253.562	95.69
253.795	80.69
254.028	77.69
254.261	76.69
254.494	73.69
254.727	88.69
254.96	78.69
255.193	91.69
255.426	84.69
255.659	66.69
255.892	80.69
256.124	87.69
256.357	80.69
256.59	83.69
256.823	79.69
257.056	77.69
257.289	79.69
257.521	83.69
257.754	91.69
257.987	79.69
258.22	78.69
258.452	82.69
258.685	78.69
258.918	84.69
259.151	86.69
259.383	86.69
259.616	81.69
259.849	83.69
260.081	82.69
260.314	69.69
260.547	79.69
260.779	87.69
261.012	90.69
261.244	102.69
261.477	92.69
261.71	93.69
261.942	128.69
262.175	135.69
262.407	84.69
262.64	96.69
262.872	76.69
263.105	81.69
263.337	82.69
263.57	79.69
263.802	100.69
264.035	90.69
264.267	85.69
264.499	84.69
264.732	78.69
264.964	92.69
265.197	80.69
265.429	93.69
265.661	79.69
265.894	77.69
266.126	84.69
266.358	82.69
266.591	77.69
266.823	83.69
267.055	86.69
267.287	77.69
267.52	67.69
267.752	94.69
267.984	74.69
268.216	81.69
268.448	91.69
268.681	79.69
268.913	89.69
269.145	95.69
269.377	84.69
269.609	70.69
269.841	80.69
270.073	80.69
270.306	76.69
270.538	94.69
270.77	93.69
271.002	79.69
271.234	83.69
271.466	85.69
271.698	81.69
271.93	79.69
272.162	98.69
272.394	94.69
272.626	78.69
272.858	81.69
273.09	90.69
273.322	86.69
273.553	97.69
273.785	82.69
274.017	90.69
274.249	100.69
274.481	86.69
274.713	76.69
274.945	89.69
275.176	75.69
275.408	92.69
275.64	89.69
275.872	107.69
276.104	100.69
276.335	82.69
276.567	103.69
276.799	100.69
277.031	112.69
277.262	96.69
277.494	90.69
277.726	93.69
277.957	103.69
278.189	86.69
278.421	74.69
278.652	76.69
278.884	87.69
279.115	95.69
279.347	98.69
279.579	86.69
279.81	81.69
280.042	85.69
280.273	88.69
280.505	89.69
280.736	82.69
280.968	86.69
281.199	94.69
281.431	96.69
281.662	89.69
281.894	81.69
282.125	103.69
282.356	132.69
282.588	143.69
282.819	117.69
283.051	88.69
283.282	73.69
283.513	81.69
283.745	87.69
283.976	75.69
284.207	89.69
284.439	73.69
284.67	90.69
284.901	80.69
285.132	85.69
285.364	77.69
285.595	77.69
285.826	99.69
286.057	74.69
286.288	87.69
286.52	79.69
286.751	73.69
286.982	78.69
287.213	96.69
287.444	92.69
287.675	92.69
287.906	91.69
288.138	91.69
288.369	96.69
288.6	93.69
288.831	78.69
289.062	85.69
289.293	90.69
289.524	75.69
289.755	82.69
289.986	91.69
290.217	77.69
290.448	82.69
290.679	90.69
290.91	77.69
291.141	92.69
291.371	103.69
291.602	80.69
291.833	88.69
292.064	93.69
292.295	93.69
292.526	94.69
292.757	88.69
292.987	82.69
293.218	92.69
293.449	85.69
293.68	89.69
293.91	77.69
294.141	103.69
294.372	90.69
294.603	75.69
294.833	99.69
295.064	79.69
295.295	81.69
295.525	101.69
295.756	103.69
295.987	132.69
296.217	150.69
296.448	124.69
296.679	82.69
296.909	93.69
297.14	89.69
297.37	90.69
297.601	80.69
297.831	88.69
298.062	92.69
298.292	87.69
298.523	89.69
298.753	91.69
298.984	93.69
299.214	82.69
299.445	102.69
299.675	95.69
299.905	103.69
300.136	92.69
300.366	86.69
300.597	83.69
300.827	94.69
301.057	104.69
301.288	110.69
301.518	94.69
301.748	82.69
301.979	103.69
302.209	95.69
302.439	82.69
302.669	93.69
302.9	79.69
303.13	85.69
303.36	106.69
303.59	94.69
303.82	106.69
304.051	83.69
304.281	85.69
304.511	91.69
304.741	86.69
304.971	89.69
305.201	94.69
305.431	92.69
305.661	89.69
305.891	98.69
306.121	97.69
306.352	100.69
306.582	105.69
306.812	88.69
307.042	89.69
307.272	79.69
307.502	92.69
307.731	87.69
307.961	87.69
308.191	85.69
308.421	94.69
308.651	91.69
308.881	99.69
309.111	85.69
309.341	101.69
309.571	102.69
309.8	99.69
310.03	98.69
310.26	98.69
310.49	116.69
310.72	89.69
310.949	95.69
311.179	102.69
311.409	90.69
311.639	99.69
311.868	98.69
312.098	93.69
312.328	100.69
312.557	116.69
312.787	107.69
313.017	99.69
313.246	83.69
313.476	98.69
313.706	113.69
313.935	100.69
314.165	101.69
314.394	92.69
314.624	102.69
314.853	111.69
315.083	110.69
315.312	93.69
315.542	81.69
315.771	89.69
316.001	89.69
316.23	91.69
316.46	103.69
316.689	94.69
316.919	85.69
317.148	103.69
317.377	105.69
317.607	91.69
317.836	102.69
318.065	88.69
318.295	92.69
318.524	89.69
318.753	85.69
318.983	70.69
319.212	98.69
319.441	105.69
319.67	111.69
319.9	101.69
320.129	97.69
320.358	86.69
320.587	97.69
320.816	100.69
321.046	98.69
321.275	106.69
321.504	101.69
321.733	100.69
321.962	105.69
322.191	109.69
322.42	124.69
322.649	116.69
322.878	118.69
323.108	118.69
323.337	132.69
323.566	142.69
323.795	167.69
324.024	223.69
324.253	505.69
324.482	1093.69
324.71	2350.69
324.939	3265.69
325.168	1121.69
325.397	289.69
325.626	167.69
325.855	146.69
326.084	126.69
326.313	149.69
326.542	169.69
326.77	273.69
326.999	585.69
327.228	1239.69
327.457	2356.69
327.686	1919.69
327.914	495.69
328.143	230.69
328.372	173.69
328.6	137.69
328.829	129.69
329.058	149.69
329.287	157.69
329.515	118.69
329.744	104.69
329.972	111.69
330.201	102.69
330.43	120.69
330.658	130.69
330.887	166.69
331.115	131.69
331.344	114.69
331.572	125.69
331.801	113.69
332.03	113.69
332.258	101.69
332.486	105.69
332.715	75.69
332.943	85.69
333.172	99.69
333.4	105.69
333.629	109.69
333.857	114.69
334.085	98.69
334.314	95.69
334.542	71.69
334.771	102.69
334.999	105.69
335.227	94.69
335.455	100.69
335.684	102.69
335.912	101.69
336.14	98.69
336.369	99.69
336.597	120.69
336.825	101.69
337.053	95.69
337.281	88.69
337.51	101.69
337.738	81.69
337.966	81.69
338.194	92.69
338.422	98.69
338.65	92.69
338.878	98.69
339.106	89.69
339.334	91.69
339.562	90.69
339.79	94.69
340.018	92.69
340.246	91.69
340.474	106.69
340.702	91.69
340.93	95.69
341.158	83.69
341.386	91.69
341.614	99.69
341.842	90.69
342.07	98.69
342.298	91.69
342.526	83.69
342.754	83.69
342.981	82.69
343.209	87.69
343.437	101.69
343.665	87.69
343.893	91.69
344.12	92.69
344.348	95.69
344.576	100.69
344.804	107.69
345.031	109.69
345.259	102.69
345.487	96.69
345.714	102.69
345.942	97.69
346.17	88.69
346.397	94.69
346.625	82.69
346.853	87.69
347.08	90.69
347.308	95.69
347.535	87.69
347.763	101.69
347.99	102.69
348.218	111.69
348.445	118.69
348.673	110.69
348.9	93.69
349.128	101.69
349.355	88.69
349.583	100.69
349.81	102.69
350.037	100.69
350.265	91.69
350.492	96.69
350.72	86.69
350.947	102.69
351.174	125.69
351.402	103.69
351.629	112.69
351.856	111.69
352.083	90.69
352.311	112.69
352.538	110.69
352.765	122.69
352.992	97.69
353.22	105.69
353.447	123.69
353.674	91.69
353.901	94.69
354.128	101.69
354.355	92.69
354.583	85.69
354.81	94.69
355.037	87.69
355.264	102.69
355.491	76.69
355.718	70.69
355.945	96.69
356.172	85.69
356.399	93.69
356.626	87.69
356.853	95.69
357.08	90.69
357.307	95.69
357.534	101.69
357.761	88.69
357.988	82.69
358.215	96.69
358.441	96.69
358.668	79.69
358.895	78.69
359.122	79.69
359.349	100.69
359.576	87.69
359.802	102.69
360.029	129.69
360.256	124.69
360.483	108.69
360.709	102.69
360.936	93.69
361.163	92.69
361.39	94.69
361.616	101.69
361.843	96.69
362.07	89.69
362.296	106.69
362.523	113.69
362.749	101.69
362.976	97.69
363.203	90.69
363.429	85.69
363.656	80.69
363.882	83.69
364.109	93.69
364.335	100.69
364.562	98.69
364.788	98.69
365.015	97.69
365.241	102.69
365.468	111.69
365.694	114.69
365.92	98.69
366.147	108.69
366.373	87.69
366.599	79.69
366.826	98.69
367.052	86.69
367.278	89.69
367.505	96.69
367.731	98.69
367.957	89.69
368.184	89.69
368.41	96.69
368.636	108.69
368.862	111.69
369.089	113.69
369.315	92.69
369.541	94.69
369.767	89.69
369.993	93.69
370.219	88.69
370.445	92.69
370.672	88.69
370.898	85.69
371.124	70.69
371.35	73.69
371.576	76.69
371.802	105.69
372.028	86.69
372.254	83.69
372.48	76.69
372.706	92.69
372.932	79.69
373.158	93.69
373.384	85.69
373.61	93.69
373.835	71.69
374.061	91.69
374.287	103.69
374.513	96.69
374.739	82.69
374.965	84.69
375.191	89.69
375.416	79.69
375.642	91.69
375.868	92.69
376.094	94.69
376.319	85.69
376.545	94.69
376.771	95.69
376.997	77.69
377.222	93.69
377.448	91.69
377.674	89.69
377.899	81.69
378.125	96.69
378.35	85.69
378.576	79.69
378.802	96.69
379.027	89.69
379.253	90.69
379.478	94.69
379.704	80.69
379.929	86.69
380.155	99.69
380.38	89.69
380.606	89.69
380.831	90.69
381.057	101.69
381.282	87.69
381.507	86.69
381.733	92.69
381.958	76.69
382.184	84.69
382.409	91.69
382.634	91.69
382.86	106.69
383.085	99.69
383.31	107.69
383.535	99.69
383.761	73.69
383.986	87.69
384.211	98.69
384.436	102.69
384.662	97.69
384.887	93.69
385.112	94.69
385.337	101.69
385.562	110.69
385.787	89.69
386.013	99.69
386.238	106.69
386.463	89.69
386.688	105.69
386.913	95.69
387.138	98.69
387.363	93.69
387.588	108.69
387.813	112.69
388.038	101.69
388.263	110.69
388.488	85.69
388.713	100.69
388.938	93.69
389.163	92.69
389.387	85.69
389.612	83.69
389.837	81.69
390.062	76.69
390.287	86.69
390.512	85.69
390.736	83.69
390.961	86.69
391.186	112.69
391.411	91.69
391.636	111.69
391.86	87.69
392.085	85.69
392.31	85.69
392.534	91.69
392.759	74.69
392.984	80.69
393.208	86.69
393.433	90.69
393.658	98.69
393.882	79.69
394.107	74.69
394.331	103.69
394.556	75.69
394.78	91.69
395.005	87.69
395.229	78.69
395.454	80.69
395.678	80.69
395.903	88.69
396.127	85.69
396.352	62.69
396.576	93.69
396.801	88.69
397.025	88.69
397.249	95.69
397.474	91.69
397.698	84.69
397.922	97.69
398.147	75.69
398.371	88.69
398.595	93.69
398.82	81.69
399.044	93.69
399.268	110.69
399.492	93.69
399.717	86.69
399.941	83.69
400.165	91.69
400.389	92.69
400.613	82.69
400.837	86.69
401.062	92.69
401.286	96.69
401.51	96.69
401.734	110.69
401.958	107.69
402.182	127.69
402.406	176.69
402.63	128.69
402.854	93.69
403.078	97.69
403.302	93.69
403.526	95.69
403.75	98.69
403.974	87.69
404.198	80.69
404.422	83.69
404.645	85.69
404.869	85.69
405.093	104.69
405.317	98.69
405.541	108.69
405.765	108.69
405.988	134.69
406.212	202.69
406.436	272.69
406.66	179.69
406.883	109.69
407.107	97.69
407.331	113.69
407.555	107.69
407.778	102.69
408.002	109.69
408.226	89.69
408.449	82.69
408.673	90.69
408.896	97.69
409.12	93.69
409.344	76.69
409.567	89.69
409.791	96.69
410.014	102.69
410.238	105.69
410.461	90.69
410.685	90.69
410.908	98.69
411.132	108.69
411.355	109.69
411.578	107.69
411.802	91.69
412.025	85.69
412.249	89.69
412.472	85.69
412.695	89.69
412.919	78.69
413.142	84.69
413.365	90.69
413.589	79.69
413.812	90.69
414.035	88.69
414.258	91.69
414.482	86.69
414.705	87.69
414.928	98.69
415.151	97.69
415.374	89.69
415.597	100.69
415.821	95.69
416.044	89.69
416.267	86.69
416.49	95.69
416.713	84.69
416.936	88.69
417.159	87.69
417.382	95.69
417.605	97.69
417.828	100.69
418.051	92.69
418.274	69.69
418.497	89.69
418.72	94.69
418.943	91.69
419.166	82.69
419.389	86.69
419.611	83.69
419.834	95.69
420.057	84.69
420.28	87.69
420.503	85.69
420.726	83.69
420.948	90.69
421.171	91.69
421.394	107.69
421.617	85.69
421.839	90.69
422.062	85.69
422.285	92.69
422.507	97.69
422.73	114.69
422.953	102.69
423.175	88.69
423.398	82.69
423.621	85.69
423.843	97.69
424.066	85.69
424.288	96.69
424.511	102.69
424.733	119.69
424.956	107.69
425.178	109.69
425.401	103.69
425.623	102.69
425.846	96.69
426.068	91.69
426.291	96.69
426.513	79.69
426.735	90.69
426.958	113.69
427.18	118.69
427.402	166.69
427.625	200.69
427.847	146.69
428.069	113.69
428.292	93.69
428.514	98.69
428.736	84.69
428.958	94.69
429.181	89.69
429.403	76.69
429.625	95.69
429.847	102.69
430.069	116.69
430.292	95.69
430.514	77.69
430.736	84.69
430.958	92.69
431.18	97.69
431.402	85.69
431.624	79.69
431.846	82.69
432.068	82.69
432.29	93.69
432.512	90.69
432.734	85.69
432.956	91.69
433.178	120.69
433.4	104.69
433.622	94.69
433.844	99.69
434.066	97.69
434.287	77.69
434.509	98.69
434.731	81.69
434.953	87.69
435.175	104.69
435.397	88.69
435.618	87.69
435.84	113.69
436.062	143.69
436.284	135.69
436.505	111.69
436.727	98.69
436.949	91.69
437.17	95.69
437.392	107.69
437.614	100.69
437.835	102.69
438.057	133.69
438.278	121.69
438.5	122.69
438.721	153.69
438.943	113.69
439.165	93.69
439.386	85.69
439.608	84.69
439.829	98.69
440.05	140.69
440.272	191.69
440.493	113.69
440.715	101.69
440.936	85.69
441.158	87.69
441.379	95.69
441.6	93.69
441.822	91.69
442.043	99.69
442.264	115.69
442.486	118.69
442.707	86.69
442.928	116.69
443.149	143.69
443.371	146.69
443.592	112.69
443.813	131.69
444.034	117.69
444.255	95.69
444.476	73.69
444.698	89.69
444.919	92.69
445.14	131.69
445.361	138.69
445.582	120.69
445.803	167.69
446.024	171.69
446.245	167.69
446.466	116.69
446.687	94.69
446.908	84.69
447.129	82.69
447.35	86.69
447.571	102.69
447.792	101.69
448.013	91.69
448.234	113.69
448.455	117.69
448.675	126.69
448.896	122.69
449.117	103.69
449.338	114.69
449.559	144.69
449.779	163.69
450	96.69
450.221	81.69
450.442	98.69
450.662	93.69
450.883	113.69
451.104	121.69
451.324	101.69
451.545	96.69
451.766	92.69
451.986	98.69
452.207	104.69
452.428	107.69
452.648	94.69
452.869	109.69
453.089	134.69
453.31	137.69
453.53	107.69
453.751	91.69
453.971	98.69
454.192	123.69
454.412	89.69
454.633	80.69
454.853	79.69
455.073	69.69
455.294	97.69
455.514	111.69
455.734	98.69
455.955	95.69
456.175	85.69
456.395	78.69
456.616	95.69
456.836	85.69
457.056	73.69
457.276	92.69
457.497	78.69
457.717	100.69
457.937	91.69
458.157	94.69
458.377	94.69
458.598	112.69
458.818	189.69
459.038	199.69
459.258	122.69
459.478	97.69
459.698	91.69
459.918	85.69
460.138	86.69
460.358	90.69
460.578	94.69
460.798	101.69
461.018	83.69
461.238	87.69
461.458	75.69
461.678	83.69
461.898	96.69
462.118	91.69
462.338	78.69
462.558	75.69
462.777	90.69
462.997	82.69
463.217	79.69
463.437	95.69
463.657	90.69
463.876	87.69
464.096	92.69
464.316	99.69
464.536	98.69
464.755	99.69
464.975	103.69
465.195	190.69
465.414	181.69
465.634	104.69
465.854	95.69
466.073	85.69
466.293	86.69
466.512	81.69
466.732	77.69
466.951	81.69
467.171	97.69
467.391	83.69
467.61	107.69
467.829	97.69
468.049	72.69
468.268	83.69
468.488	83.69
468.707	111.69
468.927	72.69
469.146	82.69
469.365	92.69
469.585	99.69
469.804	99.69
470.023	92.69
470.243	102.69
470.462	100.69
470.681	125.69
470.901	100.69
471.12	87.69
471.339	91.69
471.558	91.69
471.777	92.69
471.997	93.69
472.216	90.69
472.435	98.69
472.654	79.69
472.873	80.69
473.092	101.69
473.311	94.69
473.53	91.69
473.749	90.69
473.968	111.69
474.187	138.69
474.406	92.69
474.625	91.69
474.844	83.69
475.063	74.69
475.282	85.69
475.501	79.69
475.72	76.69
475.939	77.69
476.158	90.69
476.377	97.69
476.596	97.69
476.814	103.69
477.033	90.69
477.252	96.69
477.471	78.69
477.69	100.69
477.908	85.69
478.127	89.69
478.346	78.69
478.564	90.69
478.783	97.69
479.002	110.69
479.22	105.69
479.439	94.69
479.658	100.69
479.876	93.69
480.095	87.69
480.313	98.69
480.532	90.69
480.751	88.69
480.969	85.69
481.188	89.69
481.406	98.69
481.624	92.69
481.843	86.69
482.061	96.69
482.28	87.69
482.498	93.69
482.717	90.69
482.935	85.69
483.153	96.69
483.372	82.69
483.59	93.69
483.808	102.69
484.027	107.69
484.245	92.69
484.463	90.69
484.681	93.69
484.9	91.69
485.118	94.69
485.336	92.69
485.554	89.69
485.772	95.69
485.99	98.69
486.209	92.69
486.427	107.69
486.645	114.69
486.863	115.69
487.081	93.69
487.299	90.69
487.517	98.69
487.735	84.69
487.953	96.69
488.171	102.69
488.389	87.69
488.607	107.69
488.825	93.69
489.043	91.69
489.261	103.69
489.479	81.69
489.696	85.69
489.914	97.69
490.132	101.69
490.35	88.69
490.568	94.69
490.786	99.69
491.003	108.69
491.221	95.69
491.439	99.69
491.657	82.69
491.874	95.69
492.092	107.69
492.31	90.69
492.527	98.69
492.745	97.69
492.963	92.69
493.18	98.69
493.398	101.69
493.615	92.69
493.833	93.69
494.05	99.69
494.268	81.69
494.485	82.69
494.703	83.69
494.92	92.69
495.138	83.69
495.355	91.69
495.573	102.69
495.79	99.69
496.008	85.69
496.225	107.69
496.442	89.69
496.66	83.69
496.877	86.69
497.094	90.69
497.312	93.69
497.529	89.69
497.746	79.69
497.963	88.69
498.181	91.69
498.398	100.69
498.615	116.69
498.832	107.69
499.049	83.69
499.267	91.69
499.484	89.69
499.701	90.69
499.918	95.69
500.135	98.69
500.352	100.69
500.569	86.69
500.786	97.69
501.003	90.69
501.22	77.69
501.437	87.69
501.654	102.69
501.871	112.69
502.088	100.69
502.305	97.69
502.522	97.69
502.739	96.69
502.956	95.69
503.172	70.69
503.389	91.69
503.606	102.69
503.823	101.69
504.04	104.69
504.256	83.69
504.473	102.69
504.69	99.69
504.907	82.69
505.123	76.69
505.34	92.69
505.557	94.69
505.773	92.69
505.99	97.69
506.207	88.69
506.423	92.69
506.64	81.69
506.856	76.69
507.073	90.69
507.289	96.69
507.506	95.69
507.722	124.69
507.939	116.69
508.155	99.69
508.372	93.69
508.588	89.69
508.805	92.69
509.021	93.69
509.238	97.69
509.454	103.69
509.67	107.69
509.887	110.69
510.103	134.69
510.319	261.69
510.536	823.69
510.752	2703.69
510.968	743.69
511.184	168.69
511.401	123.69
511.617	90.69
511.833	98.69
512.049	101.69
512.265	101.69
512.481	94.69
512.698	80.69
512.914	103.69
513.13	99.69
513.346	90.69
513.562	103.69
513.778	97.69
513.994	103.69
514.21	118.69
514.426	117.69
514.642	153.69
514.858	146.69
515.074	162.69
