Data from Uncirc_1991_H10_HRD10591_00087.txt Node
Date: Wed Jan 03 11:50:55 EST 2024
User: Yrep
Spectrometer: HR+D1059
Trigger mode: 1
Integration Time (sec): 1.000000E-1
Scans to average: 1
Electric dark correction enabled: true
Nonlinearity correction enabled: false
Boxcar width: 0
XAxis mode: Wavelengths
Number of Pixels in Spectrum: 2048
>>>>>Begin Spectral Data<<<<<
223.165	-13.12
223.4	-13.12
223.635	-13.12
223.869	-13.12
224.104	-20.12
224.338	-11.12
224.573	-28.12
224.808	-22.12
225.042	-2.12
225.277	6.88
225.511	-1.12
225.746	3.88
225.98	9.88
226.215	9.88
226.449	18.88
226.683	20.88
226.918	15.88
227.152	24.88
227.387	40.88
227.621	52.88
227.856	50.88
228.09	45.88
228.324	51.88
228.559	68.88
228.793	71.88
229.027	76.88
229.262	83.88
229.496	76.88
229.73	87.88
229.964	82.88
230.199	83.88
230.433	63.88
230.667	79.88
230.901	76.88
231.136	94.88
231.37	80.88
231.604	70.88
231.838	83.88
232.072	82.88
232.306	98.88
232.541	95.88
232.775	80.88
233.009	80.88
233.243	79.88
233.477	107.88
233.711	93.88
233.945	86.88
234.179	79.88
234.413	87.88
234.647	80.88
234.881	74.88
235.115	98.88
235.349	80.88
235.583	94.88
235.817	84.88
236.051	81.88
236.285	81.88
236.519	88.88
236.753	87.88
236.987	90.88
237.221	108.88
237.455	92.88
237.689	75.88
237.922	80.88
238.156	90.88
238.39	95.88
238.624	93.88
238.858	97.88
239.091	81.88
239.325	74.88
239.559	86.88
239.793	85.88
240.027	92.88
240.26	87.88
240.494	76.88
240.728	93.88
240.961	69.88
241.195	80.88
241.429	83.88
241.662	87.88
241.896	83.88
242.13	79.88
242.363	87.88
242.597	79.88
242.83	85.88
243.064	94.88
243.298	71.88
243.531	82.88
243.765	83.88
243.998	87.88
244.232	95.88
244.465	80.88
244.699	78.88
244.932	68.88
245.166	80.88
245.399	85.88
245.633	77.88
245.866	87.88
246.099	85.88
246.333	80.88
246.566	80.88
246.8	89.88
247.033	91.88
247.266	88.88
247.5	84.88
247.733	98.88
247.966	87.88
248.2	84.88
248.433	90.88
248.666	93.88
248.899	65.88
249.133	92.88
249.366	100.88
249.599	119.88
249.832	88.88
250.066	69.88
250.299	86.88
250.532	87.88
250.765	89.88
250.998	75.88
251.231	93.88
251.465	86.88
251.698	81.88
251.931	82.88
252.164	85.88
252.397	87.88
252.63	86.88
252.863	87.88
253.096	81.88
253.329	94.88
253.562	84.88
253.795	89.88
254.028	88.88
254.261	80.88
254.494	75.88
254.727	95.88
254.96	79.88
255.193	62.88
255.426	82.88
255.659	86.88
255.892	89.88
256.124	84.88
256.357	89.88
256.59	98.88
256.823	83.88
257.056	76.88
257.289	60.88
257.521	105.88
257.754	82.88
257.987	86.88
258.22	83.88
258.452	81.88
258.685	91.88
258.918	78.88
259.151	73.88
259.383	91.88
259.616	76.88
259.849	88.88
260.081	86.88
260.314	87.88
260.547	88.88
260.779	85.88
261.012	82.88
261.244	78.88
261.477	87.88
261.71	101.88
261.942	125.88
262.175	147.88
262.407	107.88
262.64	96.88
262.872	82.88
263.105	95.88
263.337	98.88
263.57	83.88
263.802	105.88
264.035	81.88
264.267	86.88
264.499	91.88
264.732	95.88
264.964	86.88
265.197	77.88
265.429	74.88
265.661	94.88
265.894	82.88
266.126	83.88
266.358	104.88
266.591	97.88
266.823	82.88
267.055	83.88
267.287	70.88
267.52	84.88
267.752	95.88
267.984	88.88
268.216	84.88
268.448	89.88
268.681	87.88
268.913	81.88
269.145	86.88
269.377	82.88
269.609	90.88
269.841	90.88
270.073	89.88
270.306	85.88
270.538	99.88
270.77	99.88
271.002	75.88
271.234	85.88
271.466	85.88
271.698	79.88
271.93	105.88
272.162	94.88
272.394	91.88
272.626	91.88
272.858	100.88
273.09	94.88
273.322	86.88
273.553	90.88
273.785	89.88
274.017	96.88
274.249	96.88
274.481	73.88
274.713	86.88
274.945	84.88
275.176	94.88
275.408	97.88
275.64	94.88
275.872	89.88
276.104	88.88
276.335	103.88
276.567	111.88
276.799	130.88
277.031	107.88
277.262	98.88
277.494	87.88
277.726	94.88
277.957	88.88
278.189	94.88
278.421	96.88
278.652	94.88
278.884	92.88
279.115	81.88
279.347	94.88
279.579	71.88
279.81	88.88
280.042	79.88
280.273	103.88
280.505	94.88
280.736	87.88
280.968	89.88
281.199	83.88
281.431	84.88
281.662	111.88
281.894	88.88
282.125	120.88
282.356	132.88
282.588	166.88
282.819	122.88
283.051	107.88
283.282	91.88
283.513	89.88
283.745	84.88
283.976	100.88
284.207	87.88
284.439	81.88
284.67	101.88
284.901	89.88
285.132	85.88
285.364	92.88
285.595	75.88
285.826	80.88
286.057	94.88
286.288	83.88
286.52	86.88
286.751	100.88
286.982	78.88
287.213	79.88
287.444	85.88
287.675	89.88
287.906	90.88
288.138	88.88
288.369	108.88
288.6	100.88
288.831	83.88
289.062	102.88
289.293	91.88
289.524	95.88
289.755	84.88
289.986	92.88
290.217	96.88
290.448	94.88
290.679	91.88
290.91	87.88
291.141	101.88
291.371	95.88
291.602	89.88
291.833	89.88
292.064	86.88
292.295	96.88
292.526	97.88
292.757	82.88
292.987	94.88
293.218	95.88
293.449	106.88
293.68	96.88
293.91	83.88
294.141	92.88
294.372	80.88
294.603	96.88
294.833	103.88
295.064	94.88
295.295	98.88
295.525	102.88
295.756	108.88
295.987	121.88
296.217	144.88
296.448	129.88
296.679	103.88
296.909	92.88
297.14	94.88
297.37	103.88
297.601	85.88
297.831	111.88
298.062	96.88
298.292	103.88
298.523	95.88
298.753	106.88
298.984	89.88
299.214	99.88
299.445	89.88
299.675	98.88
299.905	93.88
300.136	106.88
300.366	92.88
300.597	87.88
300.827	106.88
301.057	105.88
301.288	126.88
301.518	103.88
301.748	90.88
301.979	114.88
302.209	94.88
302.439	112.88
302.669	99.88
302.9	97.88
303.13	102.88
303.36	96.88
303.59	107.88
303.82	101.88
304.051	93.88
304.281	111.88
304.511	91.88
304.741	93.88
304.971	97.88
305.201	100.88
305.431	96.88
305.661	84.88
305.891	88.88
306.121	111.88
306.352	115.88
306.582	106.88
306.812	105.88
307.042	84.88
307.272	94.88
307.502	95.88
307.731	99.88
307.961	109.88
308.191	104.88
308.421	90.88
308.651	89.88
308.881	103.88
309.111	106.88
309.341	105.88
309.571	114.88
309.8	110.88
310.03	94.88
310.26	114.88
310.49	102.88
310.72	127.88
310.949	112.88
311.179	114.88
311.409	92.88
311.639	109.88
311.868	96.88
312.098	91.88
312.328	106.88
312.557	113.88
312.787	127.88
313.017	110.88
313.246	98.88
313.476	105.88
313.706	92.88
313.935	102.88
314.165	109.88
314.394	118.88
314.624	108.88
314.853	109.88
315.083	94.88
315.312	100.88
315.542	110.88
315.771	100.88
316.001	101.88
316.23	90.88
316.46	89.88
316.689	103.88
316.919	108.88
317.148	114.88
317.377	107.88
317.607	104.88
317.836	102.88
318.065	112.88
318.295	92.88
318.524	99.88
318.753	95.88
318.983	107.88
319.212	100.88
319.441	121.88
319.67	113.88
319.9	110.88
320.129	108.88
320.358	98.88
320.587	100.88
320.816	122.88
321.046	107.88
321.275	106.88
321.504	104.88
321.733	104.88
321.962	105.88
322.191	118.88
322.42	124.88
322.649	134.88
322.878	121.88
323.108	134.88
323.337	151.88
323.566	155.88
323.795	201.88
324.024	276.88
324.253	550.88
324.482	1189.88
324.71	2548.88
324.939	3503.88
325.168	1227.88
325.397	326.88
325.626	180.88
325.855	158.88
326.084	148.88
326.313	154.88
326.542	190.88
326.77	296.88
326.999	635.88
327.228	1356.88
327.457	2630.88
327.686	2083.88
327.914	521.88
328.143	254.88
328.372	191.88
328.6	151.88
328.829	137.88
329.058	158.88
329.287	165.88
329.515	139.88
329.744	113.88
329.972	116.88
330.201	103.88
330.43	122.88
330.658	146.88
330.887	187.88
331.115	147.88
331.344	120.88
331.572	113.88
331.801	120.88
332.03	124.88
332.258	103.88
332.486	107.88
332.715	100.88
332.943	105.88
333.172	103.88
333.4	116.88
333.629	119.88
333.857	125.88
334.085	118.88
334.314	116.88
334.542	97.88
334.771	118.88
334.999	106.88
335.227	108.88
335.455	88.88
335.684	115.88
335.912	80.88
336.14	101.88
336.369	108.88
336.597	117.88
336.825	113.88
337.053	103.88
337.281	94.88
337.51	84.88
337.738	109.88
337.966	109.88
338.194	100.88
338.422	87.88
338.65	95.88
338.878	98.88
339.106	100.88
339.334	98.88
339.562	102.88
339.79	105.88
340.018	95.88
340.246	98.88
340.474	111.88
340.702	102.88
340.93	108.88
341.158	105.88
341.386	101.88
341.614	106.88
341.842	99.88
342.07	88.88
342.298	96.88
342.526	107.88
342.754	88.88
342.981	107.88
343.209	94.88
343.437	113.88
343.665	98.88
343.893	103.88
344.12	105.88
344.348	85.88
344.576	83.88
344.804	112.88
345.031	100.88
345.259	111.88
345.487	101.88
345.714	105.88
345.942	106.88
346.17	105.88
346.397	98.88
346.625	102.88
346.853	103.88
347.08	87.88
347.308	110.88
347.535	101.88
347.763	109.88
347.99	99.88
348.218	122.88
348.445	122.88
348.673	95.88
348.9	98.88
349.128	95.88
349.355	104.88
349.583	106.88
349.81	102.88
350.037	102.88
350.265	106.88
350.492	105.88
350.72	102.88
350.947	118.88
351.174	112.88
351.402	124.88
351.629	104.88
351.856	126.88
352.083	106.88
352.311	114.88
352.538	125.88
352.765	135.88
352.992	120.88
353.22	121.88
353.447	127.88
353.674	101.88
353.901	98.88
354.128	88.88
354.355	102.88
354.583	114.88
354.81	116.88
355.037	100.88
355.264	98.88
355.491	89.88
355.718	100.88
355.945	90.88
356.172	116.88
356.399	105.88
356.626	94.88
356.853	88.88
357.08	102.88
357.307	90.88
357.534	114.88
357.761	96.88
357.988	94.88
358.215	105.88
358.441	93.88
358.668	94.88
358.895	80.88
359.122	95.88
359.349	102.88
359.576	104.88
359.802	114.88
360.029	130.88
360.256	128.88
360.483	127.88
360.709	88.88
360.936	119.88
361.163	112.88
361.39	115.88
361.616	104.88
361.843	102.88
362.07	103.88
362.296	103.88
362.523	110.88
362.749	103.88
362.976	97.88
363.203	88.88
363.429	97.88
363.656	104.88
363.882	75.88
364.109	96.88
364.335	91.88
364.562	99.88
364.788	98.88
365.015	94.88
365.241	114.88
365.468	115.88
365.694	122.88
365.92	106.88
366.147	100.88
366.373	98.88
366.599	101.88
366.826	94.88
367.052	83.88
367.278	113.88
367.505	102.88
367.731	92.88
367.957	84.88
368.184	96.88
368.41	107.88
368.636	106.88
368.862	128.88
369.089	131.88
369.315	107.88
369.541	105.88
369.767	109.88
369.993	91.88
370.219	97.88
370.445	87.88
370.672	92.88
370.898	90.88
371.124	110.88
371.35	104.88
371.576	97.88
371.802	92.88
372.028	102.88
372.254	100.88
372.48	100.88
372.706	103.88
372.932	89.88
373.158	99.88
373.384	111.88
373.61	89.88
373.835	94.88
374.061	94.88
374.287	84.88
374.513	96.88
374.739	87.88
374.965	98.88
375.191	89.88
375.416	96.88
375.642	86.88
375.868	97.88
376.094	96.88
376.319	104.88
376.545	85.88
376.771	96.88
376.997	90.88
377.222	94.88
377.448	84.88
377.674	89.88
377.899	87.88
378.125	83.88
378.35	102.88
378.576	96.88
378.802	98.88
379.027	100.88
379.253	97.88
379.478	104.88
379.704	111.88
379.929	110.88
380.155	98.88
380.38	110.88
380.606	112.88
380.831	101.88
381.057	108.88
381.282	101.88
381.507	73.88
381.733	94.88
381.958	105.88
382.184	102.88
382.409	100.88
382.634	118.88
382.86	102.88
383.085	109.88
383.31	102.88
383.535	87.88
383.761	99.88
383.986	92.88
384.211	88.88
384.436	95.88
384.662	113.88
384.887	90.88
385.112	106.88
385.337	90.88
385.562	113.88
385.787	115.88
386.013	114.88
386.238	112.88
386.463	109.88
386.688	106.88
386.913	110.88
387.138	108.88
387.363	102.88
387.588	111.88
387.813	92.88
388.038	101.88
388.263	106.88
388.488	108.88
388.713	103.88
388.938	109.88
389.163	86.88
389.387	92.88
389.612	88.88
389.837	94.88
390.062	94.88
390.287	101.88
390.512	92.88
390.736	98.88
390.961	100.88
391.186	103.88
391.411	98.88
391.636	84.88
391.86	89.88
392.085	79.88
392.31	90.88
392.534	87.88
392.759	87.88
392.984	96.88
393.208	94.88
393.433	106.88
393.658	91.88
393.882	86.88
394.107	85.88
394.331	90.88
394.556	92.88
394.78	101.88
395.005	87.88
395.229	88.88
395.454	108.88
395.678	84.88
395.903	99.88
396.127	97.88
396.352	99.88
396.576	86.88
396.801	98.88
397.025	98.88
397.249	91.88
397.474	103.88
397.698	89.88
397.922	85.88
398.147	90.88
398.371	93.88
398.595	96.88
398.82	87.88
399.044	89.88
399.268	84.88
399.492	85.88
399.717	107.88
399.941	96.88
400.165	97.88
400.389	112.88
400.613	100.88
400.837	99.88
401.062	80.88
401.286	94.88
401.51	101.88
401.734	96.88
401.958	115.88
402.182	146.88
402.406	206.88
402.63	145.88
402.854	108.88
403.078	98.88
403.302	88.88
403.526	96.88
403.75	107.88
403.974	95.88
404.198	95.88
404.422	94.88
404.645	93.88
404.869	102.88
405.093	93.88
405.317	105.88
405.541	100.88
405.765	121.88
405.988	128.88
406.212	231.88
406.436	308.88
406.66	190.88
406.883	125.88
407.107	109.88
407.331	105.88
407.555	135.88
407.778	100.88
408.002	106.88
408.226	102.88
408.449	95.88
408.673	102.88
408.896	93.88
409.12	100.88
409.344	111.88
409.567	88.88
409.791	86.88
410.014	106.88
410.238	94.88
410.461	115.88
410.685	108.88
410.908	117.88
411.132	115.88
411.355	108.88
411.578	105.88
411.802	102.88
412.025	102.88
412.249	91.88
412.472	91.88
412.695	105.88
412.919	94.88
413.142	80.88
413.365	97.88
413.589	100.88
413.812	94.88
414.035	108.88
414.258	103.88
414.482	100.88
414.705	86.88
414.928	104.88
415.151	115.88
415.374	98.88
415.597	103.88
415.821	100.88
416.044	99.88
416.267	92.88
416.49	95.88
416.713	82.88
416.936	107.88
417.159	106.88
417.382	87.88
417.605	97.88
417.828	100.88
418.051	116.88
418.274	100.88
418.497	90.88
418.72	85.88
418.943	95.88
419.166	101.88
419.389	92.88
419.611	99.88
419.834	97.88
420.057	96.88
420.28	105.88
420.503	96.88
420.726	90.88
420.948	102.88
421.171	117.88
421.394	111.88
421.617	103.88
421.839	101.88
422.062	96.88
422.285	103.88
422.507	110.88
422.73	143.88
422.953	84.88
423.175	95.88
423.398	98.88
423.621	98.88
423.843	99.88
424.066	107.88
424.288	107.88
424.511	104.88
424.733	123.88
424.956	120.88
425.178	118.88
425.401	115.88
425.623	112.88
425.846	97.88
426.068	97.88
426.291	101.88
426.513	98.88
426.735	98.88
426.958	91.88
427.18	115.88
427.402	180.88
427.625	234.88
427.847	160.88
428.069	112.88
428.292	86.88
428.514	86.88
428.736	92.88
428.958	86.88
429.181	76.88
429.403	75.88
429.625	94.88
429.847	126.88
430.069	123.88
430.292	122.88
430.514	91.88
430.736	105.88
430.958	98.88
431.18	95.88
431.402	95.88
431.624	91.88
431.846	91.88
432.068	86.88
432.29	99.88
432.512	108.88
432.734	99.88
432.956	98.88
433.178	112.88
433.4	107.88
433.622	105.88
433.844	107.88
434.066	102.88
434.287	99.88
434.509	94.88
434.731	102.88
434.953	90.88
435.175	101.88
435.397	104.88
435.618	97.88
435.84	121.88
436.062	172.88
436.284	170.88
436.505	123.88
436.727	116.88
436.949	101.88
437.17	91.88
437.392	95.88
437.614	110.88
437.835	118.88
438.057	151.88
438.278	147.88
438.5	127.88
438.721	153.88
438.943	114.88
439.165	98.88
439.386	110.88
439.608	102.88
439.829	113.88
440.05	174.88
440.272	194.88
440.493	114.88
440.715	93.88
440.936	89.88
441.158	87.88
441.379	91.88
441.6	133.88
441.822	106.88
442.043	116.88
442.264	118.88
442.486	108.88
442.707	113.88
442.928	127.88
443.149	180.88
443.371	179.88
443.592	136.88
443.813	132.88
444.034	149.88
444.255	99.88
444.476	88.88
444.698	83.88
444.919	99.88
445.14	152.88
445.361	150.88
445.582	157.88
445.803	197.88
446.024	195.88
446.245	178.88
446.466	118.88
446.687	92.88
446.908	82.88
447.129	87.88
447.35	83.88
447.571	102.88
447.792	108.88
448.013	116.88
448.234	115.88
448.455	111.88
448.675	156.88
448.896	173.88
449.117	121.88
449.338	117.88
449.559	170.88
449.779	182.88
450	100.88
450.221	104.88
450.442	89.88
450.662	111.88
450.883	115.88
451.104	128.88
451.324	110.88
451.545	103.88
451.766	91.88
451.986	84.88
452.207	97.88
452.428	99.88
452.648	111.88
452.869	126.88
453.089	144.88
453.31	104.88
453.53	114.88
453.751	107.88
453.971	116.88
454.192	140.88
454.412	110.88
454.633	84.88
454.853	82.88
455.073	100.88
455.294	91.88
455.514	120.88
455.734	106.88
455.955	93.88
456.175	93.88
456.395	92.88
456.616	88.88
456.836	95.88
457.056	99.88
457.276	81.88
457.497	101.88
457.717	92.88
457.937	100.88
458.157	96.88
458.377	110.88
458.598	137.88
458.818	195.88
459.038	233.88
459.258	163.88
459.478	98.88
459.698	98.88
459.918	108.88
460.138	96.88
460.358	79.88
460.578	82.88
460.798	90.88
461.018	89.88
461.238	96.88
461.458	92.88
461.678	95.88
461.898	84.88
462.118	80.88
462.338	90.88
462.558	97.88
462.777	95.88
462.997	85.88
463.217	104.88
463.437	78.88
463.657	86.88
463.876	86.88
464.096	102.88
464.316	88.88
464.536	111.88
464.755	108.88
464.975	130.88
465.195	224.88
465.414	212.88
465.634	114.88
465.854	95.88
466.073	98.88
466.293	91.88
466.512	102.88
466.732	91.88
466.951	104.88
467.171	108.88
467.391	104.88
467.61	119.88
467.829	105.88
468.049	97.88
468.268	90.88
468.488	108.88
468.707	95.88
468.927	100.88
469.146	99.88
469.365	86.88
469.585	98.88
469.804	107.88
470.023	110.88
470.243	112.88
470.462	113.88
470.681	127.88
470.901	91.88
471.12	100.88
471.339	105.88
471.558	90.88
471.777	91.88
471.997	85.88
472.216	90.88
472.435	102.88
472.654	108.88
472.873	92.88
473.092	86.88
473.311	86.88
473.53	102.88
473.749	91.88
473.968	100.88
474.187	146.88
474.406	113.88
474.625	94.88
474.844	95.88
475.063	84.88
475.282	97.88
475.501	90.88
475.72	101.88
475.939	82.88
476.158	82.88
476.377	92.88
476.596	99.88
476.814	104.88
477.033	104.88
477.252	93.88
477.471	105.88
477.69	93.88
477.908	88.88
478.127	95.88
478.346	72.88
478.564	84.88
478.783	110.88
479.002	105.88
479.22	102.88
479.439	118.88
479.658	115.88
479.876	110.88
480.095	98.88
480.313	89.88
480.532	102.88
480.751	84.88
480.969	105.88
481.188	100.88
481.406	103.88
481.624	94.88
481.843	108.88
482.061	101.88
482.28	90.88
482.498	97.88
482.717	91.88
482.935	89.88
483.153	96.88
483.372	96.88
483.59	109.88
483.808	86.88
484.027	88.88
484.245	94.88
484.463	102.88
484.681	93.88
484.9	107.88
485.118	86.88
485.336	90.88
485.554	105.88
485.772	93.88
485.99	105.88
486.209	112.88
486.427	107.88
486.645	120.88
486.863	121.88
487.081	114.88
487.299	110.88
487.517	107.88
487.735	88.88
487.953	86.88
488.171	100.88
488.389	97.88
488.607	109.88
488.825	118.88
489.043	103.88
489.261	89.88
489.479	92.88
489.696	98.88
489.914	105.88
490.132	101.88
490.35	104.88
490.568	106.88
490.786	96.88
491.003	98.88
491.221	97.88
491.439	107.88
491.657	104.88
491.874	107.88
492.092	92.88
492.31	105.88
492.527	88.88
492.745	108.88
492.963	106.88
493.18	101.88
493.398	99.88
493.615	107.88
493.833	112.88
494.05	96.88
494.268	104.88
494.485	103.88
494.703	102.88
494.92	87.88
495.138	100.88
495.355	76.88
495.573	97.88
495.79	95.88
496.008	85.88
496.225	100.88
496.442	91.88
496.66	84.88
496.877	111.88
497.094	101.88
497.312	118.88
497.529	91.88
497.746	88.88
497.963	82.88
498.181	102.88
498.398	88.88
498.615	117.88
498.832	121.88
499.049	98.88
499.267	91.88
499.484	88.88
499.701	79.88
499.918	100.88
500.135	86.88
500.352	105.88
500.569	96.88
500.786	94.88
501.003	108.88
501.22	94.88
501.437	103.88
501.654	115.88
501.871	120.88
502.088	104.88
502.305	96.88
502.522	96.88
502.739	100.88
502.956	89.88
503.172	98.88
503.389	85.88
503.606	92.88
503.823	102.88
504.04	89.88
504.256	98.88
504.473	86.88
504.69	93.88
504.907	84.88
505.123	84.88
505.34	108.88
505.557	101.88
505.773	102.88
505.99	102.88
506.207	90.88
506.423	111.88
506.64	90.88
506.856	98.88
507.073	106.88
507.289	99.88
507.506	99.88
507.722	106.88
507.939	131.88
508.155	106.88
508.372	92.88
508.588	113.88
508.805	105.88
509.021	108.88
509.238	96.88
509.454	108.88
509.67	114.88
509.887	140.88
510.103	161.88
510.319	256.88
510.536	928.88
510.752	3029.88
510.968	824.88
511.184	182.88
511.401	128.88
511.617	95.88
