Data from Uncirc_1991_H10_HRD10591_00097.txt Node
Date: Wed Jan 03 11:50:57 EST 2024
User: Yrep
Spectrometer: HR+D1059
Trigger mode: 1
Integration Time (sec): 1.000000E-1
Scans to average: 1
Electric dark correction enabled: true
Nonlinearity correction enabled: false
Boxcar width: 0
XAxis mode: Wavelengths
Number of Pixels in Spectrum: 2048
>>>>>Begin Spectral Data<<<<<
223.165	-27.75
223.4	-27.75
223.635	-27.75
223.869	-17.75
224.104	-5.75
224.338	-10.75
224.573	-26.75
224.808	-11.75
225.042	-8.75
225.277	0.25
225.511	-1.75
225.746	7.25
225.98	7.25
226.215	16.25
226.449	1.25
226.683	36.25
226.918	20.25
227.152	22.25
227.387	24.25
227.621	42.25
227.856	36.25
228.09	41.25
228.324	53.25
228.559	65.25
228.793	67.25
229.027	80.25
229.262	82.25
229.496	94.25
229.73	93.25
229.964	81.25
230.199	82.25
230.433	61.25
230.667	84.25
230.901	82.25
231.136	79.25
231.37	66.25
231.604	74.25
231.838	92.25
232.072	84.25
232.306	86.25
232.541	92.25
232.775	71.25
233.009	78.25
233.243	69.25
233.477	91.25
233.711	75.25
233.945	91.25
234.179	90.25
234.413	80.25
234.647	97.25
234.881	95.25
235.115	85.25
235.349	78.25
235.583	85.25
235.817	79.25
236.051	83.25
236.285	87.25
236.519	88.25
236.753	89.25
236.987	83.25
237.221	96.25
237.455	99.25
237.689	88.25
237.922	79.25
238.156	69.25
238.39	69.25
238.624	82.25
238.858	84.25
239.091	72.25
239.325	81.25
239.559	97.25
239.793	69.25
240.027	70.25
240.26	93.25
240.494	94.25
240.728	81.25
240.961	81.25
241.195	94.25
241.429	82.25
241.662	76.25
241.896	59.25
242.13	67.25
242.363	78.25
242.597	75.25
242.83	87.25
243.064	94.25
243.298	94.25
243.531	87.25
243.765	73.25
243.998	86.25
244.232	82.25
244.465	106.25
244.699	91.25
244.932	92.25
245.166	81.25
245.399	85.25
245.633	86.25
245.866	67.25
246.099	64.25
246.333	73.25
246.566	92.25
246.8	80.25
247.033	77.25
247.266	79.25
247.5	95.25
247.733	68.25
247.966	74.25
248.2	87.25
248.433	79.25
248.666	74.25
248.899	90.25
249.133	114.25
249.366	103.25
249.599	113.25
249.832	78.25
250.066	75.25
250.299	80.25
250.532	87.25
250.765	85.25
250.998	88.25
251.231	73.25
251.465	83.25
251.698	88.25
251.931	84.25
252.164	94.25
252.397	77.25
252.63	91.25
252.863	79.25
253.096	86.25
253.329	79.25
253.562	83.25
253.795	85.25
254.028	97.25
254.261	84.25
254.494	73.25
254.727	97.25
254.96	77.25
255.193	80.25
255.426	81.25
255.659	89.25
255.892	97.25
256.124	85.25
256.357	85.25
256.59	80.25
256.823	84.25
257.056	77.25
257.289	87.25
257.521	85.25
257.754	83.25
257.987	83.25
258.22	92.25
258.452	77.25
258.685	87.25
258.918	77.25
259.151	89.25
259.383	73.25
259.616	88.25
259.849	95.25
260.081	101.25
260.314	80.25
260.547	87.25
260.779	84.25
261.012	87.25
261.244	89.25
261.477	97.25
261.71	105.25
261.942	111.25
262.175	125.25
262.407	89.25
262.64	85.25
262.872	86.25
263.105	87.25
263.337	91.25
263.57	91.25
263.802	102.25
264.035	84.25
264.267	84.25
264.499	82.25
264.732	89.25
264.964	94.25
265.197	71.25
265.429	81.25
265.661	93.25
265.894	96.25
266.126	97.25
266.358	84.25
266.591	102.25
266.823	74.25
267.055	73.25
267.287	79.25
267.52	92.25
267.752	85.25
267.984	94.25
268.216	95.25
268.448	84.25
268.681	85.25
268.913	96.25
269.145	92.25
269.377	77.25
269.609	91.25
269.841	86.25
270.073	108.25
270.306	74.25
270.538	84.25
270.77	81.25
271.002	83.25
271.234	92.25
271.466	99.25
271.698	78.25
271.93	94.25
272.162	108.25
272.394	80.25
272.626	87.25
272.858	106.25
273.09	86.25
273.322	86.25
273.553	92.25
273.785	82.25
274.017	89.25
274.249	88.25
274.481	90.25
274.713	93.25
274.945	80.25
275.176	90.25
275.408	92.25
275.64	86.25
275.872	85.25
276.104	103.25
276.335	97.25
276.567	103.25
276.799	107.25
277.031	109.25
277.262	88.25
277.494	106.25
277.726	83.25
277.957	88.25
278.189	96.25
278.421	101.25
278.652	77.25
278.884	81.25
279.115	82.25
279.347	91.25
279.579	82.25
279.81	94.25
280.042	84.25
280.273	97.25
280.505	78.25
280.736	93.25
280.968	93.25
281.199	78.25
281.431	89.25
281.662	98.25
281.894	100.25
282.125	103.25
282.356	127.25
282.588	155.25
282.819	118.25
283.051	73.25
283.282	80.25
283.513	84.25
283.745	84.25
283.976	81.25
284.207	97.25
284.439	98.25
284.67	86.25
284.901	92.25
285.132	84.25
285.364	79.25
285.595	95.25
285.826	106.25
286.057	98.25
286.288	91.25
286.52	90.25
286.751	74.25
286.982	97.25
287.213	92.25
287.444	82.25
287.675	86.25
287.906	106.25
288.138	85.25
288.369	91.25
288.6	93.25
288.831	100.25
289.062	77.25
289.293	111.25
289.524	88.25
289.755	94.25
289.986	108.25
290.217	80.25
290.448	88.25
290.679	78.25
290.91	89.25
291.141	104.25
291.371	101.25
291.602	90.25
291.833	95.25
292.064	94.25
292.295	82.25
292.526	87.25
292.757	107.25
292.987	94.25
293.218	97.25
293.449	87.25
293.68	87.25
293.91	78.25
294.141	108.25
294.372	81.25
294.603	92.25
294.833	99.25
295.064	94.25
295.295	92.25
295.525	85.25
295.756	106.25
295.987	125.25
296.217	145.25
296.448	143.25
296.679	99.25
296.909	98.25
297.14	81.25
297.37	98.25
297.601	92.25
297.831	106.25
298.062	85.25
298.292	90.25
298.523	80.25
298.753	86.25
298.984	84.25
299.214	83.25
299.445	88.25
299.675	90.25
299.905	104.25
300.136	94.25
300.366	81.25
300.597	79.25
300.827	94.25
301.057	93.25
301.288	118.25
301.518	104.25
301.748	106.25
301.979	99.25
302.209	86.25
302.439	89.25
302.669	92.25
302.9	88.25
303.13	95.25
303.36	103.25
303.59	94.25
303.82	120.25
304.051	106.25
304.281	95.25
304.511	98.25
304.741	91.25
304.971	109.25
305.201	104.25
305.431	84.25
305.661	97.25
305.891	108.25
306.121	95.25
306.352	102.25
306.582	106.25
306.812	105.25
307.042	94.25
307.272	90.25
307.502	97.25
307.731	98.25
307.961	93.25
308.191	85.25
308.421	101.25
308.651	84.25
308.881	94.25
309.111	92.25
309.341	97.25
309.571	101.25
309.8	103.25
310.03	102.25
310.26	97.25
310.49	99.25
310.72	106.25
310.949	109.25
311.179	92.25
311.409	108.25
311.639	99.25
311.868	105.25
312.098	99.25
312.328	109.25
312.557	133.25
312.787	118.25
313.017	125.25
313.246	92.25
313.476	101.25
313.706	86.25
313.935	89.25
314.165	104.25
314.394	109.25
314.624	101.25
314.853	112.25
315.083	98.25
315.312	108.25
315.542	97.25
315.771	76.25
316.001	92.25
316.23	89.25
316.46	95.25
316.689	110.25
316.919	103.25
317.148	106.25
317.377	104.25
317.607	111.25
317.836	112.25
318.065	105.25
318.295	94.25
318.524	95.25
318.753	93.25
318.983	87.25
319.212	111.25
319.441	104.25
319.67	118.25
319.9	103.25
320.129	92.25
320.358	86.25
320.587	100.25
320.816	103.25
321.046	105.25
321.275	97.25
321.504	95.25
321.733	99.25
321.962	109.25
322.191	102.25
322.42	120.25
322.649	132.25
322.878	111.25
323.108	116.25
323.337	150.25
323.566	142.25
323.795	190.25
324.024	243.25
324.253	487.25
324.482	1119.25
324.71	2329.25
324.939	3213.25
325.168	1105.25
325.397	318.25
325.626	172.25
325.855	157.25
326.084	151.25
326.313	146.25
326.542	181.25
326.77	263.25
326.999	572.25
327.228	1228.25
327.457	2360.25
327.686	1898.25
327.914	484.25
328.143	229.25
328.372	186.25
328.6	133.25
328.829	150.25
329.058	135.25
329.287	163.25
329.515	124.25
329.744	106.25
329.972	107.25
330.201	94.25
330.43	118.25
330.658	136.25
330.887	170.25
331.115	138.25
331.344	102.25
331.572	104.25
331.801	115.25
332.03	110.25
332.258	106.25
332.486	99.25
332.715	93.25
332.943	85.25
333.172	100.25
333.4	88.25
333.629	110.25
333.857	128.25
334.085	108.25
334.314	104.25
334.542	103.25
334.771	98.25
334.999	97.25
335.227	98.25
335.455	85.25
335.684	98.25
335.912	100.25
336.14	102.25
336.369	91.25
336.597	110.25
336.825	103.25
337.053	86.25
337.281	106.25
337.51	93.25
337.738	93.25
337.966	97.25
338.194	98.25
338.422	110.25
338.65	89.25
338.878	105.25
339.106	90.25
339.334	106.25
339.562	82.25
339.79	85.25
340.018	92.25
340.246	93.25
340.474	96.25
340.702	96.25
340.93	78.25
341.158	93.25
341.386	101.25
341.614	105.25
341.842	115.25
342.07	93.25
342.298	102.25
342.526	73.25
342.754	88.25
342.981	88.25
343.209	76.25
343.437	105.25
343.665	96.25
343.893	102.25
344.12	88.25
344.348	97.25
344.576	104.25
344.804	88.25
345.031	117.25
345.259	106.25
345.487	90.25
345.714	103.25
345.942	98.25
346.17	106.25
346.397	117.25
346.625	104.25
346.853	90.25
347.08	95.25
347.308	88.25
347.535	116.25
347.763	112.25
347.99	108.25
348.218	109.25
348.445	105.25
348.673	104.25
348.9	103.25
349.128	99.25
349.355	93.25
349.583	87.25
349.81	97.25
350.037	87.25
350.265	98.25
350.492	104.25
350.72	96.25
350.947	98.25
351.174	114.25
351.402	127.25
351.629	113.25
351.856	98.25
352.083	104.25
352.311	114.25
352.538	119.25
352.765	129.25
352.992	127.25
353.22	129.25
353.447	111.25
353.674	96.25
353.901	99.25
354.128	100.25
354.355	110.25
354.583	109.25
354.81	99.25
355.037	92.25
355.264	89.25
355.491	95.25
355.718	92.25
355.945	84.25
356.172	89.25
356.399	91.25
356.626	97.25
356.853	91.25
357.08	98.25
357.307	86.25
357.534	88.25
357.761	104.25
357.988	104.25
358.215	103.25
358.441	104.25
358.668	109.25
358.895	96.25
359.122	94.25
359.349	97.25
359.576	95.25
359.802	112.25
360.029	131.25
360.256	144.25
360.483	92.25
360.709	101.25
360.936	92.25
361.163	111.25
361.39	104.25
361.616	92.25
361.843	98.25
362.07	98.25
362.296	88.25
362.523	95.25
362.749	100.25
362.976	89.25
363.203	99.25
363.429	108.25
363.656	103.25
363.882	98.25
364.109	98.25
364.335	94.25
364.562	98.25
364.788	94.25
365.015	106.25
365.241	109.25
365.468	119.25
365.694	111.25
365.92	111.25
366.147	109.25
366.373	107.25
366.599	94.25
366.826	98.25
367.052	75.25
367.278	102.25
367.505	94.25
367.731	77.25
367.957	84.25
368.184	92.25
368.41	100.25
368.636	111.25
368.862	129.25
369.089	114.25
369.315	106.25
369.541	102.25
369.767	102.25
369.993	85.25
370.219	97.25
370.445	103.25
370.672	97.25
370.898	82.25
371.124	101.25
371.35	84.25
371.576	93.25
371.802	90.25
372.028	98.25
372.254	83.25
372.48	105.25
372.706	91.25
372.932	66.25
373.158	87.25
373.384	96.25
373.61	86.25
373.835	108.25
374.061	98.25
374.287	96.25
374.513	92.25
374.739	97.25
374.965	95.25
375.191	104.25
375.416	86.25
375.642	101.25
375.868	108.25
376.094	112.25
376.319	96.25
376.545	108.25
376.771	94.25
376.997	103.25
377.222	78.25
377.448	93.25
377.674	90.25
377.899	94.25
378.125	88.25
378.35	99.25
378.576	87.25
378.802	79.25
379.027	92.25
379.253	86.25
379.478	82.25
379.704	95.25
379.929	85.25
380.155	101.25
380.38	100.25
380.606	89.25
380.831	88.25
381.057	91.25
381.282	92.25
381.507	88.25
381.733	84.25
381.958	97.25
382.184	102.25
382.409	96.25
382.634	105.25
382.86	106.25
383.085	108.25
383.31	94.25
383.535	101.25
383.761	105.25
383.986	119.25
384.211	100.25
384.436	102.25
384.662	97.25
384.887	111.25
385.112	87.25
385.337	98.25
385.562	100.25
385.787	105.25
386.013	102.25
386.238	125.25
386.463	110.25
386.688	110.25
386.913	105.25
387.138	91.25
387.363	97.25
387.588	116.25
387.813	103.25
388.038	96.25
388.263	110.25
388.488	105.25
388.713	105.25
388.938	107.25
389.163	106.25
389.387	88.25
389.612	84.25
389.837	109.25
390.062	92.25
390.287	97.25
390.512	97.25
390.736	91.25
390.961	104.25
391.186	102.25
391.411	102.25
391.636	89.25
391.86	99.25
392.085	89.25
392.31	98.25
392.534	84.25
392.759	73.25
392.984	101.25
393.208	85.25
393.433	94.25
393.658	100.25
393.882	88.25
394.107	82.25
394.331	106.25
394.556	82.25
394.78	88.25
395.005	91.25
395.229	75.25
395.454	89.25
395.678	86.25
395.903	93.25
396.127	87.25
396.352	96.25
396.576	100.25
396.801	105.25
397.025	101.25
397.249	91.25
397.474	92.25
397.698	88.25
397.922	96.25
398.147	89.25
398.371	89.25
398.595	85.25
398.82	93.25
399.044	92.25
399.268	99.25
399.492	91.25
399.717	90.25
399.941	103.25
400.165	105.25
400.389	100.25
400.613	91.25
400.837	106.25
401.062	91.25
401.286	107.25
401.51	108.25
401.734	99.25
401.958	116.25
402.182	135.25
402.406	182.25
402.63	123.25
402.854	112.25
403.078	97.25
403.302	82.25
403.526	91.25
403.75	101.25
403.974	96.25
404.198	103.25
404.422	98.25
404.645	87.25
404.869	78.25
405.093	109.25
405.317	114.25
405.541	108.25
405.765	113.25
405.988	140.25
406.212	197.25
406.436	276.25
406.66	188.25
406.883	109.25
407.107	124.25
407.331	106.25
407.555	129.25
407.778	104.25
408.002	93.25
408.226	103.25
408.449	96.25
408.673	92.25
408.896	97.25
409.12	101.25
409.344	95.25
409.567	89.25
409.791	101.25
410.014	104.25
410.238	95.25
410.461	107.25
410.685	96.25
410.908	102.25
411.132	102.25
411.355	109.25
411.578	91.25
411.802	92.25
412.025	104.25
412.249	99.25
412.472	97.25
412.695	88.25
412.919	100.25
413.142	84.25
413.365	101.25
413.589	94.25
413.812	88.25
414.035	103.25
414.258	83.25
414.482	96.25
414.705	98.25
414.928	86.25
415.151	108.25
415.374	97.25
415.597	91.25
415.821	94.25
416.044	98.25
416.267	89.25
416.49	76.25
416.713	94.25
416.936	104.25
417.159	104.25
417.382	73.25
417.605	91.25
417.828	102.25
418.051	96.25
418.274	96.25
418.497	93.25
418.72	96.25
418.943	93.25
419.166	73.25
419.389	104.25
419.611	92.25
419.834	105.25
420.057	92.25
420.28	85.25
420.503	92.25
420.726	94.25
420.948	94.25
421.171	109.25
421.394	104.25
421.617	105.25
421.839	81.25
422.062	86.25
422.285	112.25
422.507	115.25
422.73	127.25
422.953	105.25
423.175	77.25
423.398	81.25
423.621	102.25
423.843	78.25
424.066	94.25
424.288	98.25
424.511	116.25
424.733	104.25
424.956	134.25
425.178	126.25
425.401	136.25
425.623	114.25
425.846	95.25
426.068	94.25
426.291	89.25
426.513	98.25
426.735	105.25
426.958	107.25
427.18	109.25
427.402	161.25
427.625	207.25
427.847	141.25
428.069	123.25
428.292	88.25
428.514	97.25
428.736	89.25
428.958	93.25
429.181	87.25
429.403	76.25
429.625	86.25
429.847	89.25
430.069	124.25
430.292	104.25
430.514	89.25
430.736	94.25
430.958	94.25
431.18	84.25
431.402	85.25
431.624	87.25
431.846	75.25
432.068	84.25
432.29	101.25
432.512	89.25
432.734	88.25
432.956	84.25
433.178	102.25
433.4	107.25
433.622	101.25
433.844	92.25
434.066	72.25
434.287	90.25
434.509	92.25
434.731	92.25
434.953	101.25
435.175	89.25
435.397	103.25
435.618	98.25
435.84	114.25
436.062	156.25
436.284	154.25
436.505	105.25
436.727	122.25
436.949	104.25
437.17	109.25
437.392	94.25
437.614	98.25
437.835	128.25
438.057	144.25
438.278	140.25
438.5	114.25
438.721	144.25
438.943	111.25
439.165	105.25
439.386	88.25
439.608	107.25
439.829	111.25
440.05	153.25
440.272	174.25
440.493	100.25
440.715	91.25
440.936	101.25
441.158	95.25
441.379	100.25
441.6	105.25
441.822	105.25
442.043	99.25
442.264	126.25
442.486	124.25
442.707	86.25
442.928	126.25
443.149	160.25
443.371	158.25
443.592	117.25
443.813	132.25
444.034	119.25
444.255	101.25
444.476	105.25
444.698	83.25
444.919	100.25
445.14	135.25
445.361	133.25
445.582	141.25
445.803	188.25
446.024	180.25
446.245	190.25
446.466	136.25
446.687	87.25
446.908	91.25
447.129	86.25
447.35	105.25
447.571	112.25
447.792	102.25
448.013	93.25
448.234	130.25
448.455	121.25
448.675	146.25
448.896	148.25
449.117	111.25
449.338	128.25
449.559	175.25
449.779	168.25
450	105.25
450.221	88.25
450.442	91.25
450.662	97.25
450.883	129.25
451.104	132.25
451.324	105.25
451.545	83.25
451.766	88.25
451.986	103.25
452.207	104.25
452.428	100.25
452.648	105.25
452.869	117.25
453.089	135.25
453.31	119.25
453.53	116.25
453.751	110.25
453.971	115.25
454.192	123.25
454.412	92.25
454.633	86.25
454.853	98.25
455.073	80.25
455.294	90.25
455.514	106.25
455.734	106.25
455.955	93.25
456.175	102.25
456.395	82.25
456.616	101.25
456.836	86.25
457.056	84.25
457.276	80.25
457.497	89.25
457.717	97.25
457.937	89.25
458.157	92.25
458.377	85.25
458.598	112.25
458.818	184.25
459.038	211.25
459.258	140.25
459.478	106.25
459.698	104.25
459.918	81.25
460.138	87.25
460.358	97.25
460.578	90.25
460.798	97.25
461.018	92.25
461.238	92.25
461.458	82.25
461.678	92.25
461.898	80.25
462.118	94.25
462.338	100.25
462.558	85.25
462.777	95.25
462.997	95.25
463.217	92.25
463.437	82.25
463.657	84.25
463.876	88.25
464.096	97.25
464.316	111.25
464.536	100.25
464.755	114.25
464.975	119.25
465.195	206.25
465.414	204.25
465.634	115.25
465.854	85.25
466.073	100.25
466.293	106.25
466.512	93.25
466.732	94.25
466.951	94.25
467.171	94.25
467.391	116.25
467.61	103.25
467.829	119.25
468.049	93.25
468.268	100.25
468.488	77.25
468.707	72.25
468.927	73.25
469.146	99.25
469.365	85.25
469.585	94.25
469.804	105.25
470.023	111.25
470.243	102.25
470.462	116.25
470.681	128.25
470.901	78.25
471.12	105.25
471.339	90.25
471.558	105.25
471.777	96.25
471.997	88.25
472.216	95.25
472.435	89.25
472.654	103.25
472.873	92.25
473.092	92.25
473.311	93.25
473.53	80.25
473.749	92.25
473.968	95.25
474.187	123.25
474.406	109.25
474.625	93.25
474.844	74.25
475.063	101.25
475.282	108.25
475.501	88.25
475.72	93.25
475.939	95.25
476.158	108.25
476.377	81.25
476.596	101.25
476.814	86.25
477.033	93.25
477.252	94.25
477.471	92.25
477.69	103.25
477.908	124.25
478.127	83.25
478.346	82.25
478.564	90.25
478.783	106.25
479.002	97.25
479.22	103.25
479.439	108.25
479.658	122.25
479.876	108.25
480.095	90.25
480.313	96.25
480.532	99.25
480.751	94.25
480.969	101.25
481.188	92.25
481.406	94.25
481.624	85.25
481.843	84.25
482.061	89.25
482.28	103.25
482.498	102.25
482.717	84.25
482.935	94.25
483.153	87.25
483.372	102.25
483.59	86.25
483.808	95.25
484.027	94.25
484.245	102.25
484.463	101.25
484.681	97.25
484.9	99.25
485.118	106.25
485.336	101.25
485.554	111.25
485.772	106.25
485.99	103.25
486.209	105.25
486.427	120.25
486.645	103.25
486.863	118.25
487.081	98.25
487.299	80.25
487.517	90.25
487.735	93.25
487.953	94.25
488.171	94.25
488.389	96.25
488.607	107.25
488.825	85.25
489.043	84.25
489.261	92.25
489.479	74.25
489.696	88.25
489.914	88.25
490.132	87.25
490.35	99.25
490.568	104.25
490.786	93.25
491.003	78.25
491.221	97.25
491.439	92.25
491.657	108.25
491.874	98.25
492.092	102.25
492.31	96.25
492.527	98.25
492.745	89.25
492.963	103.25
493.18	87.25
493.398	92.25
493.615	98.25
493.833	102.25
494.05	89.25
494.268	98.25
494.485	106.25
494.703	84.25
494.92	89.25
495.138	98.25
495.355	98.25
495.573	89.25
495.79	102.25
496.008	90.25
496.225	89.25
496.442	109.25
496.66	102.25
496.877	92.25
497.094	97.25
497.312	96.25
497.529	97.25
497.746	86.25
497.963	96.25
498.181	91.25
498.398	104.25
498.615	123.25
498.832	106.25
499.049	96.25
499.267	94.25
499.484	88.25
499.701	101.25
499.918	97.25
500.135	98.25
500.352	87.25
500.569	81.25
500.786	85.25
501.003	93.25
501.22	81.25
501.437	100.25
501.654	102.25
501.871	122.25
502.088	95.25
502.305	91.25
502.522	106.25
502.739	95.25
502.956	108.25
503.172	104.25
503.389	83.25
503.606	124.25
503.823	98.25
504.04	99.25
504.256	94.25
504.473	80.25
504.69	100.25
504.907	96.25
505.123	89.25
505.34	93.25
505.557	93.25
505.773	89.25
505.99	96.25
506.207	87.25
506.423	95.25
506.64	91.25
506.856	86.25
507.073	94.25
507.289	99.25
507.506	110.25
507.722	113.25
507.939	122.25
508.155	106.25
508.372	112.25
508.588	95.25
508.805	88.25
509.021	95.25
509.238	97.25
509.454	94.25
509.67	119.25
509.887	110.25
510.103	140.25
510.319	248.25
510.536	901.25
510.752	2950.25
510.968	780.25
511.184	158.25
511.401	117.25
511.617	109.25
511.833	103.25
512.049	94.25
512.265	99.25
512.481	108.25
512.698	108.25
512.914	111.25
