Data from Uncirc_1991_H10_HRD10591_00060.txt Node
Date: Wed Jan 03 11:50:50 EST 2024
User: Yrep
Spectrometer: HR+D1059
Trigger mode: 1
Integration Time (sec): 1.000000E-1
Scans to average: 1
Electric dark correction enabled: true
Nonlinearity correction enabled: false
Boxcar width: 0
XAxis mode: Wavelengths
Number of Pixels in Spectrum: 2048
>>>>>Begin Spectral Data<<<<<
223.165	-14.56
223.4	-14.56
223.635	-14.56
223.869	-10.56
224.104	-29.56
224.338	-19.56
224.573	-19.56
224.808	-15.56
225.042	-15.56
225.277	-7.56
225.511	-7.56
225.746	12.44
225.98	-4.56
226.215	23.44
226.449	25.44
226.683	22.44
226.918	26.44
227.152	34.44
227.387	34.44
227.621	29.44
227.856	49.44
228.09	51.44
228.324	33.44
228.559	69.44
228.793	73.44
229.027	57.44
229.262	78.44
229.496	77.44
229.73	86.44
229.964	95.44
230.199	89.44
230.433	75.44
230.667	78.44
230.901	85.44
231.136	61.44
231.37	68.44
231.604	77.44
231.838	83.44
232.072	68.44
232.306	87.44
232.541	83.44
232.775	84.44
233.009	79.44
233.243	80.44
233.477	83.44
233.711	89.44
233.945	74.44
234.179	86.44
234.413	84.44
234.647	84.44
234.881	74.44
235.115	65.44
235.349	69.44
235.583	86.44
235.817	81.44
236.051	86.44
236.285	91.44
236.519	77.44
236.753	77.44
236.987	69.44
237.221	82.44
237.455	85.44
237.689	70.44
237.922	79.44
238.156	79.44
238.39	85.44
238.624	78.44
238.858	80.44
239.091	72.44
239.325	79.44
239.559	62.44
239.793	75.44
240.027	92.44
240.26	79.44
240.494	65.44
240.728	81.44
240.961	82.44
241.195	91.44
241.429	93.44
241.662	77.44
241.896	73.44
242.13	81.44
242.363	93.44
242.597	79.44
242.83	85.44
243.064	75.44
243.298	61.44
243.531	76.44
243.765	70.44
243.998	85.44
244.232	77.44
244.465	88.44
244.699	90.44
244.932	69.44
245.166	79.44
245.399	83.44
245.633	91.44
245.866	78.44
246.099	57.44
246.333	67.44
246.566	73.44
246.8	67.44
247.033	66.44
247.266	91.44
247.5	77.44
247.733	86.44
247.966	76.44
248.2	77.44
248.433	77.44
248.666	92.44
248.899	90.44
249.133	93.44
249.366	96.44
249.599	79.44
249.832	69.44
250.066	74.44
250.299	73.44
250.532	77.44
250.765	76.44
250.998	84.44
251.231	77.44
251.465	74.44
251.698	80.44
251.931	82.44
252.164	79.44
252.397	91.44
252.63	76.44
252.863	79.44
253.096	70.44
253.329	80.44
253.562	78.44
253.795	78.44
254.028	81.44
254.261	79.44
254.494	82.44
254.727	77.44
254.96	77.44
255.193	87.44
255.426	77.44
255.659	91.44
255.892	84.44
256.124	75.44
256.357	71.44
256.59	84.44
256.823	89.44
257.056	79.44
257.289	86.44
257.521	92.44
257.754	65.44
257.987	94.44
258.22	85.44
258.452	88.44
258.685	73.44
258.918	87.44
259.151	82.44
259.383	84.44
259.616	78.44
259.849	68.44
260.081	84.44
260.314	99.44
260.547	81.44
260.779	82.44
261.012	82.44
261.244	82.44
261.477	99.44
261.71	96.44
261.942	118.44
262.175	119.44
262.407	96.44
262.64	92.44
262.872	77.44
263.105	81.44
263.337	95.44
263.57	77.44
263.802	83.44
264.035	77.44
264.267	78.44
264.499	94.44
264.732	90.44
264.964	85.44
265.197	70.44
265.429	77.44
265.661	85.44
265.894	91.44
266.126	81.44
266.358	85.44
266.591	87.44
266.823	66.44
267.055	76.44
267.287	79.44
267.52	85.44
267.752	81.44
267.984	88.44
268.216	84.44
268.448	73.44
268.681	85.44
268.913	80.44
269.145	81.44
269.377	90.44
269.609	67.44
269.841	97.44
270.073	82.44
270.306	85.44
270.538	83.44
270.77	86.44
271.002	81.44
271.234	92.44
271.466	74.44
271.698	90.44
271.93	95.44
272.162	80.44
272.394	99.44
272.626	86.44
272.858	82.44
273.09	78.44
273.322	98.44
273.553	83.44
273.785	89.44
274.017	72.44
274.249	94.44
274.481	78.44
274.713	89.44
274.945	77.44
275.176	86.44
275.408	83.44
275.64	98.44
275.872	94.44
276.104	101.44
276.335	87.44
276.567	96.44
276.799	114.44
277.031	110.44
277.262	94.44
277.494	97.44
277.726	94.44
277.957	83.44
278.189	85.44
278.421	77.44
278.652	79.44
278.884	83.44
279.115	77.44
279.347	91.44
279.579	84.44
279.81	86.44
280.042	76.44
280.273	87.44
280.505	82.44
280.736	73.44
280.968	85.44
281.199	79.44
281.431	73.44
281.662	96.44
281.894	90.44
282.125	92.44
282.356	120.44
282.588	159.44
282.819	129.44
283.051	86.44
283.282	91.44
283.513	64.44
283.745	71.44
283.976	83.44
284.207	89.44
284.439	83.44
284.67	79.44
284.901	75.44
285.132	87.44
285.364	92.44
285.595	83.44
285.826	91.44
286.057	99.44
286.288	85.44
286.52	69.44
286.751	86.44
286.982	79.44
287.213	98.44
287.444	83.44
287.675	96.44
287.906	93.44
288.138	88.44
288.369	108.44
288.6	83.44
288.831	88.44
289.062	93.44
289.293	90.44
289.524	86.44
289.755	96.44
289.986	88.44
290.217	93.44
290.448	90.44
290.679	69.44
290.91	82.44
291.141	77.44
291.371	80.44
291.602	77.44
291.833	81.44
292.064	86.44
292.295	83.44
292.526	87.44
292.757	92.44
292.987	103.44
293.218	85.44
293.449	105.44
293.68	82.44
293.91	78.44
294.141	83.44
294.372	85.44
294.603	86.44
294.833	81.44
295.064	93.44
295.295	77.44
295.525	87.44
295.756	99.44
295.987	120.44
296.217	140.44
296.448	129.44
296.679	88.44
296.909	93.44
297.14	107.44
297.37	89.44
297.601	85.44
297.831	104.44
298.062	99.44
298.292	93.44
298.523	103.44
298.753	103.44
298.984	81.44
299.214	96.44
299.445	96.44
299.675	93.44
299.905	101.44
300.136	90.44
300.366	83.44
300.597	96.44
300.827	93.44
301.057	94.44
301.288	109.44
301.518	97.44
301.748	81.44
301.979	105.44
302.209	101.44
302.439	98.44
302.669	87.44
302.9	100.44
303.13	91.44
303.36	96.44
303.59	111.44
303.82	101.44
304.051	102.44
304.281	81.44
304.511	83.44
304.741	103.44
304.971	93.44
305.201	92.44
305.431	82.44
305.661	92.44
305.891	87.44
306.121	87.44
306.352	107.44
306.582	111.44
306.812	104.44
307.042	93.44
307.272	90.44
307.502	96.44
307.731	96.44
307.961	96.44
308.191	83.44
308.421	95.44
308.651	93.44
308.881	96.44
309.111	86.44
309.341	108.44
309.571	91.44
309.8	110.44
310.03	103.44
310.26	100.44
310.49	96.44
310.72	101.44
310.949	103.44
311.179	103.44
311.409	90.44
311.639	103.44
311.868	90.44
312.098	99.44
312.328	98.44
312.557	103.44
312.787	116.44
313.017	100.44
313.246	93.44
313.476	101.44
313.706	80.44
313.935	97.44
314.165	106.44
314.394	101.44
314.624	95.44
314.853	93.44
315.083	75.44
315.312	85.44
315.542	88.44
315.771	78.44
316.001	95.44
316.23	103.44
316.46	84.44
316.689	91.44
316.919	102.44
317.148	98.44
317.377	101.44
317.607	102.44
317.836	92.44
318.065	73.44
318.295	81.44
318.524	91.44
318.753	94.44
318.983	96.44
319.212	111.44
319.441	105.44
319.67	106.44
319.9	95.44
320.129	87.44
320.358	95.44
320.587	121.44
320.816	98.44
321.046	119.44
321.275	93.44
321.504	94.44
321.733	98.44
321.962	87.44
322.191	107.44
322.42	104.44
322.649	108.44
322.878	110.44
323.108	117.44
323.337	131.44
323.566	156.44
323.795	168.44
324.024	246.44
324.253	477.44
324.482	1006.44
324.71	2111.44
324.939	2917.44
325.168	1034.44
325.397	281.44
325.626	163.44
325.855	128.44
326.084	142.44
326.313	162.44
326.542	172.44
326.77	257.44
326.999	531.44
327.228	1105.44
327.457	2134.44
327.686	1752.44
327.914	438.44
328.143	211.44
328.372	161.44
328.6	125.44
328.829	122.44
329.058	129.44
329.287	143.44
329.515	109.44
329.744	101.44
329.972	104.44
330.201	105.44
330.43	121.44
330.658	132.44
330.887	150.44
331.115	127.44
331.344	94.44
331.572	111.44
331.801	113.44
332.03	105.44
332.258	110.44
332.486	98.44
332.715	90.44
332.943	90.44
333.172	92.44
333.4	107.44
333.629	97.44
333.857	110.44
334.085	104.44
334.314	102.44
334.542	111.44
334.771	103.44
334.999	107.44
335.227	89.44
335.455	97.44
335.684	82.44
335.912	91.44
336.14	97.44
336.369	103.44
336.597	92.44
336.825	98.44
337.053	73.44
337.281	107.44
337.51	101.44
337.738	101.44
337.966	90.44
338.194	99.44
338.422	98.44
338.65	100.44
338.878	95.44
339.106	91.44
339.334	90.44
339.562	89.44
339.79	84.44
340.018	94.44
340.246	95.44
340.474	108.44
340.702	93.44
340.93	101.44
341.158	107.44
341.386	103.44
341.614	103.44
341.842	107.44
342.07	99.44
342.298	82.44
342.526	85.44
342.754	85.44
342.981	76.44
343.209	86.44
343.437	106.44
343.665	101.44
343.893	90.44
344.12	93.44
344.348	74.44
344.576	83.44
344.804	109.44
345.031	104.44
345.259	102.44
345.487	95.44
345.714	86.44
345.942	90.44
346.17	88.44
346.397	85.44
346.625	95.44
346.853	99.44
347.08	86.44
347.308	88.44
347.535	106.44
347.763	89.44
347.99	93.44
348.218	93.44
348.445	101.44
348.673	98.44
348.9	82.44
349.128	87.44
349.355	88.44
349.583	84.44
349.81	94.44
350.037	94.44
350.265	105.44
350.492	95.44
350.72	95.44
350.947	97.44
351.174	114.44
351.402	122.44
351.629	94.44
351.856	99.44
352.083	102.44
352.311	106.44
352.538	115.44
352.765	111.44
352.992	107.44
353.22	110.44
353.447	98.44
353.674	100.44
353.901	102.44
354.128	103.44
354.355	103.44
354.583	105.44
354.81	109.44
355.037	87.44
355.264	91.44
355.491	91.44
355.718	89.44
355.945	90.44
356.172	97.44
356.399	99.44
356.626	101.44
356.853	91.44
357.08	86.44
357.307	80.44
357.534	97.44
357.761	91.44
357.988	90.44
358.215	93.44
358.441	91.44
358.668	71.44
358.895	99.44
359.122	94.44
359.349	89.44
359.576	102.44
359.802	112.44
360.029	114.44
360.256	115.44
360.483	94.44
360.709	89.44
360.936	85.44
361.163	70.44
361.39	89.44
361.616	99.44
361.843	94.44
362.07	102.44
362.296	103.44
362.523	86.44
362.749	86.44
362.976	95.44
363.203	95.44
363.429	89.44
363.656	91.44
363.882	103.44
364.109	93.44
364.335	98.44
364.562	110.44
364.788	89.44
365.015	97.44
365.241	102.44
365.468	115.44
365.694	114.44
365.92	101.44
366.147	92.44
366.373	102.44
366.599	89.44
366.826	98.44
367.052	75.44
367.278	83.44
367.505	89.44
367.731	88.44
367.957	88.44
368.184	71.44
368.41	106.44
368.636	109.44
368.862	109.44
369.089	92.44
369.315	91.44
369.541	83.44
369.767	83.44
369.993	84.44
370.219	101.44
370.445	80.44
370.672	92.44
370.898	91.44
371.124	89.44
371.35	81.44
371.576	94.44
371.802	89.44
372.028	82.44
372.254	92.44
372.48	81.44
372.706	85.44
372.932	92.44
373.158	79.44
373.384	94.44
373.61	91.44
373.835	87.44
374.061	85.44
374.287	75.44
374.513	90.44
374.739	95.44
374.965	80.44
375.191	89.44
375.416	89.44
375.642	95.44
375.868	87.44
376.094	96.44
376.319	101.44
376.545	90.44
376.771	92.44
376.997	81.44
377.222	86.44
377.448	83.44
377.674	79.44
377.899	91.44
378.125	85.44
378.35	107.44
378.576	78.44
378.802	90.44
379.027	91.44
379.253	85.44
379.478	77.44
379.704	93.44
379.929	91.44
380.155	93.44
380.38	103.44
380.606	82.44
380.831	100.44
381.057	92.44
381.282	99.44
381.507	92.44
381.733	91.44
381.958	84.44
382.184	90.44
382.409	94.44
382.634	99.44
382.86	88.44
383.085	95.44
383.31	108.44
383.535	97.44
383.761	102.44
383.986	85.44
384.211	101.44
384.436	96.44
384.662	93.44
384.887	90.44
385.112	95.44
385.337	92.44
385.562	94.44
385.787	109.44
386.013	101.44
386.238	111.44
386.463	112.44
386.688	100.44
386.913	96.44
387.138	103.44
387.363	94.44
387.588	87.44
387.813	93.44
388.038	86.44
388.263	101.44
388.488	99.44
388.713	86.44
388.938	86.44
389.163	99.44
389.387	80.44
389.612	99.44
389.837	91.44
390.062	88.44
390.287	83.44
390.512	101.44
390.736	87.44
390.961	86.44
391.186	101.44
391.411	99.44
391.636	85.44
391.86	88.44
392.085	97.44
392.31	75.44
392.534	81.44
392.759	88.44
392.984	83.44
393.208	81.44
393.433	76.44
393.658	82.44
393.882	87.44
394.107	93.44
394.331	96.44
394.556	90.44
394.78	95.44
395.005	95.44
395.229	77.44
395.454	86.44
395.678	96.44
395.903	86.44
396.127	73.44
396.352	83.44
396.576	70.44
396.801	83.44
397.025	80.44
397.249	78.44
397.474	90.44
397.698	79.44
397.922	94.44
398.147	101.44
398.371	86.44
398.595	91.44
398.82	83.44
399.044	93.44
399.268	83.44
399.492	87.44
399.717	90.44
399.941	91.44
400.165	93.44
400.389	94.44
400.613	93.44
400.837	79.44
401.062	93.44
401.286	96.44
401.51	97.44
401.734	97.44
401.958	106.44
402.182	140.44
402.406	175.44
402.63	122.44
402.854	93.44
403.078	94.44
403.302	86.44
403.526	90.44
403.75	98.44
403.974	84.44
404.198	84.44
404.422	80.44
404.645	75.44
404.869	97.44
405.093	100.44
405.317	103.44
405.541	113.44
405.765	106.44
405.988	129.44
406.212	179.44
406.436	255.44
406.66	154.44
406.883	102.44
407.107	94.44
407.331	98.44
407.555	113.44
407.778	104.44
408.002	93.44
408.226	86.44
408.449	88.44
408.673	73.44
408.896	100.44
409.12	98.44
409.344	101.44
409.567	79.44
409.791	79.44
410.014	91.44
410.238	86.44
410.461	92.44
410.685	84.44
410.908	99.44
411.132	103.44
411.355	109.44
411.578	90.44
411.802	88.44
412.025	83.44
412.249	87.44
412.472	79.44
412.695	90.44
412.919	90.44
413.142	87.44
413.365	82.44
413.589	96.44
413.812	81.44
414.035	84.44
414.258	76.44
414.482	92.44
414.705	91.44
414.928	90.44
415.151	87.44
415.374	95.44
415.597	95.44
415.821	82.44
416.044	73.44
416.267	95.44
416.49	79.44
416.713	92.44
416.936	90.44
417.159	87.44
417.382	93.44
417.605	88.44
417.828	105.44
418.051	91.44
418.274	81.44
418.497	83.44
418.72	94.44
418.943	74.44
419.166	90.44
419.389	85.44
419.611	83.44
419.834	95.44
420.057	82.44
420.28	77.44
420.503	95.44
420.726	90.44
420.948	94.44
421.171	117.44
421.394	94.44
421.617	81.44
421.839	95.44
422.062	97.44
422.285	83.44
422.507	101.44
422.73	101.44
422.953	97.44
423.175	74.44
423.398	93.44
423.621	97.44
423.843	86.44
424.066	70.44
424.288	88.44
424.511	88.44
424.733	102.44
424.956	121.44
425.178	102.44
425.401	91.44
425.623	94.44
425.846	97.44
426.068	100.44
426.291	93.44
426.513	99.44
426.735	86.44
426.958	100.44
427.18	116.44
427.402	171.44
427.625	173.44
427.847	118.44
428.069	103.44
428.292	76.44
428.514	93.44
428.736	92.44
428.958	75.44
429.181	89.44
429.403	90.44
429.625	90.44
429.847	90.44
430.069	96.44
430.292	95.44
430.514	94.44
430.736	82.44
430.958	82.44
431.18	90.44
431.402	90.44
431.624	86.44
431.846	85.44
432.068	98.44
432.29	82.44
432.512	76.44
432.734	75.44
432.956	95.44
433.178	107.44
433.4	100.44
433.622	91.44
433.844	82.44
434.066	97.44
434.287	93.44
434.509	102.44
434.731	84.44
434.953	91.44
435.175	91.44
435.397	96.44
435.618	119.44
435.84	106.44
436.062	158.44
436.284	139.44
436.505	99.44
436.727	89.44
436.949	98.44
437.17	75.44
437.392	84.44
437.614	107.44
437.835	96.44
438.057	132.44
438.278	130.44
438.5	101.44
438.721	134.44
438.943	114.44
439.165	87.44
439.386	92.44
439.608	100.44
439.829	101.44
440.05	135.44
440.272	146.44
440.493	102.44
440.715	99.44
440.936	78.44
441.158	95.44
441.379	85.44
441.6	87.44
441.822	90.44
442.043	93.44
442.264	99.44
442.486	118.44
442.707	102.44
442.928	123.44
443.149	139.44
443.371	157.44
443.592	114.44
443.813	122.44
444.034	123.44
444.255	103.44
444.476	110.44
444.698	93.44
444.919	100.44
445.14	128.44
445.361	131.44
445.582	112.44
445.803	142.44
446.024	155.44
446.245	159.44
446.466	110.44
446.687	89.44
446.908	86.44
447.129	90.44
447.35	86.44
447.571	99.44
447.792	90.44
448.013	102.44
448.234	106.44
448.455	93.44
448.675	141.44
448.896	134.44
449.117	102.44
449.338	98.44
449.559	129.44
449.779	159.44
450	92.44
450.221	91.44
450.442	102.44
450.662	89.44
450.883	98.44
451.104	105.44
451.324	97.44
451.545	98.44
451.766	81.44
451.986	94.44
452.207	90.44
452.428	91.44
452.648	97.44
452.869	107.44
453.089	112.44
453.31	122.44
453.53	86.44
453.751	87.44
453.971	91.44
454.192	117.44
454.412	94.44
454.633	101.44
454.853	85.44
455.073	91.44
455.294	84.44
455.514	113.44
455.734	102.44
455.955	89.44
456.175	94.44
456.395	82.44
456.616	88.44
456.836	74.44
457.056	95.44
457.276	94.44
457.497	85.44
457.717	82.44
457.937	88.44
458.157	86.44
458.377	91.44
458.598	125.44
458.818	173.44
459.038	175.44
459.258	122.44
459.478	112.44
459.698	84.44
459.918	71.44
460.138	79.44
460.358	90.44
460.578	89.44
460.798	79.44
461.018	97.44
461.238	87.44
461.458	78.44
461.678	83.44
461.898	78.44
462.118	96.44
462.338	74.44
462.558	75.44
462.777	81.44
462.997	94.44
463.217	70.44
463.437	75.44
463.657	83.44
463.876	78.44
464.096	84.44
464.316	81.44
464.536	98.44
464.755	95.44
464.975	110.44
465.195	185.44
465.414	176.44
465.634	107.44
465.854	98.44
466.073	81.44
466.293	81.44
466.512	80.44
466.732	75.44
466.951	84.44
467.171	86.44
467.391	80.44
467.61	101.44
467.829	101.44
468.049	91.44
468.268	90.44
468.488	77.44
468.707	73.44
468.927	95.44
469.146	88.44
469.365	92.44
469.585	96.44
469.804	94.44
470.023	82.44
470.243	98.44
470.462	101.44
470.681	116.44
470.901	98.44
471.12	95.44
471.339	102.44
471.558	102.44
471.777	86.44
471.997	86.44
472.216	91.44
472.435	82.44
472.654	89.44
472.873	90.44
473.092	69.44
473.311	83.44
473.53	94.44
473.749	88.44
473.968	103.44
474.187	104.44
474.406	95.44
474.625	89.44
474.844	88.44
475.063	90.44
475.282	89.44
475.501	78.44
475.72	95.44
475.939	81.44
476.158	88.44
476.377	95.44
476.596	86.44
476.814	101.44
477.033	90.44
477.252	99.44
477.471	98.44
477.69	83.44
477.908	89.44
478.127	90.44
478.346	77.44
478.564	97.44
478.783	99.44
479.002	95.44
479.22	81.44
479.439	102.44
479.658	89.44
479.876	97.44
480.095	101.44
480.313	103.44
480.532	98.44
480.751	88.44
480.969	89.44
481.188	96.44
481.406	103.44
481.624	89.44
481.843	75.44
482.061	88.44
482.28	79.44
482.498	86.44
482.717	92.44
482.935	86.44
483.153	84.44
483.372	94.44
483.59	92.44
483.808	86.44
484.027	78.44
484.245	84.44
484.463	85.44
484.681	85.44
484.9	93.44
485.118	90.44
485.336	94.44
485.554	97.44
485.772	99.44
485.99	111.44
486.209	105.44
486.427	88.44
486.645	110.44
486.863	115.44
487.081	105.44
487.299	89.44
487.517	95.44
487.735	89.44
487.953	85.44
488.171	75.44
488.389	96.44
488.607	103.44
488.825	101.44
489.043	86.44
489.261	83.44
489.479	88.44
489.696	89.44
489.914	86.44
490.132	89.44
490.35	73.44
490.568	84.44
490.786	83.44
491.003	83.44
491.221	87.44
491.439	101.44
491.657	91.44
491.874	90.44
492.092	92.44
492.31	83.44
492.527	83.44
492.745	88.44
492.963	81.44
493.18	90.44
493.398	99.44
493.615	86.44
493.833	95.44
494.05	87.44
494.268	90.44
494.485	83.44
494.703	78.44
494.92	95.44
495.138	91.44
495.355	89.44
495.573	82.44
495.79	97.44
496.008	93.44
496.225	99.44
496.442	89.44
496.66	105.44
496.877	98.44
497.094	110.44
497.312	88.44
497.529	78.44
497.746	82.44
497.963	82.44
498.181	102.44
498.398	104.44
498.615	103.44
498.832	107.44
499.049	97.44
499.267	102.44
499.484	98.44
499.701	102.44
499.918	95.44
500.135	83.44
500.352	101.44
500.569	79.44
500.786	88.44
501.003	85.44
501.22	85.44
501.437	87.44
501.654	82.44
501.871	106.44
502.088	99.44
502.305	101.44
502.522	104.44
502.739	93.44
502.956	102.44
503.172	95.44
503.389	106.44
503.606	109.44
503.823	108.44
504.04	96.44
504.256	108.44
504.473	92.44
504.69	83.44
504.907	91.44
505.123	82.44
505.34	95.44
505.557	78.44
505.773	97.44
505.99	88.44
506.207	89.44
506.423	93.44
506.64	86.44
506.856	87.44
507.073	90.44
507.289	85.44
507.506	105.44
507.722	122.44
507.939	135.44
508.155	101.44
508.372	87.44
508.588	79.44
508.805	105.44
509.021	87.44
509.238	105.44
509.454	101.44
509.67	94.44
509.887	105.44
510.103	138.44
510.319	221.44
510.536	830.44
510.752	2727.44
510.968	732.44
511.184	161.44
511.401	114.44
511.617	113.44
511.833	91.44
512.049	95.44
512.265	88.44
512.481	102.44
512.698	87.44
512.914	102.44
513.13	113.44
513.346	87.44
513.562	102.44
513.778	107.44
513.994	99.44
514.21	111.44
514.426	102.44
514.642	149.44
514.858	137.44
515.074	185.44
515.29	541.44
