Data from Uncirc_1991_H10_HRD10591_00041.txt Node
Date: Wed Jan 03 11:50:46 EST 2024
User: Yrep
Spectrometer: HR+D1059
Trigger mode: 1
Integration Time (sec): 1.000000E-1
Scans to average: 1
Electric dark correction enabled: true
Nonlinearity correction enabled: false
Boxcar width: 0
XAxis mode: Wavelengths
Number of Pixels in Spectrum: 2048
>>>>>Begin Spectral Data<<<<<
223.165	-30.81
223.4	-30.81
223.635	-30.81
223.869	-13.81
224.104	-11.81
224.338	-21.81
224.573	-18.81
224.808	-14.81
225.042	-7.81
225.277	-11.81
225.511	8.19
225.746	4.19
225.98	15.19
226.215	17.19
226.449	13.19
226.683	19.19
226.918	29.19
227.152	25.19
227.387	33.19
227.621	55.19
227.856	30.19
228.09	49.19
228.324	50.19
228.559	62.19
228.793	63.19
229.027	67.19
229.262	70.19
229.496	63.19
229.73	86.19
229.964	85.19
230.199	82.19
230.433	77.19
230.667	91.19
230.901	83.19
231.136	78.19
231.37	88.19
231.604	75.19
231.838	83.19
232.072	77.19
232.306	78.19
232.541	74.19
232.775	70.19
233.009	83.19
233.243	75.19
233.477	92.19
233.711	94.19
233.945	82.19
234.179	86.19
234.413	60.19
234.647	85.19
234.881	92.19
235.115	92.19
235.349	71.19
235.583	88.19
235.817	78.19
236.051	99.19
236.285	71.19
236.519	82.19
236.753	79.19
236.987	86.19
237.221	81.19
237.455	86.19
237.689	80.19
237.922	74.19
238.156	85.19
238.39	83.19
238.624	82.19
238.858	77.19
239.091	81.19
239.325	82.19
239.559	95.19
239.793	86.19
240.027	84.19
240.26	72.19
240.494	80.19
240.728	71.19
240.961	71.19
241.195	88.19
241.429	63.19
241.662	68.19
241.896	83.19
242.13	69.19
242.363	68.19
242.597	94.19
242.83	87.19
243.064	69.19
243.298	75.19
243.531	78.19
243.765	75.19
243.998	73.19
244.232	81.19
244.465	83.19
244.699	77.19
244.932	82.19
245.166	90.19
245.399	78.19
245.633	84.19
245.866	66.19
246.099	85.19
246.333	88.19
246.566	80.19
246.8	74.19
247.033	77.19
247.266	79.19
247.5	88.19
247.733	83.19
247.966	76.19
248.2	81.19
248.433	93.19
248.666	68.19
248.899	67.19
249.133	77.19
249.366	95.19
249.599	92.19
249.832	74.19
250.066	98.19
250.299	79.19
250.532	80.19
250.765	73.19
250.998	78.19
251.231	84.19
251.465	79.19
251.698	90.19
251.931	78.19
252.164	74.19
252.397	82.19
252.63	94.19
252.863	85.19
253.096	84.19
253.329	79.19
253.562	74.19
253.795	82.19
254.028	93.19
254.261	73.19
254.494	75.19
254.727	89.19
254.96	83.19
255.193	72.19
255.426	91.19
255.659	73.19
255.892	77.19
256.124	93.19
256.357	90.19
256.59	91.19
256.823	70.19
257.056	94.19
257.289	94.19
257.521	82.19
257.754	97.19
257.987	78.19
258.22	79.19
258.452	92.19
258.685	80.19
258.918	82.19
259.151	76.19
259.383	89.19
259.616	93.19
259.849	81.19
260.081	81.19
260.314	78.19
260.547	91.19
260.779	77.19
261.012	82.19
261.244	95.19
261.477	89.19
261.71	82.19
261.942	113.19
262.175	105.19
262.407	101.19
262.64	79.19
262.872	82.19
263.105	80.19
263.337	89.19
263.57	76.19
263.802	83.19
264.035	74.19
264.267	92.19
264.499	88.19
264.732	86.19
264.964	79.19
265.197	78.19
265.429	74.19
265.661	77.19
265.894	86.19
266.126	76.19
266.358	81.19
266.591	82.19
266.823	71.19
267.055	84.19
267.287	89.19
267.52	83.19
267.752	78.19
267.984	89.19
268.216	81.19
268.448	93.19
268.681	87.19
268.913	86.19
269.145	83.19
269.377	93.19
269.609	70.19
269.841	78.19
270.073	76.19
270.306	88.19
270.538	83.19
270.77	84.19
271.002	90.19
271.234	77.19
271.466	82.19
271.698	78.19
271.93	79.19
272.162	87.19
272.394	96.19
272.626	85.19
272.858	80.19
273.09	79.19
273.322	86.19
273.553	84.19
273.785	87.19
274.017	82.19
274.249	97.19
274.481	80.19
274.713	83.19
274.945	77.19
275.176	89.19
275.408	79.19
275.64	77.19
275.872	90.19
276.104	90.19
276.335	82.19
276.567	107.19
276.799	101.19
277.031	94.19
277.262	82.19
277.494	84.19
277.726	90.19
277.957	87.19
278.189	79.19
278.421	81.19
278.652	79.19
278.884	83.19
279.115	87.19
279.347	84.19
279.579	86.19
279.81	84.19
280.042	89.19
280.273	91.19
280.505	89.19
280.736	98.19
280.968	80.19
281.199	92.19
281.431	83.19
281.662	77.19
281.894	98.19
282.125	102.19
282.356	112.19
282.588	135.19
282.819	101.19
283.051	93.19
283.282	77.19
283.513	95.19
283.745	85.19
283.976	92.19
284.207	94.19
284.439	81.19
284.67	93.19
284.901	94.19
285.132	87.19
285.364	83.19
285.595	97.19
285.826	98.19
286.057	86.19
286.288	84.19
286.52	82.19
286.751	95.19
286.982	81.19
287.213	79.19
287.444	82.19
287.675	102.19
287.906	85.19
288.138	97.19
288.369	87.19
288.6	98.19
288.831	77.19
289.062	77.19
289.293	82.19
289.524	99.19
289.755	83.19
289.986	68.19
290.217	77.19
290.448	101.19
290.679	82.19
290.91	89.19
291.141	89.19
291.371	76.19
291.602	87.19
291.833	98.19
292.064	78.19
292.295	95.19
292.526	85.19
292.757	88.19
292.987	92.19
293.218	74.19
293.449	85.19
293.68	79.19
293.91	75.19
294.141	93.19
294.372	85.19
294.603	94.19
294.833	96.19
295.064	92.19
295.295	84.19
295.525	92.19
295.756	105.19
295.987	112.19
296.217	123.19
296.448	113.19
296.679	88.19
296.909	95.19
297.14	82.19
297.37	93.19
297.601	92.19
297.831	78.19
298.062	81.19
298.292	92.19
298.523	77.19
298.753	90.19
298.984	104.19
299.214	92.19
299.445	86.19
299.675	94.19
299.905	89.19
300.136	86.19
300.366	79.19
300.597	97.19
300.827	89.19
301.057	100.19
301.288	96.19
301.518	95.19
301.748	94.19
301.979	116.19
302.209	97.19
302.439	86.19
302.669	68.19
302.9	85.19
303.13	91.19
303.36	98.19
303.59	109.19
303.82	97.19
304.051	97.19
304.281	91.19
304.511	91.19
304.741	85.19
304.971	87.19
305.201	96.19
305.431	77.19
305.661	83.19
305.891	94.19
306.121	87.19
306.352	95.19
306.582	94.19
306.812	90.19
307.042	96.19
307.272	89.19
307.502	81.19
307.731	91.19
307.961	87.19
308.191	79.19
308.421	97.19
308.651	90.19
308.881	93.19
309.111	91.19
309.341	92.19
309.571	98.19
309.8	102.19
310.03	97.19
310.26	95.19
310.49	92.19
310.72	97.19
310.949	123.19
311.179	102.19
311.409	99.19
311.639	85.19
311.868	80.19
312.098	94.19
312.328	97.19
312.557	100.19
312.787	86.19
313.017	95.19
313.246	91.19
313.476	86.19
313.706	98.19
313.935	97.19
314.165	101.19
314.394	107.19
314.624	104.19
314.853	91.19
315.083	88.19
315.312	92.19
315.542	102.19
315.771	92.19
316.001	89.19
316.23	91.19
316.46	88.19
316.689	75.19
316.919	95.19
317.148	91.19
317.377	89.19
317.607	97.19
317.836	96.19
318.065	100.19
318.295	102.19
318.524	92.19
318.753	88.19
318.983	80.19
319.212	93.19
319.441	96.19
319.67	105.19
319.9	91.19
320.129	95.19
320.358	85.19
320.587	75.19
320.816	104.19
321.046	109.19
321.275	97.19
321.504	92.19
321.733	102.19
321.962	97.19
322.191	107.19
322.42	121.19
322.649	101.19
322.878	115.19
323.108	129.19
323.337	127.19
323.566	142.19
323.795	144.19
324.024	208.19
324.253	409.19
324.482	879.19
324.71	1830.19
324.939	2447.19
325.168	884.19
325.397	257.19
325.626	161.19
325.855	124.19
326.084	133.19
326.313	117.19
326.542	175.19
326.77	229.19
326.999	488.19
327.228	995.19
327.457	1877.19
327.686	1515.19
327.914	381.19
328.143	198.19
328.372	152.19
328.6	123.19
328.829	111.19
329.058	103.19
329.287	121.19
329.515	104.19
329.744	99.19
329.972	95.19
330.201	103.19
330.43	98.19
330.658	114.19
330.887	139.19
331.115	116.19
331.344	85.19
331.572	94.19
331.801	101.19
332.03	104.19
332.258	92.19
332.486	97.19
332.715	106.19
332.943	76.19
333.172	110.19
333.4	101.19
333.629	112.19
333.857	91.19
334.085	100.19
334.314	98.19
334.542	84.19
334.771	87.19
334.999	89.19
335.227	94.19
335.455	80.19
335.684	108.19
335.912	102.19
336.14	93.19
336.369	103.19
336.597	106.19
336.825	102.19
337.053	99.19
337.281	97.19
337.51	78.19
337.738	93.19
337.966	95.19
338.194	93.19
338.422	91.19
338.65	83.19
338.878	75.19
339.106	95.19
339.334	96.19
339.562	95.19
339.79	81.19
340.018	81.19
340.246	91.19
340.474	84.19
340.702	89.19
340.93	85.19
341.158	86.19
341.386	103.19
341.614	96.19
341.842	98.19
342.07	81.19
342.298	89.19
342.526	90.19
342.754	91.19
342.981	86.19
343.209	97.19
343.437	102.19
343.665	95.19
343.893	81.19
344.12	95.19
344.348	89.19
344.576	94.19
344.804	89.19
345.031	101.19
345.259	107.19
345.487	71.19
345.714	95.19
345.942	75.19
346.17	99.19
346.397	96.19
346.625	85.19
346.853	91.19
347.08	94.19
347.308	102.19
347.535	83.19
347.763	104.19
347.99	94.19
348.218	89.19
348.445	100.19
348.673	97.19
348.9	101.19
349.128	88.19
349.355	106.19
349.583	83.19
349.81	86.19
350.037	91.19
350.265	91.19
350.492	95.19
350.72	108.19
350.947	109.19
351.174	109.19
351.402	106.19
351.629	102.19
351.856	107.19
352.083	104.19
352.311	117.19
352.538	95.19
352.765	111.19
352.992	103.19
353.22	120.19
353.447	95.19
353.674	88.19
353.901	111.19
354.128	102.19
354.355	94.19
354.583	106.19
354.81	94.19
355.037	96.19
355.264	92.19
355.491	93.19
355.718	82.19
355.945	87.19
356.172	90.19
356.399	89.19
356.626	87.19
356.853	90.19
357.08	97.19
357.307	98.19
357.534	82.19
357.761	109.19
357.988	102.19
358.215	102.19
358.441	85.19
358.668	96.19
358.895	89.19
359.122	87.19
359.349	86.19
359.576	92.19
359.802	86.19
360.029	101.19
360.256	104.19
360.483	103.19
360.709	85.19
360.936	100.19
361.163	85.19
361.39	96.19
361.616	107.19
361.843	73.19
362.07	86.19
362.296	102.19
362.523	88.19
362.749	104.19
362.976	89.19
363.203	96.19
363.429	91.19
363.656	93.19
363.882	77.19
364.109	91.19
364.335	85.19
364.562	89.19
364.788	88.19
365.015	98.19
365.241	111.19
365.468	111.19
365.694	102.19
365.92	70.19
366.147	81.19
366.373	87.19
366.599	87.19
366.826	94.19
367.052	99.19
367.278	111.19
367.505	85.19
367.731	93.19
367.957	74.19
368.184	95.19
368.41	90.19
368.636	102.19
368.862	113.19
369.089	106.19
369.315	94.19
369.541	86.19
369.767	83.19
369.993	74.19
370.219	92.19
370.445	78.19
370.672	90.19
370.898	94.19
371.124	94.19
371.35	71.19
371.576	75.19
371.802	93.19
372.028	102.19
372.254	81.19
372.48	80.19
372.706	84.19
372.932	84.19
373.158	79.19
373.384	83.19
373.61	79.19
373.835	89.19
374.061	98.19
374.287	84.19
374.513	90.19
374.739	92.19
374.965	69.19
375.191	83.19
375.416	89.19
375.642	78.19
375.868	81.19
376.094	76.19
376.319	93.19
376.545	84.19
376.771	96.19
376.997	96.19
377.222	88.19
377.448	89.19
377.674	91.19
377.899	90.19
378.125	87.19
378.35	102.19
378.576	97.19
378.802	97.19
379.027	90.19
379.253	95.19
379.478	85.19
379.704	98.19
379.929	78.19
380.155	81.19
380.38	89.19
380.606	93.19
380.831	86.19
381.057	91.19
381.282	94.19
381.507	89.19
381.733	77.19
381.958	91.19
382.184	101.19
382.409	96.19
382.634	103.19
382.86	98.19
383.085	109.19
383.31	98.19
383.535	88.19
383.761	91.19
383.986	86.19
384.211	99.19
384.436	95.19
384.662	104.19
384.887	104.19
385.112	92.19
385.337	97.19
385.562	91.19
385.787	108.19
386.013	119.19
386.238	94.19
386.463	87.19
386.688	105.19
386.913	89.19
387.138	105.19
387.363	102.19
387.588	99.19
387.813	108.19
388.038	95.19
388.263	94.19
388.488	101.19
388.713	98.19
388.938	84.19
389.163	104.19
389.387	92.19
389.612	87.19
389.837	94.19
390.062	104.19
390.287	89.19
390.512	85.19
390.736	85.19
390.961	99.19
391.186	103.19
391.411	86.19
391.636	91.19
391.86	91.19
392.085	81.19
392.31	99.19
392.534	89.19
392.759	95.19
392.984	78.19
393.208	94.19
393.433	80.19
393.658	85.19
393.882	87.19
394.107	86.19
394.331	89.19
394.556	77.19
394.78	91.19
395.005	86.19
395.229	94.19
395.454	78.19
395.678	87.19
395.903	89.19
396.127	93.19
396.352	97.19
396.576	93.19
396.801	85.19
397.025	80.19
397.249	93.19
397.474	82.19
397.698	93.19
397.922	97.19
398.147	82.19
398.371	92.19
398.595	89.19
398.82	95.19
399.044	86.19
399.268	94.19
399.492	75.19
399.717	96.19
399.941	97.19
400.165	93.19
400.389	97.19
400.613	87.19
400.837	79.19
401.062	90.19
401.286	87.19
401.51	93.19
401.734	81.19
401.958	106.19
402.182	123.19
402.406	165.19
402.63	129.19
402.854	91.19
403.078	94.19
403.302	85.19
403.526	87.19
403.75	100.19
403.974	93.19
404.198	84.19
404.422	76.19
404.645	90.19
404.869	95.19
405.093	92.19
405.317	92.19
405.541	99.19
405.765	79.19
405.988	110.19
406.212	153.19
406.436	224.19
406.66	138.19
406.883	94.19
407.107	77.19
407.331	91.19
407.555	98.19
407.778	94.19
408.002	77.19
408.226	88.19
408.449	84.19
408.673	107.19
408.896	95.19
409.12	82.19
409.344	87.19
409.567	83.19
409.791	93.19
410.014	90.19
410.238	91.19
410.461	97.19
410.685	93.19
410.908	109.19
411.132	94.19
411.355	106.19
411.578	93.19
411.802	91.19
412.025	92.19
412.249	88.19
412.472	94.19
412.695	98.19
412.919	87.19
413.142	84.19
413.365	89.19
413.589	87.19
413.812	97.19
414.035	97.19
414.258	91.19
414.482	94.19
414.705	82.19
414.928	78.19
415.151	84.19
415.374	84.19
415.597	85.19
415.821	91.19
416.044	75.19
416.267	78.19
416.49	89.19
416.713	76.19
416.936	91.19
417.159	82.19
417.382	79.19
417.605	85.19
417.828	83.19
418.051	93.19
418.274	89.19
418.497	91.19
418.72	99.19
418.943	94.19
419.166	80.19
419.389	104.19
419.611	96.19
419.834	102.19
420.057	95.19
420.28	99.19
420.503	90.19
420.726	94.19
420.948	91.19
421.171	95.19
421.394	64.19
421.617	98.19
421.839	82.19
422.062	97.19
422.285	100.19
422.507	106.19
422.73	102.19
422.953	99.19
423.175	82.19
423.398	91.19
423.621	73.19
423.843	93.19
424.066	91.19
424.288	92.19
424.511	95.19
424.733	95.19
424.956	102.19
425.178	89.19
425.401	103.19
425.623	98.19
425.846	105.19
426.068	83.19
426.291	88.19
426.513	86.19
426.735	81.19
426.958	96.19
427.18	100.19
427.402	137.19
427.625	148.19
427.847	132.19
428.069	100.19
428.292	106.19
428.514	85.19
428.736	87.19
428.958	86.19
429.181	91.19
429.403	91.19
429.625	73.19
429.847	96.19
430.069	97.19
430.292	102.19
430.514	83.19
430.736	86.19
430.958	101.19
431.18	95.19
431.402	87.19
431.624	67.19
431.846	84.19
432.068	106.19
432.29	84.19
432.512	79.19
432.734	85.19
432.956	81.19
433.178	83.19
433.4	89.19
433.622	87.19
433.844	89.19
434.066	93.19
434.287	96.19
434.509	80.19
434.731	83.19
434.953	89.19
435.175	96.19
435.397	85.19
435.618	89.19
435.84	95.19
436.062	125.19
436.284	124.19
436.505	92.19
436.727	117.19
436.949	94.19
437.17	86.19
437.392	103.19
437.614	100.19
437.835	115.19
438.057	122.19
438.278	113.19
438.5	95.19
438.721	135.19
438.943	106.19
439.165	96.19
439.386	75.19
439.608	82.19
439.829	101.19
440.05	113.19
440.272	162.19
440.493	101.19
440.715	79.19
440.936	78.19
441.158	94.19
441.379	89.19
441.6	83.19
441.822	94.19
442.043	92.19
442.264	126.19
442.486	96.19
442.707	90.19
442.928	110.19
443.149	124.19
443.371	118.19
443.592	117.19
443.813	119.19
444.034	112.19
444.255	84.19
444.476	98.19
444.698	101.19
444.919	84.19
445.14	138.19
445.361	122.19
445.582	121.19
445.803	149.19
446.024	130.19
446.245	130.19
446.466	106.19
446.687	100.19
446.908	90.19
447.129	90.19
447.35	84.19
447.571	81.19
447.792	91.19
448.013	101.19
448.234	93.19
448.455	105.19
448.675	130.19
448.896	108.19
449.117	116.19
449.338	105.19
449.559	142.19
449.779	139.19
450	100.19
450.221	88.19
450.442	98.19
450.662	103.19
450.883	111.19
451.104	113.19
451.324	100.19
451.545	89.19
451.766	90.19
451.986	96.19
452.207	101.19
452.428	87.19
452.648	99.19
452.869	98.19
453.089	113.19
453.31	127.19
453.53	93.19
453.751	95.19
453.971	111.19
454.192	103.19
454.412	93.19
454.633	96.19
454.853	91.19
455.073	81.19
455.294	80.19
455.514	100.19
455.734	92.19
455.955	76.19
456.175	83.19
456.395	80.19
456.616	85.19
456.836	86.19
457.056	99.19
457.276	94.19
457.497	105.19
457.717	90.19
457.937	80.19
458.157	96.19
458.377	102.19
458.598	116.19
458.818	140.19
459.038	155.19
459.258	121.19
459.478	91.19
459.698	92.19
459.918	90.19
460.138	90.19
460.358	84.19
460.578	84.19
460.798	95.19
461.018	98.19
461.238	98.19
461.458	86.19
461.678	89.19
461.898	89.19
462.118	86.19
462.338	84.19
462.558	92.19
462.777	91.19
462.997	94.19
463.217	91.19
463.437	82.19
463.657	86.19
463.876	85.19
464.096	92.19
464.316	95.19
464.536	88.19
464.755	94.19
464.975	107.19
465.195	153.19
465.414	145.19
465.634	94.19
465.854	87.19
466.073	89.19
466.293	87.19
466.512	102.19
466.732	94.19
466.951	76.19
467.171	94.19
467.391	93.19
467.61	89.19
467.829	103.19
468.049	97.19
468.268	90.19
468.488	90.19
468.707	86.19
468.927	91.19
469.146	89.19
469.365	86.19
469.585	80.19
469.804	100.19
470.023	88.19
470.243	94.19
470.462	99.19
470.681	106.19
470.901	90.19
471.12	80.19
471.339	90.19
471.558	91.19
471.777	99.19
471.997	91.19
472.216	102.19
472.435	92.19
472.654	77.19
472.873	100.19
473.092	90.19
473.311	81.19
473.53	100.19
473.749	95.19
473.968	101.19
474.187	109.19
474.406	100.19
474.625	84.19
474.844	88.19
475.063	89.19
475.282	86.19
475.501	83.19
475.72	76.19
475.939	92.19
476.158	92.19
476.377	87.19
476.596	94.19
476.814	95.19
477.033	87.19
477.252	89.19
477.471	63.19
477.69	79.19
477.908	92.19
478.127	83.19
478.346	95.19
478.564	100.19
478.783	103.19
479.002	93.19
479.22	97.19
479.439	94.19
479.658	102.19
479.876	110.19
480.095	97.19
480.313	87.19
480.532	102.19
480.751	92.19
480.969	95.19
481.188	101.19
481.406	91.19
481.624	100.19
481.843	96.19
482.061	83.19
482.28	79.19
482.498	89.19
482.717	102.19
482.935	86.19
483.153	101.19
483.372	78.19
483.59	92.19
483.808	90.19
484.027	102.19
484.245	91.19
484.463	96.19
484.681	108.19
484.9	85.19
485.118	103.19
485.336	89.19
485.554	90.19
485.772	101.19
485.99	103.19
486.209	108.19
486.427	103.19
486.645	106.19
486.863	105.19
487.081	98.19
487.299	99.19
487.517	107.19
487.735	96.19
487.953	98.19
488.171	95.19
488.389	90.19
488.607	108.19
488.825	96.19
489.043	109.19
489.261	108.19
489.479	94.19
489.696	96.19
489.914	89.19
490.132	93.19
490.35	95.19
490.568	102.19
490.786	91.19
491.003	97.19
491.221	89.19
491.439	92.19
491.657	85.19
491.874	84.19
492.092	92.19
492.31	96.19
492.527	93.19
492.745	95.19
492.963	102.19
493.18	107.19
493.398	94.19
493.615	99.19
493.833	99.19
494.05	84.19
494.268	85.19
494.485	92.19
494.703	97.19
494.92	92.19
495.138	91.19
495.355	89.19
495.573	101.19
495.79	92.19
496.008	85.19
496.225	93.19
496.442	97.19
496.66	90.19
496.877	96.19
497.094	113.19
497.312	91.19
497.529	94.19
497.746	92.19
497.963	96.19
498.181	81.19
498.398	93.19
498.615	113.19
498.832	101.19
499.049	97.19
499.267	86.19
499.484	102.19
499.701	95.19
499.918	93.19
500.135	99.19
500.352	88.19
500.569	84.19
500.786	93.19
501.003	95.19
501.22	97.19
501.437	99.19
501.654	108.19
501.871	108.19
502.088	76.19
502.305	102.19
502.522	95.19
502.739	87.19
502.956	100.19
503.172	98.19
503.389	98.19
503.606	94.19
503.823	96.19
504.04	85.19
504.256	86.19
504.473	92.19
504.69	78.19
504.907	97.19
505.123	84.19
505.34	106.19
505.557	89.19
505.773	101.19
505.99	90.19
506.207	98.19
506.423	92.19
506.64	107.19
506.856	94.19
507.073	98.19
507.289	102.19
507.506	90.19
507.722	107.19
507.939	103.19
508.155	96.19
508.372	102.19
508.588	92.19
508.805	93.19
509.021	106.19
509.238	105.19
509.454	87.19
509.67	98.19
509.887	114.19
510.103	139.19
510.319	215.19
510.536	737.19
510.752	2342.19
510.968	649.19
511.184	147.19
511.401	113.19
511.617	107.19
511.833	94.19
512.049	92.19
512.265	94.19
512.481	103.19
512.698	97.19
512.914	98.19
513.13	91.19
513.346	84.19
513.562	100.19
513.778	107.19
513.994	107.19
514.21	109.19
514.426	104.19
514.642	145.19
514.858	126.19
515.074	143.19
515.29	439.19
515.506	1455.19
515.721	534.19
