Data from Uncirc_1991_H10_HRD10591_00069.txt Node
Date: Wed Jan 03 11:50:52 EST 2024
User: Yrep
Spectrometer: HR+D1059
Trigger mode: 1
Integration Time (sec): 1.000000E-1
Scans to average: 1
Electric dark correction enabled: true
Nonlinearity correction enabled: false
Boxcar width: 0
XAxis mode: Wavelengths
Number of Pixels in Spectrum: 2048
>>>>>Begin Spectral Data<<<<<
223.165	-27.94
223.4	-27.94
223.635	-27.94
223.869	-0.94
224.104	-20.94
224.338	-22.94
224.573	-22.94
224.808	-15.94
225.042	-5.94
225.277	-2.94
225.511	1.06
225.746	12.06
225.98	17.06
226.215	10.06
226.449	8.06
226.683	26.06
226.918	13.06
227.152	33.06
227.387	49.06
227.621	52.06
227.856	45.06
228.09	59.06
228.324	53.06
228.559	55.06
228.793	51.06
229.027	50.06
229.262	73.06
229.496	70.06
229.73	101.06
229.964	102.06
230.199	91.06
230.433	94.06
230.667	68.06
230.901	90.06
231.136	77.06
231.37	75.06
231.604	66.06
231.838	77.06
232.072	73.06
232.306	69.06
232.541	78.06
232.775	95.06
233.009	96.06
233.243	79.06
233.477	71.06
233.711	86.06
233.945	84.06
234.179	81.06
234.413	66.06
234.647	73.06
234.881	77.06
235.115	82.06
235.349	93.06
235.583	77.06
235.817	82.06
236.051	83.06
236.285	65.06
236.519	86.06
236.753	89.06
236.987	91.06
237.221	95.06
237.455	103.06
237.689	68.06
237.922	77.06
238.156	76.06
238.39	86.06
238.624	76.06
238.858	63.06
239.091	70.06
239.325	81.06
239.559	85.06
239.793	74.06
240.027	77.06
240.26	85.06
240.494	82.06
240.728	66.06
240.961	77.06
241.195	76.06
241.429	79.06
241.662	73.06
241.896	78.06
242.13	64.06
242.363	82.06
242.597	67.06
242.83	82.06
243.064	81.06
243.298	79.06
243.531	76.06
243.765	89.06
243.998	89.06
244.232	75.06
244.465	92.06
244.699	75.06
244.932	66.06
245.166	79.06
245.399	61.06
245.633	91.06
245.866	89.06
246.099	99.06
246.333	88.06
246.566	74.06
246.8	79.06
247.033	73.06
247.266	74.06
247.5	79.06
247.733	77.06
247.966	76.06
248.2	75.06
248.433	78.06
248.666	68.06
248.899	83.06
249.133	93.06
249.366	85.06
249.599	93.06
249.832	83.06
250.066	93.06
250.299	82.06
250.532	83.06
250.765	75.06
250.998	75.06
251.231	78.06
251.465	71.06
251.698	84.06
251.931	77.06
252.164	79.06
252.397	87.06
252.63	92.06
252.863	78.06
253.096	76.06
253.329	82.06
253.562	85.06
253.795	70.06
254.028	85.06
254.261	79.06
254.494	86.06
254.727	77.06
254.96	75.06
255.193	73.06
255.426	79.06
255.659	78.06
255.892	88.06
256.124	86.06
256.357	80.06
256.59	91.06
256.823	89.06
257.056	77.06
257.289	65.06
257.521	87.06
257.754	81.06
257.987	96.06
258.22	91.06
258.452	88.06
258.685	80.06
258.918	84.06
259.151	69.06
259.383	75.06
259.616	79.06
259.849	76.06
260.081	63.06
260.314	82.06
260.547	73.06
260.779	82.06
261.012	86.06
261.244	83.06
261.477	96.06
261.71	103.06
261.942	137.06
262.175	151.06
262.407	105.06
262.64	86.06
262.872	85.06
263.105	75.06
263.337	79.06
263.57	79.06
263.802	94.06
264.035	70.06
264.267	91.06
264.499	91.06
264.732	94.06
264.964	93.06
265.197	81.06
265.429	86.06
265.661	87.06
265.894	81.06
266.126	87.06
266.358	88.06
266.591	92.06
266.823	79.06
267.055	77.06
267.287	90.06
267.52	65.06
267.752	81.06
267.984	83.06
268.216	92.06
268.448	89.06
268.681	87.06
268.913	86.06
269.145	80.06
269.377	84.06
269.609	82.06
269.841	83.06
270.073	64.06
270.306	91.06
270.538	77.06
270.77	75.06
271.002	82.06
271.234	85.06
271.466	89.06
271.698	90.06
271.93	81.06
272.162	100.06
272.394	74.06
272.626	70.06
272.858	83.06
273.09	91.06
273.322	97.06
273.553	90.06
273.785	76.06
274.017	96.06
274.249	96.06
274.481	90.06
274.713	81.06
274.945	91.06
275.176	87.06
275.408	99.06
275.64	99.06
275.872	104.06
276.104	101.06
276.335	101.06
276.567	121.06
276.799	132.06
277.031	111.06
277.262	103.06
277.494	83.06
277.726	86.06
277.957	82.06
278.189	94.06
278.421	91.06
278.652	80.06
278.884	89.06
279.115	83.06
279.347	89.06
279.579	87.06
279.81	82.06
280.042	81.06
280.273	96.06
280.505	90.06
280.736	84.06
280.968	97.06
281.199	92.06
281.431	75.06
281.662	94.06
281.894	99.06
282.125	102.06
282.356	143.06
282.588	185.06
282.819	131.06
283.051	85.06
283.282	91.06
283.513	77.06
283.745	87.06
283.976	74.06
284.207	84.06
284.439	77.06
284.67	83.06
284.901	85.06
285.132	80.06
285.364	89.06
285.595	99.06
285.826	82.06
286.057	88.06
286.288	77.06
286.52	81.06
286.751	93.06
286.982	85.06
287.213	81.06
287.444	87.06
287.675	82.06
287.906	74.06
288.138	86.06
288.369	97.06
288.6	94.06
288.831	77.06
289.062	86.06
289.293	94.06
289.524	94.06
289.755	85.06
289.986	87.06
290.217	82.06
290.448	92.06
290.679	80.06
290.91	80.06
291.141	92.06
291.371	88.06
291.602	97.06
291.833	81.06
292.064	85.06
292.295	88.06
292.526	108.06
292.757	89.06
292.987	89.06
293.218	82.06
293.449	83.06
293.68	79.06
293.91	81.06
294.141	86.06
294.372	93.06
294.603	98.06
294.833	95.06
295.064	82.06
295.295	89.06
295.525	101.06
295.756	105.06
295.987	130.06
296.217	172.06
296.448	166.06
296.679	113.06
296.909	89.06
297.14	73.06
297.37	82.06
297.601	83.06
297.831	82.06
298.062	95.06
298.292	89.06
298.523	94.06
298.753	96.06
298.984	95.06
299.214	87.06
299.445	91.06
299.675	82.06
299.905	79.06
300.136	81.06
300.366	93.06
300.597	108.06
300.827	111.06
301.057	108.06
301.288	111.06
301.518	97.06
301.748	94.06
301.979	95.06
302.209	94.06
302.439	91.06
302.669	91.06
302.9	111.06
303.13	102.06
303.36	93.06
303.59	101.06
303.82	109.06
304.051	84.06
304.281	76.06
304.511	89.06
304.741	94.06
304.971	81.06
305.201	86.06
305.431	83.06
305.661	109.06
305.891	86.06
306.121	97.06
306.352	115.06
306.582	118.06
306.812	101.06
307.042	84.06
307.272	101.06
307.502	87.06
307.731	85.06
307.961	102.06
308.191	73.06
308.421	90.06
308.651	95.06
308.881	101.06
309.111	102.06
309.341	98.06
309.571	102.06
309.8	97.06
310.03	104.06
310.26	115.06
310.49	90.06
310.72	102.06
310.949	109.06
311.179	110.06
311.409	108.06
311.639	88.06
311.868	92.06
312.098	78.06
312.328	118.06
312.557	103.06
312.787	132.06
313.017	117.06
313.246	97.06
313.476	86.06
313.706	90.06
313.935	93.06
314.165	105.06
314.394	100.06
314.624	109.06
314.853	119.06
315.083	114.06
315.312	88.06
315.542	95.06
315.771	110.06
316.001	98.06
316.23	96.06
316.46	98.06
316.689	98.06
316.919	82.06
317.148	80.06
317.377	100.06
317.607	104.06
317.836	95.06
318.065	94.06
318.295	91.06
318.524	78.06
318.753	94.06
318.983	91.06
319.212	118.06
319.441	109.06
319.67	122.06
319.9	108.06
320.129	95.06
320.358	105.06
320.587	109.06
320.816	105.06
321.046	109.06
321.275	103.06
321.504	101.06
321.733	89.06
321.962	106.06
322.191	119.06
322.42	114.06
322.649	122.06
322.878	116.06
323.108	134.06
323.337	128.06
323.566	159.06
323.795	195.06
324.024	242.06
324.253	504.06
324.482	1145.06
324.71	2422.06
324.939	3285.06
325.168	1169.06
325.397	338.06
325.626	171.06
325.855	147.06
326.084	140.06
326.313	137.06
326.542	174.06
326.77	274.06
326.999	561.06
327.228	1225.06
327.457	2333.06
327.686	1881.06
327.914	492.06
328.143	258.06
328.372	195.06
328.6	153.06
328.829	140.06
329.058	162.06
329.287	172.06
329.515	131.06
329.744	99.06
329.972	91.06
330.201	109.06
330.43	111.06
330.658	157.06
330.887	205.06
331.115	150.06
331.344	113.06
331.572	102.06
331.801	110.06
332.03	103.06
332.258	98.06
332.486	101.06
332.715	98.06
332.943	93.06
333.172	108.06
333.4	91.06
333.629	129.06
333.857	135.06
334.085	95.06
334.314	101.06
334.542	94.06
334.771	105.06
334.999	106.06
335.227	105.06
335.455	86.06
335.684	123.06
335.912	96.06
336.14	95.06
336.369	108.06
336.597	93.06
336.825	108.06
337.053	89.06
337.281	92.06
337.51	92.06
337.738	109.06
337.966	99.06
338.194	110.06
338.422	113.06
338.65	113.06
338.878	102.06
339.106	90.06
339.334	86.06
339.562	87.06
339.79	94.06
340.018	99.06
340.246	103.06
340.474	107.06
340.702	108.06
340.93	91.06
341.158	105.06
341.386	93.06
341.614	94.06
341.842	102.06
342.07	82.06
342.298	92.06
342.526	94.06
342.754	91.06
342.981	85.06
343.209	77.06
343.437	106.06
343.665	78.06
343.893	86.06
344.12	96.06
344.348	101.06
344.576	96.06
344.804	86.06
345.031	103.06
345.259	113.06
345.487	100.06
345.714	94.06
345.942	100.06
346.17	94.06
346.397	93.06
346.625	87.06
346.853	91.06
347.08	90.06
347.308	96.06
347.535	108.06
347.763	104.06
347.99	107.06
348.218	109.06
348.445	123.06
348.673	116.06
348.9	105.06
349.128	95.06
349.355	89.06
349.583	92.06
349.81	95.06
350.037	96.06
350.265	95.06
350.492	102.06
350.72	95.06
350.947	106.06
351.174	113.06
351.402	107.06
351.629	109.06
351.856	100.06
352.083	122.06
352.311	118.06
352.538	116.06
352.765	123.06
352.992	116.06
353.22	117.06
353.447	131.06
353.674	113.06
353.901	92.06
354.128	97.06
354.355	85.06
354.583	96.06
354.81	92.06
355.037	89.06
355.264	86.06
355.491	93.06
355.718	75.06
355.945	76.06
356.172	85.06
356.399	103.06
356.626	83.06
356.853	101.06
357.08	88.06
357.307	87.06
357.534	97.06
357.761	105.06
357.988	94.06
358.215	95.06
358.441	80.06
358.668	93.06
358.895	86.06
359.122	92.06
359.349	90.06
359.576	89.06
359.802	116.06
360.029	119.06
360.256	135.06
360.483	119.06
360.709	90.06
360.936	95.06
361.163	97.06
361.39	97.06
361.616	107.06
361.843	97.06
362.07	109.06
362.296	111.06
362.523	93.06
362.749	97.06
362.976	103.06
363.203	82.06
363.429	86.06
363.656	99.06
363.882	96.06
364.109	95.06
364.335	93.06
364.562	110.06
364.788	90.06
365.015	95.06
365.241	112.06
365.468	116.06
365.694	119.06
365.92	108.06
366.147	101.06
366.373	84.06
366.599	89.06
366.826	98.06
367.052	96.06
367.278	111.06
367.505	90.06
367.731	110.06
367.957	98.06
368.184	101.06
368.41	96.06
368.636	119.06
368.862	137.06
369.089	122.06
369.315	109.06
369.541	86.06
369.767	98.06
369.993	97.06
370.219	103.06
370.445	88.06
370.672	84.06
370.898	87.06
371.124	85.06
371.35	77.06
371.576	92.06
371.802	79.06
372.028	71.06
372.254	75.06
372.48	80.06
372.706	95.06
372.932	95.06
373.158	96.06
373.384	82.06
373.61	93.06
373.835	92.06
374.061	80.06
374.287	100.06
374.513	92.06
374.739	82.06
374.965	85.06
375.191	69.06
375.416	85.06
375.642	82.06
375.868	89.06
376.094	79.06
376.319	77.06
376.545	88.06
376.771	101.06
376.997	69.06
377.222	92.06
377.448	84.06
377.674	104.06
377.899	97.06
378.125	86.06
378.35	89.06
378.576	97.06
378.802	84.06
379.027	100.06
379.253	93.06
379.478	98.06
379.704	97.06
379.929	80.06
380.155	94.06
380.38	100.06
380.606	110.06
380.831	92.06
381.057	89.06
381.282	84.06
381.507	84.06
381.733	101.06
381.958	93.06
382.184	99.06
382.409	109.06
382.634	127.06
382.86	98.06
383.085	100.06
383.31	92.06
383.535	97.06
383.761	87.06
383.986	90.06
384.211	103.06
384.436	97.06
384.662	89.06
384.887	91.06
385.112	99.06
385.337	99.06
385.562	104.06
385.787	84.06
386.013	104.06
386.238	122.06
386.463	114.06
386.688	104.06
386.913	103.06
387.138	101.06
387.363	101.06
387.588	95.06
387.813	102.06
388.038	94.06
388.263	103.06
388.488	104.06
388.713	95.06
388.938	89.06
389.163	98.06
389.387	81.06
389.612	77.06
389.837	91.06
390.062	84.06
390.287	87.06
390.512	103.06
390.736	90.06
390.961	79.06
391.186	97.06
391.411	77.06
391.636	89.06
391.86	71.06
392.085	92.06
392.31	74.06
392.534	79.06
392.759	79.06
392.984	94.06
393.208	107.06
393.433	75.06
393.658	97.06
393.882	76.06
394.107	91.06
394.331	77.06
394.556	90.06
394.78	98.06
395.005	102.06
395.229	92.06
395.454	83.06
395.678	89.06
395.903	103.06
396.127	84.06
396.352	95.06
396.576	75.06
396.801	91.06
397.025	86.06
397.249	83.06
397.474	85.06
397.698	94.06
397.922	92.06
398.147	95.06
398.371	97.06
398.595	105.06
398.82	85.06
399.044	75.06
399.268	85.06
399.492	75.06
399.717	74.06
399.941	94.06
400.165	98.06
400.389	89.06
400.613	93.06
400.837	95.06
401.062	103.06
401.286	90.06
401.51	82.06
401.734	93.06
401.958	108.06
402.182	153.06
402.406	226.06
402.63	165.06
402.854	103.06
403.078	96.06
403.302	87.06
403.526	74.06
403.75	92.06
403.974	79.06
404.198	89.06
404.422	89.06
404.645	100.06
404.869	98.06
405.093	101.06
405.317	95.06
405.541	97.06
405.765	115.06
405.988	136.06
406.212	216.06
406.436	337.06
406.66	210.06
406.883	110.06
407.107	97.06
407.331	113.06
407.555	102.06
407.778	105.06
408.002	94.06
408.226	93.06
408.449	102.06
408.673	95.06
408.896	93.06
409.12	94.06
409.344	103.06
409.567	91.06
409.791	91.06
410.014	103.06
410.238	94.06
410.461	101.06
410.685	104.06
410.908	94.06
411.132	102.06
411.355	97.06
411.578	80.06
411.802	78.06
412.025	83.06
412.249	93.06
412.472	92.06
412.695	89.06
412.919	79.06
413.142	73.06
413.365	99.06
413.589	94.06
413.812	83.06
414.035	83.06
414.258	91.06
414.482	89.06
414.705	88.06
414.928	94.06
415.151	94.06
415.374	89.06
415.597	95.06
415.821	80.06
416.044	97.06
416.267	84.06
416.49	74.06
416.713	82.06
416.936	74.06
417.159	94.06
417.382	85.06
417.605	96.06
417.828	99.06
418.051	93.06
418.274	96.06
418.497	90.06
418.72	95.06
418.943	93.06
419.166	98.06
419.389	91.06
419.611	86.06
419.834	89.06
420.057	92.06
420.28	81.06
420.503	79.06
420.726	92.06
420.948	81.06
421.171	79.06
421.394	96.06
421.617	94.06
421.839	94.06
422.062	90.06
422.285	88.06
422.507	97.06
422.73	105.06
422.953	101.06
423.175	71.06
423.398	84.06
423.621	89.06
423.843	79.06
424.066	89.06
424.288	92.06
424.511	91.06
424.733	109.06
424.956	117.06
425.178	103.06
425.401	120.06
425.623	105.06
425.846	97.06
426.068	98.06
426.291	104.06
426.513	96.06
426.735	103.06
426.958	85.06
427.18	112.06
427.402	171.06
427.625	241.06
427.847	155.06
428.069	111.06
428.292	94.06
428.514	103.06
428.736	77.06
428.958	85.06
429.181	82.06
429.403	103.06
429.625	73.06
429.847	101.06
430.069	118.06
430.292	101.06
430.514	85.06
430.736	80.06
430.958	86.06
431.18	75.06
431.402	95.06
431.624	79.06
431.846	79.06
432.068	78.06
432.29	80.06
432.512	97.06
432.734	92.06
432.956	85.06
433.178	93.06
433.4	97.06
433.622	96.06
433.844	92.06
434.066	93.06
434.287	103.06
434.509	96.06
434.731	89.06
434.953	91.06
435.175	92.06
435.397	77.06
435.618	103.06
435.84	113.06
436.062	141.06
436.284	121.06
436.505	115.06
436.727	109.06
436.949	98.06
437.17	95.06
437.392	87.06
437.614	116.06
437.835	142.06
438.057	148.06
438.278	151.06
438.5	118.06
438.721	151.06
438.943	111.06
439.165	87.06
439.386	82.06
439.608	101.06
439.829	109.06
440.05	159.06
440.272	204.06
440.493	115.06
440.715	87.06
440.936	98.06
441.158	97.06
441.379	97.06
441.6	89.06
441.822	102.06
442.043	95.06
442.264	127.06
442.486	107.06
442.707	114.06
442.928	109.06
443.149	174.06
443.371	159.06
443.592	126.06
443.813	124.06
444.034	113.06
444.255	109.06
444.476	96.06
444.698	73.06
444.919	78.06
445.14	140.06
445.361	152.06
445.582	147.06
445.803	163.06
446.024	170.06
446.245	179.06
446.466	130.06
446.687	92.06
446.908	92.06
447.129	88.06
447.35	90.06
447.571	100.06
447.792	110.06
448.013	108.06
448.234	119.06
448.455	124.06
448.675	139.06
448.896	138.06
449.117	120.06
449.338	107.06
449.559	141.06
449.779	165.06
450	98.06
450.221	94.06
450.442	84.06
450.662	117.06
450.883	114.06
451.104	149.06
451.324	114.06
451.545	94.06
451.766	99.06
451.986	79.06
452.207	85.06
452.428	98.06
452.648	110.06
452.869	125.06
453.089	140.06
453.31	142.06
453.53	99.06
453.751	106.06
453.971	105.06
454.192	139.06
454.412	118.06
454.633	101.06
454.853	94.06
455.073	99.06
455.294	93.06
455.514	114.06
455.734	95.06
455.955	96.06
456.175	92.06
456.395	78.06
456.616	87.06
456.836	105.06
457.056	81.06
457.276	82.06
457.497	86.06
457.717	86.06
457.937	97.06
458.157	86.06
458.377	93.06
458.598	126.06
458.818	220.06
459.038	238.06
459.258	151.06
459.478	95.06
459.698	75.06
459.918	100.06
460.138	90.06
460.358	77.06
460.578	93.06
460.798	100.06
461.018	95.06
461.238	82.06
461.458	103.06
461.678	85.06
461.898	88.06
462.118	81.06
462.338	85.06
462.558	98.06
462.777	83.06
462.997	80.06
463.217	96.06
463.437	84.06
463.657	95.06
463.876	91.06
464.096	93.06
464.316	101.06
464.536	102.06
464.755	114.06
464.975	116.06
465.195	244.06
465.414	240.06
465.634	98.06
465.854	81.06
466.073	82.06
466.293	84.06
466.512	86.06
466.732	95.06
466.951	85.06
467.171	99.06
467.391	102.06
467.61	118.06
467.829	110.06
468.049	94.06
468.268	94.06
468.488	92.06
468.707	83.06
468.927	86.06
469.146	101.06
469.365	108.06
469.585	88.06
469.804	103.06
470.023	94.06
470.243	100.06
470.462	92.06
470.681	131.06
470.901	93.06
471.12	81.06
471.339	84.06
471.558	92.06
471.777	101.06
471.997	90.06
472.216	82.06
472.435	92.06
472.654	93.06
472.873	95.06
473.092	94.06
473.311	97.06
473.53	94.06
473.749	94.06
473.968	111.06
474.187	134.06
474.406	114.06
474.625	90.06
474.844	91.06
475.063	92.06
475.282	88.06
475.501	77.06
475.72	96.06
475.939	81.06
476.158	93.06
476.377	81.06
476.596	89.06
476.814	103.06
477.033	118.06
477.252	96.06
477.471	84.06
477.69	94.06
477.908	84.06
478.127	85.06
478.346	89.06
478.564	109.06
478.783	100.06
479.002	86.06
479.22	98.06
479.439	104.06
479.658	129.06
479.876	101.06
480.095	95.06
480.313	113.06
480.532	86.06
480.751	82.06
480.969	91.06
481.188	93.06
481.406	93.06
481.624	97.06
481.843	77.06
482.061	76.06
482.28	93.06
482.498	92.06
482.717	79.06
482.935	75.06
483.153	86.06
483.372	97.06
483.59	93.06
483.808	93.06
484.027	85.06
484.245	85.06
484.463	99.06
484.681	91.06
484.9	95.06
485.118	94.06
485.336	87.06
485.554	107.06
485.772	109.06
485.99	91.06
486.209	90.06
486.427	114.06
486.645	106.06
486.863	122.06
487.081	100.06
487.299	106.06
487.517	104.06
487.735	101.06
487.953	102.06
488.171	102.06
488.389	102.06
488.607	111.06
488.825	93.06
489.043	94.06
489.261	93.06
489.479	85.06
489.696	94.06
489.914	89.06
490.132	98.06
490.35	93.06
490.568	91.06
490.786	81.06
491.003	93.06
491.221	83.06
491.439	98.06
491.657	101.06
491.874	77.06
492.092	103.06
492.31	97.06
492.527	97.06
492.745	89.06
492.963	85.06
493.18	84.06
493.398	85.06
493.615	108.06
493.833	95.06
494.05	83.06
494.268	85.06
494.485	79.06
494.703	86.06
494.92	95.06
495.138	94.06
495.355	86.06
495.573	98.06
495.79	99.06
496.008	95.06
496.225	86.06
496.442	89.06
496.66	85.06
496.877	100.06
497.094	96.06
497.312	89.06
497.529	93.06
497.746	84.06
497.963	95.06
498.181	95.06
498.398	87.06
498.615	118.06
498.832	112.06
499.049	92.06
499.267	94.06
499.484	102.06
499.701	95.06
499.918	93.06
500.135	86.06
500.352	106.06
500.569	66.06
500.786	105.06
501.003	94.06
501.22	87.06
501.437	94.06
501.654	109.06
501.871	129.06
502.088	95.06
502.305	84.06
502.522	100.06
502.739	77.06
502.956	99.06
503.172	100.06
503.389	116.06
503.606	117.06
503.823	86.06
504.04	87.06
504.256	90.06
504.473	94.06
504.69	97.06
504.907	93.06
505.123	99.06
505.34	89.06
505.557	94.06
505.773	92.06
505.99	93.06
506.207	95.06
506.423	95.06
506.64	95.06
506.856	77.06
507.073	93.06
507.289	98.06
507.506	110.06
507.722	130.06
507.939	117.06
508.155	104.06
508.372	91.06
508.588	98.06
508.805	103.06
509.021	102.06
509.238	108.06
509.454	104.06
509.67	107.06
509.887	121.06
510.103	140.06
510.319	254.06
510.536	1029.06
510.752	3623.06
510.968	948.06
511.184	198.06
511.401	131.06
511.617	111.06
511.833	89.06
512.049	80.06
512.265	86.06
512.481	92.06
512.698	81.06
512.914	83.06
513.13	86.06
513.346	100.06
513.562	100.06
513.778	102.06
513.994	109.06
514.21	111.06
