Data from Uncirc_1991_H10_HRD10591_00033.txt Node
Date: Wed Jan 03 11:50:44 EST 2024
User: Yrep
Spectrometer: HR+D1059
Trigger mode: 1
Integration Time (sec): 1.000000E-1
Scans to average: 1
Electric dark correction enabled: true
Nonlinearity correction enabled: false
Boxcar width: 0
XAxis mode: Wavelengths
Number of Pixels in Spectrum: 2048
>>>>>Begin Spectral Data<<<<<
223.165	-26.31
223.4	-26.31
223.635	-26.31
223.869	-15.31
224.104	-17.31
224.338	-16.31
224.573	-13.31
224.808	-13.31
225.042	-6.31
225.277	-11.31
225.511	10.69
225.746	11.69
225.98	8.69
226.215	10.69
226.449	26.69
226.683	2.69
226.918	24.69
227.152	23.69
227.387	45.69
227.621	34.69
227.856	36.69
228.09	44.69
228.324	68.69
228.559	56.69
228.793	58.69
229.027	52.69
229.262	49.69
229.496	74.69
229.73	86.69
229.964	75.69
230.199	64.69
230.433	79.69
230.667	76.69
230.901	74.69
231.136	83.69
231.37	86.69
231.604	89.69
231.838	89.69
232.072	94.69
232.306	71.69
232.541	79.69
232.775	96.69
233.009	80.69
233.243	86.69
233.477	66.69
233.711	78.69
233.945	71.69
234.179	80.69
234.413	89.69
234.647	88.69
234.881	74.69
235.115	86.69
235.349	72.69
235.583	71.69
235.817	82.69
236.051	82.69
236.285	80.69
236.519	73.69
236.753	79.69
236.987	83.69
237.221	64.69
237.455	96.69
237.689	72.69
237.922	67.69
238.156	77.69
238.39	88.69
238.624	62.69
238.858	80.69
239.091	79.69
239.325	72.69
239.559	93.69
239.793	70.69
240.027	77.69
240.26	78.69
240.494	74.69
240.728	62.69
240.961	75.69
241.195	85.69
241.429	83.69
241.662	74.69
241.896	94.69
242.13	81.69
242.363	77.69
242.597	78.69
242.83	68.69
243.064	66.69
243.298	70.69
243.531	93.69
243.765	84.69
243.998	65.69
244.232	82.69
244.465	94.69
244.699	79.69
244.932	78.69
245.166	73.69
245.399	80.69
245.633	72.69
245.866	81.69
246.099	88.69
246.333	83.69
246.566	87.69
246.8	72.69
247.033	74.69
247.266	85.69
247.5	83.69
247.733	70.69
247.966	93.69
248.2	71.69
248.433	82.69
248.666	87.69
248.899	94.69
249.133	101.69
249.366	89.69
249.599	91.69
249.832	69.69
250.066	89.69
250.299	67.69
250.532	91.69
250.765	75.69
250.998	85.69
251.231	82.69
251.465	87.69
251.698	64.69
251.931	79.69
252.164	81.69
252.397	70.69
252.63	98.69
252.863	69.69
253.096	81.69
253.329	81.69
253.562	71.69
253.795	78.69
254.028	90.69
254.261	95.69
254.494	68.69
254.727	76.69
254.96	60.69
255.193	86.69
255.426	78.69
255.659	82.69
255.892	82.69
256.124	90.69
256.357	91.69
256.59	68.69
256.823	78.69
257.056	72.69
257.289	78.69
257.521	80.69
257.754	77.69
257.987	88.69
258.22	88.69
258.452	80.69
258.685	74.69
258.918	85.69
259.151	85.69
259.383	72.69
259.616	55.69
259.849	80.69
260.081	72.69
260.314	87.69
260.547	76.69
260.779	76.69
261.012	83.69
261.244	77.69
261.477	99.69
261.71	98.69
261.942	109.69
262.175	116.69
262.407	96.69
262.64	74.69
262.872	95.69
263.105	98.69
263.337	87.69
263.57	76.69
263.802	90.69
264.035	86.69
264.267	84.69
264.499	78.69
264.732	83.69
264.964	82.69
265.197	80.69
265.429	87.69
265.661	77.69
265.894	83.69
266.126	81.69
266.358	69.69
266.591	80.69
266.823	96.69
267.055	81.69
267.287	78.69
267.52	88.69
267.752	87.69
267.984	101.69
268.216	85.69
268.448	93.69
268.681	90.69
268.913	76.69
269.145	77.69
269.377	84.69
269.609	95.69
269.841	90.69
270.073	80.69
270.306	90.69
270.538	85.69
270.77	76.69
271.002	94.69
271.234	94.69
271.466	84.69
271.698	87.69
271.93	82.69
272.162	84.69
272.394	86.69
272.626	95.69
272.858	87.69
273.09	80.69
273.322	81.69
273.553	76.69
273.785	72.69
274.017	90.69
274.249	85.69
274.481	75.69
274.713	85.69
274.945	91.69
275.176	83.69
275.408	89.69
275.64	83.69
275.872	89.69
276.104	97.69
276.335	87.69
276.567	106.69
276.799	104.69
277.031	92.69
277.262	92.69
277.494	100.69
277.726	84.69
277.957	80.69
278.189	70.69
278.421	84.69
278.652	89.69
278.884	82.69
279.115	83.69
279.347	84.69
279.579	100.69
279.81	92.69
280.042	86.69
280.273	94.69
280.505	82.69
280.736	88.69
280.968	93.69
281.199	90.69
281.431	79.69
281.662	80.69
281.894	68.69
282.125	94.69
282.356	103.69
282.588	141.69
282.819	110.69
283.051	88.69
283.282	89.69
283.513	86.69
283.745	95.69
283.976	87.69
284.207	93.69
284.439	81.69
284.67	85.69
284.901	82.69
285.132	98.69
285.364	103.69
285.595	82.69
285.826	90.69
286.057	87.69
286.288	82.69
286.52	76.69
286.751	81.69
286.982	95.69
287.213	97.69
287.444	81.69
287.675	81.69
287.906	91.69
288.138	95.69
288.369	81.69
288.6	96.69
288.831	83.69
289.062	78.69
289.293	90.69
289.524	80.69
289.755	84.69
289.986	78.69
290.217	83.69
290.448	95.69
290.679	93.69
290.91	89.69
291.141	84.69
291.371	84.69
291.602	90.69
291.833	85.69
292.064	85.69
292.295	80.69
292.526	91.69
292.757	78.69
292.987	87.69
293.218	77.69
293.449	91.69
293.68	88.69
293.91	92.69
294.141	88.69
294.372	88.69
294.603	94.69
294.833	94.69
295.064	91.69
295.295	105.69
295.525	102.69
295.756	83.69
295.987	100.69
296.217	147.69
296.448	122.69
296.679	94.69
296.909	91.69
297.14	101.69
297.37	82.69
297.601	91.69
297.831	102.69
298.062	97.69
298.292	100.69
298.523	77.69
298.753	86.69
298.984	94.69
299.214	101.69
299.445	84.69
299.675	94.69
299.905	98.69
300.136	78.69
300.366	85.69
300.597	82.69
300.827	88.69
301.057	109.69
301.288	97.69
301.518	104.69
301.748	93.69
301.979	92.69
302.209	86.69
302.439	93.69
302.669	79.69
302.9	88.69
303.13	83.69
303.36	99.69
303.59	103.69
303.82	113.69
304.051	94.69
304.281	78.69
304.511	101.69
304.741	90.69
304.971	90.69
305.201	82.69
305.431	99.69
305.661	85.69
305.891	90.69
306.121	89.69
306.352	92.69
306.582	116.69
306.812	102.69
307.042	99.69
307.272	83.69
307.502	94.69
307.731	93.69
307.961	99.69
308.191	93.69
308.421	79.69
308.651	96.69
308.881	97.69
309.111	102.69
309.341	104.69
309.571	98.69
309.8	94.69
310.03	99.69
310.26	106.69
310.49	104.69
310.72	93.69
310.949	109.69
311.179	96.69
311.409	86.69
311.639	96.69
311.868	99.69
312.098	84.69
312.328	104.69
312.557	101.69
312.787	118.69
313.017	86.69
313.246	101.69
313.476	81.69
313.706	96.69
313.935	89.69
314.165	85.69
314.394	100.69
314.624	104.69
314.853	109.69
315.083	80.69
315.312	96.69
315.542	90.69
315.771	109.69
316.001	84.69
316.23	84.69
316.46	81.69
316.689	90.69
316.919	93.69
317.148	100.69
317.377	109.69
317.607	112.69
317.836	89.69
318.065	79.69
318.295	84.69
318.524	98.69
318.753	107.69
318.983	94.69
319.212	100.69
319.441	111.69
319.67	111.69
319.9	99.69
320.129	96.69
320.358	95.69
320.587	100.69
320.816	108.69
321.046	93.69
321.275	93.69
321.504	93.69
321.733	97.69
321.962	94.69
322.191	116.69
322.42	120.69
322.649	125.69
322.878	99.69
323.108	113.69
323.337	126.69
323.566	144.69
323.795	152.69
324.024	208.69
324.253	440.69
324.482	942.69
324.71	1989.69
324.939	2759.69
325.168	983.69
325.397	284.69
325.626	158.69
325.855	146.69
326.084	124.69
326.313	125.69
326.542	154.69
326.77	250.69
326.999	488.69
327.228	1071.69
327.457	1975.69
327.686	1642.69
327.914	406.69
328.143	196.69
328.372	160.69
328.6	130.69
328.829	120.69
329.058	139.69
329.287	136.69
329.515	107.69
329.744	104.69
329.972	112.69
330.201	104.69
330.43	104.69
330.658	127.69
330.887	146.69
331.115	132.69
331.344	96.69
331.572	103.69
331.801	109.69
332.03	84.69
332.258	91.69
332.486	87.69
332.715	80.69
332.943	99.69
333.172	83.69
333.4	101.69
333.629	99.69
333.857	111.69
334.085	94.69
334.314	104.69
334.542	100.69
334.771	103.69
334.999	104.69
335.227	91.69
335.455	101.69
335.684	102.69
335.912	100.69
336.14	100.69
336.369	84.69
336.597	85.69
336.825	99.69
337.053	98.69
337.281	92.69
337.51	86.69
337.738	106.69
337.966	99.69
338.194	92.69
338.422	108.69
338.65	104.69
338.878	99.69
339.106	91.69
339.334	104.69
339.562	92.69
339.79	96.69
340.018	87.69
340.246	82.69
340.474	88.69
340.702	94.69
340.93	100.69
341.158	86.69
341.386	104.69
341.614	112.69
341.842	106.69
342.07	89.69
342.298	91.69
342.526	85.69
342.754	98.69
342.981	89.69
343.209	91.69
343.437	91.69
343.665	93.69
343.893	95.69
344.12	94.69
344.348	91.69
344.576	84.69
344.804	84.69
345.031	84.69
345.259	109.69
345.487	102.69
345.714	106.69
345.942	91.69
346.17	95.69
346.397	98.69
346.625	92.69
346.853	92.69
347.08	99.69
347.308	104.69
347.535	104.69
347.763	115.69
347.99	119.69
348.218	107.69
348.445	118.69
348.673	99.69
348.9	95.69
349.128	102.69
349.355	87.69
349.583	87.69
349.81	93.69
350.037	117.69
350.265	98.69
350.492	98.69
350.72	90.69
350.947	97.69
351.174	120.69
351.402	117.69
351.629	102.69
351.856	90.69
352.083	106.69
352.311	105.69
352.538	108.69
352.765	101.69
352.992	117.69
353.22	104.69
353.447	116.69
353.674	97.69
353.901	106.69
354.128	100.69
354.355	76.69
354.583	119.69
354.81	103.69
355.037	93.69
355.264	83.69
355.491	82.69
355.718	99.69
355.945	97.69
356.172	96.69
356.399	105.69
356.626	98.69
356.853	85.69
357.08	93.69
357.307	92.69
357.534	91.69
357.761	101.69
357.988	87.69
358.215	101.69
358.441	90.69
358.668	94.69
358.895	77.69
359.122	90.69
359.349	88.69
359.576	96.69
359.802	93.69
360.029	99.69
360.256	109.69
360.483	108.69
360.709	87.69
360.936	94.69
361.163	86.69
361.39	94.69
361.616	83.69
361.843	84.69
362.07	107.69
362.296	101.69
362.523	83.69
362.749	77.69
362.976	86.69
363.203	91.69
363.429	92.69
363.656	92.69
363.882	73.69
364.109	84.69
364.335	90.69
364.562	77.69
364.788	92.69
365.015	103.69
365.241	102.69
365.468	109.69
365.694	90.69
365.92	87.69
366.147	96.69
366.373	87.69
366.599	101.69
366.826	97.69
367.052	96.69
367.278	82.69
367.505	93.69
367.731	106.69
367.957	96.69
368.184	84.69
368.41	105.69
368.636	112.69
368.862	105.69
369.089	102.69
369.315	97.69
369.541	114.69
369.767	100.69
369.993	94.69
370.219	88.69
370.445	89.69
370.672	88.69
370.898	78.69
371.124	96.69
371.35	98.69
371.576	105.69
371.802	98.69
372.028	91.69
372.254	94.69
372.48	95.69
372.706	95.69
372.932	86.69
373.158	91.69
373.384	94.69
373.61	91.69
373.835	99.69
374.061	87.69
374.287	91.69
374.513	84.69
374.739	98.69
374.965	98.69
375.191	86.69
375.416	91.69
375.642	101.69
375.868	94.69
376.094	90.69
376.319	91.69
376.545	88.69
376.771	87.69
376.997	91.69
377.222	98.69
377.448	105.69
377.674	92.69
377.899	93.69
378.125	101.69
378.35	95.69
378.576	83.69
378.802	94.69
379.027	84.69
379.253	90.69
379.478	82.69
379.704	95.69
379.929	89.69
380.155	86.69
380.38	85.69
380.606	96.69
380.831	105.69
381.057	93.69
381.282	86.69
381.507	93.69
381.733	97.69
381.958	99.69
382.184	91.69
382.409	114.69
382.634	105.69
382.86	95.69
383.085	105.69
383.31	82.69
383.535	114.69
383.761	108.69
383.986	109.69
384.211	91.69
384.436	106.69
384.662	87.69
384.887	85.69
385.112	97.69
385.337	103.69
385.562	98.69
385.787	114.69
386.013	109.69
386.238	119.69
386.463	101.69
386.688	107.69
386.913	102.69
387.138	103.69
387.363	112.69
387.588	108.69
387.813	100.69
388.038	96.69
388.263	118.69
388.488	97.69
388.713	113.69
388.938	107.69
389.163	85.69
389.387	91.69
389.612	114.69
389.837	100.69
390.062	81.69
390.287	98.69
390.512	94.69
390.736	95.69
390.961	95.69
391.186	102.69
391.411	93.69
391.636	105.69
391.86	87.69
392.085	85.69
392.31	90.69
392.534	79.69
392.759	74.69
392.984	89.69
393.208	96.69
393.433	94.69
393.658	96.69
393.882	77.69
394.107	98.69
394.331	81.69
394.556	94.69
394.78	90.69
395.005	104.69
395.229	88.69
395.454	96.69
395.678	90.69
395.903	88.69
396.127	89.69
396.352	79.69
396.576	89.69
396.801	85.69
397.025	90.69
397.249	84.69
397.474	90.69
397.698	83.69
397.922	88.69
398.147	94.69
398.371	86.69
398.595	88.69
398.82	90.69
399.044	98.69
399.268	89.69
399.492	95.69
399.717	79.69
399.941	95.69
400.165	85.69
400.389	95.69
400.613	92.69
400.837	97.69
401.062	72.69
401.286	92.69
401.51	103.69
401.734	105.69
401.958	98.69
402.182	117.69
402.406	157.69
402.63	113.69
402.854	90.69
403.078	85.69
403.302	87.69
403.526	90.69
403.75	82.69
403.974	81.69
404.198	72.69
404.422	97.69
404.645	94.69
404.869	86.69
405.093	85.69
405.317	104.69
405.541	87.69
405.765	114.69
405.988	126.69
406.212	190.69
406.436	234.69
406.66	172.69
406.883	94.69
407.107	89.69
407.331	93.69
407.555	95.69
407.778	101.69
408.002	100.69
408.226	80.69
408.449	91.69
408.673	93.69
408.896	111.69
409.12	109.69
409.344	90.69
409.567	81.69
409.791	82.69
410.014	87.69
410.238	79.69
410.461	100.69
410.685	89.69
410.908	100.69
411.132	112.69
411.355	107.69
411.578	93.69
411.802	87.69
412.025	88.69
412.249	87.69
412.472	92.69
412.695	90.69
412.919	104.69
413.142	91.69
413.365	88.69
413.589	80.69
413.812	101.69
414.035	97.69
414.258	91.69
414.482	90.69
414.705	90.69
414.928	99.69
415.151	79.69
415.374	86.69
415.597	78.69
415.821	84.69
416.044	77.69
416.267	99.69
416.49	100.69
416.713	102.69
416.936	101.69
417.159	92.69
417.382	79.69
417.605	92.69
417.828	100.69
418.051	92.69
418.274	100.69
418.497	104.69
418.72	77.69
418.943	84.69
419.166	91.69
419.389	83.69
419.611	94.69
419.834	77.69
420.057	90.69
420.28	88.69
420.503	94.69
420.726	99.69
420.948	97.69
421.171	100.69
421.394	105.69
421.617	93.69
421.839	102.69
422.062	87.69
422.285	84.69
422.507	99.69
422.73	117.69
422.953	96.69
423.175	101.69
423.398	94.69
423.621	96.69
423.843	95.69
424.066	95.69
424.288	98.69
424.511	85.69
424.733	94.69
424.956	118.69
425.178	96.69
425.401	95.69
425.623	97.69
425.846	79.69
426.068	82.69
426.291	93.69
426.513	110.69
426.735	93.69
426.958	101.69
427.18	107.69
427.402	155.69
427.625	175.69
427.847	110.69
428.069	97.69
428.292	84.69
428.514	86.69
428.736	82.69
428.958	81.69
429.181	89.69
429.403	80.69
429.625	88.69
429.847	89.69
430.069	99.69
430.292	97.69
430.514	95.69
430.736	99.69
430.958	108.69
431.18	85.69
431.402	101.69
431.624	87.69
431.846	104.69
432.068	82.69
432.29	78.69
432.512	89.69
432.734	98.69
432.956	78.69
433.178	99.69
433.4	94.69
433.622	86.69
433.844	78.69
434.066	90.69
434.287	85.69
434.509	92.69
434.731	94.69
434.953	82.69
435.175	88.69
435.397	89.69
435.618	92.69
435.84	108.69
436.062	123.69
436.284	121.69
436.505	119.69
436.727	103.69
436.949	85.69
437.17	99.69
437.392	82.69
437.614	101.69
437.835	115.69
438.057	125.69
438.278	126.69
438.5	115.69
438.721	122.69
438.943	108.69
439.165	88.69
439.386	87.69
439.608	90.69
439.829	107.69
440.05	135.69
440.272	162.69
440.493	104.69
440.715	95.69
440.936	83.69
441.158	78.69
441.379	90.69
441.6	83.69
441.822	93.69
442.043	93.69
442.264	124.69
442.486	105.69
442.707	102.69
442.928	101.69
443.149	132.69
443.371	143.69
443.592	115.69
443.813	127.69
444.034	124.69
444.255	93.69
444.476	85.69
444.698	104.69
444.919	93.69
445.14	130.69
445.361	138.69
445.582	102.69
445.803	126.69
446.024	138.69
446.245	142.69
446.466	121.69
446.687	86.69
446.908	91.69
447.129	94.69
447.35	91.69
447.571	100.69
447.792	94.69
448.013	104.69
448.234	97.69
448.455	105.69
448.675	119.69
448.896	136.69
449.117	101.69
449.338	112.69
449.559	142.69
449.779	154.69
450	114.69
450.221	95.69
450.442	102.69
450.662	99.69
450.883	113.69
451.104	116.69
451.324	105.69
451.545	80.69
451.766	96.69
451.986	80.69
452.207	96.69
452.428	96.69
452.648	102.69
452.869	115.69
453.089	128.69
453.31	122.69
453.53	88.69
453.751	87.69
453.971	114.69
454.192	111.69
454.412	87.69
454.633	94.69
454.853	103.69
455.073	77.69
455.294	104.69
455.514	101.69
455.734	94.69
455.955	86.69
456.175	89.69
456.395	81.69
456.616	92.69
456.836	97.69
457.056	81.69
457.276	74.69
457.497	92.69
457.717	88.69
457.937	82.69
458.157	91.69
458.377	85.69
458.598	107.69
458.818	155.69
459.038	173.69
459.258	112.69
459.478	89.69
459.698	103.69
459.918	84.69
460.138	94.69
460.358	71.69
460.578	98.69
460.798	82.69
461.018	93.69
461.238	89.69
461.458	101.69
461.678	80.69
461.898	80.69
462.118	99.69
462.338	95.69
462.558	85.69
462.777	83.69
462.997	85.69
463.217	81.69
463.437	87.69
463.657	94.69
463.876	86.69
464.096	104.69
464.316	83.69
464.536	96.69
464.755	90.69
464.975	102.69
465.195	181.69
465.414	167.69
465.634	79.69
465.854	76.69
466.073	85.69
466.293	84.69
466.512	84.69
466.732	92.69
466.951	100.69
467.171	104.69
467.391	76.69
467.61	105.69
467.829	92.69
468.049	101.69
468.268	90.69
468.488	72.69
468.707	71.69
468.927	84.69
469.146	80.69
469.365	88.69
469.585	90.69
469.804	94.69
470.023	104.69
470.243	86.69
470.462	93.69
470.681	116.69
470.901	88.69
471.12	74.69
471.339	80.69
471.558	102.69
471.777	84.69
471.997	79.69
472.216	86.69
472.435	96.69
472.654	87.69
472.873	99.69
473.092	78.69
473.311	104.69
473.53	94.69
473.749	70.69
473.968	107.69
474.187	112.69
474.406	119.69
474.625	85.69
474.844	97.69
475.063	83.69
475.282	102.69
475.501	78.69
475.72	94.69
475.939	77.69
476.158	83.69
476.377	82.69
476.596	86.69
476.814	105.69
477.033	102.69
477.252	93.69
477.471	88.69
477.69	87.69
477.908	88.69
478.127	100.69
478.346	96.69
478.564	97.69
478.783	114.69
479.002	105.69
479.22	98.69
479.439	104.69
479.658	114.69
479.876	88.69
480.095	86.69
480.313	82.69
480.532	83.69
480.751	76.69
480.969	87.69
481.188	101.69
481.406	109.69
481.624	97.69
481.843	90.69
482.061	84.69
482.28	72.69
482.498	78.69
482.717	87.69
482.935	92.69
483.153	93.69
483.372	92.69
483.59	87.69
483.808	83.69
484.027	100.69
484.245	93.69
484.463	98.69
484.681	91.69
484.9	93.69
485.118	94.69
485.336	92.69
485.554	93.69
485.772	88.69
485.99	95.69
486.209	116.69
486.427	97.69
486.645	106.69
486.863	98.69
487.081	92.69
487.299	75.69
487.517	91.69
487.735	109.69
487.953	100.69
488.171	86.69
488.389	82.69
488.607	88.69
488.825	105.69
489.043	86.69
489.261	97.69
489.479	98.69
489.696	85.69
489.914	110.69
490.132	105.69
490.35	90.69
490.568	86.69
490.786	88.69
491.003	92.69
491.221	84.69
491.439	82.69
491.657	102.69
491.874	103.69
492.092	92.69
492.31	94.69
492.527	87.69
492.745	91.69
492.963	95.69
493.18	89.69
493.398	76.69
493.615	96.69
493.833	95.69
494.05	99.69
494.268	92.69
494.485	90.69
494.703	84.69
494.92	79.69
495.138	95.69
495.355	79.69
495.573	87.69
495.79	94.69
496.008	97.69
496.225	82.69
496.442	81.69
496.66	84.69
496.877	86.69
497.094	93.69
497.312	87.69
497.529	85.69
497.746	84.69
497.963	107.69
498.181	102.69
498.398	76.69
498.615	101.69
498.832	99.69
499.049	84.69
499.267	82.69
499.484	84.69
499.701	98.69
499.918	90.69
500.135	76.69
500.352	96.69
500.569	78.69
500.786	93.69
501.003	88.69
501.22	87.69
501.437	93.69
501.654	109.69
501.871	111.69
502.088	101.69
502.305	92.69
502.522	82.69
502.739	92.69
502.956	91.69
503.172	87.69
503.389	87.69
503.606	103.69
503.823	88.69
504.04	99.69
504.256	86.69
504.473	82.69
504.69	78.69
504.907	92.69
505.123	90.69
505.34	75.69
505.557	101.69
505.773	94.69
505.99	91.69
506.207	100.69
506.423	103.69
506.64	86.69
506.856	77.69
507.073	91.69
507.289	101.69
507.506	99.69
507.722	117.69
507.939	103.69
508.155	107.69
508.372	94.69
508.588	91.69
508.805	87.69
509.021	95.69
509.238	91.69
509.454	81.69
509.67	110.69
509.887	112.69
510.103	125.69
510.319	225.69
510.536	794.69
510.752	2511.69
510.968	674.69
511.184	141.69
511.401	104.69
511.617	109.69
511.833	97.69
512.049	84.69
512.265	85.69
512.481	94.69
512.698	92.69
512.914	82.69
513.13	96.69
513.346	90.69
513.562	86.69
513.778	99.69
513.994	96.69
514.21	99.69
514.426	119.69
514.642	144.69
514.858	140.69
515.074	166.69
