Data from Uncirc_1991_H10_HRD10591_00076.txt Node
Date: Wed Jan 03 11:50:53 EST 2024
User: Yrep
Spectrometer: HR+D1059
Trigger mode: 1
Integration Time (sec): 1.000000E-1
Scans to average: 1
Electric dark correction enabled: true
Nonlinearity correction enabled: false
Boxcar width: 0
XAxis mode: Wavelengths
Number of Pixels in Spectrum: 2048
>>>>>Begin Spectral Data<<<<<
223.165	-12.12
223.4	-12.12
223.635	-12.12
223.869	-26.12
224.104	-8.12
224.338	-22.12
224.573	-12.12
224.808	-4.12
225.042	-4.12
225.277	-15.12
225.511	-2.12
225.746	6.88
225.98	1.88
226.215	19.88
226.449	5.88
226.683	19.88
226.918	21.88
227.152	29.88
227.387	39.88
227.621	42.88
227.856	64.88
228.09	54.88
228.324	53.88
228.559	58.88
228.793	66.88
229.027	72.88
229.262	72.88
229.496	79.88
229.73	90.88
229.964	85.88
230.199	83.88
230.433	70.88
230.667	86.88
230.901	88.88
231.136	88.88
231.37	90.88
231.604	86.88
231.838	77.88
232.072	90.88
232.306	75.88
232.541	68.88
232.775	76.88
233.009	71.88
233.243	82.88
233.477	92.88
233.711	99.88
233.945	81.88
234.179	87.88
234.413	93.88
234.647	71.88
234.881	78.88
235.115	92.88
235.349	78.88
235.583	83.88
235.817	94.88
236.051	78.88
236.285	65.88
236.519	77.88
236.753	85.88
236.987	87.88
237.221	90.88
237.455	116.88
237.689	85.88
237.922	91.88
238.156	66.88
238.39	77.88
238.624	71.88
238.858	73.88
239.091	85.88
239.325	78.88
239.559	87.88
239.793	86.88
240.027	70.88
240.26	90.88
240.494	92.88
240.728	99.88
240.961	76.88
241.195	83.88
241.429	85.88
241.662	90.88
241.896	86.88
242.13	86.88
242.363	81.88
242.597	94.88
242.83	79.88
243.064	71.88
243.298	84.88
243.531	85.88
243.765	81.88
243.998	85.88
244.232	80.88
244.465	87.88
244.699	94.88
244.932	86.88
245.166	87.88
245.399	88.88
245.633	82.88
245.866	83.88
246.099	78.88
246.333	84.88
246.566	73.88
246.8	75.88
247.033	73.88
247.266	73.88
247.5	68.88
247.733	67.88
247.966	85.88
248.2	92.88
248.433	83.88
248.666	82.88
248.899	89.88
249.133	112.88
249.366	113.88
249.599	95.88
249.832	83.88
250.066	77.88
250.299	78.88
250.532	87.88
250.765	90.88
250.998	72.88
251.231	81.88
251.465	77.88
251.698	82.88
251.931	88.88
252.164	81.88
252.397	75.88
252.63	83.88
252.863	90.88
253.096	94.88
253.329	97.88
253.562	77.88
253.795	77.88
254.028	82.88
254.261	90.88
254.494	80.88
254.727	89.88
254.96	94.88
255.193	86.88
255.426	83.88
255.659	91.88
255.892	85.88
256.124	71.88
256.357	88.88
256.59	77.88
256.823	101.88
257.056	86.88
257.289	82.88
257.521	85.88
257.754	90.88
257.987	84.88
258.22	88.88
258.452	94.88
258.685	92.88
258.918	80.88
259.151	77.88
259.383	101.88
259.616	78.88
259.849	90.88
260.081	99.88
260.314	88.88
260.547	74.88
260.779	89.88
261.012	81.88
261.244	97.88
261.477	99.88
261.71	86.88
261.942	124.88
262.175	131.88
262.407	94.88
262.64	88.88
262.872	92.88
263.105	85.88
263.337	89.88
263.57	83.88
263.802	79.88
264.035	97.88
264.267	83.88
264.499	77.88
264.732	95.88
264.964	92.88
265.197	98.88
265.429	83.88
265.661	81.88
265.894	90.88
266.126	95.88
266.358	95.88
266.591	101.88
266.823	90.88
267.055	84.88
267.287	90.88
267.52	81.88
267.752	88.88
267.984	86.88
268.216	92.88
268.448	88.88
268.681	87.88
268.913	85.88
269.145	78.88
269.377	81.88
269.609	83.88
269.841	79.88
270.073	79.88
270.306	88.88
270.538	95.88
270.77	91.88
271.002	94.88
271.234	93.88
271.466	95.88
271.698	88.88
271.93	102.88
272.162	92.88
272.394	84.88
272.626	79.88
272.858	79.88
273.09	87.88
273.322	85.88
273.553	85.88
273.785	77.88
274.017	105.88
274.249	97.88
274.481	93.88
274.713	91.88
274.945	79.88
275.176	81.88
275.408	85.88
275.64	91.88
275.872	77.88
276.104	88.88
276.335	106.88
276.567	94.88
276.799	124.88
277.031	122.88
277.262	111.88
277.494	98.88
277.726	88.88
277.957	90.88
278.189	93.88
278.421	91.88
278.652	93.88
278.884	93.88
279.115	94.88
279.347	86.88
279.579	90.88
279.81	89.88
280.042	92.88
280.273	94.88
280.505	86.88
280.736	90.88
280.968	104.88
281.199	87.88
281.431	89.88
281.662	89.88
281.894	95.88
282.125	105.88
282.356	141.88
282.588	161.88
282.819	141.88
283.051	88.88
283.282	91.88
283.513	99.88
283.745	82.88
283.976	87.88
284.207	102.88
284.439	98.88
284.67	87.88
284.901	91.88
285.132	90.88
285.364	87.88
285.595	93.88
285.826	94.88
286.057	97.88
286.288	97.88
286.52	87.88
286.751	103.88
286.982	98.88
287.213	86.88
287.444	84.88
287.675	87.88
287.906	90.88
288.138	79.88
288.369	91.88
288.6	115.88
288.831	101.88
289.062	95.88
289.293	90.88
289.524	88.88
289.755	93.88
289.986	97.88
290.217	98.88
290.448	88.88
290.679	98.88
290.91	99.88
291.141	89.88
291.371	95.88
291.602	75.88
291.833	86.88
292.064	91.88
292.295	90.88
292.526	106.88
292.757	100.88
292.987	91.88
293.218	93.88
293.449	92.88
293.68	91.88
293.91	98.88
294.141	92.88
294.372	94.88
294.603	86.88
294.833	89.88
295.064	101.88
295.295	80.88
295.525	99.88
295.756	105.88
295.987	125.88
296.217	173.88
296.448	155.88
296.679	102.88
296.909	84.88
297.14	99.88
297.37	90.88
297.601	101.88
297.831	81.88
298.062	88.88
298.292	91.88
298.523	98.88
298.753	96.88
298.984	87.88
299.214	105.88
299.445	99.88
299.675	99.88
299.905	109.88
300.136	97.88
300.366	96.88
300.597	95.88
300.827	99.88
301.057	114.88
301.288	102.88
301.518	101.88
301.748	95.88
301.979	104.88
302.209	81.88
302.439	91.88
302.669	101.88
302.9	103.88
303.13	92.88
303.36	106.88
303.59	115.88
303.82	107.88
304.051	112.88
304.281	87.88
304.511	90.88
304.741	100.88
304.971	88.88
305.201	94.88
305.431	87.88
305.661	98.88
305.891	97.88
306.121	95.88
306.352	104.88
306.582	103.88
306.812	98.88
307.042	101.88
307.272	101.88
307.502	95.88
307.731	101.88
307.961	109.88
308.191	97.88
308.421	90.88
308.651	93.88
308.881	93.88
309.111	96.88
309.341	90.88
309.571	105.88
309.8	101.88
310.03	98.88
310.26	118.88
310.49	112.88
310.72	113.88
310.949	120.88
311.179	120.88
311.409	103.88
311.639	112.88
311.868	114.88
312.098	95.88
312.328	102.88
312.557	119.88
312.787	124.88
313.017	119.88
313.246	104.88
313.476	101.88
313.706	85.88
313.935	97.88
314.165	102.88
314.394	111.88
314.624	99.88
314.853	100.88
315.083	95.88
315.312	95.88
315.542	98.88
315.771	114.88
316.001	91.88
316.23	100.88
316.46	87.88
316.689	95.88
316.919	99.88
317.148	112.88
317.377	111.88
317.607	105.88
317.836	95.88
318.065	103.88
318.295	105.88
318.524	88.88
318.753	107.88
318.983	103.88
319.212	103.88
319.441	123.88
319.67	118.88
319.9	85.88
320.129	97.88
320.358	98.88
320.587	106.88
320.816	110.88
321.046	105.88
321.275	99.88
321.504	103.88
321.733	110.88
321.962	108.88
322.191	102.88
322.42	110.88
322.649	125.88
322.878	131.88
323.108	136.88
323.337	147.88
323.566	159.88
323.795	184.88
324.024	249.88
324.253	497.88
324.482	1129.88
324.71	2360.88
324.939	3292.88
325.168	1172.88
325.397	311.88
325.626	170.88
325.855	143.88
326.084	133.88
326.313	158.88
326.542	180.88
326.77	296.88
326.999	595.88
327.228	1258.88
327.457	2349.88
327.686	1933.88
327.914	494.88
328.143	248.88
328.372	191.88
328.6	158.88
328.829	138.88
329.058	161.88
329.287	163.88
329.515	133.88
329.744	114.88
329.972	111.88
330.201	111.88
330.43	110.88
330.658	171.88
330.887	170.88
331.115	149.88
331.344	119.88
331.572	122.88
331.801	118.88
332.03	116.88
332.258	121.88
332.486	100.88
332.715	109.88
332.943	98.88
333.172	108.88
333.4	114.88
333.629	119.88
333.857	111.88
334.085	112.88
334.314	89.88
334.542	106.88
334.771	106.88
334.999	99.88
335.227	93.88
335.455	95.88
335.684	93.88
335.912	90.88
336.14	104.88
336.369	119.88
336.597	120.88
336.825	102.88
337.053	104.88
337.281	85.88
337.51	97.88
337.738	89.88
337.966	85.88
338.194	109.88
338.422	98.88
338.65	85.88
338.878	107.88
339.106	89.88
339.334	88.88
339.562	101.88
339.79	96.88
340.018	98.88
340.246	104.88
340.474	107.88
340.702	101.88
340.93	95.88
341.158	108.88
341.386	117.88
341.614	110.88
341.842	110.88
342.07	94.88
342.298	99.88
342.526	94.88
342.754	107.88
342.981	91.88
343.209	97.88
343.437	96.88
343.665	102.88
343.893	91.88
344.12	86.88
344.348	101.88
344.576	105.88
344.804	103.88
345.031	104.88
345.259	127.88
345.487	106.88
345.714	94.88
345.942	104.88
346.17	98.88
346.397	109.88
346.625	87.88
346.853	102.88
347.08	84.88
347.308	113.88
347.535	95.88
347.763	88.88
347.99	100.88
348.218	102.88
348.445	112.88
348.673	115.88
348.9	103.88
349.128	118.88
349.355	109.88
349.583	109.88
349.81	93.88
350.037	97.88
350.265	98.88
350.492	93.88
350.72	106.88
350.947	119.88
351.174	122.88
351.402	121.88
351.629	115.88
351.856	101.88
352.083	110.88
352.311	100.88
352.538	127.88
352.765	117.88
352.992	119.88
353.22	130.88
353.447	104.88
353.674	113.88
353.901	99.88
354.128	105.88
354.355	106.88
354.583	107.88
354.81	105.88
355.037	98.88
355.264	96.88
355.491	85.88
355.718	95.88
355.945	93.88
356.172	95.88
356.399	84.88
356.626	97.88
356.853	107.88
357.08	103.88
357.307	99.88
357.534	95.88
357.761	89.88
357.988	91.88
358.215	93.88
358.441	85.88
358.668	97.88
358.895	97.88
359.122	103.88
359.349	95.88
359.576	105.88
359.802	114.88
360.029	137.88
360.256	136.88
360.483	109.88
360.709	108.88
360.936	103.88
361.163	110.88
361.39	103.88
361.616	95.88
361.843	95.88
362.07	104.88
362.296	106.88
362.523	110.88
362.749	99.88
362.976	92.88
363.203	98.88
363.429	97.88
363.656	92.88
363.882	97.88
364.109	109.88
364.335	97.88
364.562	91.88
364.788	110.88
365.015	95.88
365.241	118.88
365.468	109.88
365.694	100.88
365.92	114.88
366.147	102.88
366.373	103.88
366.599	96.88
366.826	94.88
367.052	86.88
367.278	97.88
367.505	99.88
367.731	112.88
367.957	104.88
368.184	93.88
368.41	105.88
368.636	127.88
368.862	139.88
369.089	127.88
369.315	104.88
369.541	99.88
369.767	95.88
369.993	113.88
370.219	89.88
370.445	81.88
370.672	96.88
370.898	102.88
371.124	101.88
371.35	97.88
371.576	107.88
371.802	90.88
372.028	91.88
372.254	96.88
372.48	85.88
372.706	81.88
372.932	107.88
373.158	97.88
373.384	88.88
373.61	90.88
373.835	80.88
374.061	95.88
374.287	97.88
374.513	99.88
374.739	100.88
374.965	99.88
375.191	90.88
375.416	86.88
375.642	92.88
375.868	90.88
376.094	91.88
376.319	103.88
376.545	91.88
376.771	89.88
376.997	98.88
377.222	87.88
377.448	103.88
377.674	103.88
377.899	104.88
378.125	93.88
378.35	89.88
378.576	90.88
378.802	104.88
379.027	99.88
379.253	103.88
379.478	95.88
379.704	105.88
379.929	100.88
380.155	101.88
380.38	103.88
380.606	100.88
380.831	101.88
381.057	98.88
381.282	100.88
381.507	104.88
381.733	93.88
381.958	102.88
382.184	106.88
382.409	118.88
382.634	111.88
382.86	96.88
383.085	93.88
383.31	94.88
383.535	104.88
383.761	105.88
383.986	98.88
384.211	105.88
384.436	98.88
384.662	99.88
384.887	95.88
385.112	98.88
385.337	98.88
385.562	106.88
385.787	104.88
386.013	117.88
386.238	109.88
386.463	109.88
386.688	116.88
386.913	99.88
387.138	95.88
387.363	104.88
387.588	83.88
387.813	108.88
388.038	100.88
388.263	108.88
388.488	118.88
388.713	104.88
388.938	98.88
389.163	91.88
389.387	99.88
389.612	99.88
389.837	99.88
390.062	102.88
390.287	103.88
390.512	80.88
390.736	89.88
390.961	90.88
391.186	104.88
391.411	86.88
391.636	93.88
391.86	87.88
392.085	85.88
392.31	94.88
392.534	114.88
392.759	79.88
392.984	88.88
393.208	95.88
393.433	93.88
393.658	85.88
393.882	93.88
394.107	90.88
394.331	84.88
394.556	75.88
394.78	101.88
395.005	80.88
395.229	91.88
395.454	85.88
395.678	94.88
395.903	108.88
396.127	83.88
396.352	89.88
396.576	96.88
396.801	91.88
397.025	91.88
397.249	97.88
397.474	99.88
397.698	100.88
397.922	77.88
398.147	89.88
398.371	96.88
398.595	98.88
398.82	92.88
399.044	81.88
399.268	87.88
399.492	100.88
399.717	88.88
399.941	100.88
400.165	115.88
400.389	99.88
400.613	90.88
400.837	91.88
401.062	93.88
401.286	85.88
401.51	105.88
401.734	98.88
401.958	106.88
402.182	152.88
402.406	200.88
402.63	143.88
402.854	109.88
403.078	93.88
403.302	98.88
403.526	106.88
403.75	101.88
403.974	101.88
404.198	96.88
404.422	92.88
404.645	101.88
404.869	123.88
405.093	95.88
405.317	96.88
405.541	101.88
405.765	114.88
405.988	136.88
406.212	198.88
406.436	290.88
406.66	195.88
406.883	116.88
407.107	116.88
407.331	107.88
407.555	118.88
407.778	98.88
408.002	94.88
408.226	113.88
408.449	90.88
408.673	98.88
408.896	87.88
409.12	99.88
409.344	87.88
409.567	84.88
409.791	107.88
410.014	103.88
410.238	95.88
410.461	92.88
410.685	83.88
410.908	98.88
411.132	110.88
411.355	102.88
411.578	87.88
411.802	92.88
412.025	98.88
412.249	91.88
412.472	103.88
412.695	87.88
412.919	97.88
413.142	94.88
413.365	89.88
413.589	100.88
413.812	99.88
414.035	97.88
414.258	97.88
414.482	101.88
414.705	82.88
414.928	114.88
415.151	82.88
415.374	89.88
415.597	91.88
415.821	95.88
416.044	92.88
416.267	93.88
416.49	101.88
416.713	99.88
416.936	94.88
417.159	90.88
417.382	87.88
417.605	90.88
417.828	107.88
418.051	94.88
418.274	95.88
418.497	93.88
418.72	88.88
418.943	86.88
419.166	94.88
419.389	96.88
419.611	92.88
419.834	106.88
420.057	88.88
420.28	100.88
420.503	105.88
420.726	90.88
420.948	91.88
421.171	95.88
421.394	102.88
421.617	94.88
421.839	93.88
422.062	89.88
422.285	98.88
422.507	110.88
422.73	135.88
422.953	87.88
423.175	98.88
423.398	87.88
423.621	85.88
423.843	85.88
424.066	95.88
424.288	95.88
424.511	98.88
424.733	114.88
424.956	130.88
425.178	97.88
425.401	117.88
425.623	124.88
425.846	88.88
426.068	99.88
426.291	100.88
426.513	98.88
426.735	102.88
426.958	102.88
427.18	127.88
427.402	177.88
427.625	237.88
427.847	150.88
428.069	100.88
428.292	80.88
428.514	89.88
428.736	90.88
428.958	86.88
429.181	89.88
429.403	69.88
429.625	86.88
429.847	79.88
430.069	126.88
430.292	84.88
430.514	82.88
430.736	71.88
430.958	72.88
431.18	95.88
431.402	82.88
431.624	81.88
431.846	74.88
432.068	98.88
432.29	94.88
432.512	82.88
432.734	91.88
432.956	84.88
433.178	95.88
433.4	97.88
433.622	91.88
433.844	98.88
434.066	98.88
434.287	101.88
434.509	103.88
434.731	97.88
434.953	87.88
435.175	83.88
435.397	91.88
435.618	90.88
435.84	111.88
436.062	149.88
436.284	161.88
436.505	101.88
436.727	120.88
436.949	103.88
437.17	104.88
437.392	91.88
437.614	97.88
437.835	119.88
438.057	159.88
438.278	125.88
438.5	124.88
438.721	156.88
438.943	104.88
439.165	105.88
439.386	86.88
439.608	102.88
439.829	106.88
440.05	147.88
440.272	172.88
440.493	98.88
440.715	101.88
440.936	90.88
441.158	90.88
441.379	95.88
441.6	102.88
441.822	94.88
442.043	115.88
442.264	127.88
442.486	122.88
442.707	114.88
442.928	120.88
443.149	168.88
443.371	169.88
443.592	128.88
443.813	141.88
444.034	142.88
444.255	107.88
444.476	90.88
444.698	104.88
444.919	99.88
445.14	156.88
445.361	150.88
445.582	161.88
445.803	187.88
446.024	184.88
446.245	168.88
446.466	130.88
446.687	109.88
446.908	103.88
447.129	90.88
447.35	96.88
447.571	106.88
447.792	86.88
448.013	94.88
448.234	129.88
448.455	114.88
448.675	133.88
448.896	144.88
449.117	113.88
449.338	110.88
449.559	163.88
449.779	167.88
450	108.88
450.221	97.88
450.442	100.88
450.662	99.88
450.883	121.88
451.104	132.88
451.324	113.88
451.545	92.88
451.766	94.88
451.986	90.88
452.207	88.88
452.428	99.88
452.648	93.88
452.869	126.88
453.089	141.88
453.31	143.88
453.53	106.88
453.751	103.88
453.971	113.88
454.192	123.88
454.412	100.88
454.633	90.88
454.853	93.88
455.073	100.88
455.294	99.88
455.514	105.88
455.734	98.88
455.955	92.88
456.175	74.88
456.395	85.88
456.616	89.88
456.836	89.88
457.056	96.88
457.276	87.88
457.497	100.88
457.717	81.88
457.937	78.88
458.157	87.88
458.377	105.88
458.598	121.88
458.818	198.88
459.038	222.88
459.258	147.88
459.478	106.88
459.698	88.88
459.918	91.88
460.138	97.88
460.358	97.88
460.578	89.88
460.798	91.88
461.018	78.88
461.238	89.88
461.458	89.88
461.678	95.88
461.898	98.88
462.118	96.88
462.338	86.88
462.558	91.88
462.777	85.88
462.997	101.88
463.217	91.88
463.437	101.88
463.657	94.88
463.876	88.88
464.096	92.88
464.316	93.88
464.536	106.88
464.755	108.88
464.975	101.88
465.195	215.88
465.414	209.88
465.634	104.88
465.854	86.88
466.073	75.88
466.293	75.88
466.512	81.88
466.732	99.88
466.951	88.88
467.171	89.88
467.391	102.88
467.61	116.88
467.829	93.88
468.049	89.88
468.268	90.88
468.488	100.88
468.707	94.88
468.927	103.88
469.146	91.88
469.365	87.88
469.585	101.88
469.804	104.88
470.023	111.88
470.243	99.88
470.462	108.88
470.681	119.88
470.901	91.88
471.12	90.88
471.339	93.88
471.558	94.88
471.777	104.88
471.997	97.88
472.216	92.88
472.435	110.88
472.654	93.88
472.873	97.88
473.092	98.88
473.311	86.88
473.53	92.88
473.749	114.88
473.968	108.88
474.187	123.88
474.406	115.88
474.625	106.88
474.844	98.88
475.063	93.88
475.282	78.88
475.501	103.88
475.72	94.88
475.939	89.88
476.158	87.88
476.377	99.88
476.596	83.88
476.814	90.88
477.033	90.88
477.252	82.88
477.471	95.88
477.69	93.88
477.908	94.88
478.127	92.88
478.346	82.88
478.564	82.88
478.783	86.88
479.002	101.88
479.22	101.88
479.439	114.88
479.658	107.88
479.876	109.88
480.095	104.88
480.313	106.88
480.532	74.88
480.751	94.88
480.969	102.88
481.188	103.88
481.406	97.88
481.624	98.88
481.843	105.88
482.061	74.88
482.28	95.88
482.498	86.88
482.717	98.88
482.935	90.88
483.153	96.88
483.372	97.88
483.59	96.88
483.808	96.88
484.027	99.88
484.245	106.88
484.463	103.88
484.681	90.88
484.9	89.88
485.118	93.88
485.336	98.88
485.554	112.88
485.772	105.88
485.99	110.88
486.209	109.88
486.427	101.88
486.645	109.88
486.863	130.88
487.081	110.88
487.299	104.88
487.517	101.88
487.735	96.88
487.953	102.88
488.171	96.88
488.389	100.88
488.607	96.88
488.825	88.88
489.043	106.88
489.261	88.88
489.479	121.88
489.696	87.88
489.914	72.88
490.132	93.88
490.35	87.88
490.568	89.88
490.786	82.88
491.003	98.88
491.221	89.88
491.439	101.88
491.657	106.88
491.874	95.88
492.092	83.88
492.31	95.88
492.527	86.88
492.745	97.88
492.963	94.88
493.18	94.88
493.398	102.88
493.615	96.88
493.833	100.88
494.05	101.88
494.268	85.88
494.485	105.88
494.703	93.88
494.92	93.88
495.138	91.88
495.355	95.88
495.573	98.88
495.79	98.88
496.008	93.88
496.225	87.88
496.442	86.88
496.66	94.88
496.877	99.88
497.094	96.88
497.312	89.88
497.529	107.88
497.746	103.88
497.963	83.88
498.181	102.88
498.398	90.88
498.615	116.88
498.832	110.88
499.049	95.88
499.267	97.88
499.484	83.88
499.701	107.88
499.918	82.88
500.135	89.88
500.352	92.88
500.569	96.88
500.786	82.88
501.003	90.88
501.22	102.88
501.437	111.88
501.654	98.88
501.871	125.88
502.088	123.88
502.305	83.88
502.522	92.88
502.739	90.88
502.956	103.88
503.172	97.88
503.389	97.88
503.606	119.88
503.823	104.88
504.04	82.88
504.256	108.88
504.473	91.88
504.69	101.88
504.907	104.88
505.123	90.88
505.34	98.88
505.557	97.88
505.773	97.88
505.99	94.88
506.207	98.88
506.423	93.88
506.64	97.88
506.856	99.88
507.073	110.88
507.289	90.88
507.506	99.88
507.722	133.88
507.939	135.88
508.155	116.88
508.372	97.88
508.588	97.88
508.805	103.88
509.021	98.88
509.238	106.88
509.454	102.88
509.67	103.88
509.887	123.88
510.103	151.88
510.319	246.88
510.536	919.88
510.752	3115.88
510.968	820.88
511.184	189.88
511.401	125.88
511.617	98.88
511.833	101.88
512.049	95.88
512.265	101.88
512.481	106.88
512.698	98.88
512.914	91.88
