Data from Uncirc_1991_H10_HRD10591_00084.txt Node
Date: Wed Jan 03 11:50:55 EST 2024
User: Yrep
Spectrometer: HR+D1059
Trigger mode: 1
Integration Time (sec): 1.000000E-1
Scans to average: 1
Electric dark correction enabled: true
Nonlinearity correction enabled: false
Boxcar width: 0
XAxis mode: Wavelengths
Number of Pixels in Spectrum: 2048
>>>>>Begin Spectral Data<<<<<
223.165	-11.44
223.4	-11.44
223.635	-11.44
223.869	-4.44
224.104	-1.44
224.338	-26.44
224.573	-12.44
224.808	-13.44
225.042	-7.44
225.277	-12.44
225.511	-6.44
225.746	-2.44
225.98	3.56
226.215	6.56
226.449	16.56
226.683	21.56
226.918	22.56
227.152	27.56
227.387	32.56
227.621	36.56
227.856	38.56
228.09	45.56
228.324	47.56
228.559	54.56
228.793	52.56
229.027	61.56
229.262	70.56
229.496	84.56
229.73	96.56
229.964	98.56
230.199	67.56
230.433	65.56
230.667	73.56
230.901	83.56
231.136	62.56
231.37	76.56
231.604	79.56
231.838	80.56
232.072	82.56
232.306	83.56
232.541	67.56
232.775	84.56
233.009	85.56
233.243	74.56
233.477	88.56
233.711	72.56
233.945	81.56
234.179	74.56
234.413	81.56
234.647	72.56
234.881	80.56
235.115	92.56
235.349	80.56
235.583	76.56
235.817	83.56
236.051	81.56
236.285	80.56
236.519	70.56
236.753	78.56
236.987	81.56
237.221	85.56
237.455	86.56
237.689	91.56
237.922	75.56
238.156	66.56
238.39	76.56
238.624	73.56
238.858	80.56
239.091	74.56
239.325	76.56
239.559	82.56
239.793	96.56
240.027	88.56
240.26	83.56
240.494	65.56
240.728	68.56
240.961	72.56
241.195	92.56
241.429	83.56
241.662	78.56
241.896	70.56
242.13	82.56
242.363	76.56
242.597	69.56
242.83	70.56
243.064	62.56
243.298	86.56
243.531	89.56
243.765	80.56
243.998	88.56
244.232	79.56
244.465	82.56
244.699	82.56
244.932	73.56
245.166	69.56
245.399	82.56
245.633	65.56
245.866	63.56
246.099	66.56
246.333	78.56
246.566	70.56
246.8	76.56
247.033	71.56
247.266	76.56
247.5	61.56
247.733	79.56
247.966	69.56
248.2	82.56
248.433	68.56
248.666	76.56
248.899	75.56
249.133	89.56
249.366	98.56
249.599	102.56
249.832	77.56
250.066	72.56
250.299	65.56
250.532	90.56
250.765	78.56
250.998	77.56
251.231	85.56
251.465	91.56
251.698	81.56
251.931	66.56
252.164	98.56
252.397	81.56
252.63	82.56
252.863	83.56
253.096	69.56
253.329	94.56
253.562	73.56
253.795	81.56
254.028	87.56
254.261	91.56
254.494	82.56
254.727	82.56
254.96	85.56
255.193	85.56
255.426	70.56
255.659	69.56
255.892	94.56
256.124	76.56
256.357	66.56
256.59	76.56
256.823	86.56
257.056	65.56
257.289	85.56
257.521	77.56
257.754	79.56
257.987	88.56
258.22	74.56
258.452	69.56
258.685	73.56
258.918	76.56
259.151	83.56
259.383	74.56
259.616	81.56
259.849	72.56
260.081	70.56
260.314	90.56
260.547	93.56
260.779	82.56
261.012	76.56
261.244	86.56
261.477	89.56
261.71	97.56
261.942	123.56
262.175	124.56
262.407	88.56
262.64	77.56
262.872	85.56
263.105	82.56
263.337	80.56
263.57	70.56
263.802	80.56
264.035	88.56
264.267	72.56
264.499	92.56
264.732	85.56
264.964	98.56
265.197	88.56
265.429	84.56
265.661	75.56
265.894	86.56
266.126	73.56
266.358	94.56
266.591	84.56
266.823	93.56
267.055	74.56
267.287	78.56
267.52	99.56
267.752	75.56
267.984	84.56
268.216	76.56
268.448	70.56
268.681	84.56
268.913	103.56
269.145	82.56
269.377	77.56
269.609	85.56
269.841	79.56
270.073	90.56
270.306	83.56
270.538	96.56
270.77	73.56
271.002	90.56
271.234	82.56
271.466	79.56
271.698	77.56
271.93	81.56
272.162	78.56
272.394	91.56
272.626	92.56
272.858	76.56
273.09	87.56
273.322	68.56
273.553	75.56
273.785	88.56
274.017	90.56
274.249	77.56
274.481	82.56
274.713	85.56
274.945	76.56
275.176	78.56
275.408	94.56
275.64	85.56
275.872	89.56
276.104	99.56
276.335	90.56
276.567	117.56
276.799	117.56
277.031	113.56
277.262	97.56
277.494	99.56
277.726	65.56
277.957	79.56
278.189	74.56
278.421	83.56
278.652	72.56
278.884	86.56
279.115	83.56
279.347	80.56
279.579	76.56
279.81	80.56
280.042	90.56
280.273	84.56
280.505	89.56
280.736	96.56
280.968	79.56
281.199	81.56
281.431	101.56
281.662	74.56
281.894	90.56
282.125	91.56
282.356	134.56
282.588	156.56
282.819	141.56
283.051	100.56
283.282	82.56
283.513	84.56
283.745	80.56
283.976	92.56
284.207	81.56
284.439	83.56
284.67	83.56
284.901	93.56
285.132	89.56
285.364	75.56
285.595	77.56
285.826	66.56
286.057	91.56
286.288	94.56
286.52	84.56
286.751	91.56
286.982	100.56
287.213	95.56
287.444	85.56
287.675	105.56
287.906	94.56
288.138	92.56
288.369	89.56
288.6	94.56
288.831	73.56
289.062	87.56
289.293	95.56
289.524	88.56
289.755	90.56
289.986	92.56
290.217	81.56
290.448	86.56
290.679	96.56
290.91	88.56
291.141	83.56
291.371	88.56
291.602	100.56
291.833	87.56
292.064	77.56
292.295	88.56
292.526	91.56
292.757	84.56
292.987	98.56
293.218	95.56
293.449	84.56
293.68	86.56
293.91	83.56
294.141	89.56
294.372	105.56
294.603	89.56
294.833	102.56
295.064	89.56
295.295	96.56
295.525	98.56
295.756	84.56
295.987	116.56
296.217	151.56
296.448	136.56
296.679	96.56
296.909	92.56
297.14	80.56
297.37	91.56
297.601	93.56
297.831	82.56
298.062	90.56
298.292	85.56
298.523	104.56
298.753	90.56
298.984	88.56
299.214	85.56
299.445	84.56
299.675	88.56
299.905	103.56
300.136	91.56
300.366	93.56
300.597	78.56
300.827	80.56
301.057	110.56
301.288	108.56
301.518	99.56
301.748	85.56
301.979	102.56
302.209	91.56
302.439	88.56
302.669	100.56
302.9	76.56
303.13	85.56
303.36	90.56
303.59	112.56
303.82	113.56
304.051	102.56
304.281	102.56
304.511	97.56
304.741	88.56
304.971	88.56
305.201	91.56
305.431	104.56
305.661	93.56
305.891	89.56
306.121	100.56
306.352	106.56
306.582	99.56
306.812	84.56
307.042	75.56
307.272	90.56
307.502	99.56
307.731	101.56
307.961	82.56
308.191	89.56
308.421	81.56
308.651	96.56
308.881	106.56
309.111	109.56
309.341	108.56
309.571	102.56
309.8	90.56
310.03	92.56
310.26	101.56
310.49	96.56
310.72	101.56
310.949	104.56
311.179	122.56
311.409	105.56
311.639	88.56
311.868	100.56
312.098	100.56
312.328	86.56
312.557	112.56
312.787	112.56
313.017	107.56
313.246	99.56
313.476	101.56
313.706	100.56
313.935	92.56
314.165	112.56
314.394	103.56
314.624	104.56
314.853	102.56
315.083	90.56
315.312	93.56
315.542	85.56
315.771	91.56
316.001	89.56
316.23	95.56
316.46	98.56
316.689	82.56
316.919	89.56
317.148	100.56
317.377	98.56
317.607	97.56
317.836	98.56
318.065	94.56
318.295	85.56
318.524	94.56
318.753	93.56
318.983	104.56
319.212	113.56
319.441	110.56
319.67	108.56
319.9	96.56
320.129	101.56
320.358	77.56
320.587	91.56
320.816	97.56
321.046	98.56
321.275	88.56
321.504	108.56
321.733	113.56
321.962	101.56
322.191	104.56
322.42	125.56
322.649	116.56
322.878	110.56
323.108	121.56
323.337	136.56
323.566	157.56
323.795	173.56
324.024	235.56
324.253	457.56
324.482	989.56
324.71	2062.56
324.939	2822.56
325.168	1006.56
325.397	302.56
325.626	183.56
325.855	132.56
326.084	130.56
326.313	149.56
326.542	187.56
326.77	261.56
326.999	497.56
327.228	1094.56
327.457	2058.56
327.686	1619.56
327.914	438.56
328.143	233.56
328.372	173.56
328.6	139.56
328.829	123.56
329.058	142.56
329.287	164.56
329.515	127.56
329.744	106.56
329.972	106.56
330.201	99.56
330.43	113.56
330.658	146.56
330.887	176.56
331.115	155.56
331.344	99.56
331.572	107.56
331.801	106.56
332.03	108.56
332.258	83.56
332.486	80.56
332.715	99.56
332.943	100.56
333.172	99.56
333.4	100.56
333.629	117.56
333.857	109.56
334.085	113.56
334.314	90.56
334.542	100.56
334.771	96.56
334.999	93.56
335.227	92.56
335.455	103.56
335.684	92.56
335.912	92.56
336.14	107.56
336.369	105.56
336.597	99.56
336.825	114.56
337.053	90.56
337.281	87.56
337.51	92.56
337.738	100.56
337.966	99.56
338.194	109.56
338.422	101.56
338.65	101.56
338.878	110.56
339.106	94.56
339.334	85.56
339.562	86.56
339.79	105.56
340.018	89.56
340.246	95.56
340.474	103.56
340.702	102.56
340.93	93.56
341.158	92.56
341.386	97.56
341.614	109.56
341.842	104.56
342.07	97.56
342.298	87.56
342.526	94.56
342.754	96.56
342.981	83.56
343.209	93.56
343.437	104.56
343.665	96.56
343.893	106.56
344.12	98.56
344.348	98.56
344.576	88.56
344.804	84.56
345.031	102.56
345.259	121.56
345.487	115.56
345.714	120.56
345.942	89.56
346.17	82.56
346.397	108.56
346.625	97.56
346.853	102.56
347.08	89.56
347.308	102.56
347.535	78.56
347.763	110.56
347.99	102.56
348.218	109.56
348.445	111.56
348.673	109.56
348.9	106.56
349.128	96.56
349.355	92.56
349.583	97.56
349.81	90.56
350.037	92.56
350.265	98.56
350.492	100.56
350.72	99.56
350.947	118.56
351.174	106.56
351.402	114.56
351.629	110.56
351.856	113.56
352.083	110.56
352.311	109.56
352.538	113.56
352.765	114.56
352.992	111.56
353.22	114.56
353.447	121.56
353.674	95.56
353.901	90.56
354.128	109.56
354.355	106.56
354.583	113.56
354.81	93.56
355.037	90.56
355.264	86.56
355.491	93.56
355.718	75.56
355.945	96.56
356.172	95.56
356.399	96.56
356.626	94.56
356.853	108.56
357.08	89.56
357.307	90.56
357.534	87.56
357.761	93.56
357.988	101.56
358.215	97.56
358.441	88.56
358.668	86.56
358.895	96.56
359.122	88.56
359.349	106.56
359.576	86.56
359.802	115.56
360.029	127.56
360.256	117.56
360.483	104.56
360.709	93.56
360.936	83.56
361.163	101.56
361.39	100.56
361.616	106.56
361.843	89.56
362.07	101.56
362.296	107.56
362.523	95.56
362.749	100.56
362.976	96.56
363.203	96.56
363.429	101.56
363.656	94.56
363.882	93.56
364.109	89.56
364.335	76.56
364.562	83.56
364.788	96.56
365.015	94.56
365.241	101.56
365.468	108.56
365.694	113.56
365.92	102.56
366.147	93.56
366.373	94.56
366.599	97.56
366.826	98.56
367.052	88.56
367.278	106.56
367.505	93.56
367.731	94.56
367.957	99.56
368.184	79.56
368.41	102.56
368.636	114.56
368.862	136.56
369.089	110.56
369.315	101.56
369.541	93.56
369.767	91.56
369.993	106.56
370.219	92.56
370.445	85.56
370.672	81.56
370.898	86.56
371.124	88.56
371.35	91.56
371.576	78.56
371.802	88.56
372.028	84.56
372.254	96.56
372.48	78.56
372.706	97.56
372.932	96.56
373.158	88.56
373.384	99.56
373.61	97.56
373.835	90.56
374.061	93.56
374.287	96.56
374.513	90.56
374.739	98.56
374.965	85.56
375.191	103.56
375.416	96.56
375.642	86.56
375.868	111.56
376.094	89.56
376.319	89.56
376.545	82.56
376.771	94.56
376.997	81.56
377.222	91.56
377.448	96.56
377.674	62.56
377.899	85.56
378.125	96.56
378.35	90.56
378.576	89.56
378.802	87.56
379.027	76.56
379.253	92.56
379.478	97.56
379.704	92.56
379.929	101.56
380.155	87.56
380.38	88.56
380.606	86.56
380.831	98.56
381.057	87.56
381.282	97.56
381.507	99.56
381.733	92.56
381.958	94.56
382.184	102.56
382.409	91.56
382.634	95.56
382.86	106.56
383.085	96.56
383.31	87.56
383.535	101.56
383.761	105.56
383.986	97.56
384.211	94.56
384.436	94.56
384.662	86.56
384.887	103.56
385.112	100.56
385.337	115.56
385.562	81.56
385.787	80.56
386.013	106.56
386.238	115.56
386.463	98.56
386.688	103.56
386.913	90.56
387.138	105.56
387.363	109.56
387.588	90.56
387.813	96.56
388.038	101.56
388.263	95.56
388.488	109.56
388.713	92.56
388.938	95.56
389.163	102.56
389.387	109.56
389.612	108.56
389.837	90.56
390.062	84.56
390.287	96.56
390.512	93.56
390.736	91.56
390.961	113.56
391.186	80.56
391.411	101.56
391.636	98.56
391.86	94.56
392.085	94.56
392.31	106.56
392.534	74.56
392.759	83.56
392.984	78.56
393.208	99.56
393.433	87.56
393.658	97.56
393.882	85.56
394.107	76.56
394.331	83.56
394.556	93.56
394.78	94.56
395.005	88.56
395.229	74.56
395.454	82.56
395.678	88.56
395.903	86.56
396.127	78.56
396.352	97.56
396.576	91.56
396.801	92.56
397.025	85.56
397.249	92.56
397.474	89.56
397.698	83.56
397.922	90.56
398.147	91.56
398.371	86.56
398.595	83.56
398.82	85.56
399.044	89.56
399.268	100.56
399.492	91.56
399.717	83.56
399.941	91.56
400.165	100.56
400.389	94.56
400.613	97.56
400.837	79.56
401.062	83.56
401.286	80.56
401.51	99.56
401.734	88.56
401.958	102.56
402.182	115.56
402.406	176.56
402.63	140.56
402.854	86.56
403.078	97.56
403.302	76.56
403.526	88.56
403.75	83.56
403.974	82.56
404.198	98.56
404.422	87.56
404.645	95.56
404.869	108.56
405.093	94.56
405.317	103.56
405.541	112.56
405.765	96.56
405.988	129.56
406.212	214.56
406.436	291.56
406.66	171.56
406.883	121.56
407.107	93.56
407.331	99.56
407.555	106.56
407.778	96.56
408.002	112.56
408.226	89.56
408.449	91.56
408.673	89.56
408.896	109.56
409.12	96.56
409.344	97.56
409.567	78.56
409.791	83.56
410.014	101.56
410.238	86.56
410.461	88.56
410.685	91.56
410.908	98.56
411.132	111.56
411.355	108.56
411.578	93.56
411.802	81.56
412.025	87.56
412.249	90.56
412.472	80.56
412.695	102.56
412.919	91.56
413.142	88.56
413.365	86.56
413.589	86.56
413.812	83.56
414.035	85.56
414.258	83.56
414.482	98.56
414.705	87.56
414.928	90.56
415.151	94.56
415.374	93.56
415.597	88.56
415.821	93.56
416.044	82.56
416.267	90.56
416.49	94.56
416.713	88.56
416.936	82.56
417.159	83.56
417.382	81.56
417.605	80.56
417.828	102.56
418.051	91.56
418.274	90.56
418.497	83.56
418.72	77.56
418.943	90.56
419.166	82.56
419.389	88.56
419.611	82.56
419.834	93.56
420.057	64.56
420.28	72.56
420.503	94.56
420.726	86.56
420.948	65.56
421.171	100.56
421.394	79.56
421.617	81.56
421.839	87.56
422.062	89.56
422.285	86.56
422.507	106.56
422.73	104.56
422.953	91.56
423.175	96.56
423.398	90.56
423.621	96.56
423.843	87.56
424.066	70.56
424.288	83.56
424.511	89.56
424.733	99.56
424.956	126.56
425.178	101.56
425.401	93.56
425.623	108.56
425.846	100.56
426.068	100.56
426.291	79.56
426.513	95.56
426.735	90.56
426.958	96.56
427.18	112.56
427.402	177.56
427.625	220.56
427.847	160.56
428.069	104.56
428.292	93.56
428.514	96.56
428.736	78.56
428.958	90.56
429.181	84.56
429.403	80.56
429.625	79.56
429.847	93.56
430.069	102.56
430.292	108.56
430.514	82.56
430.736	92.56
430.958	110.56
431.18	87.56
431.402	85.56
431.624	93.56
431.846	88.56
432.068	74.56
432.29	66.56
432.512	97.56
432.734	81.56
432.956	82.56
433.178	89.56
433.4	104.56
433.622	94.56
433.844	110.56
434.066	95.56
434.287	90.56
434.509	77.56
434.731	86.56
434.953	82.56
435.175	101.56
435.397	94.56
435.618	97.56
435.84	111.56
436.062	143.56
436.284	132.56
436.505	100.56
436.727	101.56
436.949	83.56
437.17	84.56
437.392	100.56
437.614	97.56
437.835	113.56
438.057	133.56
438.278	140.56
438.5	122.56
438.721	144.56
438.943	100.56
439.165	94.56
439.386	92.56
439.608	102.56
439.829	109.56
440.05	139.56
440.272	164.56
440.493	109.56
440.715	90.56
440.936	88.56
441.158	83.56
441.379	81.56
441.6	100.56
441.822	94.56
442.043	115.56
442.264	140.56
442.486	109.56
442.707	88.56
442.928	101.56
443.149	146.56
443.371	153.56
443.592	118.56
443.813	138.56
444.034	135.56
444.255	97.56
444.476	84.56
444.698	80.56
444.919	94.56
445.14	139.56
445.361	135.56
445.582	139.56
445.803	200.56
446.024	172.56
446.245	172.56
446.466	127.56
446.687	84.56
446.908	89.56
447.129	91.56
447.35	86.56
447.571	105.56
447.792	108.56
448.013	104.56
448.234	122.56
448.455	100.56
448.675	118.56
448.896	133.56
449.117	115.56
449.338	123.56
449.559	163.56
449.779	160.56
450	105.56
450.221	93.56
450.442	85.56
450.662	109.56
450.883	120.56
451.104	133.56
451.324	109.56
451.545	90.56
451.766	92.56
451.986	98.56
452.207	81.56
452.428	96.56
452.648	113.56
452.869	124.56
453.089	116.56
453.31	132.56
453.53	92.56
453.751	101.56
453.971	105.56
454.192	128.56
454.412	108.56
454.633	91.56
454.853	90.56
455.073	89.56
455.294	96.56
455.514	112.56
455.734	102.56
455.955	89.56
456.175	87.56
456.395	64.56
456.616	98.56
456.836	91.56
457.056	78.56
457.276	101.56
457.497	78.56
457.717	80.56
457.937	98.56
458.157	85.56
458.377	94.56
458.598	118.56
458.818	169.56
459.038	214.56
459.258	128.56
459.478	109.56
459.698	86.56
459.918	97.56
460.138	73.56
460.358	83.56
460.578	89.56
460.798	106.56
461.018	91.56
461.238	84.56
461.458	85.56
461.678	93.56
461.898	77.56
462.118	79.56
462.338	83.56
462.558	91.56
462.777	85.56
462.997	79.56
463.217	98.56
463.437	93.56
463.657	78.56
463.876	83.56
464.096	82.56
464.316	87.56
464.536	87.56
464.755	108.56
464.975	115.56
465.195	212.56
465.414	220.56
465.634	103.56
465.854	96.56
466.073	84.56
466.293	87.56
466.512	89.56
466.732	93.56
466.951	92.56
467.171	92.56
467.391	103.56
467.61	125.56
467.829	113.56
468.049	73.56
468.268	99.56
468.488	86.56
468.707	93.56
468.927	85.56
469.146	86.56
469.365	81.56
469.585	84.56
469.804	104.56
470.023	90.56
470.243	99.56
470.462	101.56
470.681	131.56
470.901	107.56
471.12	88.56
471.339	86.56
471.558	95.56
471.777	76.56
471.997	65.56
472.216	101.56
472.435	99.56
472.654	84.56
472.873	84.56
473.092	77.56
473.311	72.56
473.53	89.56
473.749	75.56
473.968	100.56
474.187	114.56
474.406	104.56
474.625	96.56
474.844	80.56
475.063	90.56
475.282	83.56
475.501	72.56
475.72	82.56
475.939	109.56
476.158	90.56
476.377	76.56
476.596	89.56
476.814	90.56
477.033	99.56
477.252	83.56
477.471	78.56
477.69	88.56
477.908	83.56
478.127	87.56
478.346	82.56
478.564	80.56
478.783	94.56
479.002	105.56
479.22	85.56
479.439	102.56
479.658	107.56
479.876	100.56
480.095	99.56
480.313	102.56
480.532	81.56
480.751	90.56
480.969	85.56
481.188	91.56
481.406	102.56
481.624	93.56
481.843	85.56
482.061	88.56
482.28	80.56
482.498	92.56
482.717	91.56
482.935	71.56
483.153	88.56
483.372	82.56
483.59	88.56
483.808	85.56
484.027	81.56
484.245	93.56
484.463	90.56
484.681	99.56
484.9	93.56
485.118	82.56
485.336	94.56
485.554	98.56
485.772	96.56
485.99	99.56
486.209	98.56
486.427	111.56
486.645	113.56
486.863	119.56
487.081	84.56
487.299	90.56
487.517	94.56
487.735	97.56
487.953	91.56
488.171	94.56
488.389	83.56
488.607	87.56
488.825	79.56
489.043	88.56
489.261	98.56
489.479	83.56
489.696	94.56
489.914	84.56
490.132	78.56
490.35	94.56
490.568	89.56
490.786	89.56
491.003	64.56
491.221	84.56
491.439	93.56
491.657	96.56
491.874	93.56
492.092	86.56
492.31	85.56
492.527	93.56
492.745	87.56
492.963	78.56
493.18	90.56
493.398	93.56
493.615	87.56
493.833	95.56
494.05	96.56
494.268	85.56
494.485	86.56
494.703	86.56
494.92	75.56
495.138	84.56
495.355	91.56
495.573	91.56
495.79	94.56
496.008	91.56
496.225	77.56
496.442	85.56
496.66	85.56
496.877	91.56
497.094	93.56
497.312	103.56
497.529	102.56
497.746	97.56
497.963	96.56
498.181	97.56
498.398	97.56
498.615	118.56
498.832	92.56
499.049	86.56
499.267	83.56
499.484	95.56
499.701	93.56
499.918	93.56
500.135	98.56
500.352	98.56
500.569	95.56
500.786	69.56
501.003	95.56
501.22	99.56
501.437	80.56
501.654	109.56
501.871	109.56
502.088	94.56
502.305	76.56
502.522	96.56
502.739	85.56
502.956	92.56
503.172	78.56
503.389	107.56
503.606	111.56
503.823	107.56
504.04	99.56
504.256	96.56
504.473	93.56
504.69	89.56
504.907	95.56
505.123	84.56
505.34	80.56
505.557	93.56
505.773	98.56
505.99	92.56
506.207	87.56
506.423	85.56
506.64	97.56
506.856	86.56
507.073	83.56
507.289	90.56
507.506	95.56
507.722	113.56
507.939	126.56
508.155	101.56
508.372	107.56
508.588	108.56
508.805	97.56
509.021	99.56
509.238	116.56
509.454	96.56
509.67	102.56
509.887	112.56
510.103	133.56
510.319	218.56
510.536	885.56
510.752	2969.56
510.968	780.56
511.184	158.56
511.401	123.56
511.617	106.56
511.833	94.56
512.049	88.56
512.265	88.56
512.481	92.56
512.698	99.56
512.914	113.56
513.13	92.56
513.346	76.56
513.562	98.56
513.778	97.56
513.994	108.56
514.21	108.56
514.426	142.56
514.642	163.56
514.858	137.56
