Data from Uncirc_1991_H10_HRD10591_00082.txt Node
Date: Wed Jan 03 11:50:54 EST 2024
User: Yrep
Spectrometer: HR+D1059
Trigger mode: 1
Integration Time (sec): 1.000000E-1
Scans to average: 1
Electric dark correction enabled: true
Nonlinearity correction enabled: false
Boxcar width: 0
XAxis mode: Wavelengths
Number of Pixels in Spectrum: 2048
>>>>>Begin Spectral Data<<<<<
223.165	-12.25
223.4	-12.25
223.635	-12.25
223.869	-14.25
224.104	-20.25
224.338	-30.25
224.573	-13.25
224.808	-19.25
225.042	-5.25
225.277	-4.25
225.511	0.75
225.746	4.75
225.98	13.75
226.215	13.75
226.449	12.75
226.683	13.75
226.918	18.75
227.152	40.75
227.387	28.75
227.621	41.75
227.856	49.75
228.09	51.75
228.324	44.75
228.559	57.75
228.793	60.75
229.027	74.75
229.262	89.75
229.496	83.75
229.73	89.75
229.964	76.75
230.199	74.75
230.433	63.75
230.667	72.75
230.901	68.75
231.136	66.75
231.37	73.75
231.604	76.75
231.838	77.75
232.072	85.75
232.306	83.75
232.541	70.75
232.775	83.75
233.009	95.75
233.243	65.75
233.477	73.75
233.711	82.75
233.945	84.75
234.179	76.75
234.413	87.75
234.647	84.75
234.881	72.75
235.115	78.75
235.349	80.75
235.583	91.75
235.817	90.75
236.051	68.75
236.285	82.75
236.519	80.75
236.753	85.75
236.987	81.75
237.221	67.75
237.455	98.75
237.689	76.75
237.922	94.75
238.156	86.75
238.39	77.75
238.624	70.75
238.858	82.75
239.091	73.75
239.325	80.75
239.559	80.75
239.793	76.75
240.027	86.75
240.26	76.75
240.494	73.75
240.728	74.75
240.961	60.75
241.195	79.75
241.429	67.75
241.662	76.75
241.896	74.75
242.13	67.75
242.363	80.75
242.597	80.75
242.83	84.75
243.064	74.75
243.298	78.75
243.531	66.75
243.765	79.75
243.998	72.75
244.232	89.75
244.465	89.75
244.699	81.75
244.932	73.75
245.166	85.75
245.399	83.75
245.633	64.75
245.866	71.75
246.099	74.75
246.333	74.75
246.566	81.75
246.8	73.75
247.033	79.75
247.266	72.75
247.5	93.75
247.733	75.75
247.966	78.75
248.2	90.75
248.433	79.75
248.666	72.75
248.899	84.75
249.133	78.75
249.366	85.75
249.599	104.75
249.832	86.75
250.066	80.75
250.299	86.75
250.532	79.75
250.765	80.75
250.998	82.75
251.231	89.75
251.465	91.75
251.698	66.75
251.931	65.75
252.164	78.75
252.397	81.75
252.63	82.75
252.863	66.75
253.096	85.75
253.329	65.75
253.562	84.75
253.795	81.75
254.028	85.75
254.261	68.75
254.494	86.75
254.727	72.75
254.96	77.75
255.193	76.75
255.426	66.75
255.659	64.75
255.892	78.75
256.124	89.75
256.357	93.75
256.59	75.75
256.823	75.75
257.056	87.75
257.289	90.75
257.521	80.75
257.754	85.75
257.987	95.75
258.22	91.75
258.452	72.75
258.685	79.75
258.918	67.75
259.151	67.75
259.383	78.75
259.616	70.75
259.849	72.75
260.081	97.75
260.314	83.75
260.547	76.75
260.779	69.75
261.012	84.75
261.244	76.75
261.477	81.75
261.71	87.75
261.942	108.75
262.175	113.75
262.407	80.75
262.64	77.75
262.872	86.75
263.105	102.75
263.337	91.75
263.57	90.75
263.802	82.75
264.035	92.75
264.267	86.75
264.499	89.75
264.732	82.75
264.964	93.75
265.197	80.75
265.429	82.75
265.661	67.75
265.894	75.75
266.126	78.75
266.358	73.75
266.591	70.75
266.823	94.75
267.055	73.75
267.287	82.75
267.52	93.75
267.752	84.75
267.984	78.75
268.216	89.75
268.448	73.75
268.681	84.75
268.913	79.75
269.145	84.75
269.377	81.75
269.609	85.75
269.841	92.75
270.073	93.75
270.306	92.75
270.538	86.75
270.77	84.75
271.002	69.75
271.234	82.75
271.466	88.75
271.698	81.75
271.93	92.75
272.162	85.75
272.394	74.75
272.626	74.75
272.858	93.75
273.09	76.75
273.322	89.75
273.553	93.75
273.785	88.75
274.017	84.75
274.249	72.75
274.481	89.75
274.713	91.75
274.945	81.75
275.176	80.75
275.408	76.75
275.64	96.75
275.872	89.75
276.104	72.75
276.335	78.75
276.567	102.75
276.799	107.75
277.031	94.75
277.262	84.75
277.494	90.75
277.726	93.75
277.957	94.75
278.189	83.75
278.421	88.75
278.652	89.75
278.884	74.75
279.115	68.75
279.347	85.75
279.579	99.75
279.81	93.75
280.042	77.75
280.273	85.75
280.505	88.75
280.736	96.75
280.968	84.75
281.199	69.75
281.431	84.75
281.662	81.75
281.894	103.75
282.125	99.75
282.356	120.75
282.588	137.75
282.819	104.75
283.051	84.75
283.282	77.75
283.513	81.75
283.745	90.75
283.976	96.75
284.207	82.75
284.439	80.75
284.67	85.75
284.901	86.75
285.132	79.75
285.364	75.75
285.595	93.75
285.826	87.75
286.057	86.75
286.288	89.75
286.52	73.75
286.751	83.75
286.982	85.75
287.213	74.75
287.444	78.75
287.675	89.75
287.906	97.75
288.138	84.75
288.369	82.75
288.6	83.75
288.831	89.75
289.062	99.75
289.293	81.75
289.524	80.75
289.755	88.75
289.986	89.75
290.217	87.75
290.448	86.75
290.679	64.75
290.91	83.75
291.141	69.75
291.371	87.75
291.602	90.75
291.833	89.75
292.064	78.75
292.295	78.75
292.526	85.75
292.757	80.75
292.987	88.75
293.218	83.75
293.449	85.75
293.68	81.75
293.91	90.75
294.141	82.75
294.372	86.75
294.603	77.75
294.833	76.75
295.064	87.75
295.295	80.75
295.525	89.75
295.756	99.75
295.987	106.75
296.217	130.75
296.448	110.75
296.679	94.75
296.909	81.75
297.14	74.75
297.37	82.75
297.601	75.75
297.831	75.75
298.062	76.75
298.292	75.75
298.523	81.75
298.753	94.75
298.984	74.75
299.214	95.75
299.445	83.75
299.675	100.75
299.905	76.75
300.136	89.75
300.366	96.75
300.597	84.75
300.827	85.75
301.057	94.75
301.288	90.75
301.518	94.75
301.748	80.75
301.979	99.75
302.209	78.75
302.439	80.75
302.669	92.75
302.9	91.75
303.13	86.75
303.36	98.75
303.59	101.75
303.82	103.75
304.051	91.75
304.281	91.75
304.511	94.75
304.741	95.75
304.971	78.75
305.201	92.75
305.431	82.75
305.661	93.75
305.891	94.75
306.121	96.75
306.352	97.75
306.582	103.75
306.812	88.75
307.042	77.75
307.272	86.75
307.502	89.75
307.731	72.75
307.961	106.75
308.191	96.75
308.421	84.75
308.651	90.75
308.881	88.75
309.111	90.75
309.341	104.75
309.571	90.75
309.8	79.75
310.03	104.75
310.26	94.75
310.49	99.75
310.72	95.75
310.949	107.75
311.179	93.75
311.409	91.75
311.639	82.75
311.868	97.75
312.098	103.75
312.328	97.75
312.557	98.75
312.787	109.75
313.017	100.75
313.246	82.75
313.476	84.75
313.706	89.75
313.935	80.75
314.165	113.75
314.394	99.75
314.624	99.75
314.853	89.75
315.083	74.75
315.312	86.75
315.542	100.75
315.771	89.75
316.001	92.75
316.23	75.75
316.46	88.75
316.689	81.75
316.919	82.75
317.148	104.75
317.377	88.75
317.607	82.75
317.836	82.75
318.065	101.75
318.295	100.75
318.524	85.75
318.753	104.75
318.983	88.75
319.212	102.75
319.441	95.75
319.67	110.75
319.9	92.75
320.129	99.75
320.358	96.75
320.587	95.75
320.816	90.75
321.046	99.75
321.275	98.75
321.504	98.75
321.733	86.75
321.962	97.75
322.191	105.75
322.42	103.75
322.649	106.75
322.878	102.75
323.108	119.75
323.337	117.75
323.566	117.75
323.795	154.75
324.024	228.75
324.253	404.75
324.482	875.75
324.71	1839.75
324.939	2531.75
325.168	898.75
325.397	252.75
325.626	152.75
325.855	129.75
326.084	127.75
326.313	139.75
326.542	158.75
326.77	239.75
326.999	459.75
327.228	1027.75
327.457	1885.75
327.686	1546.75
327.914	404.75
328.143	200.75
328.372	133.75
328.6	115.75
328.829	124.75
329.058	113.75
329.287	102.75
329.515	123.75
329.744	104.75
329.972	107.75
330.201	98.75
330.43	108.75
330.658	115.75
330.887	141.75
331.115	122.75
331.344	69.75
331.572	94.75
331.801	99.75
332.03	98.75
332.258	108.75
332.486	84.75
332.715	79.75
332.943	84.75
333.172	90.75
333.4	94.75
333.629	100.75
333.857	96.75
334.085	100.75
334.314	104.75
334.542	104.75
334.771	100.75
334.999	98.75
335.227	85.75
335.455	89.75
335.684	101.75
335.912	107.75
336.14	94.75
336.369	99.75
336.597	94.75
336.825	106.75
337.053	92.75
337.281	82.75
337.51	80.75
337.738	95.75
337.966	101.75
338.194	90.75
338.422	91.75
338.65	90.75
338.878	95.75
339.106	92.75
339.334	104.75
339.562	84.75
339.79	100.75
340.018	90.75
340.246	95.75
340.474	102.75
340.702	97.75
340.93	97.75
341.158	95.75
341.386	96.75
341.614	97.75
341.842	93.75
342.07	96.75
342.298	85.75
342.526	93.75
342.754	104.75
342.981	94.75
343.209	78.75
343.437	93.75
343.665	90.75
343.893	89.75
344.12	88.75
344.348	86.75
344.576	92.75
344.804	85.75
345.031	95.75
345.259	90.75
345.487	108.75
345.714	92.75
345.942	85.75
346.17	79.75
346.397	107.75
346.625	71.75
346.853	91.75
347.08	99.75
347.308	94.75
347.535	112.75
347.763	106.75
347.99	92.75
348.218	112.75
348.445	110.75
348.673	101.75
348.9	103.75
349.128	89.75
349.355	87.75
349.583	88.75
349.81	77.75
350.037	96.75
350.265	85.75
350.492	92.75
350.72	91.75
350.947	120.75
351.174	115.75
351.402	98.75
351.629	104.75
351.856	101.75
352.083	104.75
352.311	104.75
352.538	94.75
352.765	97.75
352.992	115.75
353.22	112.75
353.447	97.75
353.674	102.75
353.901	96.75
354.128	77.75
354.355	97.75
354.583	93.75
354.81	92.75
355.037	81.75
355.264	100.75
355.491	92.75
355.718	89.75
355.945	101.75
356.172	105.75
356.399	100.75
356.626	83.75
356.853	90.75
357.08	99.75
357.307	101.75
357.534	95.75
357.761	109.75
357.988	105.75
358.215	99.75
358.441	91.75
358.668	102.75
358.895	96.75
359.122	77.75
359.349	80.75
359.576	99.75
359.802	103.75
360.029	119.75
360.256	109.75
360.483	105.75
360.709	89.75
360.936	88.75
361.163	97.75
361.39	111.75
361.616	92.75
361.843	84.75
362.07	92.75
362.296	101.75
362.523	100.75
362.749	100.75
362.976	93.75
363.203	104.75
363.429	96.75
363.656	90.75
363.882	92.75
364.109	101.75
364.335	93.75
364.562	90.75
364.788	88.75
365.015	100.75
365.241	88.75
365.468	99.75
365.694	105.75
365.92	92.75
366.147	89.75
366.373	86.75
366.599	115.75
366.826	90.75
367.052	96.75
367.278	84.75
367.505	81.75
367.731	96.75
367.957	84.75
368.184	79.75
368.41	90.75
368.636	99.75
368.862	98.75
369.089	95.75
369.315	81.75
369.541	72.75
369.767	84.75
369.993	89.75
370.219	78.75
370.445	91.75
370.672	89.75
370.898	89.75
371.124	93.75
371.35	95.75
371.576	90.75
371.802	81.75
372.028	95.75
372.254	91.75
372.48	89.75
372.706	82.75
372.932	88.75
373.158	94.75
373.384	101.75
373.61	99.75
373.835	86.75
374.061	91.75
374.287	87.75
374.513	98.75
374.739	99.75
374.965	90.75
375.191	91.75
375.416	83.75
375.642	89.75
375.868	90.75
376.094	91.75
376.319	85.75
376.545	99.75
376.771	91.75
376.997	95.75
377.222	81.75
377.448	90.75
377.674	107.75
377.899	97.75
378.125	88.75
378.35	93.75
378.576	106.75
378.802	104.75
379.027	89.75
379.253	93.75
379.478	72.75
379.704	96.75
379.929	86.75
380.155	87.75
380.38	81.75
380.606	90.75
380.831	84.75
381.057	97.75
381.282	92.75
381.507	84.75
381.733	115.75
381.958	100.75
382.184	93.75
382.409	96.75
382.634	104.75
382.86	94.75
383.085	97.75
383.31	106.75
383.535	108.75
383.761	94.75
383.986	90.75
384.211	99.75
384.436	96.75
384.662	89.75
384.887	97.75
385.112	89.75
385.337	105.75
385.562	95.75
385.787	92.75
386.013	100.75
386.238	125.75
386.463	93.75
386.688	112.75
386.913	100.75
387.138	94.75
387.363	98.75
387.588	95.75
387.813	106.75
388.038	98.75
388.263	112.75
388.488	97.75
388.713	75.75
388.938	83.75
389.163	98.75
389.387	98.75
389.612	94.75
389.837	90.75
390.062	96.75
390.287	88.75
390.512	80.75
390.736	75.75
390.961	84.75
391.186	88.75
391.411	95.75
391.636	83.75
391.86	86.75
392.085	90.75
392.31	80.75
392.534	90.75
392.759	95.75
392.984	89.75
393.208	86.75
393.433	100.75
393.658	72.75
393.882	80.75
394.107	89.75
394.331	81.75
394.556	88.75
394.78	92.75
395.005	80.75
395.229	73.75
395.454	96.75
395.678	86.75
395.903	91.75
396.127	92.75
396.352	85.75
396.576	94.75
396.801	98.75
397.025	92.75
397.249	78.75
397.474	103.75
397.698	97.75
397.922	76.75
398.147	100.75
398.371	92.75
398.595	85.75
398.82	73.75
399.044	75.75
399.268	85.75
399.492	83.75
399.717	97.75
399.941	94.75
400.165	85.75
400.389	81.75
400.613	92.75
400.837	94.75
401.062	81.75
401.286	99.75
401.51	89.75
401.734	81.75
401.958	108.75
402.182	122.75
402.406	151.75
402.63	111.75
402.854	103.75
403.078	86.75
403.302	97.75
403.526	92.75
403.75	94.75
403.974	87.75
404.198	99.75
404.422	81.75
404.645	94.75
404.869	89.75
405.093	102.75
405.317	93.75
405.541	100.75
405.765	105.75
405.988	114.75
406.212	180.75
406.436	211.75
406.66	158.75
406.883	91.75
407.107	101.75
407.331	107.75
407.555	101.75
407.778	80.75
408.002	100.75
408.226	94.75
408.449	80.75
408.673	88.75
408.896	102.75
409.12	94.75
409.344	96.75
409.567	96.75
409.791	91.75
410.014	101.75
410.238	88.75
410.461	96.75
410.685	88.75
410.908	93.75
411.132	94.75
411.355	115.75
411.578	77.75
411.802	87.75
412.025	90.75
412.249	95.75
412.472	95.75
412.695	82.75
412.919	94.75
413.142	86.75
413.365	99.75
413.589	74.75
413.812	78.75
414.035	83.75
414.258	91.75
414.482	80.75
414.705	80.75
414.928	100.75
415.151	94.75
415.374	84.75
415.597	82.75
415.821	104.75
416.044	81.75
416.267	94.75
416.49	93.75
416.713	105.75
416.936	95.75
417.159	93.75
417.382	97.75
417.605	83.75
417.828	96.75
418.051	90.75
418.274	95.75
418.497	90.75
418.72	91.75
418.943	86.75
419.166	90.75
419.389	86.75
419.611	85.75
419.834	95.75
420.057	88.75
420.28	83.75
420.503	72.75
420.726	82.75
420.948	93.75
421.171	93.75
421.394	85.75
421.617	85.75
421.839	84.75
422.062	98.75
422.285	96.75
422.507	104.75
422.73	106.75
422.953	94.75
423.175	77.75
423.398	85.75
423.621	106.75
423.843	91.75
424.066	97.75
424.288	83.75
424.511	94.75
424.733	93.75
424.956	102.75
425.178	107.75
425.401	96.75
425.623	107.75
425.846	86.75
426.068	80.75
426.291	76.75
426.513	88.75
426.735	91.75
426.958	97.75
427.18	105.75
427.402	139.75
427.625	169.75
427.847	136.75
428.069	105.75
428.292	90.75
428.514	108.75
428.736	100.75
428.958	83.75
429.181	84.75
429.403	82.75
429.625	100.75
429.847	93.75
430.069	92.75
430.292	94.75
430.514	91.75
430.736	98.75
430.958	95.75
431.18	85.75
431.402	90.75
431.624	92.75
431.846	92.75
432.068	99.75
432.29	72.75
432.512	95.75
432.734	101.75
432.956	99.75
433.178	94.75
433.4	86.75
433.622	94.75
433.844	88.75
434.066	96.75
434.287	95.75
434.509	90.75
434.731	86.75
434.953	93.75
435.175	85.75
435.397	83.75
435.618	99.75
435.84	103.75
436.062	121.75
436.284	116.75
436.505	104.75
436.727	98.75
436.949	79.75
437.17	73.75
437.392	94.75
437.614	87.75
437.835	101.75
438.057	100.75
438.278	115.75
438.5	122.75
438.721	123.75
438.943	109.75
439.165	97.75
439.386	98.75
439.608	88.75
439.829	95.75
440.05	124.75
440.272	141.75
440.493	104.75
440.715	108.75
440.936	91.75
441.158	107.75
441.379	90.75
441.6	106.75
441.822	95.75
442.043	82.75
442.264	92.75
442.486	107.75
442.707	89.75
442.928	98.75
443.149	139.75
443.371	121.75
443.592	113.75
443.813	115.75
444.034	107.75
444.255	94.75
444.476	86.75
444.698	80.75
444.919	89.75
445.14	127.75
445.361	142.75
445.582	118.75
445.803	144.75
446.024	136.75
446.245	134.75
446.466	120.75
446.687	94.75
446.908	104.75
447.129	90.75
447.35	90.75
447.571	89.75
447.792	103.75
448.013	98.75
448.234	84.75
448.455	99.75
448.675	105.75
448.896	124.75
449.117	113.75
449.338	101.75
449.559	138.75
449.779	156.75
450	89.75
450.221	103.75
450.442	97.75
450.662	88.75
450.883	112.75
451.104	102.75
451.324	89.75
451.545	81.75
451.766	86.75
451.986	89.75
452.207	93.75
452.428	85.75
452.648	95.75
452.869	114.75
453.089	98.75
453.31	113.75
453.53	99.75
453.751	96.75
453.971	94.75
454.192	96.75
454.412	94.75
454.633	90.75
454.853	88.75
455.073	78.75
455.294	85.75
455.514	94.75
455.734	93.75
455.955	78.75
456.175	85.75
456.395	89.75
456.616	69.75
456.836	86.75
457.056	90.75
457.276	75.75
457.497	76.75
457.717	91.75
457.937	86.75
458.157	98.75
458.377	95.75
458.598	101.75
458.818	146.75
459.038	164.75
459.258	123.75
459.478	83.75
459.698	80.75
459.918	81.75
460.138	72.75
460.358	80.75
460.578	90.75
460.798	97.75
461.018	81.75
461.238	78.75
461.458	89.75
461.678	78.75
461.898	70.75
462.118	85.75
462.338	98.75
462.558	88.75
462.777	73.75
462.997	77.75
463.217	83.75
463.437	90.75
463.657	86.75
463.876	85.75
464.096	92.75
464.316	82.75
464.536	97.75
464.755	98.75
464.975	97.75
465.195	152.75
465.414	125.75
465.634	94.75
465.854	92.75
466.073	82.75
466.293	97.75
466.512	77.75
466.732	90.75
466.951	75.75
467.171	99.75
467.391	81.75
467.61	95.75
467.829	96.75
468.049	91.75
468.268	95.75
468.488	86.75
468.707	78.75
468.927	67.75
469.146	86.75
469.365	82.75
469.585	96.75
469.804	88.75
470.023	94.75
470.243	99.75
470.462	109.75
470.681	106.75
470.901	83.75
471.12	88.75
471.339	65.75
471.558	89.75
471.777	85.75
471.997	90.75
472.216	83.75
472.435	84.75
472.654	92.75
472.873	92.75
473.092	88.75
473.311	84.75
473.53	78.75
473.749	88.75
473.968	94.75
474.187	108.75
474.406	108.75
474.625	110.75
474.844	90.75
475.063	88.75
475.282	83.75
475.501	77.75
475.72	81.75
475.939	98.75
476.158	80.75
476.377	97.75
476.596	89.75
476.814	84.75
477.033	83.75
477.252	78.75
477.471	93.75
477.69	79.75
477.908	85.75
478.127	95.75
478.346	84.75
478.564	82.75
478.783	88.75
479.002	85.75
479.22	92.75
479.439	98.75
479.658	104.75
479.876	90.75
480.095	91.75
480.313	74.75
480.532	68.75
480.751	90.75
480.969	103.75
481.188	95.75
481.406	94.75
481.624	93.75
481.843	90.75
482.061	81.75
482.28	81.75
482.498	80.75
482.717	73.75
482.935	76.75
483.153	84.75
483.372	85.75
483.59	81.75
483.808	97.75
484.027	98.75
484.245	96.75
484.463	100.75
484.681	92.75
484.9	100.75
485.118	92.75
485.336	98.75
485.554	101.75
485.772	99.75
485.99	91.75
486.209	92.75
486.427	93.75
486.645	99.75
486.863	115.75
487.081	97.75
487.299	91.75
487.517	96.75
487.735	91.75
487.953	88.75
488.171	104.75
488.389	86.75
488.607	100.75
488.825	87.75
489.043	99.75
489.261	84.75
489.479	94.75
489.696	81.75
489.914	85.75
490.132	93.75
490.35	85.75
490.568	94.75
490.786	78.75
491.003	94.75
491.221	82.75
491.439	92.75
491.657	85.75
491.874	76.75
492.092	77.75
492.31	81.75
492.527	88.75
492.745	90.75
492.963	89.75
493.18	101.75
493.398	92.75
493.615	106.75
493.833	108.75
494.05	90.75
494.268	101.75
494.485	90.75
494.703	85.75
494.92	98.75
495.138	91.75
495.355	92.75
495.573	104.75
495.79	84.75
496.008	90.75
496.225	93.75
496.442	95.75
496.66	79.75
496.877	95.75
497.094	83.75
497.312	91.75
497.529	82.75
497.746	97.75
497.963	83.75
498.181	93.75
498.398	86.75
498.615	113.75
498.832	103.75
499.049	96.75
499.267	85.75
499.484	88.75
499.701	77.75
499.918	82.75
500.135	85.75
500.352	91.75
500.569	82.75
500.786	83.75
501.003	84.75
501.22	91.75
501.437	88.75
501.654	106.75
501.871	94.75
502.088	81.75
502.305	101.75
502.522	87.75
502.739	93.75
502.956	86.75
503.172	96.75
503.389	78.75
503.606	114.75
503.823	100.75
504.04	83.75
504.256	92.75
504.473	92.75
504.69	87.75
504.907	95.75
505.123	81.75
505.34	96.75
505.557	95.75
505.773	86.75
505.99	95.75
506.207	102.75
506.423	99.75
506.64	88.75
506.856	88.75
507.073	89.75
507.289	90.75
507.506	84.75
507.722	103.75
507.939	93.75
508.155	97.75
508.372	88.75
508.588	88.75
508.805	84.75
509.021	89.75
509.238	101.75
509.454	93.75
509.67	97.75
509.887	123.75
510.103	121.75
510.319	206.75
510.536	735.75
510.752	2236.75
510.968	605.75
511.184	142.75
511.401	112.75
511.617	92.75
511.833	95.75
512.049	87.75
512.265	83.75
512.481	93.75
512.698	77.75
512.914	86.75
513.13	96.75
513.346	91.75
513.562	96.75
513.778	97.75
513.994	95.75
514.21	101.75
514.426	115.75
514.642	130.75
514.858	115.75
515.074	163.75
515.29	465.75
515.506	1492.75
515.721	536.75
515.937	138.75
516.153	108.75
