Data from Uncirc_1991_H10_HRD10591_00074.txt Node
Date: Wed Jan 03 11:50:53 EST 2024
User: Yrep
Spectrometer: HR+D1059
Trigger mode: 1
Integration Time (sec): 1.000000E-1
Scans to average: 1
Electric dark correction enabled: true
Nonlinearity correction enabled: false
Boxcar width: 0
XAxis mode: Wavelengths
Number of Pixels in Spectrum: 2048
>>>>>Begin Spectral Data<<<<<
223.165	-22.75
223.4	-22.75
223.635	-22.75
223.869	-15.75
224.104	-27.75
224.338	-23.75
224.573	-14.75
224.808	-11.75
225.042	-19.75
225.277	-0.75
225.511	-8.75
225.746	7.25
225.98	13.25
226.215	5.25
226.449	30.25
226.683	22.25
226.918	37.25
227.152	30.25
227.387	43.25
227.621	38.25
227.856	51.25
228.09	57.25
228.324	46.25
228.559	64.25
228.793	61.25
229.027	62.25
229.262	76.25
229.496	78.25
229.73	89.25
229.964	88.25
230.199	83.25
230.433	89.25
230.667	88.25
230.901	96.25
231.136	94.25
231.37	87.25
231.604	87.25
231.838	90.25
232.072	77.25
232.306	67.25
232.541	63.25
232.775	86.25
233.009	86.25
233.243	81.25
233.477	81.25
233.711	90.25
233.945	80.25
234.179	78.25
234.413	92.25
234.647	73.25
234.881	96.25
235.115	78.25
235.349	89.25
235.583	77.25
235.817	71.25
236.051	89.25
236.285	67.25
236.519	69.25
236.753	73.25
236.987	89.25
237.221	93.25
237.455	93.25
237.689	80.25
237.922	83.25
238.156	76.25
238.39	76.25
238.624	78.25
238.858	80.25
239.091	74.25
239.325	90.25
239.559	82.25
239.793	86.25
240.027	67.25
240.26	84.25
240.494	88.25
240.728	73.25
240.961	73.25
241.195	96.25
241.429	79.25
241.662	78.25
241.896	73.25
242.13	64.25
242.363	82.25
242.597	69.25
242.83	70.25
243.064	73.25
243.298	85.25
243.531	86.25
243.765	82.25
243.998	86.25
244.232	80.25
244.465	87.25
244.699	85.25
244.932	77.25
245.166	62.25
245.399	77.25
245.633	89.25
245.866	86.25
246.099	74.25
246.333	83.25
246.566	68.25
246.8	85.25
247.033	80.25
247.266	89.25
247.5	88.25
247.733	82.25
247.966	78.25
248.2	89.25
248.433	69.25
248.666	72.25
248.899	83.25
249.133	85.25
249.366	93.25
249.599	93.25
249.832	92.25
250.066	83.25
250.299	91.25
250.532	81.25
250.765	78.25
250.998	69.25
251.231	71.25
251.465	90.25
251.698	85.25
251.931	72.25
252.164	80.25
252.397	90.25
252.63	89.25
252.863	77.25
253.096	89.25
253.329	87.25
253.562	79.25
253.795	77.25
254.028	77.25
254.261	92.25
254.494	92.25
254.727	105.25
254.96	80.25
255.193	84.25
255.426	78.25
255.659	97.25
255.892	83.25
256.124	90.25
256.357	96.25
256.59	80.25
256.823	82.25
257.056	90.25
257.289	75.25
257.521	93.25
257.754	84.25
257.987	80.25
258.22	98.25
258.452	90.25
258.685	79.25
258.918	80.25
259.151	82.25
259.383	73.25
259.616	91.25
259.849	97.25
260.081	105.25
260.314	87.25
260.547	85.25
260.779	95.25
261.012	92.25
261.244	85.25
261.477	94.25
261.71	97.25
261.942	120.25
262.175	125.25
262.407	108.25
262.64	84.25
262.872	75.25
263.105	77.25
263.337	86.25
263.57	90.25
263.802	84.25
264.035	86.25
264.267	72.25
264.499	92.25
264.732	95.25
264.964	81.25
265.197	96.25
265.429	84.25
265.661	85.25
265.894	82.25
266.126	95.25
266.358	81.25
266.591	79.25
266.823	90.25
267.055	83.25
267.287	78.25
267.52	70.25
267.752	91.25
267.984	91.25
268.216	84.25
268.448	91.25
268.681	100.25
268.913	86.25
269.145	79.25
269.377	96.25
269.609	98.25
269.841	96.25
270.073	101.25
270.306	105.25
270.538	94.25
270.77	80.25
271.002	96.25
271.234	74.25
271.466	80.25
271.698	80.25
271.93	83.25
272.162	96.25
272.394	93.25
272.626	84.25
272.858	88.25
273.09	82.25
273.322	85.25
273.553	88.25
273.785	84.25
274.017	77.25
274.249	82.25
274.481	102.25
274.713	90.25
274.945	83.25
275.176	80.25
275.408	84.25
275.64	85.25
275.872	88.25
276.104	96.25
276.335	95.25
276.567	103.25
276.799	97.25
277.031	113.25
277.262	96.25
277.494	106.25
277.726	86.25
277.957	91.25
278.189	97.25
278.421	92.25
278.652	96.25
278.884	79.25
279.115	71.25
279.347	92.25
279.579	82.25
279.81	94.25
280.042	90.25
280.273	94.25
280.505	79.25
280.736	95.25
280.968	89.25
281.199	86.25
281.431	93.25
281.662	97.25
281.894	80.25
282.125	114.25
282.356	117.25
282.588	140.25
282.819	120.25
283.051	76.25
283.282	85.25
283.513	91.25
283.745	92.25
283.976	96.25
284.207	92.25
284.439	85.25
284.67	108.25
284.901	99.25
285.132	89.25
285.364	78.25
285.595	100.25
285.826	98.25
286.057	98.25
286.288	83.25
286.52	88.25
286.751	91.25
286.982	88.25
287.213	75.25
287.444	96.25
287.675	94.25
287.906	89.25
288.138	89.25
288.369	96.25
288.6	89.25
288.831	92.25
289.062	88.25
289.293	72.25
289.524	86.25
289.755	90.25
289.986	94.25
290.217	90.25
290.448	91.25
290.679	87.25
290.91	93.25
291.141	101.25
291.371	94.25
291.602	93.25
291.833	82.25
292.064	100.25
292.295	84.25
292.526	97.25
292.757	97.25
292.987	91.25
293.218	97.25
293.449	93.25
293.68	89.25
293.91	98.25
294.141	86.25
294.372	94.25
294.603	81.25
294.833	77.25
295.064	87.25
295.295	96.25
295.525	96.25
295.756	99.25
295.987	119.25
296.217	130.25
296.448	130.25
296.679	96.25
296.909	100.25
297.14	72.25
297.37	89.25
297.601	90.25
297.831	86.25
298.062	94.25
298.292	92.25
298.523	88.25
298.753	92.25
298.984	89.25
299.214	88.25
299.445	94.25
299.675	114.25
299.905	97.25
300.136	90.25
300.366	89.25
300.597	92.25
300.827	85.25
301.057	95.25
301.288	98.25
301.518	108.25
301.748	90.25
301.979	112.25
302.209	107.25
302.439	101.25
302.669	93.25
302.9	98.25
303.13	86.25
303.36	104.25
303.59	110.25
303.82	111.25
304.051	98.25
304.281	99.25
304.511	92.25
304.741	90.25
304.971	98.25
305.201	96.25
305.431	95.25
305.661	80.25
305.891	101.25
306.121	93.25
306.352	111.25
306.582	93.25
306.812	86.25
307.042	88.25
307.272	96.25
307.502	95.25
307.731	111.25
307.961	89.25
308.191	97.25
308.421	96.25
308.651	95.25
308.881	90.25
309.111	76.25
309.341	101.25
309.571	96.25
309.8	87.25
310.03	114.25
310.26	106.25
310.49	92.25
310.72	88.25
310.949	104.25
311.179	96.25
311.409	103.25
311.639	87.25
311.868	91.25
312.098	91.25
312.328	93.25
312.557	98.25
312.787	97.25
313.017	103.25
313.246	98.25
313.476	93.25
313.706	98.25
313.935	86.25
314.165	84.25
314.394	112.25
314.624	111.25
314.853	101.25
315.083	96.25
315.312	101.25
315.542	96.25
315.771	90.25
316.001	87.25
316.23	104.25
316.46	98.25
316.689	87.25
316.919	101.25
317.148	99.25
317.377	90.25
317.607	95.25
317.836	99.25
318.065	84.25
318.295	89.25
318.524	102.25
318.753	93.25
318.983	90.25
319.212	117.25
319.441	108.25
319.67	115.25
319.9	105.25
320.129	92.25
320.358	103.25
320.587	99.25
320.816	93.25
321.046	117.25
321.275	96.25
321.504	86.25
321.733	106.25
321.962	102.25
322.191	112.25
322.42	120.25
322.649	115.25
322.878	108.25
323.108	128.25
323.337	133.25
323.566	124.25
323.795	158.25
324.024	214.25
324.253	442.25
324.482	958.25
324.71	2041.25
324.939	2768.25
325.168	1008.25
325.397	281.25
325.626	171.25
325.855	137.25
326.084	129.25
326.313	137.25
326.542	171.25
326.77	253.25
326.999	530.25
327.228	1111.25
327.457	2113.25
327.686	1712.25
327.914	425.25
328.143	183.25
328.372	164.25
328.6	124.25
328.829	128.25
329.058	142.25
329.287	144.25
329.515	129.25
329.744	118.25
329.972	98.25
330.201	106.25
330.43	124.25
330.658	121.25
330.887	166.25
331.115	145.25
331.344	110.25
331.572	108.25
331.801	105.25
332.03	100.25
332.258	103.25
332.486	93.25
332.715	84.25
332.943	104.25
333.172	109.25
333.4	101.25
333.629	112.25
333.857	114.25
334.085	101.25
334.314	111.25
334.542	119.25
334.771	93.25
334.999	101.25
335.227	83.25
335.455	90.25
335.684	98.25
335.912	87.25
336.14	92.25
336.369	104.25
336.597	101.25
336.825	94.25
337.053	97.25
337.281	94.25
337.51	98.25
337.738	111.25
337.966	81.25
338.194	108.25
338.422	101.25
338.65	88.25
338.878	100.25
339.106	93.25
339.334	96.25
339.562	109.25
339.79	104.25
340.018	104.25
340.246	92.25
340.474	86.25
340.702	97.25
340.93	98.25
341.158	106.25
341.386	95.25
341.614	107.25
341.842	94.25
342.07	85.25
342.298	92.25
342.526	98.25
342.754	92.25
342.981	90.25
343.209	98.25
343.437	82.25
343.665	102.25
343.893	88.25
344.12	93.25
344.348	92.25
344.576	95.25
344.804	113.25
345.031	109.25
345.259	104.25
345.487	95.25
345.714	85.25
345.942	86.25
346.17	86.25
346.397	96.25
346.625	96.25
346.853	97.25
347.08	94.25
347.308	97.25
347.535	107.25
347.763	105.25
347.99	106.25
348.218	97.25
348.445	110.25
348.673	107.25
348.9	96.25
349.128	92.25
349.355	103.25
349.583	105.25
349.81	91.25
350.037	105.25
350.265	94.25
350.492	101.25
350.72	105.25
350.947	105.25
351.174	110.25
351.402	104.25
351.629	92.25
351.856	105.25
352.083	88.25
352.311	102.25
352.538	116.25
352.765	115.25
352.992	106.25
353.22	126.25
353.447	119.25
353.674	103.25
353.901	88.25
354.128	83.25
354.355	84.25
354.583	88.25
354.81	101.25
355.037	103.25
355.264	92.25
355.491	96.25
355.718	74.25
355.945	92.25
356.172	92.25
356.399	95.25
356.626	106.25
356.853	93.25
357.08	89.25
357.307	94.25
357.534	98.25
357.761	98.25
357.988	105.25
358.215	104.25
358.441	98.25
358.668	83.25
358.895	92.25
359.122	91.25
359.349	86.25
359.576	88.25
359.802	92.25
360.029	134.25
360.256	118.25
360.483	109.25
360.709	90.25
360.936	105.25
361.163	95.25
361.39	99.25
361.616	93.25
361.843	105.25
362.07	104.25
362.296	101.25
362.523	109.25
362.749	95.25
362.976	88.25
363.203	86.25
363.429	94.25
363.656	106.25
363.882	107.25
364.109	89.25
364.335	93.25
364.562	98.25
364.788	96.25
365.015	102.25
365.241	101.25
365.468	97.25
365.694	115.25
365.92	94.25
366.147	96.25
366.373	94.25
366.599	106.25
366.826	94.25
367.052	95.25
367.278	90.25
367.505	97.25
367.731	89.25
367.957	94.25
368.184	108.25
368.41	113.25
368.636	114.25
368.862	116.25
369.089	101.25
369.315	97.25
369.541	108.25
369.767	93.25
369.993	94.25
370.219	89.25
370.445	105.25
370.672	97.25
370.898	80.25
371.124	90.25
371.35	93.25
371.576	94.25
371.802	82.25
372.028	93.25
372.254	75.25
372.48	90.25
372.706	86.25
372.932	81.25
373.158	96.25
373.384	94.25
373.61	101.25
373.835	78.25
374.061	94.25
374.287	113.25
374.513	88.25
374.739	97.25
374.965	98.25
375.191	94.25
375.416	92.25
375.642	93.25
375.868	88.25
376.094	100.25
376.319	99.25
376.545	98.25
376.771	93.25
376.997	94.25
377.222	92.25
377.448	80.25
377.674	79.25
377.899	95.25
378.125	86.25
378.35	96.25
378.576	97.25
378.802	106.25
379.027	99.25
379.253	109.25
379.478	89.25
379.704	98.25
379.929	104.25
380.155	95.25
380.38	95.25
380.606	98.25
380.831	88.25
381.057	100.25
381.282	85.25
381.507	103.25
381.733	96.25
381.958	93.25
382.184	97.25
382.409	108.25
382.634	101.25
382.86	104.25
383.085	99.25
383.31	93.25
383.535	106.25
383.761	98.25
383.986	90.25
384.211	99.25
384.436	91.25
384.662	91.25
384.887	114.25
385.112	97.25
385.337	101.25
385.562	116.25
385.787	108.25
386.013	102.25
386.238	121.25
386.463	105.25
386.688	100.25
386.913	99.25
387.138	99.25
387.363	84.25
387.588	99.25
387.813	94.25
388.038	107.25
388.263	98.25
388.488	102.25
388.713	99.25
388.938	96.25
389.163	106.25
389.387	93.25
389.612	101.25
389.837	105.25
390.062	95.25
390.287	109.25
390.512	88.25
390.736	90.25
390.961	98.25
391.186	99.25
391.411	85.25
391.636	85.25
391.86	94.25
392.085	93.25
392.31	89.25
392.534	93.25
392.759	91.25
392.984	96.25
393.208	100.25
393.433	98.25
393.658	89.25
393.882	88.25
394.107	90.25
394.331	98.25
394.556	89.25
394.78	115.25
395.005	82.25
395.229	86.25
395.454	94.25
395.678	117.25
395.903	80.25
396.127	104.25
396.352	97.25
396.576	93.25
396.801	90.25
397.025	86.25
397.249	84.25
397.474	99.25
397.698	96.25
397.922	72.25
398.147	76.25
398.371	87.25
398.595	100.25
398.82	79.25
399.044	90.25
399.268	82.25
399.492	85.25
399.717	74.25
399.941	87.25
400.165	91.25
400.389	102.25
400.613	99.25
400.837	91.25
401.062	99.25
401.286	95.25
401.51	106.25
401.734	92.25
401.958	105.25
402.182	113.25
402.406	160.25
402.63	119.25
402.854	99.25
403.078	87.25
403.302	104.25
403.526	94.25
403.75	88.25
403.974	96.25
404.198	99.25
404.422	101.25
404.645	93.25
404.869	105.25
405.093	86.25
405.317	101.25
405.541	92.25
405.765	97.25
405.988	116.25
406.212	182.25
406.436	239.25
406.66	167.25
406.883	97.25
407.107	97.25
407.331	103.25
407.555	92.25
407.778	104.25
408.002	93.25
408.226	101.25
408.449	88.25
408.673	98.25
408.896	100.25
409.12	92.25
409.344	81.25
409.567	90.25
409.791	100.25
410.014	104.25
410.238	92.25
410.461	79.25
410.685	93.25
410.908	95.25
411.132	110.25
411.355	95.25
411.578	96.25
411.802	86.25
412.025	72.25
412.249	99.25
412.472	82.25
412.695	79.25
412.919	78.25
413.142	79.25
413.365	100.25
413.589	94.25
413.812	90.25
414.035	87.25
414.258	94.25
414.482	100.25
414.705	82.25
414.928	93.25
415.151	91.25
415.374	95.25
415.597	94.25
415.821	92.25
416.044	84.25
416.267	94.25
416.49	99.25
416.713	87.25
416.936	92.25
417.159	81.25
417.382	80.25
417.605	95.25
417.828	100.25
418.051	81.25
418.274	88.25
418.497	85.25
418.72	82.25
418.943	78.25
419.166	84.25
419.389	87.25
419.611	90.25
419.834	90.25
420.057	101.25
420.28	89.25
420.503	91.25
420.726	76.25
420.948	75.25
421.171	98.25
421.394	100.25
421.617	84.25
421.839	95.25
422.062	100.25
422.285	96.25
422.507	107.25
422.73	116.25
422.953	109.25
423.175	84.25
423.398	86.25
423.621	88.25
423.843	97.25
424.066	82.25
424.288	81.25
424.511	98.25
424.733	111.25
424.956	123.25
425.178	101.25
425.401	111.25
425.623	119.25
425.846	71.25
426.068	93.25
426.291	95.25
426.513	99.25
426.735	99.25
426.958	107.25
427.18	112.25
427.402	152.25
427.625	189.25
427.847	132.25
428.069	100.25
428.292	88.25
428.514	103.25
428.736	83.25
428.958	98.25
429.181	96.25
429.403	89.25
429.625	97.25
429.847	104.25
430.069	127.25
430.292	92.25
430.514	83.25
430.736	85.25
430.958	82.25
431.18	84.25
431.402	95.25
431.624	95.25
431.846	90.25
432.068	89.25
432.29	106.25
432.512	94.25
432.734	88.25
432.956	86.25
433.178	107.25
433.4	96.25
433.622	87.25
433.844	98.25
434.066	96.25
434.287	98.25
434.509	104.25
434.731	74.25
434.953	91.25
435.175	87.25
435.397	97.25
435.618	93.25
435.84	104.25
436.062	129.25
436.284	125.25
436.505	90.25
436.727	108.25
436.949	92.25
437.17	90.25
437.392	92.25
437.614	94.25
437.835	121.25
438.057	124.25
438.278	140.25
438.5	106.25
438.721	136.25
438.943	113.25
439.165	104.25
439.386	84.25
439.608	115.25
439.829	114.25
440.05	133.25
440.272	168.25
440.493	92.25
440.715	87.25
440.936	84.25
441.158	96.25
441.379	101.25
441.6	90.25
441.822	97.25
442.043	109.25
442.264	122.25
442.486	119.25
442.707	108.25
442.928	106.25
443.149	141.25
443.371	121.25
443.592	116.25
443.813	127.25
444.034	115.25
444.255	89.25
444.476	83.25
444.698	94.25
444.919	89.25
445.14	140.25
445.361	138.25
445.582	128.25
445.803	142.25
446.024	167.25
446.245	137.25
446.466	132.25
446.687	109.25
446.908	88.25
447.129	96.25
447.35	100.25
447.571	94.25
447.792	83.25
448.013	104.25
448.234	106.25
448.455	104.25
448.675	125.25
448.896	136.25
449.117	115.25
449.338	113.25
449.559	156.25
449.779	166.25
450	101.25
450.221	87.25
450.442	79.25
450.662	100.25
450.883	104.25
451.104	115.25
451.324	98.25
451.545	96.25
451.766	93.25
451.986	100.25
452.207	90.25
452.428	85.25
452.648	98.25
452.869	110.25
453.089	117.25
453.31	131.25
453.53	87.25
453.751	97.25
453.971	110.25
454.192	92.25
454.412	102.25
454.633	95.25
454.853	89.25
455.073	93.25
455.294	102.25
455.514	123.25
455.734	101.25
455.955	85.25
456.175	92.25
456.395	92.25
456.616	101.25
456.836	99.25
457.056	89.25
457.276	70.25
457.497	89.25
457.717	85.25
457.937	88.25
458.157	80.25
458.377	95.25
458.598	112.25
458.818	158.25
459.038	170.25
459.258	137.25
459.478	91.25
459.698	83.25
459.918	94.25
460.138	93.25
460.358	91.25
460.578	85.25
460.798	89.25
461.018	87.25
461.238	82.25
461.458	86.25
461.678	82.25
461.898	100.25
462.118	89.25
462.338	76.25
462.558	85.25
462.777	80.25
462.997	79.25
463.217	83.25
463.437	88.25
463.657	69.25
463.876	88.25
464.096	97.25
464.316	85.25
464.536	95.25
464.755	96.25
464.975	118.25
465.195	170.25
465.414	163.25
465.634	98.25
465.854	85.25
466.073	96.25
466.293	94.25
466.512	85.25
466.732	83.25
466.951	91.25
467.171	96.25
467.391	71.25
467.61	94.25
467.829	89.25
468.049	86.25
468.268	85.25
468.488	85.25
468.707	93.25
468.927	81.25
469.146	96.25
469.365	72.25
469.585	96.25
469.804	103.25
470.023	94.25
470.243	97.25
470.462	103.25
470.681	109.25
470.901	94.25
471.12	92.25
471.339	92.25
471.558	93.25
471.777	94.25
471.997	69.25
472.216	85.25
472.435	87.25
472.654	90.25
472.873	105.25
473.092	105.25
473.311	80.25
473.53	80.25
473.749	95.25
473.968	99.25
474.187	114.25
474.406	96.25
474.625	97.25
474.844	94.25
475.063	81.25
475.282	74.25
475.501	94.25
475.72	104.25
475.939	84.25
476.158	102.25
476.377	110.25
476.596	86.25
476.814	82.25
477.033	84.25
477.252	96.25
477.471	96.25
477.69	103.25
477.908	95.25
478.127	99.25
478.346	84.25
478.564	95.25
478.783	96.25
479.002	82.25
479.22	84.25
479.439	104.25
479.658	104.25
479.876	98.25
480.095	91.25
480.313	98.25
480.532	99.25
480.751	95.25
480.969	85.25
481.188	94.25
481.406	94.25
481.624	89.25
481.843	83.25
482.061	84.25
482.28	109.25
482.498	84.25
482.717	100.25
482.935	85.25
483.153	83.25
483.372	97.25
483.59	103.25
483.808	92.25
484.027	85.25
484.245	109.25
484.463	97.25
484.681	91.25
484.9	80.25
485.118	100.25
485.336	91.25
485.554	101.25
485.772	96.25
485.99	101.25
486.209	110.25
486.427	103.25
486.645	107.25
486.863	123.25
487.081	90.25
487.299	84.25
487.517	93.25
487.735	81.25
487.953	96.25
488.171	98.25
488.389	101.25
488.607	88.25
488.825	87.25
489.043	88.25
489.261	85.25
489.479	89.25
489.696	88.25
489.914	99.25
490.132	100.25
490.35	91.25
490.568	79.25
490.786	92.25
491.003	78.25
491.221	94.25
491.439	88.25
491.657	76.25
491.874	86.25
492.092	85.25
492.31	76.25
492.527	87.25
492.745	87.25
492.963	91.25
493.18	94.25
493.398	88.25
493.615	88.25
493.833	92.25
494.05	87.25
494.268	90.25
494.485	88.25
494.703	78.25
494.92	96.25
495.138	103.25
495.355	94.25
495.573	99.25
495.79	94.25
496.008	94.25
496.225	88.25
496.442	85.25
496.66	96.25
496.877	93.25
497.094	99.25
497.312	93.25
497.529	85.25
497.746	86.25
497.963	90.25
498.181	96.25
498.398	102.25
498.615	109.25
498.832	98.25
499.049	88.25
499.267	92.25
499.484	79.25
499.701	86.25
499.918	95.25
500.135	78.25
500.352	93.25
500.569	83.25
500.786	102.25
501.003	99.25
501.22	98.25
501.437	79.25
501.654	101.25
501.871	108.25
502.088	108.25
502.305	98.25
502.522	103.25
502.739	77.25
502.956	88.25
503.172	79.25
503.389	81.25
503.606	97.25
503.823	103.25
504.04	103.25
504.256	94.25
504.473	86.25
504.69	98.25
504.907	108.25
505.123	95.25
505.34	88.25
505.557	105.25
505.773	87.25
505.99	88.25
506.207	90.25
506.423	90.25
506.64	89.25
506.856	94.25
507.073	92.25
507.289	102.25
507.506	99.25
507.722	115.25
507.939	108.25
508.155	95.25
508.372	100.25
508.588	93.25
508.805	98.25
509.021	104.25
509.238	94.25
509.454	89.25
509.67	113.25
509.887	108.25
510.103	133.25
510.319	214.25
510.536	772.25
510.752	2455.25
510.968	678.25
511.184	161.25
511.401	124.25
511.617	106.25
511.833	97.25
512.049	93.25
512.265	97.25
512.481	94.25
512.698	104.25
512.914	99.25
513.13	97.25
513.346	95.25
513.562	98.25
513.778	102.25
513.994	94.25
514.21	100.25
514.426	116.25
514.642	129.25
