Data from Uncirc_1991_H10_HRD10591_00024.txt Node
Date: Wed Jan 03 11:50:43 EST 2024
User: Yrep
Spectrometer: HR+D1059
Trigger mode: 1
Integration Time (sec): 1.000000E-1
Scans to average: 1
Electric dark correction enabled: true
Nonlinearity correction enabled: false
Boxcar width: 0
XAxis mode: Wavelengths
Number of Pixels in Spectrum: 2048
>>>>>Begin Spectral Data<<<<<
223.165	-30.44
223.4	-30.44
223.635	-30.44
223.869	-21.44
224.104	-25.44
224.338	-13.44
224.573	-22.44
224.808	-15.44
225.042	-10.44
225.277	-6.44
225.511	-4.44
225.746	-1.44
225.98	10.56
226.215	23.56
226.449	10.56
226.683	40.56
226.918	24.56
227.152	41.56
227.387	42.56
227.621	29.56
227.856	54.56
228.09	56.56
228.324	56.56
228.559	48.56
228.793	61.56
229.027	51.56
229.262	68.56
229.496	75.56
229.73	89.56
229.964	90.56
230.199	87.56
230.433	77.56
230.667	98.56
230.901	76.56
231.136	77.56
231.37	78.56
231.604	81.56
231.838	61.56
232.072	68.56
232.306	97.56
232.541	93.56
232.775	98.56
233.009	82.56
233.243	84.56
233.477	84.56
233.711	78.56
233.945	84.56
234.179	84.56
234.413	94.56
234.647	85.56
234.881	92.56
235.115	79.56
235.349	89.56
235.583	84.56
235.817	75.56
236.051	87.56
236.285	81.56
236.519	73.56
236.753	102.56
236.987	85.56
237.221	91.56
237.455	108.56
237.689	85.56
237.922	92.56
238.156	89.56
238.39	86.56
238.624	64.56
238.858	72.56
239.091	76.56
239.325	72.56
239.559	69.56
239.793	96.56
240.027	87.56
240.26	83.56
240.494	80.56
240.728	79.56
240.961	84.56
241.195	95.56
241.429	73.56
241.662	68.56
241.896	81.56
242.13	91.56
242.363	92.56
242.597	85.56
242.83	79.56
243.064	93.56
243.298	87.56
243.531	85.56
243.765	79.56
243.998	93.56
244.232	87.56
244.465	102.56
244.699	84.56
244.932	81.56
245.166	75.56
245.399	83.56
245.633	82.56
245.866	68.56
246.099	77.56
246.333	74.56
246.566	79.56
246.8	81.56
247.033	88.56
247.266	69.56
247.5	79.56
247.733	71.56
247.966	87.56
248.2	90.56
248.433	82.56
248.666	84.56
248.899	88.56
249.133	92.56
249.366	104.56
249.599	102.56
249.832	93.56
250.066	75.56
250.299	71.56
250.532	75.56
250.765	71.56
250.998	84.56
251.231	79.56
251.465	85.56
251.698	73.56
251.931	93.56
252.164	79.56
252.397	78.56
252.63	79.56
252.863	89.56
253.096	79.56
253.329	87.56
253.562	71.56
253.795	95.56
254.028	93.56
254.261	89.56
254.494	79.56
254.727	77.56
254.96	87.56
255.193	87.56
255.426	81.56
255.659	85.56
255.892	86.56
256.124	82.56
256.357	76.56
256.59	85.56
256.823	93.56
257.056	75.56
257.289	76.56
257.521	82.56
257.754	83.56
257.987	91.56
258.22	88.56
258.452	94.56
258.685	95.56
258.918	85.56
259.151	73.56
259.383	95.56
259.616	80.56
259.849	83.56
260.081	81.56
260.314	86.56
260.547	78.56
260.779	73.56
261.012	95.56
261.244	96.56
261.477	89.56
261.71	88.56
261.942	123.56
262.175	107.56
262.407	96.56
262.64	81.56
262.872	87.56
263.105	80.56
263.337	85.56
263.57	77.56
263.802	86.56
264.035	86.56
264.267	72.56
264.499	97.56
264.732	84.56
264.964	87.56
265.197	105.56
265.429	89.56
265.661	96.56
265.894	77.56
266.126	95.56
266.358	101.56
266.591	80.56
266.823	83.56
267.055	91.56
267.287	79.56
267.52	79.56
267.752	76.56
267.984	88.56
268.216	81.56
268.448	92.56
268.681	94.56
268.913	99.56
269.145	81.56
269.377	71.56
269.609	85.56
269.841	97.56
270.073	78.56
270.306	79.56
270.538	77.56
270.77	75.56
271.002	83.56
271.234	83.56
271.466	83.56
271.698	95.56
271.93	96.56
272.162	86.56
272.394	97.56
272.626	97.56
272.858	94.56
273.09	86.56
273.322	85.56
273.553	89.56
273.785	84.56
274.017	98.56
274.249	81.56
274.481	86.56
274.713	84.56
274.945	87.56
275.176	86.56
275.408	95.56
275.64	88.56
275.872	94.56
276.104	95.56
276.335	80.56
276.567	99.56
276.799	102.56
277.031	100.56
277.262	90.56
277.494	72.56
277.726	77.56
277.957	93.56
278.189	100.56
278.421	94.56
278.652	92.56
278.884	93.56
279.115	89.56
279.347	81.56
279.579	81.56
279.81	90.56
280.042	83.56
280.273	94.56
280.505	90.56
280.736	104.56
280.968	87.56
281.199	95.56
281.431	83.56
281.662	91.56
281.894	111.56
282.125	91.56
282.356	113.56
282.588	132.56
282.819	124.56
283.051	85.56
283.282	92.56
283.513	93.56
283.745	87.56
283.976	89.56
284.207	83.56
284.439	91.56
284.67	82.56
284.901	95.56
285.132	99.56
285.364	87.56
285.595	89.56
285.826	89.56
286.057	83.56
286.288	94.56
286.52	80.56
286.751	91.56
286.982	89.56
287.213	88.56
287.444	84.56
287.675	77.56
287.906	98.56
288.138	88.56
288.369	83.56
288.6	89.56
288.831	83.56
289.062	83.56
289.293	84.56
289.524	81.56
289.755	91.56
289.986	83.56
290.217	89.56
290.448	105.56
290.679	101.56
290.91	93.56
291.141	96.56
291.371	86.56
291.602	87.56
291.833	87.56
292.064	86.56
292.295	93.56
292.526	80.56
292.757	94.56
292.987	86.56
293.218	98.56
293.449	83.56
293.68	85.56
293.91	85.56
294.141	83.56
294.372	97.56
294.603	87.56
294.833	91.56
295.064	96.56
295.295	77.56
295.525	100.56
295.756	105.56
295.987	116.56
296.217	127.56
296.448	142.56
296.679	92.56
296.909	99.56
297.14	86.56
297.37	113.56
297.601	86.56
297.831	83.56
298.062	90.56
298.292	94.56
298.523	94.56
298.753	91.56
298.984	100.56
299.214	91.56
299.445	95.56
299.675	91.56
299.905	86.56
300.136	88.56
300.366	92.56
300.597	95.56
300.827	98.56
301.057	100.56
301.288	100.56
301.518	86.56
301.748	86.56
301.979	104.56
302.209	78.56
302.439	95.56
302.669	87.56
302.9	89.56
303.13	107.56
303.36	100.56
303.59	95.56
303.82	118.56
304.051	113.56
304.281	105.56
304.511	101.56
304.741	96.56
304.971	98.56
305.201	95.56
305.431	96.56
305.661	99.56
305.891	99.56
306.121	89.56
306.352	101.56
306.582	118.56
306.812	90.56
307.042	87.56
307.272	99.56
307.502	88.56
307.731	108.56
307.961	103.56
308.191	98.56
308.421	101.56
308.651	88.56
308.881	99.56
309.111	95.56
309.341	84.56
309.571	86.56
309.8	93.56
310.03	108.56
310.26	98.56
310.49	78.56
310.72	82.56
310.949	106.56
311.179	88.56
311.409	99.56
311.639	92.56
311.868	99.56
312.098	97.56
312.328	99.56
312.557	104.56
312.787	123.56
313.017	105.56
313.246	107.56
313.476	86.56
313.706	94.56
313.935	82.56
314.165	97.56
314.394	104.56
314.624	113.56
314.853	102.56
315.083	81.56
315.312	89.56
315.542	82.56
315.771	98.56
316.001	118.56
316.23	111.56
316.46	97.56
316.689	105.56
316.919	104.56
317.148	100.56
317.377	98.56
317.607	101.56
317.836	104.56
318.065	74.56
318.295	91.56
318.524	99.56
318.753	89.56
318.983	90.56
319.212	101.56
319.441	103.56
319.67	90.56
319.9	105.56
320.129	97.56
320.358	102.56
320.587	107.56
320.816	109.56
321.046	109.56
321.275	101.56
321.504	97.56
321.733	101.56
321.962	103.56
322.191	95.56
322.42	116.56
322.649	104.56
322.878	120.56
323.108	115.56
323.337	119.56
323.566	130.56
323.795	152.56
324.024	208.56
324.253	439.56
324.482	884.56
324.71	1925.56
324.939	2660.56
325.168	927.56
325.397	258.56
325.626	140.56
325.855	130.56
326.084	139.56
326.313	130.56
326.542	173.56
326.77	251.56
326.999	493.56
327.228	1057.56
327.457	1974.56
327.686	1615.56
327.914	399.56
328.143	191.56
328.372	148.56
328.6	127.56
328.829	110.56
329.058	130.56
329.287	134.56
329.515	119.56
329.744	104.56
329.972	96.56
330.201	104.56
330.43	105.56
330.658	128.56
330.887	139.56
331.115	130.56
331.344	107.56
331.572	98.56
331.801	107.56
332.03	103.56
332.258	95.56
332.486	99.56
332.715	91.56
332.943	101.56
333.172	98.56
333.4	95.56
333.629	110.56
333.857	119.56
334.085	105.56
334.314	102.56
334.542	106.56
334.771	103.56
334.999	96.56
335.227	102.56
335.455	102.56
335.684	96.56
335.912	94.56
336.14	93.56
336.369	99.56
336.597	108.56
336.825	96.56
337.053	115.56
337.281	92.56
337.51	84.56
337.738	97.56
337.966	95.56
338.194	94.56
338.422	107.56
338.65	91.56
338.878	102.56
339.106	86.56
339.334	103.56
339.562	97.56
339.79	89.56
340.018	96.56
340.246	97.56
340.474	101.56
340.702	96.56
340.93	87.56
341.158	96.56
341.386	103.56
341.614	95.56
341.842	87.56
342.07	91.56
342.298	83.56
342.526	97.56
342.754	97.56
342.981	101.56
343.209	88.56
343.437	108.56
343.665	106.56
343.893	96.56
344.12	91.56
344.348	90.56
344.576	95.56
344.804	79.56
345.031	93.56
345.259	105.56
345.487	97.56
345.714	87.56
345.942	86.56
346.17	82.56
346.397	103.56
346.625	97.56
346.853	112.56
347.08	87.56
347.308	89.56
347.535	111.56
347.763	101.56
347.99	98.56
348.218	91.56
348.445	104.56
348.673	105.56
348.9	105.56
349.128	92.56
349.355	100.56
349.583	97.56
349.81	109.56
350.037	96.56
350.265	97.56
350.492	103.56
350.72	98.56
350.947	113.56
351.174	105.56
351.402	126.56
351.629	115.56
351.856	103.56
352.083	103.56
352.311	117.56
352.538	107.56
352.765	116.56
352.992	99.56
353.22	121.56
353.447	116.56
353.674	99.56
353.901	103.56
354.128	91.56
354.355	99.56
354.583	104.56
354.81	88.56
355.037	83.56
355.264	105.56
355.491	88.56
355.718	103.56
355.945	96.56
356.172	88.56
356.399	97.56
356.626	97.56
356.853	93.56
357.08	93.56
357.307	82.56
357.534	101.56
357.761	100.56
357.988	99.56
358.215	87.56
358.441	83.56
358.668	85.56
358.895	80.56
359.122	94.56
359.349	91.56
359.576	92.56
359.802	111.56
360.029	119.56
360.256	110.56
360.483	87.56
360.709	96.56
360.936	104.56
361.163	98.56
361.39	83.56
361.616	101.56
361.843	92.56
362.07	83.56
362.296	94.56
362.523	100.56
362.749	103.56
362.976	101.56
363.203	87.56
363.429	88.56
363.656	96.56
363.882	89.56
364.109	106.56
364.335	77.56
364.562	102.56
364.788	97.56
365.015	101.56
365.241	101.56
365.468	122.56
365.694	104.56
365.92	92.56
366.147	96.56
366.373	84.56
366.599	87.56
366.826	78.56
367.052	96.56
367.278	102.56
367.505	93.56
367.731	90.56
367.957	87.56
368.184	94.56
368.41	86.56
368.636	103.56
368.862	122.56
369.089	93.56
369.315	91.56
369.541	97.56
369.767	89.56
369.993	93.56
370.219	91.56
370.445	92.56
370.672	93.56
370.898	104.56
371.124	80.56
371.35	87.56
371.576	95.56
371.802	92.56
372.028	76.56
372.254	93.56
372.48	88.56
372.706	96.56
372.932	94.56
373.158	97.56
373.384	90.56
373.61	101.56
373.835	87.56
374.061	95.56
374.287	88.56
374.513	97.56
374.739	77.56
374.965	84.56
375.191	93.56
375.416	102.56
375.642	92.56
375.868	98.56
376.094	117.56
376.319	77.56
376.545	91.56
376.771	95.56
376.997	86.56
377.222	99.56
377.448	100.56
377.674	94.56
377.899	88.56
378.125	75.56
378.35	94.56
378.576	84.56
378.802	90.56
379.027	102.56
379.253	98.56
379.478	93.56
379.704	91.56
379.929	96.56
380.155	100.56
380.38	94.56
380.606	102.56
380.831	97.56
381.057	99.56
381.282	106.56
381.507	97.56
381.733	95.56
381.958	99.56
382.184	111.56
382.409	100.56
382.634	101.56
382.86	108.56
383.085	102.56
383.31	91.56
383.535	93.56
383.761	108.56
383.986	96.56
384.211	108.56
384.436	92.56
384.662	89.56
384.887	88.56
385.112	97.56
385.337	103.56
385.562	91.56
385.787	93.56
386.013	111.56
386.238	104.56
386.463	103.56
386.688	104.56
386.913	103.56
387.138	104.56
387.363	102.56
387.588	100.56
387.813	102.56
388.038	95.56
388.263	97.56
388.488	107.56
388.713	98.56
388.938	87.56
389.163	107.56
389.387	95.56
389.612	99.56
389.837	101.56
390.062	84.56
390.287	96.56
390.512	89.56
390.736	100.56
390.961	91.56
391.186	108.56
391.411	95.56
391.636	84.56
391.86	89.56
392.085	96.56
392.31	81.56
392.534	93.56
392.759	106.56
392.984	89.56
393.208	87.56
393.433	98.56
393.658	101.56
393.882	86.56
394.107	90.56
394.331	88.56
394.556	85.56
394.78	82.56
395.005	88.56
395.229	98.56
395.454	75.56
395.678	88.56
395.903	88.56
396.127	94.56
396.352	80.56
396.576	87.56
396.801	93.56
397.025	91.56
397.249	87.56
397.474	91.56
397.698	97.56
397.922	95.56
398.147	93.56
398.371	105.56
398.595	65.56
398.82	92.56
399.044	82.56
399.268	100.56
399.492	96.56
399.717	93.56
399.941	92.56
400.165	102.56
400.389	101.56
400.613	94.56
400.837	97.56
401.062	97.56
401.286	83.56
401.51	91.56
401.734	85.56
401.958	105.56
402.182	118.56
402.406	161.56
402.63	125.56
402.854	97.56
403.078	88.56
403.302	102.56
403.526	79.56
403.75	85.56
403.974	91.56
404.198	77.56
404.422	86.56
404.645	98.56
404.869	116.56
405.093	98.56
405.317	104.56
405.541	109.56
405.765	95.56
405.988	122.56
406.212	166.56
406.436	233.56
406.66	134.56
406.883	102.56
407.107	91.56
407.331	98.56
407.555	100.56
407.778	106.56
408.002	88.56
408.226	87.56
408.449	86.56
408.673	91.56
408.896	104.56
409.12	109.56
409.344	83.56
409.567	96.56
409.791	101.56
410.014	98.56
410.238	106.56
410.461	91.56
410.685	93.56
410.908	93.56
411.132	102.56
411.355	102.56
411.578	82.56
411.802	102.56
412.025	87.56
412.249	98.56
412.472	98.56
412.695	99.56
412.919	110.56
413.142	71.56
413.365	91.56
413.589	79.56
413.812	85.56
414.035	88.56
414.258	83.56
414.482	96.56
414.705	98.56
414.928	97.56
415.151	88.56
415.374	95.56
415.597	95.56
415.821	84.56
416.044	81.56
416.267	88.56
416.49	92.56
416.713	100.56
416.936	94.56
417.159	92.56
417.382	85.56
417.605	100.56
417.828	83.56
418.051	101.56
418.274	100.56
418.497	88.56
418.72	85.56
418.943	87.56
419.166	80.56
419.389	89.56
419.611	95.56
419.834	102.56
420.057	98.56
420.28	104.56
420.503	86.56
420.726	93.56
420.948	91.56
421.171	80.56
421.394	87.56
421.617	85.56
421.839	89.56
422.062	82.56
422.285	104.56
422.507	94.56
422.73	103.56
422.953	91.56
423.175	98.56
423.398	79.56
423.621	96.56
423.843	88.56
424.066	93.56
424.288	94.56
424.511	94.56
424.733	107.56
424.956	106.56
425.178	101.56
425.401	102.56
425.623	113.56
425.846	78.56
426.068	89.56
426.291	94.56
426.513	87.56
426.735	93.56
426.958	93.56
427.18	108.56
427.402	153.56
427.625	173.56
427.847	135.56
428.069	110.56
428.292	97.56
428.514	79.56
428.736	92.56
428.958	97.56
429.181	76.56
429.403	87.56
429.625	90.56
429.847	86.56
430.069	100.56
430.292	98.56
430.514	87.56
430.736	82.56
430.958	86.56
431.18	102.56
431.402	97.56
431.624	97.56
431.846	90.56
432.068	89.56
432.29	97.56
432.512	78.56
432.734	88.56
432.956	85.56
433.178	101.56
433.4	109.56
433.622	109.56
433.844	90.56
434.066	85.56
434.287	92.56
434.509	87.56
434.731	80.56
434.953	104.56
435.175	88.56
435.397	92.56
435.618	80.56
435.84	98.56
436.062	144.56
436.284	126.56
436.505	120.56
436.727	92.56
436.949	109.56
437.17	103.56
437.392	91.56
437.614	91.56
437.835	117.56
438.057	113.56
438.278	110.56
438.5	112.56
438.721	112.56
438.943	102.56
439.165	98.56
439.386	80.56
439.608	101.56
439.829	95.56
440.05	119.56
440.272	169.56
440.493	101.56
440.715	93.56
440.936	87.56
441.158	90.56
441.379	87.56
441.6	93.56
441.822	83.56
442.043	98.56
442.264	105.56
442.486	101.56
442.707	84.56
442.928	108.56
443.149	126.56
443.371	135.56
443.592	106.56
443.813	119.56
444.034	117.56
444.255	97.56
444.476	94.56
444.698	82.56
444.919	103.56
445.14	137.56
445.361	130.56
445.582	116.56
445.803	141.56
446.024	163.56
446.245	155.56
446.466	129.56
446.687	93.56
446.908	83.56
447.129	91.56
447.35	94.56
447.571	104.56
447.792	103.56
448.013	99.56
448.234	103.56
448.455	85.56
448.675	130.56
448.896	133.56
449.117	110.56
449.338	105.56
449.559	145.56
449.779	142.56
450	112.56
450.221	98.56
450.442	87.56
450.662	92.56
450.883	90.56
451.104	131.56
451.324	113.56
451.545	97.56
451.766	91.56
451.986	75.56
452.207	91.56
452.428	94.56
452.648	95.56
452.869	105.56
453.089	118.56
453.31	107.56
453.53	94.56
453.751	88.56
453.971	112.56
454.192	114.56
454.412	73.56
454.633	91.56
454.853	85.56
455.073	103.56
455.294	83.56
455.514	111.56
455.734	93.56
455.955	84.56
456.175	60.56
456.395	80.56
456.616	81.56
456.836	82.56
457.056	95.56
457.276	101.56
457.497	87.56
457.717	80.56
457.937	73.56
458.157	75.56
458.377	91.56
458.598	111.56
458.818	135.56
459.038	164.56
459.258	122.56
459.478	97.56
459.698	97.56
459.918	91.56
460.138	77.56
460.358	69.56
460.578	98.56
460.798	89.56
461.018	107.56
461.238	99.56
461.458	98.56
461.678	96.56
461.898	80.56
462.118	70.56
462.338	83.56
462.558	89.56
462.777	86.56
462.997	76.56
463.217	91.56
463.437	105.56
463.657	81.56
463.876	84.56
464.096	103.56
464.316	89.56
464.536	86.56
464.755	90.56
464.975	117.56
465.195	164.56
465.414	164.56
465.634	108.56
465.854	93.56
466.073	90.56
466.293	86.56
466.512	83.56
466.732	83.56
466.951	81.56
467.171	97.56
467.391	93.56
467.61	99.56
467.829	107.56
468.049	86.56
468.268	95.56
468.488	91.56
468.707	107.56
468.927	99.56
469.146	84.56
469.365	83.56
469.585	81.56
469.804	91.56
470.023	89.56
470.243	95.56
470.462	115.56
470.681	102.56
470.901	103.56
471.12	104.56
471.339	84.56
471.558	96.56
471.777	91.56
471.997	102.56
472.216	89.56
472.435	84.56
472.654	86.56
472.873	91.56
473.092	87.56
473.311	63.56
473.53	88.56
473.749	90.56
473.968	85.56
474.187	112.56
474.406	93.56
474.625	84.56
474.844	99.56
475.063	77.56
475.282	88.56
475.501	84.56
475.72	100.56
475.939	94.56
476.158	72.56
476.377	93.56
476.596	89.56
476.814	97.56
477.033	92.56
477.252	100.56
477.471	75.56
477.69	75.56
477.908	87.56
478.127	88.56
478.346	91.56
478.564	78.56
478.783	95.56
479.002	103.56
479.22	90.56
479.439	111.56
479.658	111.56
479.876	108.56
480.095	93.56
480.313	89.56
480.532	97.56
480.751	81.56
480.969	85.56
481.188	107.56
481.406	78.56
481.624	94.56
481.843	78.56
482.061	84.56
482.28	85.56
482.498	93.56
482.717	76.56
482.935	96.56
483.153	116.56
483.372	86.56
483.59	100.56
483.808	91.56
484.027	98.56
484.245	99.56
484.463	85.56
484.681	102.56
484.9	101.56
485.118	92.56
485.336	87.56
485.554	89.56
485.772	103.56
485.99	92.56
486.209	98.56
486.427	98.56
486.645	103.56
486.863	109.56
487.081	95.56
487.299	99.56
487.517	98.56
487.735	95.56
487.953	88.56
488.171	88.56
488.389	103.56
488.607	91.56
488.825	98.56
489.043	88.56
489.261	99.56
489.479	71.56
489.696	91.56
489.914	93.56
490.132	97.56
490.35	84.56
490.568	91.56
490.786	77.56
491.003	86.56
491.221	84.56
491.439	98.56
491.657	98.56
491.874	84.56
492.092	93.56
492.31	90.56
492.527	106.56
492.745	90.56
492.963	90.56
493.18	95.56
493.398	115.56
493.615	99.56
493.833	99.56
494.05	101.56
494.268	79.56
494.485	85.56
494.703	86.56
494.92	77.56
495.138	83.56
495.355	114.56
495.573	99.56
495.79	98.56
496.008	96.56
496.225	99.56
496.442	110.56
496.66	99.56
496.877	79.56
497.094	79.56
497.312	84.56
497.529	104.56
497.746	104.56
497.963	108.56
498.181	86.56
498.398	95.56
498.615	108.56
498.832	102.56
499.049	92.56
499.267	97.56
499.484	92.56
499.701	93.56
499.918	100.56
500.135	95.56
500.352	90.56
500.569	92.56
500.786	83.56
501.003	104.56
501.22	92.56
501.437	99.56
501.654	96.56
501.871	107.56
502.088	83.56
502.305	98.56
502.522	79.56
502.739	85.56
502.956	104.56
503.172	102.56
503.389	98.56
503.606	104.56
503.823	97.56
504.04	93.56
504.256	96.56
504.473	80.56
504.69	74.56
504.907	100.56
505.123	89.56
505.34	92.56
505.557	88.56
505.773	101.56
505.99	94.56
506.207	86.56
506.423	99.56
506.64	96.56
506.856	85.56
507.073	96.56
507.289	99.56
507.506	102.56
507.722	102.56
507.939	104.56
508.155	86.56
508.372	85.56
508.588	91.56
508.805	97.56
509.021	96.56
509.238	110.56
509.454	97.56
509.67	100.56
509.887	111.56
510.103	132.56
510.319	215.56
510.536	754.56
510.752	2285.56
510.968	615.56
511.184	153.56
511.401	116.56
511.617	106.56
511.833	103.56
512.049	102.56
512.265	85.56
512.481	87.56
512.698	85.56
512.914	96.56
513.13	85.56
513.346	99.56
513.562	98.56
513.778	89.56
513.994	102.56
514.21	103.56
514.426	121.56
514.642	130.56
