Data from Uncirc_1991_H10_HRD10591_00052.txt Node
Date: Wed Jan 03 11:50:48 EST 2024
User: Yrep
Spectrometer: HR+D1059
Trigger mode: 1
Integration Time (sec): 1.000000E-1
Scans to average: 1
Electric dark correction enabled: true
Nonlinearity correction enabled: false
Boxcar width: 0
XAxis mode: Wavelengths
Number of Pixels in Spectrum: 2048
>>>>>Begin Spectral Data<<<<<
223.165	-12.06
223.4	-12.06
223.635	-12.06
223.869	-32.06
224.104	-8.06
224.338	-25.06
224.573	-17.06
224.808	-18.06
225.042	-10.06
225.277	-13.06
225.511	-8.06
225.746	6.94
225.98	10.94
226.215	17.94
226.449	14.94
226.683	28.94
226.918	26.94
227.152	36.94
227.387	40.94
227.621	36.94
227.856	43.94
228.09	56.94
228.324	45.94
228.559	62.94
228.793	54.94
229.027	56.94
229.262	61.94
229.496	78.94
229.73	87.94
229.964	85.94
230.199	73.94
230.433	77.94
230.667	87.94
230.901	81.94
231.136	76.94
231.37	72.94
231.604	90.94
231.838	73.94
232.072	76.94
232.306	78.94
232.541	87.94
232.775	70.94
233.009	81.94
233.243	92.94
233.477	70.94
233.711	80.94
233.945	76.94
234.179	74.94
234.413	81.94
234.647	75.94
234.881	80.94
235.115	86.94
235.349	86.94
235.583	75.94
235.817	87.94
236.051	72.94
236.285	96.94
236.519	77.94
236.753	83.94
236.987	81.94
237.221	77.94
237.455	83.94
237.689	77.94
237.922	87.94
238.156	82.94
238.39	68.94
238.624	69.94
238.858	98.94
239.091	66.94
239.325	77.94
239.559	76.94
239.793	86.94
240.027	76.94
240.26	85.94
240.494	78.94
240.728	73.94
240.961	68.94
241.195	80.94
241.429	82.94
241.662	77.94
241.896	77.94
242.13	78.94
242.363	84.94
242.597	81.94
242.83	63.94
243.064	76.94
243.298	86.94
243.531	71.94
243.765	90.94
243.998	71.94
244.232	78.94
244.465	88.94
244.699	83.94
244.932	77.94
245.166	89.94
245.399	81.94
245.633	71.94
245.866	82.94
246.099	88.94
246.333	77.94
246.566	82.94
246.8	76.94
247.033	72.94
247.266	84.94
247.5	79.94
247.733	82.94
247.966	77.94
248.2	89.94
248.433	86.94
248.666	85.94
248.899	98.94
249.133	94.94
249.366	109.94
249.599	105.94
249.832	93.94
250.066	93.94
250.299	69.94
250.532	80.94
250.765	88.94
250.998	82.94
251.231	80.94
251.465	81.94
251.698	74.94
251.931	90.94
252.164	96.94
252.397	86.94
252.63	73.94
252.863	78.94
253.096	84.94
253.329	84.94
253.562	77.94
253.795	93.94
254.028	82.94
254.261	85.94
254.494	98.94
254.727	95.94
254.96	83.94
255.193	82.94
255.426	76.94
255.659	78.94
255.892	75.94
256.124	81.94
256.357	80.94
256.59	80.94
256.823	83.94
257.056	86.94
257.289	87.94
257.521	80.94
257.754	76.94
257.987	77.94
258.22	85.94
258.452	82.94
258.685	84.94
258.918	89.94
259.151	79.94
259.383	87.94
259.616	85.94
259.849	76.94
260.081	80.94
260.314	80.94
260.547	94.94
260.779	87.94
261.012	81.94
261.244	81.94
261.477	87.94
261.71	90.94
261.942	110.94
262.175	115.94
262.407	86.94
262.64	92.94
262.872	92.94
263.105	82.94
263.337	78.94
263.57	81.94
263.802	90.94
264.035	81.94
264.267	92.94
264.499	89.94
264.732	92.94
264.964	94.94
265.197	80.94
265.429	88.94
265.661	78.94
265.894	88.94
266.126	83.94
266.358	83.94
266.591	85.94
266.823	78.94
267.055	89.94
267.287	80.94
267.52	89.94
267.752	96.94
267.984	75.94
268.216	90.94
268.448	108.94
268.681	89.94
268.913	78.94
269.145	96.94
269.377	96.94
269.609	85.94
269.841	80.94
270.073	76.94
270.306	95.94
270.538	87.94
270.77	84.94
271.002	73.94
271.234	88.94
271.466	100.94
271.698	92.94
271.93	70.94
272.162	84.94
272.394	97.94
272.626	77.94
272.858	83.94
273.09	88.94
273.322	84.94
273.553	92.94
273.785	79.94
274.017	79.94
274.249	88.94
274.481	100.94
274.713	88.94
274.945	85.94
275.176	92.94
275.408	94.94
275.64	89.94
275.872	72.94
276.104	83.94
276.335	101.94
276.567	104.94
276.799	109.94
277.031	86.94
277.262	95.94
277.494	99.94
277.726	87.94
277.957	86.94
278.189	80.94
278.421	97.94
278.652	88.94
278.884	84.94
279.115	88.94
279.347	89.94
279.579	80.94
279.81	91.94
280.042	84.94
280.273	80.94
280.505	88.94
280.736	98.94
280.968	88.94
281.199	87.94
281.431	92.94
281.662	93.94
281.894	97.94
282.125	108.94
282.356	108.94
282.588	134.94
282.819	118.94
283.051	97.94
283.282	92.94
283.513	93.94
283.745	97.94
283.976	82.94
284.207	83.94
284.439	88.94
284.67	93.94
284.901	84.94
285.132	93.94
285.364	95.94
285.595	80.94
285.826	84.94
286.057	94.94
286.288	91.94
286.52	86.94
286.751	82.94
286.982	96.94
287.213	92.94
287.444	94.94
287.675	87.94
287.906	93.94
288.138	98.94
288.369	104.94
288.6	104.94
288.831	96.94
289.062	96.94
289.293	81.94
289.524	103.94
289.755	87.94
289.986	96.94
290.217	97.94
290.448	98.94
290.679	85.94
290.91	88.94
291.141	102.94
291.371	95.94
291.602	93.94
291.833	92.94
292.064	80.94
292.295	76.94
292.526	103.94
292.757	92.94
292.987	86.94
293.218	87.94
293.449	80.94
293.68	94.94
293.91	102.94
294.141	85.94
294.372	100.94
294.603	96.94
294.833	95.94
295.064	99.94
295.295	90.94
295.525	94.94
295.756	103.94
295.987	107.94
296.217	124.94
296.448	100.94
296.679	93.94
296.909	94.94
297.14	77.94
297.37	84.94
297.601	78.94
297.831	95.94
298.062	94.94
298.292	94.94
298.523	95.94
298.753	104.94
298.984	92.94
299.214	89.94
299.445	86.94
299.675	89.94
299.905	103.94
300.136	89.94
300.366	88.94
300.597	100.94
300.827	81.94
301.057	106.94
301.288	102.94
301.518	100.94
301.748	77.94
301.979	94.94
302.209	92.94
302.439	101.94
302.669	87.94
302.9	90.94
303.13	94.94
303.36	93.94
303.59	95.94
303.82	114.94
304.051	101.94
304.281	87.94
304.511	97.94
304.741	85.94
304.971	96.94
305.201	89.94
305.431	93.94
305.661	88.94
305.891	89.94
306.121	99.94
306.352	102.94
306.582	101.94
306.812	100.94
307.042	81.94
307.272	98.94
307.502	91.94
307.731	98.94
307.961	99.94
308.191	111.94
308.421	99.94
308.651	94.94
308.881	101.94
309.111	100.94
309.341	91.94
309.571	103.94
309.8	96.94
310.03	99.94
310.26	94.94
310.49	89.94
310.72	88.94
310.949	97.94
311.179	101.94
311.409	99.94
311.639	102.94
311.868	102.94
312.098	120.94
312.328	99.94
312.557	105.94
312.787	118.94
313.017	108.94
313.246	80.94
313.476	78.94
313.706	87.94
313.935	103.94
314.165	116.94
314.394	102.94
314.624	116.94
314.853	106.94
315.083	91.94
315.312	96.94
315.542	99.94
315.771	102.94
316.001	89.94
316.23	88.94
316.46	86.94
316.689	92.94
316.919	90.94
317.148	105.94
317.377	95.94
317.607	97.94
317.836	105.94
318.065	97.94
318.295	92.94
318.524	91.94
318.753	84.94
318.983	98.94
319.212	110.94
319.441	109.94
319.67	116.94
319.9	93.94
320.129	88.94
320.358	85.94
320.587	85.94
320.816	110.94
321.046	112.94
321.275	105.94
321.504	100.94
321.733	101.94
321.962	96.94
322.191	98.94
322.42	100.94
322.649	104.94
322.878	112.94
323.108	123.94
323.337	129.94
323.566	133.94
323.795	167.94
324.024	201.94
324.253	424.94
324.482	917.94
324.71	1877.94
324.939	2604.94
325.168	928.94
325.397	270.94
325.626	156.94
325.855	117.94
326.084	140.94
326.313	140.94
326.542	160.94
326.77	252.94
326.999	492.94
327.228	1062.94
327.457	1990.94
327.686	1573.94
327.914	412.94
328.143	206.94
328.372	160.94
328.6	124.94
328.829	114.94
329.058	127.94
329.287	120.94
329.515	124.94
329.744	117.94
329.972	102.94
330.201	98.94
330.43	103.94
330.658	117.94
330.887	162.94
331.115	119.94
331.344	108.94
331.572	106.94
331.801	100.94
332.03	101.94
332.258	111.94
332.486	75.94
332.715	77.94
332.943	89.94
333.172	89.94
333.4	103.94
333.629	109.94
333.857	109.94
334.085	103.94
334.314	99.94
334.542	101.94
334.771	106.94
334.999	107.94
335.227	107.94
335.455	97.94
335.684	92.94
335.912	108.94
336.14	106.94
336.369	103.94
336.597	108.94
336.825	88.94
337.053	107.94
337.281	84.94
337.51	94.94
337.738	96.94
337.966	101.94
338.194	96.94
338.422	102.94
338.65	104.94
338.878	108.94
339.106	105.94
339.334	110.94
339.562	98.94
339.79	104.94
340.018	83.94
340.246	82.94
340.474	86.94
340.702	96.94
340.93	91.94
341.158	95.94
341.386	103.94
341.614	102.94
341.842	103.94
342.07	85.94
342.298	102.94
342.526	98.94
342.754	90.94
342.981	89.94
343.209	89.94
343.437	93.94
343.665	80.94
343.893	91.94
344.12	84.94
344.348	90.94
344.576	95.94
344.804	99.94
345.031	94.94
345.259	106.94
345.487	95.94
345.714	101.94
345.942	95.94
346.17	99.94
346.397	93.94
346.625	91.94
346.853	84.94
347.08	95.94
347.308	96.94
347.535	102.94
347.763	99.94
347.99	109.94
348.218	101.94
348.445	91.94
348.673	102.94
348.9	109.94
349.128	98.94
349.355	90.94
349.583	102.94
349.81	99.94
350.037	88.94
350.265	89.94
350.492	81.94
350.72	112.94
350.947	91.94
351.174	98.94
351.402	109.94
351.629	111.94
351.856	86.94
352.083	103.94
352.311	106.94
352.538	121.94
352.765	125.94
352.992	109.94
353.22	106.94
353.447	89.94
353.674	106.94
353.901	102.94
354.128	95.94
354.355	104.94
354.583	100.94
354.81	98.94
355.037	93.94
355.264	99.94
355.491	99.94
355.718	87.94
355.945	77.94
356.172	91.94
356.399	87.94
356.626	101.94
356.853	101.94
357.08	96.94
357.307	98.94
357.534	86.94
357.761	93.94
357.988	104.94
358.215	98.94
358.441	92.94
358.668	96.94
358.895	95.94
359.122	113.94
359.349	107.94
359.576	105.94
359.802	112.94
360.029	123.94
360.256	109.94
360.483	93.94
360.709	94.94
360.936	93.94
361.163	89.94
361.39	105.94
361.616	88.94
361.843	84.94
362.07	100.94
362.296	112.94
362.523	88.94
362.749	99.94
362.976	109.94
363.203	94.94
363.429	103.94
363.656	98.94
363.882	89.94
364.109	96.94
364.335	83.94
364.562	94.94
364.788	108.94
365.015	102.94
365.241	99.94
365.468	113.94
365.694	109.94
365.92	93.94
366.147	85.94
366.373	93.94
366.599	94.94
366.826	90.94
367.052	87.94
367.278	81.94
367.505	98.94
367.731	95.94
367.957	90.94
368.184	104.94
368.41	101.94
368.636	113.94
368.862	111.94
369.089	100.94
369.315	98.94
369.541	89.94
369.767	85.94
369.993	103.94
370.219	95.94
370.445	99.94
370.672	97.94
370.898	95.94
371.124	93.94
371.35	92.94
371.576	98.94
371.802	86.94
372.028	98.94
372.254	96.94
372.48	90.94
372.706	87.94
372.932	103.94
373.158	90.94
373.384	92.94
373.61	106.94
373.835	96.94
374.061	81.94
374.287	106.94
374.513	87.94
374.739	88.94
374.965	80.94
375.191	85.94
375.416	86.94
375.642	95.94
375.868	83.94
376.094	93.94
376.319	94.94
376.545	89.94
376.771	87.94
376.997	96.94
377.222	101.94
377.448	98.94
377.674	93.94
377.899	90.94
378.125	97.94
378.35	108.94
378.576	73.94
378.802	98.94
379.027	105.94
379.253	102.94
379.478	92.94
379.704	98.94
379.929	98.94
380.155	81.94
380.38	99.94
380.606	93.94
380.831	93.94
381.057	117.94
381.282	93.94
381.507	94.94
381.733	95.94
381.958	81.94
382.184	94.94
382.409	88.94
382.634	101.94
382.86	91.94
383.085	98.94
383.31	105.94
383.535	105.94
383.761	109.94
383.986	100.94
384.211	101.94
384.436	101.94
384.662	94.94
384.887	95.94
385.112	96.94
385.337	99.94
385.562	106.94
385.787	118.94
386.013	118.94
386.238	96.94
386.463	101.94
386.688	93.94
386.913	110.94
387.138	113.94
387.363	103.94
387.588	92.94
387.813	97.94
388.038	93.94
388.263	106.94
388.488	94.94
388.713	111.94
388.938	109.94
389.163	98.94
389.387	100.94
389.612	101.94
389.837	84.94
390.062	99.94
390.287	94.94
390.512	92.94
390.736	82.94
390.961	104.94
391.186	92.94
391.411	87.94
391.636	91.94
391.86	100.94
392.085	82.94
392.31	89.94
392.534	92.94
392.759	85.94
392.984	113.94
393.208	97.94
393.433	94.94
393.658	101.94
393.882	85.94
394.107	94.94
394.331	75.94
394.556	91.94
394.78	92.94
395.005	83.94
395.229	85.94
395.454	96.94
395.678	85.94
395.903	96.94
396.127	91.94
396.352	96.94
396.576	82.94
396.801	102.94
397.025	86.94
397.249	83.94
397.474	110.94
397.698	76.94
397.922	97.94
398.147	84.94
398.371	88.94
398.595	83.94
398.82	99.94
399.044	92.94
399.268	97.94
399.492	86.94
399.717	99.94
399.941	88.94
400.165	106.94
400.389	95.94
400.613	82.94
400.837	97.94
401.062	96.94
401.286	96.94
401.51	84.94
401.734	97.94
401.958	94.94
402.182	107.94
402.406	147.94
402.63	125.94
402.854	100.94
403.078	96.94
403.302	88.94
403.526	97.94
403.75	86.94
403.974	83.94
404.198	85.94
404.422	89.94
404.645	97.94
404.869	93.94
405.093	85.94
405.317	102.94
405.541	109.94
405.765	96.94
405.988	97.94
406.212	176.94
406.436	233.94
406.66	152.94
406.883	99.94
407.107	110.94
407.331	97.94
407.555	105.94
407.778	112.94
408.002	84.94
408.226	78.94
408.449	95.94
408.673	87.94
408.896	93.94
409.12	99.94
409.344	99.94
409.567	96.94
409.791	94.94
410.014	107.94
410.238	96.94
410.461	86.94
410.685	93.94
410.908	92.94
411.132	114.94
411.355	108.94
411.578	99.94
411.802	102.94
412.025	83.94
412.249	86.94
412.472	92.94
412.695	87.94
412.919	80.94
413.142	96.94
413.365	95.94
413.589	88.94
413.812	95.94
414.035	69.94
414.258	90.94
414.482	107.94
414.705	104.94
414.928	102.94
415.151	84.94
415.374	97.94
415.597	96.94
415.821	96.94
416.044	88.94
416.267	89.94
416.49	97.94
416.713	94.94
416.936	87.94
417.159	93.94
417.382	85.94
417.605	93.94
417.828	90.94
418.051	98.94
418.274	93.94
418.497	92.94
418.72	98.94
418.943	92.94
419.166	89.94
419.389	92.94
419.611	101.94
419.834	105.94
420.057	83.94
420.28	93.94
420.503	80.94
420.726	101.94
420.948	85.94
421.171	90.94
421.394	97.94
421.617	100.94
421.839	93.94
422.062	102.94
422.285	101.94
422.507	106.94
422.73	106.94
422.953	97.94
423.175	88.94
423.398	103.94
423.621	95.94
423.843	88.94
424.066	89.94
424.288	93.94
424.511	90.94
424.733	96.94
424.956	122.94
425.178	101.94
425.401	110.94
425.623	90.94
425.846	94.94
426.068	99.94
426.291	92.94
426.513	98.94
426.735	108.94
426.958	96.94
427.18	109.94
427.402	141.94
427.625	161.94
427.847	128.94
428.069	102.94
428.292	93.94
428.514	83.94
428.736	82.94
428.958	89.94
429.181	91.94
429.403	87.94
429.625	84.94
429.847	84.94
430.069	100.94
430.292	109.94
430.514	94.94
430.736	93.94
430.958	94.94
431.18	89.94
431.402	91.94
431.624	70.94
431.846	93.94
432.068	82.94
432.29	86.94
432.512	88.94
432.734	96.94
432.956	102.94
433.178	96.94
433.4	104.94
433.622	92.94
433.844	98.94
434.066	96.94
434.287	105.94
434.509	79.94
434.731	90.94
434.953	99.94
435.175	84.94
435.397	88.94
435.618	101.94
435.84	105.94
436.062	136.94
436.284	126.94
436.505	103.94
436.727	104.94
436.949	89.94
437.17	93.94
437.392	104.94
437.614	96.94
437.835	105.94
438.057	128.94
438.278	131.94
438.5	115.94
438.721	141.94
438.943	109.94
439.165	85.94
439.386	85.94
439.608	81.94
439.829	101.94
440.05	118.94
440.272	168.94
440.493	95.94
440.715	95.94
440.936	85.94
441.158	91.94
441.379	88.94
441.6	92.94
441.822	95.94
442.043	86.94
442.264	114.94
442.486	111.94
442.707	97.94
442.928	97.94
443.149	137.94
443.371	125.94
443.592	101.94
443.813	123.94
444.034	110.94
444.255	92.94
444.476	89.94
444.698	92.94
444.919	82.94
445.14	145.94
445.361	129.94
445.582	113.94
445.803	165.94
446.024	152.94
446.245	145.94
446.466	135.94
446.687	104.94
446.908	78.94
447.129	92.94
447.35	85.94
447.571	103.94
447.792	89.94
448.013	118.94
448.234	118.94
448.455	111.94
448.675	117.94
448.896	143.94
449.117	104.94
449.338	110.94
449.559	151.94
449.779	156.94
450	93.94
450.221	84.94
450.442	93.94
450.662	93.94
450.883	90.94
451.104	122.94
451.324	104.94
451.545	111.94
451.766	91.94
451.986	89.94
452.207	87.94
452.428	89.94
452.648	93.94
452.869	98.94
453.089	113.94
453.31	108.94
453.53	98.94
453.751	98.94
453.971	103.94
454.192	116.94
454.412	97.94
454.633	91.94
454.853	80.94
455.073	90.94
455.294	92.94
455.514	107.94
455.734	97.94
455.955	92.94
456.175	79.94
456.395	73.94
456.616	71.94
456.836	98.94
457.056	92.94
457.276	71.94
457.497	87.94
457.717	78.94
457.937	81.94
458.157	96.94
458.377	98.94
458.598	116.94
458.818	154.94
459.038	176.94
459.258	120.94
459.478	91.94
459.698	87.94
459.918	99.94
460.138	94.94
460.358	92.94
460.578	89.94
460.798	101.94
461.018	93.94
461.238	86.94
461.458	83.94
461.678	77.94
461.898	93.94
462.118	96.94
462.338	82.94
462.558	93.94
462.777	88.94
462.997	96.94
463.217	82.94
463.437	91.94
463.657	96.94
463.876	84.94
464.096	95.94
464.316	103.94
464.536	86.94
464.755	96.94
464.975	103.94
465.195	160.94
465.414	160.94
465.634	112.94
465.854	69.94
466.073	105.94
466.293	85.94
466.512	82.94
466.732	93.94
466.951	103.94
467.171	94.94
467.391	91.94
467.61	118.94
467.829	96.94
468.049	66.94
468.268	87.94
468.488	86.94
468.707	101.94
468.927	95.94
469.146	90.94
469.365	94.94
469.585	89.94
469.804	103.94
470.023	87.94
470.243	102.94
470.462	98.94
470.681	108.94
470.901	94.94
471.12	100.94
471.339	88.94
471.558	84.94
471.777	83.94
471.997	92.94
472.216	105.94
472.435	87.94
472.654	98.94
472.873	89.94
473.092	99.94
473.311	90.94
473.53	87.94
473.749	82.94
473.968	98.94
474.187	111.94
474.406	101.94
474.625	94.94
474.844	101.94
475.063	93.94
475.282	100.94
475.501	88.94
475.72	106.94
475.939	78.94
476.158	102.94
476.377	101.94
476.596	108.94
476.814	96.94
477.033	97.94
477.252	86.94
477.471	89.94
477.69	82.94
477.908	82.94
478.127	76.94
478.346	97.94
478.564	88.94
478.783	100.94
479.002	92.94
479.22	81.94
479.439	102.94
479.658	111.94
479.876	88.94
480.095	96.94
480.313	90.94
480.532	80.94
480.751	82.94
480.969	96.94
481.188	89.94
481.406	111.94
481.624	87.94
481.843	83.94
482.061	88.94
482.28	88.94
482.498	83.94
482.717	104.94
482.935	88.94
483.153	113.94
483.372	92.94
483.59	94.94
483.808	88.94
484.027	97.94
484.245	90.94
484.463	102.94
484.681	107.94
484.9	80.94
485.118	92.94
485.336	92.94
485.554	106.94
485.772	101.94
485.99	107.94
486.209	106.94
486.427	94.94
486.645	101.94
486.863	116.94
487.081	111.94
487.299	105.94
487.517	110.94
487.735	109.94
487.953	105.94
488.171	113.94
488.389	88.94
488.607	103.94
488.825	86.94
489.043	95.94
489.261	100.94
489.479	97.94
489.696	99.94
489.914	88.94
490.132	86.94
490.35	88.94
490.568	90.94
490.786	85.94
491.003	90.94
491.221	84.94
491.439	84.94
491.657	92.94
491.874	103.94
492.092	87.94
492.31	99.94
492.527	94.94
492.745	100.94
492.963	90.94
493.18	84.94
493.398	109.94
493.615	100.94
493.833	104.94
494.05	98.94
494.268	91.94
494.485	97.94
494.703	85.94
494.92	96.94
495.138	89.94
495.355	93.94
495.573	88.94
495.79	87.94
496.008	92.94
496.225	98.94
496.442	84.94
496.66	97.94
496.877	90.94
497.094	89.94
497.312	90.94
497.529	93.94
497.746	104.94
497.963	87.94
498.181	99.94
498.398	98.94
498.615	116.94
498.832	100.94
499.049	96.94
499.267	94.94
499.484	84.94
499.701	103.94
499.918	94.94
500.135	96.94
500.352	80.94
500.569	106.94
500.786	98.94
501.003	96.94
501.22	111.94
501.437	99.94
501.654	115.94
501.871	105.94
502.088	106.94
502.305	95.94
502.522	96.94
502.739	78.94
502.956	76.94
503.172	95.94
503.389	109.94
503.606	114.94
503.823	106.94
504.04	101.94
504.256	85.94
504.473	77.94
504.69	95.94
504.907	105.94
505.123	104.94
505.34	101.94
505.557	88.94
505.773	105.94
505.99	103.94
506.207	90.94
506.423	92.94
506.64	84.94
506.856	95.94
507.073	91.94
507.289	101.94
507.506	107.94
507.722	118.94
507.939	114.94
508.155	98.94
508.372	96.94
508.588	89.94
508.805	98.94
509.021	94.94
509.238	112.94
509.454	110.94
509.67	92.94
509.887	103.94
510.103	142.94
510.319	201.94
510.536	752.94
510.752	2266.94
510.968	633.94
511.184	166.94
511.401	106.94
511.617	97.94
511.833	96.94
512.049	95.94
512.265	84.94
512.481	79.94
512.698	87.94
512.914	95.94
513.13	84.94
513.346	109.94
513.562	94.94
513.778	98.94
513.994	100.94
514.21	109.94
514.426	114.94
