Data from Uncirc_1991_H10_HRD10591_00089.txt Node
Date: Wed Jan 03 11:50:56 EST 2024
User: Yrep
Spectrometer: HR+D1059
Trigger mode: 1
Integration Time (sec): 1.000000E-1
Scans to average: 1
Electric dark correction enabled: true
Nonlinearity correction enabled: false
Boxcar width: 0
XAxis mode: Wavelengths
Number of Pixels in Spectrum: 2048
>>>>>Begin Spectral Data<<<<<
223.165	-9.81
223.4	-9.81
223.635	-9.81
223.869	-5.81
224.104	-16.81
224.338	-15.81
224.573	-17.81
224.808	-17.81
225.042	-5.81
225.277	-20.81
225.511	-5.81
225.746	-0.81
225.98	11.19
226.215	3.19
226.449	1.19
226.683	6.19
226.918	52.19
227.152	43.19
227.387	30.19
227.621	38.19
227.856	39.19
228.09	46.19
228.324	38.19
228.559	47.19
228.793	52.19
229.027	72.19
229.262	71.19
229.496	62.19
229.73	69.19
229.964	94.19
230.199	71.19
230.433	76.19
230.667	92.19
230.901	78.19
231.136	78.19
231.37	90.19
231.604	75.19
231.838	78.19
232.072	62.19
232.306	81.19
232.541	71.19
232.775	74.19
233.009	78.19
233.243	87.19
233.477	80.19
233.711	73.19
233.945	77.19
234.179	69.19
234.413	93.19
234.647	87.19
234.881	71.19
235.115	82.19
235.349	70.19
235.583	95.19
235.817	76.19
236.051	79.19
236.285	77.19
236.519	82.19
236.753	71.19
236.987	87.19
237.221	90.19
237.455	74.19
237.689	86.19
237.922	80.19
238.156	70.19
238.39	70.19
238.624	87.19
238.858	77.19
239.091	74.19
239.325	84.19
239.559	96.19
239.793	80.19
240.027	76.19
240.26	64.19
240.494	79.19
240.728	82.19
240.961	77.19
241.195	77.19
241.429	77.19
241.662	70.19
241.896	81.19
242.13	74.19
242.363	78.19
242.597	66.19
242.83	69.19
243.064	90.19
243.298	85.19
243.531	83.19
243.765	70.19
243.998	91.19
244.232	99.19
244.465	70.19
244.699	79.19
244.932	71.19
245.166	88.19
245.399	85.19
245.633	82.19
245.866	90.19
246.099	70.19
246.333	71.19
246.566	69.19
246.8	78.19
247.033	69.19
247.266	76.19
247.5	74.19
247.733	87.19
247.966	79.19
248.2	73.19
248.433	70.19
248.666	72.19
248.899	83.19
249.133	91.19
249.366	108.19
249.599	100.19
249.832	93.19
250.066	80.19
250.299	76.19
250.532	84.19
250.765	79.19
250.998	84.19
251.231	77.19
251.465	84.19
251.698	90.19
251.931	91.19
252.164	83.19
252.397	82.19
252.63	66.19
252.863	80.19
253.096	75.19
253.329	79.19
253.562	82.19
253.795	79.19
254.028	84.19
254.261	91.19
254.494	78.19
254.727	85.19
254.96	87.19
255.193	74.19
255.426	79.19
255.659	67.19
255.892	75.19
256.124	85.19
256.357	91.19
256.59	85.19
256.823	82.19
257.056	67.19
257.289	96.19
257.521	70.19
257.754	81.19
257.987	94.19
258.22	76.19
258.452	90.19
258.685	84.19
258.918	87.19
259.151	84.19
259.383	86.19
259.616	83.19
259.849	94.19
260.081	87.19
260.314	82.19
260.547	82.19
260.779	81.19
261.012	77.19
261.244	75.19
261.477	84.19
261.71	98.19
261.942	123.19
262.175	123.19
262.407	75.19
262.64	90.19
262.872	82.19
263.105	81.19
263.337	96.19
263.57	86.19
263.802	89.19
264.035	83.19
264.267	78.19
264.499	86.19
264.732	65.19
264.964	70.19
265.197	90.19
265.429	80.19
265.661	98.19
265.894	107.19
266.126	80.19
266.358	92.19
266.591	75.19
266.823	72.19
267.055	74.19
267.287	95.19
267.52	90.19
267.752	94.19
267.984	78.19
268.216	90.19
268.448	93.19
268.681	78.19
268.913	83.19
269.145	80.19
269.377	81.19
269.609	92.19
269.841	78.19
270.073	98.19
270.306	89.19
270.538	90.19
270.77	86.19
271.002	88.19
271.234	68.19
271.466	82.19
271.698	86.19
271.93	84.19
272.162	86.19
272.394	87.19
272.626	70.19
272.858	78.19
273.09	103.19
273.322	86.19
273.553	74.19
273.785	77.19
274.017	84.19
274.249	78.19
274.481	73.19
274.713	89.19
274.945	93.19
275.176	87.19
275.408	94.19
275.64	94.19
275.872	86.19
276.104	79.19
276.335	93.19
276.567	101.19
276.799	106.19
277.031	108.19
277.262	84.19
277.494	100.19
277.726	86.19
277.957	90.19
278.189	96.19
278.421	86.19
278.652	95.19
278.884	85.19
279.115	88.19
279.347	77.19
279.579	93.19
279.81	82.19
280.042	94.19
280.273	91.19
280.505	86.19
280.736	75.19
280.968	90.19
281.199	90.19
281.431	91.19
281.662	79.19
281.894	97.19
282.125	115.19
282.356	123.19
282.588	152.19
282.819	116.19
283.051	94.19
283.282	92.19
283.513	62.19
283.745	82.19
283.976	84.19
284.207	91.19
284.439	78.19
284.67	93.19
284.901	97.19
285.132	80.19
285.364	78.19
285.595	79.19
285.826	87.19
286.057	95.19
286.288	108.19
286.52	94.19
286.751	85.19
286.982	85.19
287.213	93.19
287.444	94.19
287.675	85.19
287.906	109.19
288.138	95.19
288.369	92.19
288.6	102.19
288.831	94.19
289.062	91.19
289.293	96.19
289.524	78.19
289.755	93.19
289.986	78.19
290.217	86.19
290.448	92.19
290.679	84.19
290.91	80.19
291.141	95.19
291.371	81.19
291.602	87.19
291.833	98.19
292.064	94.19
292.295	81.19
292.526	83.19
292.757	76.19
292.987	78.19
293.218	75.19
293.449	85.19
293.68	90.19
293.91	88.19
294.141	87.19
294.372	74.19
294.603	88.19
294.833	85.19
295.064	79.19
295.295	77.19
295.525	85.19
295.756	114.19
295.987	111.19
296.217	144.19
296.448	136.19
296.679	93.19
296.909	76.19
297.14	91.19
297.37	83.19
297.601	84.19
297.831	92.19
298.062	82.19
298.292	100.19
298.523	99.19
298.753	91.19
298.984	77.19
299.214	98.19
299.445	102.19
299.675	102.19
299.905	109.19
300.136	99.19
300.366	79.19
300.597	88.19
300.827	92.19
301.057	102.19
301.288	119.19
301.518	95.19
301.748	99.19
301.979	103.19
302.209	85.19
302.439	89.19
302.669	83.19
302.9	68.19
303.13	86.19
303.36	98.19
303.59	110.19
303.82	106.19
304.051	90.19
304.281	81.19
304.511	96.19
304.741	95.19
304.971	88.19
305.201	76.19
305.431	95.19
305.661	100.19
305.891	94.19
306.121	94.19
306.352	108.19
306.582	108.19
306.812	83.19
307.042	102.19
307.272	86.19
307.502	100.19
307.731	93.19
307.961	85.19
308.191	86.19
308.421	106.19
308.651	84.19
308.881	108.19
309.111	100.19
309.341	84.19
309.571	103.19
309.8	100.19
310.03	103.19
310.26	96.19
310.49	100.19
310.72	96.19
310.949	108.19
311.179	97.19
311.409	71.19
311.639	90.19
311.868	96.19
312.098	99.19
312.328	96.19
312.557	102.19
312.787	108.19
313.017	105.19
313.246	93.19
313.476	97.19
313.706	92.19
313.935	86.19
314.165	91.19
314.394	104.19
314.624	95.19
314.853	86.19
315.083	96.19
315.312	97.19
315.542	96.19
315.771	83.19
316.001	93.19
316.23	103.19
316.46	94.19
316.689	97.19
316.919	93.19
317.148	106.19
317.377	104.19
317.607	90.19
317.836	94.19
318.065	85.19
318.295	102.19
318.524	86.19
318.753	82.19
318.983	97.19
319.212	111.19
319.441	121.19
319.67	109.19
319.9	91.19
320.129	87.19
320.358	84.19
320.587	91.19
320.816	104.19
321.046	101.19
321.275	102.19
321.504	97.19
321.733	84.19
321.962	114.19
322.191	112.19
322.42	111.19
322.649	119.19
322.878	111.19
323.108	125.19
323.337	149.19
323.566	142.19
323.795	176.19
324.024	243.19
324.253	470.19
324.482	1043.19
324.71	2253.19
324.939	3109.19
325.168	1095.19
325.397	304.19
325.626	167.19
325.855	147.19
326.084	126.19
326.313	164.19
326.542	183.19
326.77	256.19
326.999	566.19
327.228	1183.19
327.457	2293.19
327.686	1853.19
327.914	460.19
328.143	231.19
328.372	172.19
328.6	130.19
328.829	125.19
329.058	153.19
329.287	154.19
329.515	115.19
329.744	102.19
329.972	95.19
330.201	97.19
330.43	101.19
330.658	134.19
330.887	172.19
331.115	143.19
331.344	107.19
331.572	92.19
331.801	103.19
332.03	101.19
332.258	103.19
332.486	88.19
332.715	106.19
332.943	102.19
333.172	99.19
333.4	96.19
333.629	108.19
333.857	110.19
334.085	111.19
334.314	88.19
334.542	86.19
334.771	103.19
334.999	98.19
335.227	99.19
335.455	101.19
335.684	106.19
335.912	94.19
336.14	95.19
336.369	107.19
336.597	112.19
336.825	117.19
337.053	103.19
337.281	93.19
337.51	82.19
337.738	97.19
337.966	98.19
338.194	105.19
338.422	110.19
338.65	97.19
338.878	90.19
339.106	95.19
339.334	86.19
339.562	93.19
339.79	92.19
340.018	90.19
340.246	90.19
340.474	99.19
340.702	92.19
340.93	98.19
341.158	95.19
341.386	103.19
341.614	106.19
341.842	98.19
342.07	96.19
342.298	98.19
342.526	102.19
342.754	97.19
342.981	103.19
343.209	83.19
343.437	82.19
343.665	93.19
343.893	86.19
344.12	100.19
344.348	94.19
344.576	85.19
344.804	83.19
345.031	101.19
345.259	104.19
345.487	99.19
345.714	94.19
345.942	96.19
346.17	100.19
346.397	83.19
346.625	100.19
346.853	86.19
347.08	83.19
347.308	94.19
347.535	95.19
347.763	110.19
347.99	92.19
348.218	102.19
348.445	116.19
348.673	113.19
348.9	94.19
349.128	84.19
349.355	86.19
349.583	90.19
349.81	99.19
350.037	84.19
350.265	87.19
350.492	96.19
350.72	104.19
350.947	111.19
351.174	112.19
351.402	116.19
351.629	104.19
351.856	98.19
352.083	97.19
352.311	109.19
352.538	106.19
352.765	113.19
352.992	104.19
353.22	114.19
353.447	95.19
353.674	98.19
353.901	103.19
354.128	87.19
354.355	86.19
354.583	87.19
354.81	108.19
355.037	103.19
355.264	99.19
355.491	94.19
355.718	82.19
355.945	92.19
356.172	87.19
356.399	88.19
356.626	112.19
356.853	102.19
357.08	97.19
357.307	79.19
357.534	90.19
357.761	85.19
357.988	88.19
358.215	101.19
358.441	89.19
358.668	81.19
358.895	94.19
359.122	99.19
359.349	80.19
359.576	94.19
359.802	96.19
360.029	123.19
360.256	118.19
360.483	117.19
360.709	88.19
360.936	93.19
361.163	98.19
361.39	99.19
361.616	114.19
361.843	80.19
362.07	111.19
362.296	102.19
362.523	100.19
362.749	101.19
362.976	94.19
363.203	93.19
363.429	92.19
363.656	89.19
363.882	96.19
364.109	82.19
364.335	99.19
364.562	86.19
364.788	91.19
365.015	99.19
365.241	96.19
365.468	104.19
365.694	107.19
365.92	92.19
366.147	87.19
366.373	90.19
366.599	99.19
366.826	97.19
367.052	94.19
367.278	88.19
367.505	96.19
367.731	114.19
367.957	103.19
368.184	95.19
368.41	92.19
368.636	131.19
368.862	129.19
369.089	113.19
369.315	101.19
369.541	101.19
369.767	88.19
369.993	93.19
370.219	94.19
370.445	77.19
370.672	97.19
370.898	78.19
371.124	81.19
371.35	80.19
371.576	82.19
371.802	84.19
372.028	91.19
372.254	87.19
372.48	83.19
372.706	76.19
372.932	79.19
373.158	80.19
373.384	105.19
373.61	90.19
373.835	94.19
374.061	87.19
374.287	110.19
374.513	92.19
374.739	88.19
374.965	98.19
375.191	69.19
375.416	94.19
375.642	88.19
375.868	88.19
376.094	102.19
376.319	95.19
376.545	97.19
376.771	71.19
376.997	89.19
377.222	91.19
377.448	103.19
377.674	79.19
377.899	68.19
378.125	91.19
378.35	102.19
378.576	100.19
378.802	85.19
379.027	92.19
379.253	81.19
379.478	95.19
379.704	88.19
379.929	101.19
380.155	110.19
380.38	93.19
380.606	82.19
380.831	97.19
381.057	99.19
381.282	86.19
381.507	90.19
381.733	97.19
381.958	88.19
382.184	107.19
382.409	99.19
382.634	96.19
382.86	94.19
383.085	95.19
383.31	100.19
383.535	94.19
383.761	102.19
383.986	109.19
384.211	94.19
384.436	102.19
384.662	103.19
384.887	96.19
385.112	115.19
385.337	98.19
385.562	102.19
385.787	111.19
386.013	105.19
386.238	122.19
386.463	101.19
386.688	114.19
386.913	85.19
387.138	101.19
387.363	103.19
387.588	91.19
387.813	92.19
388.038	96.19
388.263	110.19
388.488	115.19
388.713	93.19
388.938	94.19
389.163	98.19
389.387	94.19
389.612	95.19
389.837	92.19
390.062	100.19
390.287	87.19
390.512	96.19
390.736	90.19
390.961	84.19
391.186	90.19
391.411	91.19
391.636	86.19
391.86	93.19
392.085	94.19
392.31	86.19
392.534	99.19
392.759	77.19
392.984	78.19
393.208	97.19
393.433	81.19
393.658	85.19
393.882	90.19
394.107	85.19
394.331	86.19
394.556	93.19
394.78	79.19
395.005	85.19
395.229	86.19
395.454	87.19
395.678	87.19
395.903	95.19
396.127	95.19
396.352	92.19
396.576	112.19
396.801	101.19
397.025	92.19
397.249	75.19
397.474	97.19
397.698	91.19
397.922	79.19
398.147	83.19
398.371	89.19
398.595	90.19
398.82	92.19
399.044	92.19
399.268	88.19
399.492	89.19
399.717	85.19
399.941	90.19
400.165	95.19
400.389	91.19
400.613	89.19
400.837	88.19
401.062	82.19
401.286	69.19
401.51	108.19
401.734	101.19
401.958	105.19
402.182	127.19
402.406	176.19
402.63	123.19
402.854	98.19
403.078	82.19
403.302	97.19
403.526	90.19
403.75	93.19
403.974	87.19
404.198	63.19
404.422	84.19
404.645	78.19
404.869	89.19
405.093	106.19
405.317	105.19
405.541	104.19
405.765	104.19
405.988	119.19
406.212	182.19
406.436	278.19
406.66	170.19
406.883	117.19
407.107	105.19
407.331	100.19
407.555	119.19
407.778	106.19
408.002	91.19
408.226	104.19
408.449	85.19
408.673	95.19
408.896	95.19
409.12	106.19
409.344	100.19
409.567	85.19
409.791	95.19
410.014	97.19
410.238	103.19
410.461	93.19
410.685	94.19
410.908	99.19
411.132	104.19
411.355	101.19
411.578	95.19
411.802	82.19
412.025	84.19
412.249	106.19
412.472	97.19
412.695	84.19
412.919	93.19
413.142	90.19
413.365	82.19
413.589	94.19
413.812	95.19
414.035	78.19
414.258	94.19
414.482	77.19
414.705	81.19
414.928	90.19
415.151	96.19
415.374	88.19
415.597	88.19
415.821	84.19
416.044	87.19
416.267	88.19
416.49	76.19
416.713	84.19
416.936	89.19
417.159	76.19
417.382	110.19
417.605	88.19
417.828	91.19
418.051	102.19
418.274	76.19
418.497	79.19
418.72	76.19
418.943	84.19
419.166	89.19
419.389	89.19
419.611	94.19
419.834	85.19
420.057	94.19
420.28	86.19
420.503	94.19
420.726	94.19
420.948	96.19
421.171	102.19
421.394	98.19
421.617	102.19
421.839	83.19
422.062	79.19
422.285	103.19
422.507	101.19
422.73	103.19
422.953	92.19
423.175	89.19
423.398	83.19
423.621	94.19
423.843	100.19
424.066	89.19
424.288	90.19
424.511	95.19
424.733	107.19
424.956	122.19
425.178	96.19
425.401	109.19
425.623	112.19
425.846	86.19
426.068	101.19
426.291	88.19
426.513	104.19
426.735	87.19
426.958	98.19
427.18	115.19
427.402	150.19
427.625	197.19
427.847	157.19
428.069	120.19
428.292	94.19
428.514	87.19
428.736	80.19
428.958	86.19
429.181	81.19
429.403	74.19
429.625	77.19
429.847	111.19
430.069	99.19
430.292	96.19
430.514	86.19
430.736	85.19
430.958	78.19
431.18	79.19
431.402	92.19
431.624	89.19
431.846	85.19
432.068	82.19
432.29	88.19
432.512	79.19
432.734	80.19
432.956	99.19
433.178	111.19
433.4	99.19
433.622	88.19
433.844	115.19
434.066	98.19
434.287	94.19
434.509	98.19
434.731	103.19
434.953	93.19
435.175	84.19
435.397	104.19
435.618	104.19
435.84	107.19
436.062	161.19
436.284	140.19
436.505	103.19
436.727	106.19
436.949	96.19
437.17	96.19
437.392	92.19
437.614	88.19
437.835	109.19
438.057	130.19
438.278	134.19
438.5	125.19
438.721	135.19
438.943	104.19
439.165	96.19
439.386	88.19
439.608	98.19
439.829	105.19
440.05	145.19
440.272	161.19
440.493	113.19
440.715	87.19
440.936	86.19
441.158	76.19
441.379	85.19
441.6	90.19
441.822	104.19
442.043	110.19
442.264	127.19
442.486	94.19
442.707	90.19
442.928	124.19
443.149	138.19
443.371	141.19
443.592	108.19
443.813	125.19
444.034	124.19
444.255	90.19
444.476	97.19
444.698	94.19
444.919	104.19
445.14	155.19
445.361	125.19
445.582	116.19
445.803	174.19
446.024	158.19
446.245	175.19
446.466	121.19
446.687	84.19
446.908	97.19
447.129	86.19
447.35	84.19
447.571	94.19
447.792	92.19
448.013	110.19
448.234	97.19
448.455	102.19
448.675	129.19
448.896	151.19
449.117	106.19
449.338	115.19
449.559	141.19
449.779	148.19
450	98.19
450.221	98.19
450.442	88.19
450.662	107.19
450.883	110.19
451.104	127.19
451.324	104.19
451.545	95.19
451.766	99.19
451.986	78.19
452.207	95.19
452.428	79.19
452.648	106.19
452.869	139.19
453.089	121.19
453.31	131.19
453.53	95.19
453.751	72.19
453.971	110.19
454.192	125.19
454.412	89.19
454.633	107.19
454.853	86.19
455.073	81.19
455.294	101.19
455.514	95.19
455.734	97.19
455.955	91.19
456.175	90.19
456.395	85.19
456.616	96.19
456.836	103.19
457.056	84.19
457.276	80.19
457.497	88.19
457.717	86.19
457.937	90.19
458.157	94.19
458.377	72.19
458.598	112.19
458.818	166.19
459.038	195.19
459.258	127.19
459.478	93.19
459.698	76.19
459.918	89.19
460.138	79.19
460.358	102.19
460.578	96.19
460.798	89.19
461.018	78.19
461.238	88.19
461.458	84.19
461.678	79.19
461.898	85.19
462.118	66.19
462.338	82.19
462.558	94.19
462.777	95.19
462.997	73.19
463.217	79.19
463.437	76.19
463.657	92.19
463.876	89.19
464.096	100.19
464.316	100.19
464.536	86.19
464.755	96.19
464.975	112.19
465.195	184.19
465.414	186.19
465.634	97.19
465.854	84.19
466.073	94.19
466.293	97.19
466.512	94.19
466.732	89.19
466.951	97.19
467.171	94.19
467.391	97.19
467.61	112.19
467.829	99.19
468.049	86.19
468.268	91.19
468.488	100.19
468.707	82.19
468.927	83.19
469.146	93.19
469.365	95.19
469.585	90.19
469.804	108.19
470.023	94.19
470.243	90.19
470.462	118.19
470.681	106.19
470.901	100.19
471.12	92.19
471.339	91.19
471.558	78.19
471.777	82.19
471.997	94.19
472.216	87.19
472.435	74.19
472.654	82.19
472.873	92.19
473.092	91.19
473.311	98.19
473.53	98.19
473.749	90.19
473.968	98.19
474.187	100.19
474.406	97.19
474.625	94.19
474.844	70.19
475.063	88.19
475.282	93.19
475.501	95.19
475.72	90.19
475.939	88.19
476.158	90.19
476.377	87.19
476.596	102.19
476.814	91.19
477.033	75.19
477.252	95.19
477.471	83.19
477.69	72.19
477.908	83.19
478.127	101.19
478.346	81.19
478.564	91.19
478.783	99.19
479.002	91.19
479.22	86.19
479.439	112.19
479.658	108.19
479.876	105.19
480.095	104.19
480.313	98.19
480.532	89.19
480.751	90.19
480.969	77.19
481.188	96.19
481.406	102.19
481.624	96.19
481.843	82.19
482.061	84.19
482.28	89.19
482.498	85.19
482.717	98.19
482.935	90.19
483.153	91.19
483.372	84.19
483.59	104.19
483.808	87.19
484.027	107.19
484.245	96.19
484.463	85.19
484.681	94.19
484.9	85.19
485.118	106.19
485.336	102.19
485.554	101.19
485.772	102.19
485.99	98.19
486.209	103.19
486.427	102.19
486.645	108.19
486.863	135.19
487.081	109.19
487.299	105.19
487.517	98.19
487.735	80.19
487.953	95.19
488.171	90.19
488.389	99.19
488.607	103.19
488.825	85.19
489.043	82.19
489.261	96.19
489.479	96.19
489.696	99.19
489.914	94.19
490.132	95.19
490.35	95.19
490.568	91.19
490.786	96.19
491.003	91.19
491.221	93.19
491.439	96.19
491.657	109.19
491.874	100.19
492.092	90.19
492.31	77.19
492.527	97.19
492.745	82.19
492.963	86.19
493.18	110.19
493.398	102.19
493.615	80.19
493.833	81.19
494.05	82.19
494.268	68.19
494.485	92.19
494.703	94.19
494.92	93.19
495.138	91.19
495.355	102.19
495.573	104.19
495.79	91.19
496.008	99.19
496.225	76.19
496.442	86.19
496.66	100.19
496.877	97.19
497.094	90.19
497.312	85.19
497.529	94.19
497.746	91.19
497.963	90.19
498.181	99.19
498.398	124.19
498.615	114.19
498.832	111.19
499.049	92.19
499.267	99.19
499.484	78.19
499.701	79.19
499.918	89.19
500.135	87.19
500.352	93.19
500.569	96.19
500.786	108.19
501.003	94.19
501.22	94.19
501.437	96.19
501.654	94.19
501.871	123.19
502.088	102.19
502.305	76.19
502.522	100.19
502.739	93.19
502.956	103.19
503.172	92.19
503.389	95.19
503.606	103.19
503.823	92.19
504.04	104.19
504.256	91.19
504.473	86.19
504.69	86.19
504.907	102.19
505.123	91.19
505.34	84.19
505.557	79.19
505.773	90.19
505.99	99.19
506.207	94.19
506.423	99.19
506.64	88.19
506.856	95.19
507.073	103.19
507.289	93.19
507.506	105.19
507.722	121.19
507.939	124.19
508.155	94.19
508.372	90.19
508.588	90.19
508.805	103.19
509.021	111.19
509.238	111.19
509.454	91.19
509.67	106.19
509.887	116.19
510.103	130.19
510.319	234.19
510.536	818.19
510.752	2716.19
510.968	744.19
511.184	168.19
511.401	129.19
511.617	102.19
511.833	83.19
512.049	102.19
512.265	98.19
512.481	94.19
512.698	86.19
512.914	91.19
513.13	97.19
513.346	87.19
513.562	95.19
513.778	100.19
513.994	118.19
514.21	110.19
514.426	116.19
514.642	150.19
514.858	136.19
