Data from Uncirc_1991_H10_HRD10591_00032.txt Node
Date: Wed Jan 03 11:50:44 EST 2024
User: Yrep
Spectrometer: HR+D1059
Trigger mode: 1
Integration Time (sec): 1.000000E-1
Scans to average: 1
Electric dark correction enabled: true
Nonlinearity correction enabled: false
Boxcar width: 0
XAxis mode: Wavelengths
Number of Pixels in Spectrum: 2048
>>>>>Begin Spectral Data<<<<<
223.165	-16.5
223.4	-16.5
223.635	-16.5
223.869	-21.5
224.104	-16.5
224.338	-9.5
224.573	-18.5
224.808	-6.5
225.042	-21.5
225.277	-3.5
225.511	11.5
225.746	-13.5
225.98	11.5
226.215	11.5
226.449	13.5
226.683	11.5
226.918	36.5
227.152	31.5
227.387	26.5
227.621	36.5
227.856	42.5
228.09	39.5
228.324	46.5
228.559	54.5
228.793	49.5
229.027	70.5
229.262	69.5
229.496	71.5
229.73	80.5
229.964	81.5
230.199	76.5
230.433	75.5
230.667	78.5
230.901	65.5
231.136	69.5
231.37	78.5
231.604	65.5
231.838	83.5
232.072	79.5
232.306	76.5
232.541	82.5
232.775	91.5
233.009	75.5
233.243	85.5
233.477	86.5
233.711	74.5
233.945	83.5
234.179	76.5
234.413	70.5
234.647	89.5
234.881	75.5
235.115	76.5
235.349	81.5
235.583	78.5
235.817	63.5
236.051	65.5
236.285	84.5
236.519	84.5
236.753	85.5
236.987	75.5
237.221	91.5
237.455	84.5
237.689	89.5
237.922	80.5
238.156	74.5
238.39	74.5
238.624	65.5
238.858	78.5
239.091	81.5
239.325	73.5
239.559	91.5
239.793	84.5
240.027	71.5
240.26	79.5
240.494	98.5
240.728	82.5
240.961	81.5
241.195	90.5
241.429	81.5
241.662	85.5
241.896	88.5
242.13	73.5
242.363	73.5
242.597	94.5
242.83	86.5
243.064	68.5
243.298	70.5
243.531	65.5
243.765	71.5
243.998	64.5
244.232	84.5
244.465	80.5
244.699	73.5
244.932	78.5
245.166	77.5
245.399	87.5
245.633	89.5
245.866	90.5
246.099	75.5
246.333	89.5
246.566	83.5
246.8	73.5
247.033	78.5
247.266	78.5
247.5	80.5
247.733	76.5
247.966	74.5
248.2	78.5
248.433	84.5
248.666	78.5
248.899	85.5
249.133	96.5
249.366	96.5
249.599	98.5
249.832	70.5
250.066	73.5
250.299	60.5
250.532	85.5
250.765	87.5
250.998	83.5
251.231	81.5
251.465	75.5
251.698	84.5
251.931	60.5
252.164	76.5
252.397	90.5
252.63	80.5
252.863	77.5
253.096	81.5
253.329	95.5
253.562	98.5
253.795	86.5
254.028	85.5
254.261	67.5
254.494	70.5
254.727	87.5
254.96	77.5
255.193	73.5
255.426	73.5
255.659	80.5
255.892	89.5
256.124	83.5
256.357	82.5
256.59	86.5
256.823	79.5
257.056	80.5
257.289	74.5
257.521	82.5
257.754	65.5
257.987	101.5
258.22	85.5
258.452	84.5
258.685	86.5
258.918	66.5
259.151	66.5
259.383	105.5
259.616	87.5
259.849	67.5
260.081	69.5
260.314	86.5
260.547	77.5
260.779	80.5
261.012	75.5
261.244	90.5
261.477	81.5
261.71	89.5
261.942	110.5
262.175	123.5
262.407	77.5
262.64	69.5
262.872	77.5
263.105	87.5
263.337	89.5
263.57	88.5
263.802	85.5
264.035	93.5
264.267	75.5
264.499	64.5
264.732	73.5
264.964	82.5
265.197	80.5
265.429	81.5
265.661	76.5
265.894	80.5
266.126	86.5
266.358	90.5
266.591	88.5
266.823	97.5
267.055	81.5
267.287	83.5
267.52	94.5
267.752	86.5
267.984	86.5
268.216	83.5
268.448	79.5
268.681	82.5
268.913	69.5
269.145	81.5
269.377	95.5
269.609	98.5
269.841	83.5
270.073	94.5
270.306	76.5
270.538	80.5
270.77	74.5
271.002	81.5
271.234	85.5
271.466	86.5
271.698	83.5
271.93	85.5
272.162	86.5
272.394	82.5
272.626	78.5
272.858	82.5
273.09	79.5
273.322	82.5
273.553	96.5
273.785	94.5
274.017	90.5
274.249	85.5
274.481	76.5
274.713	78.5
274.945	92.5
275.176	93.5
275.408	71.5
275.64	86.5
275.872	83.5
276.104	81.5
276.335	73.5
276.567	97.5
276.799	109.5
277.031	94.5
277.262	89.5
277.494	86.5
277.726	82.5
277.957	87.5
278.189	95.5
278.421	86.5
278.652	78.5
278.884	74.5
279.115	81.5
279.347	80.5
279.579	80.5
279.81	90.5
280.042	93.5
280.273	91.5
280.505	63.5
280.736	89.5
280.968	67.5
281.199	87.5
281.431	89.5
281.662	90.5
281.894	77.5
282.125	99.5
282.356	107.5
282.588	133.5
282.819	100.5
283.051	101.5
283.282	97.5
283.513	85.5
283.745	82.5
283.976	106.5
284.207	85.5
284.439	84.5
284.67	91.5
284.901	83.5
285.132	86.5
285.364	85.5
285.595	91.5
285.826	79.5
286.057	87.5
286.288	100.5
286.52	90.5
286.751	82.5
286.982	90.5
287.213	88.5
287.444	94.5
287.675	69.5
287.906	88.5
288.138	92.5
288.369	94.5
288.6	95.5
288.831	81.5
289.062	87.5
289.293	88.5
289.524	100.5
289.755	90.5
289.986	94.5
290.217	103.5
290.448	79.5
290.679	92.5
290.91	93.5
291.141	78.5
291.371	93.5
291.602	90.5
291.833	78.5
292.064	82.5
292.295	100.5
292.526	89.5
292.757	89.5
292.987	99.5
293.218	86.5
293.449	80.5
293.68	85.5
293.91	97.5
294.141	104.5
294.372	92.5
294.603	94.5
294.833	90.5
295.064	87.5
295.295	95.5
295.525	86.5
295.756	112.5
295.987	110.5
296.217	130.5
296.448	121.5
296.679	91.5
296.909	96.5
297.14	89.5
297.37	80.5
297.601	94.5
297.831	107.5
298.062	89.5
298.292	91.5
298.523	82.5
298.753	93.5
298.984	100.5
299.214	92.5
299.445	89.5
299.675	86.5
299.905	94.5
300.136	84.5
300.366	97.5
300.597	89.5
300.827	101.5
301.057	101.5
301.288	100.5
301.518	85.5
301.748	78.5
301.979	101.5
302.209	95.5
302.439	82.5
302.669	84.5
302.9	93.5
303.13	96.5
303.36	94.5
303.59	93.5
303.82	109.5
304.051	89.5
304.281	96.5
304.511	91.5
304.741	87.5
304.971	79.5
305.201	94.5
305.431	90.5
305.661	86.5
305.891	97.5
306.121	104.5
306.352	85.5
306.582	84.5
306.812	106.5
307.042	83.5
307.272	86.5
307.502	84.5
307.731	86.5
307.961	84.5
308.191	86.5
308.421	92.5
308.651	98.5
308.881	99.5
309.111	78.5
309.341	93.5
309.571	100.5
309.8	106.5
310.03	111.5
310.26	100.5
310.49	94.5
310.72	96.5
310.949	108.5
311.179	114.5
311.409	107.5
311.639	90.5
311.868	109.5
312.098	97.5
312.328	91.5
312.557	99.5
312.787	101.5
313.017	100.5
313.246	86.5
313.476	91.5
313.706	95.5
313.935	94.5
314.165	107.5
314.394	118.5
314.624	85.5
314.853	96.5
315.083	97.5
315.312	92.5
315.542	84.5
315.771	85.5
316.001	83.5
316.23	84.5
316.46	87.5
316.689	94.5
316.919	81.5
317.148	98.5
317.377	93.5
317.607	89.5
317.836	95.5
318.065	98.5
318.295	94.5
318.524	101.5
318.753	91.5
318.983	103.5
319.212	100.5
319.441	93.5
319.67	99.5
319.9	92.5
320.129	113.5
320.358	101.5
320.587	109.5
320.816	110.5
321.046	105.5
321.275	84.5
321.504	104.5
321.733	89.5
321.962	100.5
322.191	98.5
322.42	116.5
322.649	99.5
322.878	118.5
323.108	123.5
323.337	125.5
323.566	131.5
323.795	161.5
324.024	215.5
324.253	398.5
324.482	885.5
324.71	1813.5
324.939	2433.5
325.168	907.5
325.397	262.5
325.626	166.5
325.855	135.5
326.084	123.5
326.313	133.5
326.542	152.5
326.77	229.5
326.999	470.5
327.228	1006.5
327.457	1910.5
327.686	1486.5
327.914	383.5
328.143	201.5
328.372	149.5
328.6	117.5
328.829	115.5
329.058	122.5
329.287	129.5
329.515	109.5
329.744	113.5
329.972	89.5
330.201	92.5
330.43	127.5
330.658	122.5
330.887	141.5
331.115	127.5
331.344	99.5
331.572	99.5
331.801	101.5
332.03	94.5
332.258	96.5
332.486	98.5
332.715	87.5
332.943	91.5
333.172	85.5
333.4	95.5
333.629	102.5
333.857	113.5
334.085	97.5
334.314	89.5
334.542	99.5
334.771	86.5
334.999	89.5
335.227	104.5
335.455	99.5
335.684	88.5
335.912	90.5
336.14	90.5
336.369	99.5
336.597	104.5
336.825	89.5
337.053	86.5
337.281	105.5
337.51	74.5
337.738	91.5
337.966	100.5
338.194	108.5
338.422	111.5
338.65	87.5
338.878	101.5
339.106	89.5
339.334	97.5
339.562	90.5
339.79	99.5
340.018	103.5
340.246	90.5
340.474	103.5
340.702	96.5
340.93	83.5
341.158	85.5
341.386	95.5
341.614	106.5
341.842	98.5
342.07	86.5
342.298	97.5
342.526	86.5
342.754	94.5
342.981	103.5
343.209	94.5
343.437	104.5
343.665	94.5
343.893	83.5
344.12	103.5
344.348	103.5
344.576	83.5
344.804	95.5
345.031	109.5
345.259	89.5
345.487	86.5
345.714	98.5
345.942	81.5
346.17	84.5
346.397	90.5
346.625	84.5
346.853	100.5
347.08	88.5
347.308	83.5
347.535	88.5
347.763	88.5
347.99	99.5
348.218	112.5
348.445	109.5
348.673	104.5
348.9	92.5
349.128	104.5
349.355	98.5
349.583	81.5
349.81	91.5
350.037	106.5
350.265	94.5
350.492	79.5
350.72	90.5
350.947	99.5
351.174	106.5
351.402	108.5
351.629	101.5
351.856	95.5
352.083	105.5
352.311	110.5
352.538	113.5
352.765	103.5
352.992	102.5
353.22	111.5
353.447	109.5
353.674	90.5
353.901	97.5
354.128	103.5
354.355	113.5
354.583	103.5
354.81	99.5
355.037	94.5
355.264	90.5
355.491	93.5
355.718	98.5
355.945	95.5
356.172	90.5
356.399	103.5
356.626	94.5
356.853	86.5
357.08	97.5
357.307	86.5
357.534	95.5
357.761	89.5
357.988	103.5
358.215	92.5
358.441	95.5
358.668	81.5
358.895	97.5
359.122	98.5
359.349	90.5
359.576	99.5
359.802	91.5
360.029	116.5
360.256	103.5
360.483	98.5
360.709	96.5
360.936	95.5
361.163	74.5
361.39	98.5
361.616	93.5
361.843	99.5
362.07	102.5
362.296	85.5
362.523	95.5
362.749	93.5
362.976	97.5
363.203	68.5
363.429	99.5
363.656	93.5
363.882	75.5
364.109	93.5
364.335	99.5
364.562	99.5
364.788	100.5
365.015	98.5
365.241	99.5
365.468	97.5
365.694	117.5
365.92	108.5
366.147	92.5
366.373	85.5
366.599	98.5
366.826	101.5
367.052	86.5
367.278	80.5
367.505	77.5
367.731	91.5
367.957	85.5
368.184	103.5
368.41	91.5
368.636	94.5
368.862	108.5
369.089	118.5
369.315	101.5
369.541	102.5
369.767	91.5
369.993	99.5
370.219	87.5
370.445	90.5
370.672	86.5
370.898	77.5
371.124	83.5
371.35	87.5
371.576	87.5
371.802	93.5
372.028	71.5
372.254	85.5
372.48	94.5
372.706	93.5
372.932	81.5
373.158	85.5
373.384	87.5
373.61	89.5
373.835	80.5
374.061	97.5
374.287	106.5
374.513	93.5
374.739	90.5
374.965	83.5
375.191	92.5
375.416	89.5
375.642	92.5
375.868	101.5
376.094	85.5
376.319	85.5
376.545	86.5
376.771	103.5
376.997	91.5
377.222	93.5
377.448	86.5
377.674	89.5
377.899	77.5
378.125	87.5
378.35	99.5
378.576	105.5
378.802	89.5
379.027	91.5
379.253	98.5
379.478	97.5
379.704	90.5
379.929	97.5
380.155	90.5
380.38	101.5
380.606	93.5
380.831	110.5
381.057	91.5
381.282	89.5
381.507	80.5
381.733	104.5
381.958	103.5
382.184	97.5
382.409	100.5
382.634	101.5
382.86	101.5
383.085	99.5
383.31	108.5
383.535	105.5
383.761	101.5
383.986	105.5
384.211	100.5
384.436	108.5
384.662	92.5
384.887	117.5
385.112	91.5
385.337	86.5
385.562	99.5
385.787	85.5
386.013	98.5
386.238	96.5
386.463	94.5
386.688	110.5
386.913	101.5
387.138	92.5
387.363	102.5
387.588	102.5
387.813	83.5
388.038	97.5
388.263	113.5
388.488	115.5
388.713	94.5
388.938	86.5
389.163	96.5
389.387	90.5
389.612	91.5
389.837	90.5
390.062	84.5
390.287	91.5
390.512	77.5
390.736	82.5
390.961	79.5
391.186	106.5
391.411	103.5
391.636	101.5
391.86	91.5
392.085	78.5
392.31	75.5
392.534	86.5
392.759	95.5
392.984	83.5
393.208	94.5
393.433	89.5
393.658	96.5
393.882	91.5
394.107	79.5
394.331	74.5
394.556	94.5
394.78	80.5
395.005	95.5
395.229	82.5
395.454	85.5
395.678	89.5
395.903	85.5
396.127	94.5
396.352	84.5
396.576	92.5
396.801	94.5
397.025	86.5
397.249	93.5
397.474	89.5
397.698	82.5
397.922	92.5
398.147	82.5
398.371	94.5
398.595	79.5
398.82	83.5
399.044	90.5
399.268	89.5
399.492	92.5
399.717	94.5
399.941	100.5
400.165	86.5
400.389	71.5
400.613	76.5
400.837	70.5
401.062	85.5
401.286	98.5
401.51	94.5
401.734	81.5
401.958	97.5
402.182	129.5
402.406	159.5
402.63	115.5
402.854	95.5
403.078	99.5
403.302	83.5
403.526	90.5
403.75	75.5
403.974	95.5
404.198	86.5
404.422	101.5
404.645	78.5
404.869	90.5
405.093	95.5
405.317	88.5
405.541	104.5
405.765	99.5
405.988	122.5
406.212	177.5
406.436	216.5
406.66	157.5
406.883	100.5
407.107	90.5
407.331	93.5
407.555	109.5
407.778	109.5
408.002	103.5
408.226	93.5
408.449	95.5
408.673	87.5
408.896	92.5
409.12	94.5
409.344	95.5
409.567	86.5
409.791	82.5
410.014	97.5
410.238	82.5
410.461	90.5
410.685	78.5
410.908	77.5
411.132	103.5
411.355	107.5
411.578	97.5
411.802	82.5
412.025	100.5
412.249	69.5
412.472	77.5
412.695	77.5
412.919	101.5
413.142	85.5
413.365	81.5
413.589	100.5
413.812	88.5
414.035	102.5
414.258	84.5
414.482	95.5
414.705	88.5
414.928	85.5
415.151	87.5
415.374	74.5
415.597	87.5
415.821	91.5
416.044	86.5
416.267	91.5
416.49	84.5
416.713	79.5
416.936	90.5
417.159	101.5
417.382	85.5
417.605	101.5
417.828	83.5
418.051	81.5
418.274	94.5
418.497	70.5
418.72	93.5
418.943	81.5
419.166	92.5
419.389	89.5
419.611	82.5
419.834	89.5
420.057	104.5
420.28	86.5
420.503	84.5
420.726	95.5
420.948	93.5
421.171	101.5
421.394	79.5
421.617	83.5
421.839	102.5
422.062	96.5
422.285	96.5
422.507	93.5
422.73	105.5
422.953	86.5
423.175	103.5
423.398	96.5
423.621	79.5
423.843	78.5
424.066	93.5
424.288	84.5
424.511	91.5
424.733	91.5
424.956	106.5
425.178	90.5
425.401	104.5
425.623	112.5
425.846	96.5
426.068	99.5
426.291	78.5
426.513	83.5
426.735	77.5
426.958	97.5
427.18	115.5
427.402	139.5
427.625	179.5
427.847	123.5
428.069	106.5
428.292	97.5
428.514	75.5
428.736	85.5
428.958	92.5
429.181	70.5
429.403	91.5
429.625	107.5
429.847	89.5
430.069	97.5
430.292	80.5
430.514	88.5
430.736	79.5
430.958	98.5
431.18	79.5
431.402	85.5
431.624	96.5
431.846	69.5
432.068	90.5
432.29	76.5
432.512	94.5
432.734	93.5
432.956	90.5
433.178	96.5
433.4	102.5
433.622	79.5
433.844	78.5
434.066	83.5
434.287	96.5
434.509	77.5
434.731	104.5
434.953	75.5
435.175	86.5
435.397	89.5
435.618	88.5
435.84	119.5
436.062	136.5
436.284	126.5
436.505	109.5
436.727	110.5
436.949	97.5
437.17	90.5
437.392	85.5
437.614	95.5
437.835	99.5
438.057	118.5
438.278	108.5
438.5	107.5
438.721	123.5
438.943	106.5
439.165	92.5
439.386	91.5
439.608	92.5
439.829	83.5
440.05	106.5
440.272	147.5
440.493	97.5
440.715	89.5
440.936	91.5
441.158	103.5
441.379	90.5
441.6	98.5
441.822	103.5
442.043	86.5
442.264	101.5
442.486	93.5
442.707	87.5
442.928	99.5
443.149	124.5
443.371	122.5
443.592	103.5
443.813	121.5
444.034	124.5
444.255	88.5
444.476	85.5
444.698	87.5
444.919	91.5
445.14	141.5
445.361	129.5
445.582	119.5
445.803	130.5
446.024	145.5
446.245	135.5
446.466	114.5
446.687	93.5
446.908	93.5
447.129	85.5
447.35	88.5
447.571	83.5
447.792	94.5
448.013	101.5
448.234	116.5
448.455	90.5
448.675	125.5
448.896	110.5
449.117	101.5
449.338	103.5
449.559	141.5
449.779	147.5
450	101.5
450.221	92.5
450.442	90.5
450.662	92.5
450.883	102.5
451.104	107.5
451.324	90.5
451.545	82.5
451.766	74.5
451.986	73.5
452.207	88.5
452.428	95.5
452.648	111.5
452.869	110.5
453.089	119.5
453.31	115.5
453.53	91.5
453.751	78.5
453.971	108.5
454.192	108.5
454.412	84.5
454.633	84.5
454.853	79.5
455.073	90.5
455.294	89.5
455.514	102.5
455.734	95.5
455.955	88.5
456.175	90.5
456.395	92.5
456.616	87.5
456.836	87.5
457.056	74.5
457.276	85.5
457.497	98.5
457.717	84.5
457.937	109.5
458.157	89.5
458.377	85.5
458.598	100.5
458.818	140.5
459.038	140.5
459.258	113.5
459.478	91.5
459.698	100.5
459.918	97.5
460.138	98.5
460.358	82.5
460.578	85.5
460.798	103.5
461.018	90.5
461.238	84.5
461.458	96.5
461.678	69.5
461.898	85.5
462.118	108.5
462.338	70.5
462.558	69.5
462.777	74.5
462.997	88.5
463.217	85.5
463.437	85.5
463.657	75.5
463.876	94.5
464.096	93.5
464.316	82.5
464.536	103.5
464.755	85.5
464.975	109.5
465.195	158.5
465.414	151.5
465.634	83.5
465.854	85.5
466.073	93.5
466.293	102.5
466.512	94.5
466.732	80.5
466.951	84.5
467.171	98.5
467.391	99.5
467.61	104.5
467.829	94.5
468.049	99.5
468.268	95.5
468.488	68.5
468.707	82.5
468.927	85.5
469.146	80.5
469.365	89.5
469.585	99.5
469.804	95.5
470.023	94.5
470.243	83.5
470.462	93.5
470.681	108.5
470.901	97.5
471.12	75.5
471.339	81.5
471.558	93.5
471.777	83.5
471.997	79.5
472.216	95.5
472.435	99.5
472.654	83.5
472.873	70.5
473.092	75.5
473.311	81.5
473.53	86.5
473.749	90.5
473.968	102.5
474.187	100.5
474.406	101.5
474.625	92.5
474.844	92.5
475.063	91.5
475.282	91.5
475.501	94.5
475.72	85.5
475.939	81.5
476.158	71.5
476.377	95.5
476.596	93.5
476.814	94.5
477.033	95.5
477.252	90.5
477.471	94.5
477.69	91.5
477.908	89.5
478.127	91.5
478.346	82.5
478.564	86.5
478.783	85.5
479.002	70.5
479.22	94.5
479.439	92.5
479.658	109.5
479.876	99.5
480.095	86.5
480.313	90.5
480.532	95.5
480.751	88.5
480.969	94.5
481.188	94.5
481.406	105.5
481.624	91.5
481.843	90.5
482.061	91.5
482.28	85.5
482.498	95.5
482.717	83.5
482.935	89.5
483.153	94.5
483.372	97.5
483.59	94.5
483.808	77.5
484.027	77.5
484.245	97.5
484.463	81.5
484.681	100.5
484.9	92.5
485.118	96.5
485.336	93.5
485.554	99.5
485.772	110.5
485.99	99.5
486.209	98.5
486.427	86.5
486.645	118.5
486.863	102.5
487.081	95.5
487.299	99.5
487.517	97.5
487.735	95.5
487.953	103.5
488.171	84.5
488.389	87.5
488.607	111.5
488.825	95.5
489.043	104.5
489.261	92.5
489.479	85.5
489.696	91.5
489.914	79.5
490.132	92.5
490.35	76.5
490.568	98.5
490.786	81.5
491.003	89.5
491.221	99.5
491.439	90.5
491.657	107.5
491.874	94.5
492.092	81.5
492.31	91.5
492.527	91.5
492.745	98.5
492.963	80.5
493.18	87.5
493.398	78.5
493.615	87.5
493.833	100.5
494.05	93.5
494.268	87.5
494.485	98.5
494.703	92.5
494.92	100.5
495.138	93.5
495.355	90.5
495.573	79.5
495.79	96.5
496.008	93.5
496.225	88.5
496.442	99.5
496.66	90.5
496.877	74.5
497.094	91.5
497.312	88.5
497.529	103.5
497.746	87.5
497.963	90.5
498.181	93.5
498.398	96.5
498.615	112.5
498.832	109.5
499.049	81.5
499.267	82.5
499.484	76.5
499.701	89.5
499.918	91.5
500.135	93.5
500.352	86.5
500.569	86.5
500.786	91.5
501.003	83.5
501.22	98.5
501.437	86.5
501.654	93.5
501.871	121.5
502.088	86.5
502.305	93.5
502.522	86.5
502.739	96.5
502.956	84.5
503.172	100.5
503.389	89.5
503.606	101.5
503.823	99.5
504.04	114.5
504.256	93.5
504.473	89.5
504.69	93.5
504.907	93.5
505.123	81.5
505.34	80.5
505.557	94.5
505.773	87.5
505.99	85.5
506.207	95.5
506.423	87.5
506.64	96.5
506.856	94.5
507.073	90.5
507.289	83.5
507.506	109.5
507.722	106.5
507.939	119.5
508.155	97.5
508.372	88.5
508.588	100.5
508.805	90.5
509.021	103.5
509.238	100.5
509.454	89.5
509.67	106.5
509.887	99.5
510.103	122.5
510.319	215.5
510.536	731.5
510.752	2345.5
510.968	646.5
511.184	150.5
511.401	105.5
511.617	99.5
511.833	88.5
512.049	105.5
512.265	84.5
512.481	86.5
512.698	97.5
512.914	95.5
513.13	98.5
513.346	93.5
513.562	85.5
513.778	111.5
513.994	97.5
514.21	93.5
514.426	109.5
514.642	132.5
514.858	130.5
515.074	177.5
515.29	477.5
515.506	1521.5
515.721	560.5
515.937	153.5
516.153	109.5
516.369	103.5
516.585	88.5
516.801	85.5
517.016	92.5
517.232	105.5
517.448	91.5
517.664	89.5
517.879	85.5
518.095	86.5
518.311	91.5
518.527	105.5
518.742	96.5
518.958	73.5
519.173	103.5
519.389	88.5
519.605	95.5
519.82	99.5
520.036	107.5
520.251	112.5
520.467	87.5
520.682	97.5
520.898	112.5
521.113	117.5
521.329	146.5
521.544	197.5
521.76	579.5
521.975	2536.5
522.19	1509.5
522.406	319.5
522.621	125.5
522.836	95.5
523.052	94.5
523.267	92.5
523.482	108.5
523.698	93.5
523.913	123.5
524.128	108.5
524.343	88.5
524.559	102.5
524.774	85.5
524.989	98.5
525.204	104.5
525.419	98.5
525.634	89.5
525.849	97.5
526.064	85.5
526.28	101.5
526.495	89.5
526.71	79.5
526.925	89.5
527.14	96.5
527.355	84.5
527.57	86.5
527.785	86.5
527.999	84.5
528.214	93.5
528.429	106.5
528.644	80.5
528.859	96.5
529.074	91.5
529.289	135.5
529.503	194.5
529.718	100.5
529.933	100.5
530.148	99.5
530.363	86.5
530.577	79.5
530.792	86.5
531.007	83.5
531.221	95.5
531.436	88.5
531.651	90.5
531.865	90.5
532.08	84.5
532.295	90.5
532.509	91.5
532.724	76.5
532.938	103.5
533.153	91.5
533.367	91.5
533.582	78.5
533.796	97.5
534.011	99.5
534.225	99.5
534.44	78.5
534.654	100.5
534.868	88.5
535.083	101.5
535.297	91.5
