Data from Uncirc_1991_H10_HRD10591_00081.txt Node
Date: Wed Jan 03 11:50:54 EST 2024
User: Yrep
Spectrometer: HR+D1059
Trigger mode: 1
Integration Time (sec): 1.000000E-1
Scans to average: 1
Electric dark correction enabled: true
Nonlinearity correction enabled: false
Boxcar width: 0
XAxis mode: Wavelengths
Number of Pixels in Spectrum: 2048
>>>>>Begin Spectral Data<<<<<
223.165	-5.69
223.4	-5.69
223.635	-5.69
223.869	-18.69
224.104	-12.69
224.338	-19.69
224.573	-18.69
224.808	-21.69
225.042	-16.69
225.277	-12.69
225.511	-0.69
225.746	-6.69
225.98	8.31
226.215	13.31
226.449	14.31
226.683	29.31
226.918	38.31
227.152	30.31
227.387	45.31
227.621	35.31
227.856	45.31
228.09	31.31
228.324	62.31
228.559	64.31
228.793	56.31
229.027	59.31
229.262	67.31
229.496	67.31
229.73	71.31
229.964	80.31
230.199	84.31
230.433	82.31
230.667	65.31
230.901	77.31
231.136	81.31
231.37	66.31
231.604	75.31
231.838	78.31
232.072	83.31
232.306	80.31
232.541	95.31
232.775	85.31
233.009	90.31
233.243	87.31
233.477	73.31
233.711	73.31
233.945	66.31
234.179	76.31
234.413	86.31
234.647	84.31
234.881	76.31
235.115	58.31
235.349	79.31
235.583	74.31
235.817	85.31
236.051	69.31
236.285	70.31
236.519	84.31
236.753	78.31
236.987	69.31
237.221	86.31
237.455	86.31
237.689	93.31
237.922	72.31
238.156	77.31
238.39	86.31
238.624	77.31
238.858	73.31
239.091	79.31
239.325	77.31
239.559	77.31
239.793	70.31
240.027	68.31
240.26	90.31
240.494	82.31
240.728	67.31
240.961	68.31
241.195	76.31
241.429	77.31
241.662	74.31
241.896	77.31
242.13	84.31
242.363	70.31
242.597	77.31
242.83	70.31
243.064	70.31
243.298	71.31
243.531	76.31
243.765	70.31
243.998	65.31
244.232	75.31
244.465	74.31
244.699	83.31
244.932	79.31
245.166	99.31
245.399	84.31
245.633	79.31
245.866	82.31
246.099	83.31
246.333	94.31
246.566	82.31
246.8	73.31
247.033	94.31
247.266	84.31
247.5	61.31
247.733	79.31
247.966	77.31
248.2	85.31
248.433	86.31
248.666	70.31
248.899	85.31
249.133	79.31
249.366	102.31
249.599	87.31
249.832	87.31
250.066	92.31
250.299	93.31
250.532	74.31
250.765	77.31
250.998	80.31
251.231	84.31
251.465	83.31
251.698	88.31
251.931	85.31
252.164	78.31
252.397	77.31
252.63	98.31
252.863	70.31
253.096	92.31
253.329	78.31
253.562	93.31
253.795	82.31
254.028	75.31
254.261	99.31
254.494	84.31
254.727	85.31
254.96	76.31
255.193	85.31
255.426	84.31
255.659	74.31
255.892	83.31
256.124	70.31
256.357	70.31
256.59	95.31
256.823	72.31
257.056	76.31
257.289	86.31
257.521	90.31
257.754	88.31
257.987	94.31
258.22	85.31
258.452	78.31
258.685	73.31
258.918	71.31
259.151	75.31
259.383	71.31
259.616	78.31
259.849	80.31
260.081	102.31
260.314	87.31
260.547	81.31
260.779	75.31
261.012	88.31
261.244	82.31
261.477	87.31
261.71	100.31
261.942	115.31
262.175	115.31
262.407	86.31
262.64	69.31
262.872	83.31
263.105	95.31
263.337	91.31
263.57	88.31
263.802	88.31
264.035	82.31
264.267	75.31
264.499	74.31
264.732	89.31
264.964	69.31
265.197	91.31
265.429	66.31
265.661	93.31
265.894	79.31
266.126	81.31
266.358	86.31
266.591	73.31
266.823	83.31
267.055	66.31
267.287	71.31
267.52	73.31
267.752	86.31
267.984	86.31
268.216	86.31
268.448	82.31
268.681	79.31
268.913	79.31
269.145	89.31
269.377	96.31
269.609	74.31
269.841	84.31
270.073	81.31
270.306	83.31
270.538	79.31
270.77	90.31
271.002	99.31
271.234	105.31
271.466	90.31
271.698	80.31
271.93	75.31
272.162	75.31
272.394	79.31
272.626	77.31
272.858	83.31
273.09	81.31
273.322	83.31
273.553	89.31
273.785	78.31
274.017	81.31
274.249	84.31
274.481	99.31
274.713	88.31
274.945	93.31
275.176	80.31
275.408	78.31
275.64	93.31
275.872	77.31
276.104	79.31
276.335	91.31
276.567	99.31
276.799	113.31
277.031	99.31
277.262	98.31
277.494	81.31
277.726	79.31
277.957	84.31
278.189	89.31
278.421	93.31
278.652	89.31
278.884	90.31
279.115	93.31
279.347	66.31
279.579	78.31
279.81	85.31
280.042	105.31
280.273	80.31
280.505	89.31
280.736	86.31
280.968	87.31
281.199	93.31
281.431	89.31
281.662	87.31
281.894	88.31
282.125	102.31
282.356	116.31
282.588	143.31
282.819	122.31
283.051	83.31
283.282	88.31
283.513	81.31
283.745	98.31
283.976	78.31
284.207	75.31
284.439	82.31
284.67	87.31
284.901	84.31
285.132	73.31
285.364	91.31
285.595	94.31
285.826	82.31
286.057	78.31
286.288	82.31
286.52	87.31
286.751	75.31
286.982	91.31
287.213	71.31
287.444	94.31
287.675	87.31
287.906	85.31
288.138	81.31
288.369	101.31
288.6	81.31
288.831	83.31
289.062	92.31
289.293	92.31
289.524	92.31
289.755	78.31
289.986	89.31
290.217	78.31
290.448	85.31
290.679	97.31
290.91	78.31
291.141	91.31
291.371	93.31
291.602	77.31
291.833	83.31
292.064	79.31
292.295	93.31
292.526	90.31
292.757	102.31
292.987	95.31
293.218	99.31
293.449	85.31
293.68	79.31
293.91	79.31
294.141	95.31
294.372	86.31
294.603	110.31
294.833	98.31
295.064	96.31
295.295	93.31
295.525	92.31
295.756	95.31
295.987	113.31
296.217	132.31
296.448	129.31
296.679	90.31
296.909	84.31
297.14	93.31
297.37	89.31
297.601	94.31
297.831	94.31
298.062	85.31
298.292	100.31
298.523	76.31
298.753	79.31
298.984	91.31
299.214	95.31
299.445	80.31
299.675	97.31
299.905	92.31
300.136	98.31
300.366	94.31
300.597	101.31
300.827	87.31
301.057	82.31
301.288	107.31
301.518	80.31
301.748	93.31
301.979	102.31
302.209	94.31
302.439	93.31
302.669	87.31
302.9	95.31
303.13	108.31
303.36	89.31
303.59	100.31
303.82	108.31
304.051	95.31
304.281	94.31
304.511	111.31
304.741	89.31
304.971	90.31
305.201	91.31
305.431	84.31
305.661	84.31
305.891	90.31
306.121	94.31
306.352	100.31
306.582	95.31
306.812	93.31
307.042	94.31
307.272	91.31
307.502	103.31
307.731	81.31
307.961	87.31
308.191	90.31
308.421	83.31
308.651	98.31
308.881	86.31
309.111	97.31
309.341	93.31
309.571	95.31
309.8	89.31
310.03	98.31
310.26	90.31
310.49	97.31
310.72	99.31
310.949	118.31
311.179	102.31
311.409	105.31
311.639	104.31
311.868	96.31
312.098	94.31
312.328	97.31
312.557	110.31
312.787	97.31
313.017	108.31
313.246	102.31
313.476	94.31
313.706	86.31
313.935	82.31
314.165	91.31
314.394	107.31
314.624	109.31
314.853	88.31
315.083	95.31
315.312	98.31
315.542	109.31
315.771	90.31
316.001	93.31
316.23	94.31
316.46	94.31
316.689	94.31
316.919	92.31
317.148	96.31
317.377	96.31
317.607	106.31
317.836	100.31
318.065	85.31
318.295	96.31
318.524	96.31
318.753	77.31
318.983	95.31
319.212	96.31
319.441	106.31
319.67	118.31
319.9	90.31
320.129	93.31
320.358	84.31
320.587	101.31
320.816	98.31
321.046	93.31
321.275	83.31
321.504	100.31
321.733	99.31
321.962	121.31
322.191	105.31
322.42	97.31
322.649	112.31
322.878	112.31
323.108	115.31
323.337	127.31
323.566	141.31
323.795	161.31
324.024	224.31
324.253	430.31
324.482	931.31
324.71	1981.31
324.939	2586.31
325.168	950.31
325.397	262.31
325.626	172.31
325.855	139.31
326.084	128.31
326.313	141.31
326.542	160.31
326.77	253.31
326.999	493.31
327.228	1107.31
327.457	1993.31
327.686	1553.31
327.914	417.31
328.143	206.31
328.372	147.31
328.6	121.31
328.829	119.31
329.058	119.31
329.287	137.31
329.515	114.31
329.744	97.31
329.972	90.31
330.201	107.31
330.43	108.31
330.658	132.31
330.887	146.31
331.115	137.31
331.344	103.31
331.572	112.31
331.801	118.31
332.03	102.31
332.258	88.31
332.486	81.31
332.715	104.31
332.943	96.31
333.172	106.31
333.4	88.31
333.629	91.31
333.857	93.31
334.085	116.31
334.314	99.31
334.542	90.31
334.771	82.31
334.999	91.31
335.227	92.31
335.455	105.31
335.684	93.31
335.912	100.31
336.14	103.31
336.369	94.31
336.597	90.31
336.825	86.31
337.053	105.31
337.281	90.31
337.51	84.31
337.738	93.31
337.966	113.31
338.194	89.31
338.422	95.31
338.65	89.31
338.878	91.31
339.106	87.31
339.334	96.31
339.562	86.31
339.79	92.31
340.018	90.31
340.246	90.31
340.474	80.31
340.702	90.31
340.93	86.31
341.158	79.31
341.386	92.31
341.614	85.31
341.842	97.31
342.07	88.31
342.298	86.31
342.526	94.31
342.754	81.31
342.981	85.31
343.209	97.31
343.437	85.31
343.665	96.31
343.893	90.31
344.12	94.31
344.348	75.31
344.576	84.31
344.804	91.31
345.031	102.31
345.259	94.31
345.487	101.31
345.714	97.31
345.942	90.31
346.17	90.31
346.397	90.31
346.625	80.31
346.853	95.31
347.08	96.31
347.308	88.31
347.535	94.31
347.763	108.31
347.99	95.31
348.218	101.31
348.445	103.31
348.673	92.31
348.9	102.31
349.128	87.31
349.355	105.31
349.583	90.31
349.81	99.31
350.037	101.31
350.265	92.31
350.492	91.31
350.72	96.31
350.947	102.31
351.174	110.31
351.402	116.31
351.629	97.31
351.856	109.31
352.083	111.31
352.311	110.31
352.538	104.31
352.765	108.31
352.992	114.31
353.22	107.31
353.447	110.31
353.674	97.31
353.901	97.31
354.128	98.31
354.355	94.31
354.583	86.31
354.81	103.31
355.037	103.31
355.264	95.31
355.491	93.31
355.718	101.31
355.945	91.31
356.172	80.31
356.399	94.31
356.626	92.31
356.853	87.31
357.08	85.31
357.307	95.31
357.534	87.31
357.761	94.31
357.988	92.31
358.215	91.31
358.441	99.31
358.668	95.31
358.895	89.31
359.122	92.31
359.349	88.31
359.576	81.31
359.802	105.31
360.029	118.31
360.256	120.31
360.483	98.31
360.709	85.31
360.936	97.31
361.163	92.31
361.39	105.31
361.616	99.31
361.843	84.31
362.07	91.31
362.296	108.31
362.523	96.31
362.749	98.31
362.976	94.31
363.203	91.31
363.429	73.31
363.656	95.31
363.882	75.31
364.109	98.31
364.335	97.31
364.562	82.31
364.788	88.31
365.015	121.31
365.241	97.31
365.468	112.31
365.694	111.31
365.92	102.31
366.147	95.31
366.373	89.31
366.599	78.31
366.826	79.31
367.052	81.31
367.278	94.31
367.505	102.31
367.731	98.31
367.957	91.31
368.184	85.31
368.41	87.31
368.636	102.31
368.862	117.31
369.089	110.31
369.315	88.31
369.541	87.31
369.767	90.31
369.993	90.31
370.219	99.31
370.445	94.31
370.672	96.31
370.898	94.31
371.124	75.31
371.35	103.31
371.576	84.31
371.802	86.31
372.028	84.31
372.254	77.31
372.48	91.31
372.706	75.31
372.932	87.31
373.158	93.31
373.384	89.31
373.61	101.31
373.835	109.31
374.061	75.31
374.287	102.31
374.513	109.31
374.739	89.31
374.965	79.31
375.191	85.31
375.416	94.31
375.642	109.31
375.868	96.31
376.094	67.31
376.319	87.31
376.545	89.31
376.771	100.31
376.997	103.31
377.222	83.31
377.448	92.31
377.674	93.31
377.899	97.31
378.125	68.31
378.35	100.31
378.576	94.31
378.802	88.31
379.027	91.31
379.253	95.31
379.478	79.31
379.704	93.31
379.929	90.31
380.155	98.31
380.38	87.31
380.606	86.31
380.831	85.31
381.057	78.31
381.282	97.31
381.507	105.31
381.733	75.31
381.958	92.31
382.184	89.31
382.409	97.31
382.634	109.31
382.86	90.31
383.085	99.31
383.31	115.31
383.535	97.31
383.761	92.31
383.986	97.31
384.211	81.31
384.436	80.31
384.662	75.31
384.887	95.31
385.112	98.31
385.337	103.31
385.562	84.31
385.787	110.31
386.013	97.31
386.238	96.31
386.463	100.31
386.688	102.31
386.913	108.31
387.138	103.31
387.363	96.31
387.588	92.31
387.813	99.31
388.038	99.31
388.263	114.31
388.488	91.31
388.713	107.31
388.938	87.31
389.163	99.31
389.387	90.31
389.612	90.31
389.837	96.31
390.062	95.31
390.287	95.31
390.512	98.31
390.736	80.31
390.961	98.31
391.186	98.31
391.411	105.31
391.636	97.31
391.86	90.31
392.085	80.31
392.31	92.31
392.534	79.31
392.759	83.31
392.984	93.31
393.208	81.31
393.433	91.31
393.658	90.31
393.882	75.31
394.107	78.31
394.331	101.31
394.556	73.31
394.78	82.31
395.005	87.31
395.229	97.31
395.454	95.31
395.678	78.31
395.903	85.31
396.127	89.31
396.352	82.31
396.576	91.31
396.801	106.31
397.025	91.31
397.249	93.31
397.474	95.31
397.698	98.31
397.922	94.31
398.147	86.31
398.371	87.31
398.595	85.31
398.82	81.31
399.044	77.31
399.268	79.31
399.492	99.31
399.717	82.31
399.941	102.31
400.165	102.31
400.389	82.31
400.613	91.31
400.837	84.31
401.062	95.31
401.286	94.31
401.51	99.31
401.734	93.31
401.958	110.31
402.182	130.31
402.406	156.31
402.63	126.31
402.854	86.31
403.078	104.31
403.302	99.31
403.526	93.31
403.75	85.31
403.974	69.31
404.198	91.31
404.422	97.31
404.645	81.31
404.869	75.31
405.093	97.31
405.317	106.31
405.541	93.31
405.765	109.31
405.988	132.31
406.212	175.31
406.436	235.31
406.66	138.31
406.883	114.31
407.107	102.31
407.331	107.31
407.555	121.31
407.778	93.31
408.002	89.31
408.226	78.31
408.449	95.31
408.673	83.31
408.896	106.31
409.12	82.31
409.344	91.31
409.567	91.31
409.791	85.31
410.014	91.31
410.238	93.31
410.461	102.31
410.685	98.31
410.908	100.31
411.132	100.31
411.355	96.31
411.578	94.31
411.802	93.31
412.025	89.31
412.249	96.31
412.472	81.31
412.695	101.31
412.919	97.31
413.142	82.31
413.365	98.31
413.589	98.31
413.812	71.31
414.035	89.31
414.258	93.31
414.482	94.31
414.705	97.31
414.928	81.31
415.151	90.31
415.374	93.31
415.597	82.31
415.821	97.31
416.044	98.31
416.267	93.31
416.49	92.31
416.713	80.31
416.936	82.31
417.159	84.31
417.382	98.31
417.605	97.31
417.828	100.31
418.051	80.31
418.274	100.31
418.497	92.31
418.72	95.31
418.943	93.31
419.166	107.31
419.389	85.31
419.611	64.31
419.834	58.31
420.057	91.31
420.28	97.31
420.503	91.31
420.726	78.31
420.948	94.31
421.171	104.31
421.394	93.31
421.617	89.31
421.839	88.31
422.062	86.31
422.285	93.31
422.507	106.31
422.73	108.31
422.953	83.31
423.175	90.31
423.398	87.31
423.621	85.31
423.843	86.31
424.066	87.31
424.288	78.31
424.511	98.31
424.733	103.31
424.956	113.31
425.178	105.31
425.401	109.31
425.623	115.31
425.846	80.31
426.068	107.31
426.291	92.31
426.513	85.31
426.735	83.31
426.958	101.31
427.18	119.31
427.402	149.31
427.625	165.31
427.847	137.31
428.069	112.31
428.292	79.31
428.514	91.31
428.736	80.31
428.958	85.31
429.181	79.31
429.403	67.31
429.625	89.31
429.847	98.31
430.069	107.31
430.292	91.31
430.514	83.31
430.736	82.31
430.958	76.31
431.18	77.31
431.402	89.31
431.624	82.31
431.846	81.31
432.068	101.31
432.29	98.31
432.512	87.31
432.734	109.31
432.956	102.31
433.178	99.31
433.4	94.31
433.622	92.31
433.844	98.31
434.066	111.31
434.287	101.31
434.509	88.31
434.731	84.31
434.953	87.31
435.175	70.31
435.397	89.31
435.618	93.31
435.84	107.31
436.062	122.31
436.284	119.31
436.505	105.31
436.727	101.31
436.949	111.31
437.17	91.31
437.392	94.31
437.614	99.31
437.835	99.31
438.057	111.31
438.278	118.31
438.5	115.31
438.721	131.31
438.943	101.31
439.165	77.31
439.386	80.31
439.608	91.31
439.829	131.31
440.05	147.31
440.272	158.31
440.493	103.31
440.715	101.31
440.936	84.31
441.158	79.31
441.379	88.31
441.6	83.31
441.822	97.31
442.043	91.31
442.264	100.31
442.486	108.31
442.707	100.31
442.928	102.31
443.149	142.31
443.371	156.31
443.592	116.31
443.813	130.31
444.034	131.31
444.255	103.31
444.476	93.31
444.698	77.31
444.919	84.31
445.14	126.31
445.361	121.31
445.582	112.31
445.803	151.31
446.024	157.31
446.245	166.31
446.466	119.31
446.687	105.31
446.908	105.31
447.129	96.31
447.35	92.31
447.571	92.31
447.792	94.31
448.013	114.31
448.234	103.31
448.455	115.31
448.675	147.31
448.896	127.31
449.117	109.31
449.338	111.31
449.559	149.31
449.779	151.31
450	97.31
450.221	76.31
450.442	103.31
450.662	102.31
450.883	110.31
451.104	109.31
451.324	107.31
451.545	103.31
451.766	92.31
451.986	91.31
452.207	96.31
452.428	96.31
452.648	92.31
452.869	116.31
453.089	118.31
453.31	114.31
453.53	85.31
453.751	106.31
453.971	109.31
454.192	122.31
454.412	94.31
454.633	84.31
454.853	74.31
455.073	84.31
455.294	106.31
455.514	111.31
455.734	85.31
455.955	91.31
456.175	94.31
456.395	94.31
456.616	94.31
456.836	83.31
457.056	79.31
457.276	76.31
457.497	91.31
457.717	91.31
457.937	86.31
458.157	93.31
458.377	102.31
458.598	104.31
458.818	143.31
459.038	173.31
459.258	122.31
459.478	105.31
459.698	87.31
459.918	85.31
460.138	91.31
460.358	81.31
460.578	79.31
460.798	85.31
461.018	89.31
461.238	105.31
461.458	91.31
461.678	77.31
461.898	97.31
462.118	89.31
462.338	84.31
462.558	93.31
462.777	87.31
462.997	92.31
463.217	86.31
463.437	91.31
463.657	84.31
463.876	99.31
464.096	95.31
464.316	91.31
464.536	88.31
464.755	97.31
464.975	102.31
465.195	177.31
465.414	176.31
465.634	91.31
465.854	93.31
466.073	108.31
466.293	92.31
466.512	88.31
466.732	79.31
466.951	84.31
467.171	105.31
467.391	92.31
467.61	102.31
467.829	114.31
468.049	101.31
468.268	86.31
468.488	87.31
468.707	79.31
468.927	93.31
469.146	79.31
469.365	95.31
469.585	79.31
469.804	100.31
470.023	101.31
470.243	100.31
470.462	111.31
470.681	124.31
470.901	95.31
471.12	93.31
471.339	102.31
471.558	80.31
471.777	89.31
471.997	87.31
472.216	83.31
472.435	78.31
472.654	89.31
472.873	89.31
473.092	89.31
473.311	83.31
473.53	91.31
473.749	86.31
473.968	84.31
474.187	108.31
474.406	103.31
474.625	89.31
474.844	85.31
475.063	85.31
475.282	95.31
475.501	94.31
475.72	91.31
475.939	74.31
476.158	80.31
476.377	81.31
476.596	92.31
476.814	93.31
477.033	92.31
477.252	83.31
477.471	77.31
477.69	103.31
477.908	88.31
478.127	89.31
478.346	73.31
478.564	101.31
478.783	97.31
479.002	100.31
479.22	101.31
479.439	103.31
479.658	89.31
479.876	92.31
480.095	91.31
480.313	98.31
480.532	74.31
480.751	90.31
480.969	95.31
481.188	99.31
481.406	82.31
481.624	93.31
481.843	99.31
482.061	97.31
482.28	102.31
482.498	92.31
482.717	94.31
482.935	79.31
483.153	86.31
483.372	86.31
483.59	102.31
483.808	92.31
484.027	87.31
484.245	91.31
484.463	85.31
484.681	102.31
484.9	92.31
485.118	100.31
485.336	77.31
485.554	91.31
485.772	89.31
485.99	86.31
486.209	108.31
486.427	97.31
486.645	104.31
486.863	117.31
487.081	89.31
487.299	95.31
487.517	87.31
487.735	90.31
487.953	87.31
488.171	93.31
488.389	92.31
488.607	111.31
488.825	96.31
489.043	93.31
489.261	83.31
489.479	79.31
489.696	88.31
489.914	99.31
490.132	84.31
490.35	83.31
490.568	80.31
490.786	87.31
491.003	88.31
491.221	84.31
491.439	84.31
491.657	98.31
491.874	91.31
492.092	87.31
492.31	94.31
492.527	99.31
492.745	87.31
492.963	101.31
493.18	105.31
493.398	76.31
493.615	84.31
493.833	100.31
494.05	87.31
494.268	89.31
494.485	101.31
494.703	79.31
494.92	87.31
495.138	89.31
495.355	107.31
495.573	97.31
495.79	83.31
496.008	82.31
496.225	95.31
496.442	81.31
496.66	105.31
496.877	100.31
497.094	77.31
497.312	75.31
497.529	86.31
497.746	90.31
497.963	95.31
498.181	118.31
498.398	90.31
498.615	105.31
498.832	97.31
499.049	81.31
499.267	87.31
499.484	93.31
499.701	85.31
499.918	96.31
500.135	93.31
500.352	83.31
500.569	96.31
500.786	87.31
501.003	93.31
501.22	79.31
501.437	88.31
501.654	95.31
501.871	102.31
502.088	89.31
502.305	95.31
502.522	97.31
502.739	92.31
502.956	107.31
503.172	91.31
503.389	94.31
503.606	112.31
503.823	93.31
504.04	97.31
504.256	92.31
504.473	95.31
504.69	92.31
504.907	100.31
505.123	97.31
505.34	94.31
505.557	102.31
505.773	97.31
505.99	90.31
506.207	92.31
506.423	89.31
506.64	77.31
506.856	89.31
507.073	90.31
507.289	92.31
507.506	106.31
507.722	118.31
507.939	108.31
508.155	87.31
508.372	98.31
508.588	84.31
508.805	92.31
509.021	90.31
509.238	101.31
509.454	110.31
509.67	89.31
509.887	116.31
510.103	128.31
510.319	246.31
510.536	788.31
510.752	2488.31
510.968	677.31
511.184	167.31
511.401	120.31
511.617	101.31
511.833	93.31
512.049	87.31
512.265	98.31
512.481	98.31
512.698	105.31
512.914	92.31
513.13	110.31
513.346	98.31
513.562	98.31
513.778	98.31
513.994	108.31
514.21	93.31
514.426	126.31
514.642	142.31
514.858	138.31
515.074	174.31
515.29	519.31
