Data from Uncirc_1991_H10_HRD10591_00093.txt Node
Date: Wed Jan 03 11:50:56 EST 2024
User: Yrep
Spectrometer: HR+D1059
Trigger mode: 1
Integration Time (sec): 1.000000E-1
Scans to average: 1
Electric dark correction enabled: true
Nonlinearity correction enabled: false
Boxcar width: 0
XAxis mode: Wavelengths
Number of Pixels in Spectrum: 2048
>>>>>Begin Spectral Data<<<<<
223.165	-20.88
223.4	-20.88
223.635	-20.88
223.869	-15.88
224.104	-24.88
224.338	-23.88
224.573	-10.88
224.808	-15.88
225.042	-5.88
225.277	-4.88
225.511	4.12
225.746	12.12
225.98	14.12
226.215	19.12
226.449	16.12
226.683	7.12
226.918	24.12
227.152	26.12
227.387	22.12
227.621	28.12
227.856	38.12
228.09	43.12
228.324	55.12
228.559	62.12
228.793	60.12
229.027	54.12
229.262	77.12
229.496	67.12
229.73	77.12
229.964	82.12
230.199	82.12
230.433	68.12
230.667	68.12
230.901	64.12
231.136	74.12
231.37	81.12
231.604	81.12
231.838	93.12
232.072	66.12
232.306	72.12
232.541	69.12
232.775	77.12
233.009	78.12
233.243	82.12
233.477	72.12
233.711	81.12
233.945	79.12
234.179	82.12
234.413	73.12
234.647	81.12
234.881	89.12
235.115	76.12
235.349	65.12
235.583	67.12
235.817	89.12
236.051	82.12
236.285	77.12
236.519	70.12
236.753	70.12
236.987	79.12
237.221	80.12
237.455	82.12
237.689	79.12
237.922	79.12
238.156	82.12
238.39	80.12
238.624	86.12
238.858	85.12
239.091	62.12
239.325	76.12
239.559	78.12
239.793	65.12
240.027	82.12
240.26	82.12
240.494	78.12
240.728	85.12
240.961	73.12
241.195	66.12
241.429	68.12
241.662	56.12
241.896	70.12
242.13	70.12
242.363	70.12
242.597	79.12
242.83	82.12
243.064	73.12
243.298	78.12
243.531	76.12
243.765	76.12
243.998	89.12
244.232	92.12
244.465	94.12
244.699	85.12
244.932	73.12
245.166	74.12
245.399	70.12
245.633	81.12
245.866	80.12
246.099	86.12
246.333	86.12
246.566	83.12
246.8	74.12
247.033	78.12
247.266	77.12
247.5	82.12
247.733	79.12
247.966	75.12
248.2	74.12
248.433	88.12
248.666	76.12
248.899	80.12
249.133	83.12
249.366	78.12
249.599	86.12
249.832	75.12
250.066	77.12
250.299	72.12
250.532	76.12
250.765	84.12
250.998	76.12
251.231	83.12
251.465	67.12
251.698	68.12
251.931	60.12
252.164	63.12
252.397	73.12
252.63	78.12
252.863	90.12
253.096	75.12
253.329	82.12
253.562	94.12
253.795	69.12
254.028	86.12
254.261	69.12
254.494	88.12
254.727	82.12
254.96	89.12
255.193	65.12
255.426	84.12
255.659	66.12
255.892	87.12
256.124	93.12
256.357	85.12
256.59	83.12
256.823	85.12
257.056	89.12
257.289	83.12
257.521	81.12
257.754	76.12
257.987	77.12
258.22	74.12
258.452	83.12
258.685	79.12
258.918	81.12
259.151	77.12
259.383	66.12
259.616	76.12
259.849	79.12
260.081	90.12
260.314	87.12
260.547	78.12
260.779	88.12
261.012	78.12
261.244	83.12
261.477	81.12
261.71	95.12
261.942	121.12
262.175	131.12
262.407	91.12
262.64	92.12
262.872	82.12
263.105	93.12
263.337	93.12
263.57	76.12
263.802	73.12
264.035	84.12
264.267	79.12
264.499	85.12
264.732	81.12
264.964	75.12
265.197	99.12
265.429	83.12
265.661	81.12
265.894	67.12
266.126	80.12
266.358	80.12
266.591	77.12
266.823	86.12
267.055	86.12
267.287	81.12
267.52	84.12
267.752	84.12
267.984	85.12
268.216	82.12
268.448	86.12
268.681	77.12
268.913	66.12
269.145	74.12
269.377	98.12
269.609	76.12
269.841	74.12
270.073	81.12
270.306	80.12
270.538	74.12
270.77	92.12
271.002	89.12
271.234	81.12
271.466	92.12
271.698	83.12
271.93	76.12
272.162	70.12
272.394	99.12
272.626	88.12
272.858	90.12
273.09	96.12
273.322	92.12
273.553	88.12
273.785	85.12
274.017	82.12
274.249	83.12
274.481	79.12
274.713	86.12
274.945	69.12
275.176	89.12
275.408	96.12
275.64	82.12
275.872	81.12
276.104	83.12
276.335	81.12
276.567	99.12
276.799	118.12
277.031	93.12
277.262	96.12
277.494	77.12
277.726	66.12
277.957	93.12
278.189	82.12
278.421	97.12
278.652	87.12
278.884	85.12
279.115	84.12
279.347	84.12
279.579	88.12
279.81	79.12
280.042	87.12
280.273	77.12
280.505	82.12
280.736	83.12
280.968	82.12
281.199	88.12
281.431	92.12
281.662	97.12
281.894	62.12
282.125	106.12
282.356	123.12
282.588	150.12
282.819	117.12
283.051	98.12
283.282	81.12
283.513	99.12
283.745	86.12
283.976	87.12
284.207	84.12
284.439	81.12
284.67	74.12
284.901	77.12
285.132	81.12
285.364	89.12
285.595	89.12
285.826	76.12
286.057	73.12
286.288	89.12
286.52	85.12
286.751	80.12
286.982	70.12
287.213	88.12
287.444	87.12
287.675	90.12
287.906	83.12
288.138	86.12
288.369	100.12
288.6	95.12
288.831	84.12
289.062	92.12
289.293	89.12
289.524	80.12
289.755	82.12
289.986	89.12
290.217	89.12
290.448	92.12
290.679	83.12
290.91	97.12
291.141	90.12
291.371	91.12
291.602	72.12
291.833	91.12
292.064	89.12
292.295	79.12
292.526	94.12
292.757	94.12
292.987	82.12
293.218	84.12
293.449	89.12
293.68	79.12
293.91	89.12
294.141	97.12
294.372	82.12
294.603	96.12
294.833	96.12
295.064	88.12
295.295	83.12
295.525	83.12
295.756	106.12
295.987	113.12
296.217	131.12
296.448	117.12
296.679	93.12
296.909	92.12
297.14	99.12
297.37	74.12
297.601	86.12
297.831	92.12
298.062	91.12
298.292	97.12
298.523	82.12
298.753	80.12
298.984	94.12
299.214	93.12
299.445	99.12
299.675	89.12
299.905	81.12
300.136	89.12
300.366	101.12
300.597	88.12
300.827	106.12
301.057	112.12
301.288	114.12
301.518	82.12
301.748	80.12
301.979	102.12
302.209	97.12
302.439	100.12
302.669	80.12
302.9	85.12
303.13	98.12
303.36	82.12
303.59	94.12
303.82	113.12
304.051	90.12
304.281	90.12
304.511	92.12
304.741	97.12
304.971	82.12
305.201	97.12
305.431	85.12
305.661	90.12
305.891	92.12
306.121	100.12
306.352	106.12
306.582	97.12
306.812	107.12
307.042	89.12
307.272	76.12
307.502	82.12
307.731	89.12
307.961	90.12
308.191	97.12
308.421	89.12
308.651	93.12
308.881	74.12
309.111	99.12
309.341	86.12
309.571	106.12
309.8	101.12
310.03	98.12
310.26	109.12
310.49	88.12
310.72	91.12
310.949	102.12
311.179	131.12
311.409	81.12
311.639	90.12
311.868	99.12
312.098	99.12
312.328	100.12
312.557	108.12
312.787	106.12
313.017	116.12
313.246	94.12
313.476	98.12
313.706	102.12
313.935	98.12
314.165	95.12
314.394	97.12
314.624	84.12
314.853	89.12
315.083	107.12
315.312	92.12
315.542	79.12
315.771	96.12
316.001	83.12
316.23	84.12
316.46	93.12
316.689	96.12
316.919	94.12
317.148	106.12
317.377	99.12
317.607	96.12
317.836	89.12
318.065	102.12
318.295	82.12
318.524	92.12
318.753	92.12
318.983	98.12
319.212	95.12
319.441	104.12
319.67	94.12
319.9	98.12
320.129	91.12
320.358	86.12
320.587	89.12
320.816	86.12
321.046	102.12
321.275	102.12
321.504	93.12
321.733	99.12
321.962	105.12
322.191	104.12
322.42	99.12
322.649	111.12
322.878	118.12
323.108	113.12
323.337	140.12
323.566	141.12
323.795	155.12
324.024	204.12
324.253	438.12
324.482	947.12
324.71	1996.12
324.939	2753.12
325.168	978.12
325.397	266.12
325.626	158.12
325.855	125.12
326.084	143.12
326.313	128.12
326.542	158.12
326.77	254.12
326.999	530.12
327.228	1075.12
327.457	1992.12
327.686	1634.12
327.914	404.12
328.143	180.12
328.372	159.12
328.6	129.12
328.829	131.12
329.058	139.12
329.287	137.12
329.515	109.12
329.744	99.12
329.972	106.12
330.201	107.12
330.43	116.12
330.658	113.12
330.887	165.12
331.115	124.12
331.344	82.12
331.572	117.12
331.801	112.12
332.03	106.12
332.258	90.12
332.486	100.12
332.715	88.12
332.943	86.12
333.172	97.12
333.4	116.12
333.629	108.12
333.857	114.12
334.085	99.12
334.314	88.12
334.542	88.12
334.771	100.12
334.999	89.12
335.227	98.12
335.455	106.12
335.684	91.12
335.912	99.12
336.14	106.12
336.369	84.12
336.597	105.12
336.825	107.12
337.053	76.12
337.281	77.12
337.51	90.12
337.738	97.12
337.966	91.12
338.194	92.12
338.422	85.12
338.65	95.12
338.878	96.12
339.106	89.12
339.334	85.12
339.562	85.12
339.79	86.12
340.018	90.12
340.246	93.12
340.474	81.12
340.702	99.12
340.93	71.12
341.158	107.12
341.386	100.12
341.614	110.12
341.842	92.12
342.07	93.12
342.298	80.12
342.526	95.12
342.754	98.12
342.981	108.12
343.209	86.12
343.437	91.12
343.665	96.12
343.893	75.12
344.12	109.12
344.348	98.12
344.576	102.12
344.804	93.12
345.031	95.12
345.259	105.12
345.487	97.12
345.714	110.12
345.942	85.12
346.17	102.12
346.397	91.12
346.625	90.12
346.853	93.12
347.08	84.12
347.308	92.12
347.535	97.12
347.763	102.12
347.99	93.12
348.218	99.12
348.445	104.12
348.673	97.12
348.9	81.12
349.128	84.12
349.355	100.12
349.583	89.12
349.81	93.12
350.037	100.12
350.265	99.12
350.492	96.12
350.72	107.12
350.947	100.12
351.174	118.12
351.402	110.12
351.629	98.12
351.856	100.12
352.083	102.12
352.311	92.12
352.538	104.12
352.765	112.12
352.992	118.12
353.22	117.12
353.447	98.12
353.674	100.12
353.901	104.12
354.128	94.12
354.355	91.12
354.583	95.12
354.81	91.12
355.037	105.12
355.264	88.12
355.491	107.12
355.718	82.12
355.945	100.12
356.172	80.12
356.399	96.12
356.626	88.12
356.853	99.12
357.08	92.12
357.307	89.12
357.534	90.12
357.761	96.12
357.988	91.12
358.215	85.12
358.441	99.12
358.668	83.12
358.895	85.12
359.122	94.12
359.349	99.12
359.576	96.12
359.802	92.12
360.029	113.12
360.256	106.12
360.483	99.12
360.709	97.12
360.936	98.12
361.163	91.12
361.39	85.12
361.616	109.12
361.843	83.12
362.07	101.12
362.296	84.12
362.523	98.12
362.749	88.12
362.976	89.12
363.203	85.12
363.429	89.12
363.656	97.12
363.882	85.12
364.109	81.12
364.335	104.12
364.562	84.12
364.788	96.12
365.015	94.12
365.241	91.12
365.468	116.12
365.694	112.12
365.92	98.12
366.147	79.12
366.373	106.12
366.599	99.12
366.826	97.12
367.052	90.12
367.278	103.12
367.505	82.12
367.731	92.12
367.957	82.12
368.184	96.12
368.41	96.12
368.636	140.12
368.862	117.12
369.089	111.12
369.315	97.12
369.541	98.12
369.767	91.12
369.993	93.12
370.219	88.12
370.445	88.12
370.672	94.12
370.898	83.12
371.124	88.12
371.35	84.12
371.576	91.12
371.802	78.12
372.028	88.12
372.254	81.12
372.48	76.12
372.706	88.12
372.932	85.12
373.158	84.12
373.384	82.12
373.61	89.12
373.835	94.12
374.061	97.12
374.287	96.12
374.513	94.12
374.739	89.12
374.965	77.12
375.191	96.12
375.416	96.12
375.642	89.12
375.868	89.12
376.094	86.12
376.319	82.12
376.545	82.12
376.771	90.12
376.997	76.12
377.222	92.12
377.448	104.12
377.674	76.12
377.899	89.12
378.125	82.12
378.35	88.12
378.576	97.12
378.802	92.12
379.027	90.12
379.253	85.12
379.478	92.12
379.704	92.12
379.929	85.12
380.155	94.12
380.38	74.12
380.606	83.12
380.831	106.12
381.057	97.12
381.282	99.12
381.507	104.12
381.733	92.12
381.958	91.12
382.184	87.12
382.409	74.12
382.634	88.12
382.86	94.12
383.085	93.12
383.31	93.12
383.535	94.12
383.761	89.12
383.986	80.12
384.211	89.12
384.436	87.12
384.662	80.12
384.887	93.12
385.112	107.12
385.337	114.12
385.562	104.12
385.787	89.12
386.013	90.12
386.238	123.12
386.463	114.12
386.688	99.12
386.913	92.12
387.138	98.12
387.363	100.12
387.588	89.12
387.813	91.12
388.038	93.12
388.263	100.12
388.488	106.12
388.713	84.12
388.938	84.12
389.163	110.12
389.387	96.12
389.612	81.12
389.837	96.12
390.062	106.12
390.287	97.12
390.512	82.12
390.736	87.12
390.961	86.12
391.186	104.12
391.411	100.12
391.636	84.12
391.86	85.12
392.085	92.12
392.31	84.12
392.534	84.12
392.759	84.12
392.984	92.12
393.208	105.12
393.433	84.12
393.658	75.12
393.882	78.12
394.107	89.12
394.331	84.12
394.556	67.12
394.78	89.12
395.005	81.12
395.229	76.12
395.454	92.12
395.678	79.12
395.903	81.12
396.127	84.12
396.352	100.12
396.576	89.12
396.801	83.12
397.025	85.12
397.249	86.12
397.474	84.12
397.698	90.12
397.922	86.12
398.147	104.12
398.371	84.12
398.595	94.12
398.82	94.12
399.044	82.12
399.268	80.12
399.492	81.12
399.717	88.12
399.941	82.12
400.165	101.12
400.389	108.12
400.613	83.12
400.837	91.12
401.062	79.12
401.286	81.12
401.51	98.12
401.734	85.12
401.958	88.12
402.182	133.12
402.406	173.12
402.63	127.12
402.854	103.12
403.078	95.12
403.302	102.12
403.526	91.12
403.75	67.12
403.974	81.12
404.198	74.12
404.422	78.12
404.645	91.12
404.869	80.12
405.093	106.12
405.317	91.12
405.541	91.12
405.765	84.12
405.988	109.12
406.212	188.12
406.436	265.12
406.66	158.12
406.883	114.12
407.107	89.12
407.331	99.12
407.555	106.12
407.778	95.12
408.002	84.12
408.226	84.12
408.449	80.12
408.673	90.12
408.896	90.12
409.12	82.12
409.344	82.12
409.567	91.12
409.791	93.12
410.014	83.12
410.238	88.12
410.461	93.12
410.685	91.12
410.908	99.12
411.132	99.12
411.355	84.12
411.578	86.12
411.802	84.12
412.025	77.12
412.249	95.12
412.472	84.12
412.695	96.12
412.919	103.12
413.142	76.12
413.365	72.12
413.589	98.12
413.812	77.12
414.035	87.12
414.258	82.12
414.482	88.12
414.705	93.12
414.928	90.12
415.151	80.12
415.374	81.12
415.597	97.12
415.821	88.12
416.044	90.12
416.267	91.12
416.49	84.12
416.713	85.12
416.936	90.12
417.159	78.12
417.382	75.12
417.605	77.12
417.828	93.12
418.051	85.12
418.274	97.12
418.497	92.12
418.72	88.12
418.943	96.12
419.166	95.12
419.389	68.12
419.611	83.12
419.834	93.12
420.057	76.12
420.28	84.12
420.503	77.12
420.726	88.12
420.948	105.12
421.171	94.12
421.394	88.12
421.617	80.12
421.839	73.12
422.062	82.12
422.285	97.12
422.507	108.12
422.73	90.12
422.953	94.12
423.175	82.12
423.398	84.12
423.621	80.12
423.843	88.12
424.066	83.12
424.288	87.12
424.511	97.12
424.733	106.12
424.956	103.12
425.178	99.12
425.401	89.12
425.623	101.12
425.846	109.12
426.068	85.12
426.291	87.12
426.513	96.12
426.735	82.12
426.958	99.12
427.18	116.12
427.402	140.12
427.625	169.12
427.847	132.12
428.069	107.12
428.292	77.12
428.514	81.12
428.736	85.12
428.958	90.12
429.181	91.12
429.403	88.12
429.625	78.12
429.847	89.12
430.069	99.12
430.292	104.12
430.514	97.12
430.736	74.12
430.958	76.12
431.18	89.12
431.402	85.12
431.624	72.12
431.846	80.12
432.068	73.12
432.29	85.12
432.512	93.12
432.734	87.12
432.956	82.12
433.178	84.12
433.4	106.12
433.622	100.12
433.844	97.12
434.066	89.12
434.287	97.12
434.509	90.12
434.731	101.12
434.953	88.12
435.175	80.12
435.397	86.12
435.618	108.12
435.84	100.12
436.062	119.12
436.284	119.12
436.505	86.12
436.727	97.12
436.949	86.12
437.17	78.12
437.392	86.12
437.614	77.12
437.835	92.12
438.057	130.12
438.278	112.12
438.5	102.12
438.721	121.12
438.943	100.12
439.165	92.12
439.386	84.12
439.608	95.12
439.829	100.12
440.05	113.12
440.272	152.12
440.493	115.12
440.715	86.12
440.936	83.12
441.158	89.12
441.379	75.12
441.6	90.12
441.822	85.12
442.043	96.12
442.264	101.12
442.486	104.12
442.707	88.12
442.928	97.12
443.149	120.12
443.371	134.12
443.592	116.12
443.813	125.12
444.034	112.12
444.255	84.12
444.476	78.12
444.698	84.12
444.919	84.12
445.14	133.12
445.361	120.12
445.582	126.12
445.803	144.12
446.024	143.12
446.245	154.12
446.466	123.12
446.687	91.12
446.908	85.12
447.129	81.12
447.35	80.12
447.571	89.12
447.792	86.12
448.013	93.12
448.234	104.12
448.455	97.12
448.675	114.12
448.896	113.12
449.117	101.12
449.338	105.12
449.559	126.12
449.779	152.12
450	95.12
450.221	96.12
450.442	96.12
450.662	91.12
450.883	112.12
451.104	121.12
451.324	83.12
451.545	90.12
451.766	64.12
451.986	80.12
452.207	80.12
452.428	99.12
452.648	88.12
452.869	104.12
453.089	119.12
453.31	131.12
453.53	97.12
453.751	78.12
453.971	119.12
454.192	98.12
454.412	92.12
454.633	74.12
454.853	92.12
455.073	77.12
455.294	88.12
455.514	102.12
455.734	97.12
455.955	89.12
456.175	86.12
456.395	65.12
456.616	82.12
456.836	87.12
457.056	82.12
457.276	92.12
457.497	76.12
457.717	75.12
457.937	76.12
458.157	89.12
458.377	92.12
458.598	117.12
458.818	132.12
459.038	160.12
459.258	110.12
459.478	96.12
459.698	79.12
459.918	82.12
460.138	94.12
460.358	91.12
460.578	80.12
460.798	97.12
461.018	89.12
461.238	89.12
461.458	101.12
461.678	74.12
461.898	74.12
462.118	91.12
462.338	69.12
462.558	84.12
462.777	77.12
462.997	85.12
463.217	88.12
463.437	78.12
463.657	76.12
463.876	86.12
464.096	88.12
464.316	82.12
464.536	94.12
464.755	94.12
464.975	107.12
465.195	181.12
465.414	170.12
465.634	97.12
465.854	94.12
466.073	102.12
466.293	83.12
466.512	84.12
466.732	85.12
466.951	98.12
467.171	73.12
467.391	95.12
467.61	101.12
467.829	95.12
468.049	78.12
468.268	85.12
468.488	77.12
468.707	80.12
468.927	86.12
469.146	76.12
469.365	89.12
469.585	85.12
469.804	101.12
470.023	96.12
470.243	89.12
470.462	91.12
470.681	106.12
470.901	88.12
471.12	88.12
471.339	82.12
471.558	93.12
471.777	94.12
471.997	72.12
472.216	95.12
472.435	90.12
472.654	85.12
472.873	95.12
473.092	80.12
473.311	97.12
473.53	108.12
473.749	58.12
473.968	95.12
474.187	111.12
474.406	99.12
474.625	89.12
474.844	96.12
475.063	90.12
475.282	93.12
475.501	76.12
475.72	100.12
475.939	88.12
476.158	88.12
476.377	91.12
476.596	82.12
476.814	99.12
477.033	91.12
477.252	90.12
477.471	85.12
477.69	82.12
477.908	84.12
478.127	91.12
478.346	96.12
478.564	81.12
478.783	83.12
479.002	98.12
479.22	81.12
479.439	108.12
479.658	97.12
479.876	98.12
480.095	106.12
480.313	83.12
480.532	84.12
480.751	82.12
480.969	94.12
481.188	99.12
481.406	82.12
481.624	89.12
481.843	72.12
482.061	79.12
482.28	83.12
482.498	83.12
482.717	93.12
482.935	88.12
483.153	73.12
483.372	84.12
483.59	94.12
483.808	89.12
484.027	88.12
484.245	88.12
484.463	86.12
484.681	89.12
484.9	91.12
485.118	91.12
485.336	89.12
485.554	106.12
485.772	92.12
485.99	69.12
486.209	90.12
486.427	110.12
486.645	113.12
486.863	119.12
487.081	95.12
487.299	103.12
487.517	96.12
487.735	91.12
487.953	100.12
488.171	102.12
488.389	91.12
488.607	85.12
488.825	92.12
489.043	86.12
489.261	82.12
489.479	82.12
489.696	86.12
489.914	91.12
490.132	94.12
490.35	89.12
490.568	99.12
490.786	95.12
491.003	96.12
491.221	83.12
491.439	82.12
491.657	90.12
491.874	98.12
492.092	93.12
492.31	100.12
492.527	95.12
492.745	82.12
492.963	93.12
493.18	94.12
493.398	85.12
493.615	95.12
493.833	81.12
494.05	92.12
494.268	86.12
494.485	78.12
494.703	99.12
494.92	93.12
495.138	86.12
495.355	94.12
495.573	101.12
495.79	74.12
496.008	81.12
496.225	91.12
496.442	86.12
496.66	93.12
496.877	92.12
497.094	114.12
497.312	97.12
497.529	79.12
497.746	94.12
497.963	98.12
498.181	85.12
498.398	90.12
498.615	105.12
498.832	101.12
499.049	83.12
499.267	82.12
499.484	99.12
499.701	92.12
499.918	77.12
500.135	94.12
500.352	78.12
500.569	83.12
500.786	93.12
501.003	92.12
501.22	85.12
501.437	97.12
501.654	92.12
501.871	97.12
502.088	85.12
502.305	88.12
502.522	101.12
502.739	88.12
502.956	89.12
503.172	102.12
503.389	85.12
503.606	92.12
503.823	89.12
504.04	84.12
504.256	76.12
504.473	90.12
504.69	76.12
504.907	77.12
505.123	100.12
505.34	89.12
505.557	80.12
505.773	84.12
505.99	86.12
506.207	88.12
506.423	84.12
506.64	77.12
506.856	85.12
507.073	78.12
507.289	95.12
507.506	97.12
507.722	116.12
507.939	102.12
508.155	73.12
508.372	83.12
508.588	88.12
508.805	93.12
509.021	109.12
509.238	107.12
509.454	99.12
509.67	90.12
509.887	101.12
510.103	127.12
510.319	233.12
510.536	787.12
510.752	2545.12
510.968	666.12
511.184	156.12
511.401	109.12
511.617	97.12
511.833	88.12
512.049	85.12
512.265	97.12
512.481	98.12
512.698	99.12
512.914	89.12
513.13	93.12
513.346	81.12
513.562	107.12
513.778	97.12
513.994	91.12
514.21	94.12
514.426	116.12
514.642	124.12
514.858	128.12
515.074	177.12
515.29	529.12
515.506	1730.12
515.721	619.12
515.937	159.12
516.153	122.12
