Data from Uncirc_1991_H10_HRD10591_00094.txt Node
Date: Wed Jan 03 11:50:57 EST 2024
User: Yrep
Spectrometer: HR+D1059
Trigger mode: 1
Integration Time (sec): 1.000000E-1
Scans to average: 1
Electric dark correction enabled: true
Nonlinearity correction enabled: false
Boxcar width: 0
XAxis mode: Wavelengths
Number of Pixels in Spectrum: 2048
>>>>>Begin Spectral Data<<<<<
223.165	-17.88
223.4	-17.88
223.635	-17.88
223.869	-9.88
224.104	-14.88
224.338	-18.88
224.573	-11.88
224.808	-16.88
225.042	-17.88
225.277	-3.88
225.511	1.12
225.746	4.12
225.98	-8.88
226.215	11.12
226.449	21.12
226.683	18.12
226.918	35.12
227.152	30.12
227.387	37.12
227.621	33.12
227.856	51.12
228.09	55.12
228.324	50.12
228.559	58.12
228.793	54.12
229.027	55.12
229.262	42.12
229.496	75.12
229.73	86.12
229.964	91.12
230.199	95.12
230.433	81.12
230.667	72.12
230.901	77.12
231.136	82.12
231.37	85.12
231.604	82.12
231.838	85.12
232.072	81.12
232.306	73.12
232.541	81.12
232.775	75.12
233.009	87.12
233.243	79.12
233.477	61.12
233.711	91.12
233.945	79.12
234.179	57.12
234.413	81.12
234.647	85.12
234.881	80.12
235.115	77.12
235.349	86.12
235.583	75.12
235.817	79.12
236.051	87.12
236.285	74.12
236.519	65.12
236.753	95.12
236.987	86.12
237.221	86.12
237.455	96.12
237.689	81.12
237.922	70.12
238.156	85.12
238.39	77.12
238.624	80.12
238.858	61.12
239.091	74.12
239.325	69.12
239.559	79.12
239.793	80.12
240.027	91.12
240.26	84.12
240.494	91.12
240.728	75.12
240.961	74.12
241.195	74.12
241.429	75.12
241.662	74.12
241.896	60.12
242.13	75.12
242.363	75.12
242.597	77.12
242.83	95.12
243.064	71.12
243.298	90.12
243.531	76.12
243.765	71.12
243.998	64.12
244.232	96.12
244.465	86.12
244.699	82.12
244.932	80.12
245.166	79.12
245.399	85.12
245.633	84.12
245.866	83.12
246.099	76.12
246.333	68.12
246.566	63.12
246.8	67.12
247.033	77.12
247.266	74.12
247.5	71.12
247.733	79.12
247.966	80.12
248.2	73.12
248.433	77.12
248.666	87.12
248.899	71.12
249.133	88.12
249.366	100.12
249.599	97.12
249.832	80.12
250.066	69.12
250.299	83.12
250.532	68.12
250.765	87.12
250.998	92.12
251.231	91.12
251.465	73.12
251.698	82.12
251.931	79.12
252.164	91.12
252.397	67.12
252.63	96.12
252.863	76.12
253.096	72.12
253.329	76.12
253.562	79.12
253.795	82.12
254.028	76.12
254.261	66.12
254.494	72.12
254.727	90.12
254.96	84.12
255.193	84.12
255.426	74.12
255.659	84.12
255.892	82.12
256.124	75.12
256.357	92.12
256.59	87.12
256.823	75.12
257.056	80.12
257.289	87.12
257.521	82.12
257.754	72.12
257.987	77.12
258.22	88.12
258.452	75.12
258.685	83.12
258.918	87.12
259.151	83.12
259.383	87.12
259.616	90.12
259.849	84.12
260.081	81.12
260.314	86.12
260.547	75.12
260.779	79.12
261.012	84.12
261.244	89.12
261.477	97.12
261.71	91.12
261.942	115.12
262.175	125.12
262.407	93.12
262.64	78.12
262.872	84.12
263.105	82.12
263.337	88.12
263.57	86.12
263.802	92.12
264.035	90.12
264.267	86.12
264.499	75.12
264.732	64.12
264.964	79.12
265.197	72.12
265.429	89.12
265.661	85.12
265.894	89.12
266.126	66.12
266.358	81.12
266.591	72.12
266.823	82.12
267.055	79.12
267.287	74.12
267.52	84.12
267.752	82.12
267.984	81.12
268.216	80.12
268.448	80.12
268.681	88.12
268.913	98.12
269.145	71.12
269.377	91.12
269.609	88.12
269.841	82.12
270.073	93.12
270.306	79.12
270.538	81.12
270.77	70.12
271.002	83.12
271.234	83.12
271.466	85.12
271.698	83.12
271.93	87.12
272.162	93.12
272.394	85.12
272.626	97.12
272.858	85.12
273.09	97.12
273.322	82.12
273.553	89.12
273.785	71.12
274.017	83.12
274.249	88.12
274.481	88.12
274.713	89.12
274.945	79.12
275.176	79.12
275.408	93.12
275.64	82.12
275.872	69.12
276.104	68.12
276.335	85.12
276.567	115.12
276.799	122.12
277.031	118.12
277.262	97.12
277.494	105.12
277.726	88.12
277.957	83.12
278.189	90.12
278.421	92.12
278.652	93.12
278.884	78.12
279.115	89.12
279.347	82.12
279.579	83.12
279.81	93.12
280.042	75.12
280.273	88.12
280.505	84.12
280.736	79.12
280.968	71.12
281.199	85.12
281.431	100.12
281.662	79.12
281.894	91.12
282.125	108.12
282.356	120.12
282.588	159.12
282.819	132.12
283.051	79.12
283.282	95.12
283.513	94.12
283.745	97.12
283.976	88.12
284.207	75.12
284.439	69.12
284.67	89.12
284.901	80.12
285.132	81.12
285.364	97.12
285.595	95.12
285.826	75.12
286.057	86.12
286.288	80.12
286.52	78.12
286.751	84.12
286.982	84.12
287.213	73.12
287.444	88.12
287.675	99.12
287.906	90.12
288.138	88.12
288.369	102.12
288.6	85.12
288.831	94.12
289.062	82.12
289.293	83.12
289.524	84.12
289.755	95.12
289.986	80.12
290.217	90.12
290.448	82.12
290.679	82.12
290.91	92.12
291.141	87.12
291.371	81.12
291.602	90.12
291.833	91.12
292.064	88.12
292.295	89.12
292.526	107.12
292.757	104.12
292.987	87.12
293.218	81.12
293.449	73.12
293.68	87.12
293.91	95.12
294.141	86.12
294.372	86.12
294.603	74.12
294.833	81.12
295.064	72.12
295.295	82.12
295.525	89.12
295.756	92.12
295.987	128.12
296.217	160.12
296.448	132.12
296.679	97.12
296.909	83.12
297.14	89.12
297.37	85.12
297.601	83.12
297.831	95.12
298.062	97.12
298.292	82.12
298.523	91.12
298.753	85.12
298.984	80.12
299.214	83.12
299.445	84.12
299.675	89.12
299.905	84.12
300.136	100.12
300.366	91.12
300.597	92.12
300.827	90.12
301.057	83.12
301.288	112.12
301.518	101.12
301.748	95.12
301.979	113.12
302.209	95.12
302.439	75.12
302.669	72.12
302.9	79.12
303.13	84.12
303.36	101.12
303.59	101.12
303.82	108.12
304.051	96.12
304.281	96.12
304.511	96.12
304.741	88.12
304.971	86.12
305.201	93.12
305.431	83.12
305.661	100.12
305.891	94.12
306.121	95.12
306.352	97.12
306.582	105.12
306.812	103.12
307.042	92.12
307.272	87.12
307.502	88.12
307.731	105.12
307.961	97.12
308.191	88.12
308.421	92.12
308.651	93.12
308.881	80.12
309.111	100.12
309.341	101.12
309.571	84.12
309.8	93.12
310.03	101.12
310.26	111.12
310.49	94.12
310.72	96.12
310.949	102.12
311.179	100.12
311.409	114.12
311.639	109.12
311.868	108.12
312.098	104.12
312.328	100.12
312.557	98.12
312.787	121.12
313.017	103.12
313.246	87.12
313.476	84.12
313.706	93.12
313.935	96.12
314.165	118.12
314.394	115.12
314.624	92.12
314.853	111.12
315.083	83.12
315.312	93.12
315.542	87.12
315.771	77.12
316.001	93.12
316.23	104.12
316.46	96.12
316.689	85.12
316.919	90.12
317.148	84.12
317.377	102.12
317.607	83.12
317.836	93.12
318.065	87.12
318.295	97.12
318.524	92.12
318.753	93.12
318.983	95.12
319.212	125.12
319.441	115.12
319.67	110.12
319.9	106.12
320.129	99.12
320.358	87.12
320.587	84.12
320.816	97.12
321.046	107.12
321.275	90.12
321.504	85.12
321.733	93.12
321.962	99.12
322.191	96.12
322.42	119.12
322.649	119.12
322.878	108.12
323.108	127.12
323.337	143.12
323.566	156.12
323.795	184.12
324.024	241.12
324.253	482.12
324.482	1071.12
324.71	2168.12
324.939	2985.12
325.168	1084.12
325.397	308.12
325.626	172.12
325.855	149.12
326.084	140.12
326.313	141.12
326.542	170.12
326.77	275.12
326.999	540.12
327.228	1152.12
327.457	2257.12
327.686	1816.12
327.914	457.12
328.143	228.12
328.372	180.12
328.6	149.12
328.829	139.12
329.058	148.12
329.287	140.12
329.515	103.12
329.744	98.12
329.972	101.12
330.201	110.12
330.43	121.12
330.658	144.12
330.887	180.12
331.115	152.12
331.344	97.12
331.572	116.12
331.801	117.12
332.03	107.12
332.258	100.12
332.486	95.12
332.715	102.12
332.943	86.12
333.172	104.12
333.4	98.12
333.629	106.12
333.857	112.12
334.085	101.12
334.314	106.12
334.542	95.12
334.771	95.12
334.999	100.12
335.227	99.12
335.455	98.12
335.684	98.12
335.912	90.12
336.14	92.12
336.369	88.12
336.597	106.12
336.825	93.12
337.053	86.12
337.281	94.12
337.51	100.12
337.738	116.12
337.966	96.12
338.194	105.12
338.422	113.12
338.65	87.12
338.878	85.12
339.106	90.12
339.334	103.12
339.562	93.12
339.79	92.12
340.018	109.12
340.246	81.12
340.474	106.12
340.702	87.12
340.93	91.12
341.158	101.12
341.386	97.12
341.614	105.12
341.842	104.12
342.07	107.12
342.298	104.12
342.526	112.12
342.754	93.12
342.981	90.12
343.209	91.12
343.437	86.12
343.665	91.12
343.893	90.12
344.12	87.12
344.348	84.12
344.576	84.12
344.804	79.12
345.031	99.12
345.259	104.12
345.487	91.12
345.714	104.12
345.942	84.12
346.17	97.12
346.397	90.12
346.625	88.12
346.853	86.12
347.08	99.12
347.308	100.12
347.535	98.12
347.763	95.12
347.99	115.12
348.218	108.12
348.445	97.12
348.673	88.12
348.9	93.12
349.128	101.12
349.355	92.12
349.583	105.12
349.81	89.12
350.037	78.12
350.265	87.12
350.492	96.12
350.72	93.12
350.947	106.12
351.174	100.12
351.402	108.12
351.629	113.12
351.856	97.12
352.083	110.12
352.311	111.12
352.538	110.12
352.765	118.12
352.992	115.12
353.22	125.12
353.447	100.12
353.674	92.12
353.901	95.12
354.128	107.12
354.355	98.12
354.583	97.12
354.81	104.12
355.037	93.12
355.264	90.12
355.491	95.12
355.718	105.12
355.945	106.12
356.172	91.12
356.399	100.12
356.626	93.12
356.853	76.12
357.08	93.12
357.307	91.12
357.534	103.12
357.761	88.12
357.988	98.12
358.215	91.12
358.441	95.12
358.668	81.12
358.895	89.12
359.122	94.12
359.349	98.12
359.576	79.12
359.802	116.12
360.029	131.12
360.256	120.12
360.483	113.12
360.709	83.12
360.936	88.12
361.163	104.12
361.39	101.12
361.616	99.12
361.843	101.12
362.07	104.12
362.296	109.12
362.523	85.12
362.749	113.12
362.976	96.12
363.203	104.12
363.429	92.12
363.656	90.12
363.882	84.12
364.109	100.12
364.335	92.12
364.562	85.12
364.788	102.12
365.015	103.12
365.241	102.12
365.468	103.12
365.694	122.12
365.92	96.12
366.147	90.12
366.373	93.12
366.599	80.12
366.826	85.12
367.052	96.12
367.278	89.12
367.505	89.12
367.731	94.12
367.957	95.12
368.184	112.12
368.41	89.12
368.636	111.12
368.862	132.12
369.089	107.12
369.315	105.12
369.541	85.12
369.767	102.12
369.993	89.12
370.219	86.12
370.445	95.12
370.672	75.12
370.898	83.12
371.124	83.12
371.35	85.12
371.576	98.12
371.802	95.12
372.028	86.12
372.254	82.12
372.48	95.12
372.706	91.12
372.932	98.12
373.158	75.12
373.384	92.12
373.61	92.12
373.835	88.12
374.061	80.12
374.287	97.12
374.513	89.12
374.739	72.12
374.965	89.12
375.191	101.12
375.416	91.12
375.642	98.12
375.868	95.12
376.094	81.12
376.319	92.12
376.545	95.12
376.771	76.12
376.997	87.12
377.222	93.12
377.448	82.12
377.674	83.12
377.899	78.12
378.125	96.12
378.35	102.12
378.576	90.12
378.802	83.12
379.027	92.12
379.253	87.12
379.478	86.12
379.704	92.12
379.929	88.12
380.155	102.12
380.38	87.12
380.606	88.12
380.831	92.12
381.057	99.12
381.282	84.12
381.507	98.12
381.733	80.12
381.958	91.12
382.184	95.12
382.409	116.12
382.634	112.12
382.86	87.12
383.085	105.12
383.31	88.12
383.535	105.12
383.761	103.12
383.986	100.12
384.211	87.12
384.436	100.12
384.662	105.12
384.887	88.12
385.112	98.12
385.337	92.12
385.562	93.12
385.787	86.12
386.013	104.12
386.238	101.12
386.463	99.12
386.688	108.12
386.913	110.12
387.138	93.12
387.363	96.12
387.588	87.12
387.813	81.12
388.038	116.12
388.263	94.12
388.488	85.12
388.713	87.12
388.938	101.12
389.163	101.12
389.387	103.12
389.612	99.12
389.837	93.12
390.062	101.12
390.287	89.12
390.512	79.12
390.736	96.12
390.961	76.12
391.186	89.12
391.411	97.12
391.636	83.12
391.86	85.12
392.085	74.12
392.31	85.12
392.534	89.12
392.759	77.12
392.984	79.12
393.208	79.12
393.433	89.12
393.658	98.12
393.882	87.12
394.107	81.12
394.331	84.12
394.556	75.12
394.78	72.12
395.005	89.12
395.229	91.12
395.454	77.12
395.678	89.12
395.903	88.12
396.127	95.12
396.352	84.12
396.576	81.12
396.801	83.12
397.025	95.12
397.249	74.12
397.474	89.12
397.698	72.12
397.922	77.12
398.147	90.12
398.371	77.12
398.595	60.12
398.82	81.12
399.044	68.12
399.268	97.12
399.492	84.12
399.717	87.12
399.941	98.12
400.165	92.12
400.389	93.12
400.613	82.12
400.837	95.12
401.062	87.12
401.286	90.12
401.51	96.12
401.734	104.12
401.958	88.12
402.182	141.12
402.406	187.12
402.63	129.12
402.854	90.12
403.078	95.12
403.302	99.12
403.526	88.12
403.75	84.12
403.974	89.12
404.198	81.12
404.422	87.12
404.645	106.12
404.869	83.12
405.093	91.12
405.317	98.12
405.541	101.12
405.765	113.12
405.988	124.12
406.212	223.12
406.436	307.12
406.66	196.12
406.883	118.12
407.107	99.12
407.331	99.12
407.555	109.12
407.778	118.12
408.002	83.12
408.226	77.12
408.449	84.12
408.673	101.12
408.896	82.12
409.12	102.12
409.344	95.12
409.567	83.12
409.791	82.12
410.014	87.12
410.238	87.12
410.461	91.12
410.685	80.12
410.908	96.12
411.132	95.12
411.355	111.12
411.578	75.12
411.802	97.12
412.025	89.12
412.249	83.12
412.472	89.12
412.695	99.12
412.919	80.12
413.142	83.12
413.365	80.12
413.589	88.12
413.812	77.12
414.035	94.12
414.258	80.12
414.482	83.12
414.705	104.12
414.928	87.12
415.151	84.12
415.374	105.12
415.597	87.12
415.821	96.12
416.044	95.12
416.267	84.12
416.49	87.12
416.713	90.12
416.936	80.12
417.159	89.12
417.382	98.12
417.605	76.12
417.828	89.12
418.051	92.12
418.274	86.12
418.497	81.12
418.72	85.12
418.943	91.12
419.166	87.12
419.389	85.12
419.611	82.12
419.834	89.12
420.057	89.12
420.28	99.12
420.503	92.12
420.726	72.12
420.948	84.12
421.171	93.12
421.394	94.12
421.617	90.12
421.839	102.12
422.062	76.12
422.285	87.12
422.507	107.12
422.73	92.12
422.953	92.12
423.175	92.12
423.398	96.12
423.621	81.12
423.843	94.12
424.066	91.12
424.288	77.12
424.511	98.12
424.733	104.12
424.956	101.12
425.178	117.12
425.401	123.12
425.623	110.12
425.846	99.12
426.068	85.12
426.291	109.12
426.513	90.12
426.735	103.12
426.958	90.12
427.18	112.12
427.402	165.12
427.625	223.12
427.847	147.12
428.069	92.12
428.292	81.12
428.514	84.12
428.736	83.12
428.958	107.12
429.181	90.12
429.403	85.12
429.625	81.12
429.847	106.12
430.069	111.12
430.292	93.12
430.514	75.12
430.736	79.12
430.958	80.12
431.18	87.12
431.402	91.12
431.624	79.12
431.846	82.12
432.068	72.12
432.29	75.12
432.512	85.12
432.734	72.12
432.956	100.12
433.178	91.12
433.4	115.12
433.622	98.12
433.844	85.12
434.066	97.12
434.287	92.12
434.509	95.12
434.731	88.12
434.953	97.12
435.175	93.12
435.397	94.12
435.618	102.12
435.84	101.12
436.062	151.12
436.284	145.12
436.505	99.12
436.727	102.12
436.949	105.12
437.17	100.12
437.392	86.12
437.614	91.12
437.835	105.12
438.057	149.12
438.278	127.12
438.5	128.12
438.721	148.12
438.943	116.12
439.165	90.12
439.386	82.12
439.608	97.12
439.829	101.12
440.05	149.12
440.272	195.12
440.493	109.12
440.715	82.12
440.936	93.12
441.158	98.12
441.379	89.12
441.6	89.12
441.822	111.12
442.043	96.12
442.264	122.12
442.486	102.12
442.707	88.12
442.928	104.12
443.149	165.12
443.371	155.12
443.592	128.12
443.813	132.12
444.034	122.12
444.255	112.12
444.476	91.12
444.698	92.12
444.919	87.12
445.14	132.12
445.361	124.12
445.582	125.12
445.803	183.12
446.024	171.12
446.245	173.12
446.466	130.12
446.687	92.12
446.908	95.12
447.129	87.12
447.35	66.12
447.571	81.12
447.792	104.12
448.013	124.12
448.234	126.12
448.455	111.12
448.675	135.12
448.896	133.12
449.117	111.12
449.338	104.12
449.559	157.12
449.779	157.12
450	107.12
450.221	105.12
450.442	90.12
450.662	97.12
450.883	119.12
451.104	129.12
451.324	83.12
451.545	95.12
451.766	112.12
451.986	79.12
452.207	94.12
452.428	98.12
452.648	97.12
452.869	129.12
453.089	117.12
453.31	132.12
453.53	105.12
453.751	79.12
453.971	116.12
454.192	124.12
454.412	98.12
454.633	78.12
454.853	71.12
455.073	96.12
455.294	108.12
455.514	113.12
455.734	93.12
455.955	89.12
456.175	88.12
456.395	95.12
456.616	86.12
456.836	77.12
457.056	87.12
457.276	89.12
457.497	80.12
457.717	80.12
457.937	91.12
458.157	83.12
458.377	91.12
458.598	108.12
458.818	164.12
459.038	202.12
459.258	134.12
459.478	107.12
459.698	87.12
459.918	91.12
460.138	70.12
460.358	94.12
460.578	95.12
460.798	87.12
461.018	88.12
461.238	89.12
461.458	86.12
461.678	74.12
461.898	77.12
462.118	82.12
462.338	74.12
462.558	75.12
462.777	80.12
462.997	95.12
463.217	89.12
463.437	96.12
463.657	88.12
463.876	65.12
464.096	88.12
464.316	99.12
464.536	87.12
464.755	86.12
464.975	106.12
465.195	203.12
465.414	211.12
465.634	98.12
465.854	90.12
466.073	101.12
466.293	92.12
466.512	80.12
466.732	76.12
466.951	89.12
467.171	78.12
467.391	99.12
467.61	123.12
467.829	90.12
468.049	75.12
468.268	69.12
468.488	93.12
468.707	91.12
468.927	89.12
469.146	83.12
469.365	92.12
469.585	80.12
469.804	112.12
470.023	106.12
470.243	80.12
470.462	122.12
470.681	122.12
470.901	90.12
471.12	90.12
471.339	89.12
471.558	74.12
471.777	85.12
471.997	74.12
472.216	82.12
472.435	97.12
472.654	82.12
472.873	65.12
473.092	81.12
473.311	89.12
473.53	74.12
473.749	86.12
473.968	100.12
474.187	119.12
474.406	106.12
474.625	94.12
474.844	82.12
475.063	84.12
475.282	76.12
475.501	90.12
475.72	93.12
475.939	89.12
476.158	88.12
476.377	82.12
476.596	83.12
476.814	86.12
477.033	94.12
477.252	90.12
477.471	83.12
477.69	87.12
477.908	84.12
478.127	73.12
478.346	67.12
478.564	85.12
478.783	107.12
479.002	95.12
479.22	79.12
479.439	98.12
479.658	127.12
479.876	96.12
480.095	109.12
480.313	98.12
480.532	89.12
480.751	81.12
480.969	90.12
481.188	95.12
481.406	90.12
481.624	92.12
481.843	84.12
482.061	70.12
482.28	87.12
482.498	91.12
482.717	84.12
482.935	90.12
483.153	88.12
483.372	89.12
483.59	94.12
483.808	80.12
484.027	83.12
484.245	92.12
484.463	101.12
484.681	95.12
484.9	78.12
485.118	94.12
485.336	92.12
485.554	101.12
485.772	108.12
485.99	98.12
486.209	96.12
486.427	116.12
486.645	120.12
486.863	105.12
487.081	105.12
487.299	97.12
487.517	110.12
487.735	92.12
487.953	83.12
488.171	87.12
488.389	93.12
488.607	105.12
488.825	102.12
489.043	93.12
489.261	85.12
489.479	90.12
489.696	95.12
489.914	77.12
490.132	95.12
490.35	83.12
490.568	81.12
490.786	95.12
491.003	86.12
491.221	94.12
491.439	88.12
491.657	96.12
491.874	88.12
492.092	90.12
492.31	82.12
492.527	88.12
492.745	92.12
492.963	101.12
493.18	97.12
493.398	87.12
493.615	81.12
493.833	94.12
494.05	92.12
494.268	89.12
494.485	93.12
494.703	92.12
494.92	92.12
495.138	80.12
495.355	95.12
495.573	91.12
495.79	92.12
496.008	90.12
496.225	95.12
496.442	91.12
496.66	89.12
496.877	98.12
497.094	90.12
497.312	67.12
497.529	89.12
497.746	92.12
497.963	92.12
498.181	94.12
498.398	87.12
498.615	112.12
498.832	114.12
499.049	80.12
499.267	87.12
499.484	84.12
499.701	88.12
499.918	97.12
500.135	86.12
500.352	87.12
500.569	102.12
500.786	91.12
501.003	84.12
501.22	79.12
501.437	83.12
501.654	98.12
501.871	115.12
502.088	83.12
502.305	72.12
502.522	75.12
502.739	93.12
502.956	89.12
503.172	95.12
503.389	92.12
503.606	103.12
503.823	99.12
504.04	94.12
504.256	87.12
504.473	75.12
504.69	81.12
504.907	89.12
505.123	78.12
505.34	97.12
505.557	88.12
505.773	90.12
505.99	91.12
506.207	86.12
506.423	93.12
506.64	101.12
506.856	92.12
507.073	94.12
507.289	100.12
507.506	102.12
507.722	123.12
507.939	126.12
508.155	108.12
508.372	80.12
508.588	98.12
508.805	97.12
509.021	85.12
509.238	101.12
509.454	96.12
509.67	106.12
509.887	110.12
510.103	135.12
510.319	252.12
510.536	952.12
510.752	3069.12
510.968	804.12
511.184	179.12
511.401	119.12
511.617	113.12
511.833	91.12
512.049	92.12
512.265	103.12
512.481	89.12
512.698	89.12
512.914	96.12
513.13	86.12
513.346	104.12
513.562	79.12
513.778	94.12
513.994	103.12
514.21	102.12
514.426	136.12
514.642	155.12
514.858	146.12
515.074	197.12
515.29	655.12
