Data from Uncirc_1991_H10_HRD10591_00073.txt Node
Date: Wed Jan 03 11:50:52 EST 2024
User: Yrep
Spectrometer: HR+D1059
Trigger mode: 1
Integration Time (sec): 1.000000E-1
Scans to average: 1
Electric dark correction enabled: true
Nonlinearity correction enabled: false
Boxcar width: 0
XAxis mode: Wavelengths
Number of Pixels in Spectrum: 2048
>>>>>Begin Spectral Data<<<<<
223.165	-19.25
223.4	-19.25
223.635	-19.25
223.869	-19.25
224.104	-25.25
224.338	-6.25
224.573	-32.25
224.808	-3.25
225.042	-10.25
225.277	-1.25
225.511	1.75
225.746	5.75
225.98	-1.25
226.215	7.75
226.449	17.75
226.683	24.75
226.918	22.75
227.152	37.75
227.387	28.75
227.621	28.75
227.856	41.75
228.09	48.75
228.324	58.75
228.559	56.75
228.793	63.75
229.027	68.75
229.262	70.75
229.496	79.75
229.73	88.75
229.964	77.75
230.199	74.75
230.433	83.75
230.667	96.75
230.901	74.75
231.136	95.75
231.37	73.75
231.604	79.75
231.838	78.75
232.072	82.75
232.306	83.75
232.541	88.75
232.775	68.75
233.009	84.75
233.243	86.75
233.477	82.75
233.711	83.75
233.945	78.75
234.179	88.75
234.413	73.75
234.647	87.75
234.881	86.75
235.115	83.75
235.349	79.75
235.583	78.75
235.817	74.75
236.051	78.75
236.285	78.75
236.519	81.75
236.753	68.75
236.987	93.75
237.221	91.75
237.455	85.75
237.689	79.75
237.922	74.75
238.156	91.75
238.39	87.75
238.624	79.75
238.858	78.75
239.091	70.75
239.325	79.75
239.559	81.75
239.793	70.75
240.027	81.75
240.26	78.75
240.494	95.75
240.728	79.75
240.961	82.75
241.195	76.75
241.429	79.75
241.662	77.75
241.896	69.75
242.13	74.75
242.363	76.75
242.597	76.75
242.83	86.75
243.064	80.75
243.298	96.75
243.531	69.75
243.765	79.75
243.998	76.75
244.232	83.75
244.465	86.75
244.699	70.75
244.932	72.75
245.166	87.75
245.399	76.75
245.633	90.75
245.866	78.75
246.099	79.75
246.333	82.75
246.566	68.75
246.8	79.75
247.033	78.75
247.266	82.75
247.5	78.75
247.733	73.75
247.966	83.75
248.2	82.75
248.433	68.75
248.666	76.75
248.899	74.75
249.133	80.75
249.366	109.75
249.599	105.75
249.832	76.75
250.066	85.75
250.299	82.75
250.532	79.75
250.765	72.75
250.998	88.75
251.231	75.75
251.465	77.75
251.698	78.75
251.931	73.75
252.164	82.75
252.397	71.75
252.63	76.75
252.863	76.75
253.096	76.75
253.329	84.75
253.562	66.75
253.795	88.75
254.028	84.75
254.261	82.75
254.494	88.75
254.727	76.75
254.96	76.75
255.193	86.75
255.426	84.75
255.659	74.75
255.892	92.75
256.124	83.75
256.357	90.75
256.59	86.75
256.823	71.75
257.056	83.75
257.289	78.75
257.521	66.75
257.754	67.75
257.987	96.75
258.22	91.75
258.452	85.75
258.685	84.75
258.918	93.75
259.151	83.75
259.383	81.75
259.616	74.75
259.849	77.75
260.081	82.75
260.314	75.75
260.547	78.75
260.779	62.75
261.012	67.75
261.244	95.75
261.477	102.75
261.71	91.75
261.942	110.75
262.175	129.75
262.407	87.75
262.64	74.75
262.872	84.75
263.105	71.75
263.337	79.75
263.57	92.75
263.802	92.75
264.035	87.75
264.267	87.75
264.499	88.75
264.732	79.75
264.964	81.75
265.197	83.75
265.429	80.75
265.661	95.75
265.894	89.75
266.126	102.75
266.358	101.75
266.591	104.75
266.823	68.75
267.055	81.75
267.287	84.75
267.52	96.75
267.752	88.75
267.984	74.75
268.216	81.75
268.448	84.75
268.681	96.75
268.913	85.75
269.145	79.75
269.377	91.75
269.609	87.75
269.841	89.75
270.073	81.75
270.306	69.75
270.538	97.75
270.77	95.75
271.002	85.75
271.234	75.75
271.466	79.75
271.698	77.75
271.93	95.75
272.162	91.75
272.394	86.75
272.626	87.75
272.858	83.75
273.09	94.75
273.322	88.75
273.553	100.75
273.785	92.75
274.017	94.75
274.249	84.75
274.481	84.75
274.713	87.75
274.945	87.75
275.176	82.75
275.408	80.75
275.64	80.75
275.872	83.75
276.104	85.75
276.335	78.75
276.567	99.75
276.799	111.75
277.031	110.75
277.262	89.75
277.494	91.75
277.726	98.75
277.957	93.75
278.189	80.75
278.421	86.75
278.652	82.75
278.884	92.75
279.115	71.75
279.347	77.75
279.579	99.75
279.81	89.75
280.042	92.75
280.273	81.75
280.505	93.75
280.736	98.75
280.968	87.75
281.199	82.75
281.431	69.75
281.662	86.75
281.894	69.75
282.125	100.75
282.356	111.75
282.588	162.75
282.819	116.75
283.051	94.75
283.282	80.75
283.513	92.75
283.745	91.75
283.976	90.75
284.207	84.75
284.439	96.75
284.67	92.75
284.901	105.75
285.132	105.75
285.364	98.75
285.595	83.75
285.826	83.75
286.057	85.75
286.288	90.75
286.52	74.75
286.751	82.75
286.982	91.75
287.213	89.75
287.444	92.75
287.675	90.75
287.906	87.75
288.138	90.75
288.369	90.75
288.6	95.75
288.831	87.75
289.062	97.75
289.293	75.75
289.524	82.75
289.755	73.75
289.986	94.75
290.217	86.75
290.448	90.75
290.679	87.75
290.91	82.75
291.141	97.75
291.371	84.75
291.602	90.75
291.833	90.75
292.064	84.75
292.295	79.75
292.526	105.75
292.757	97.75
292.987	93.75
293.218	113.75
293.449	71.75
293.68	88.75
293.91	90.75
294.141	82.75
294.372	78.75
294.603	86.75
294.833	92.75
295.064	92.75
295.295	94.75
295.525	92.75
295.756	88.75
295.987	116.75
296.217	145.75
296.448	128.75
296.679	113.75
296.909	90.75
297.14	83.75
297.37	84.75
297.601	93.75
297.831	90.75
298.062	85.75
298.292	80.75
298.523	95.75
298.753	89.75
298.984	90.75
299.214	96.75
299.445	90.75
299.675	97.75
299.905	95.75
300.136	95.75
300.366	91.75
300.597	94.75
300.827	97.75
301.057	95.75
301.288	106.75
301.518	95.75
301.748	93.75
301.979	112.75
302.209	100.75
302.439	87.75
302.669	90.75
302.9	104.75
303.13	109.75
303.36	94.75
303.59	95.75
303.82	116.75
304.051	92.75
304.281	90.75
304.511	95.75
304.741	76.75
304.971	90.75
305.201	81.75
305.431	81.75
305.661	102.75
305.891	103.75
306.121	95.75
306.352	118.75
306.582	114.75
306.812	110.75
307.042	86.75
307.272	95.75
307.502	93.75
307.731	81.75
307.961	85.75
308.191	87.75
308.421	96.75
308.651	98.75
308.881	99.75
309.111	86.75
309.341	95.75
309.571	105.75
309.8	103.75
310.03	92.75
310.26	87.75
310.49	86.75
310.72	91.75
310.949	92.75
311.179	116.75
311.409	104.75
311.639	89.75
311.868	99.75
312.098	104.75
312.328	94.75
312.557	109.75
312.787	123.75
313.017	111.75
313.246	96.75
313.476	99.75
313.706	90.75
313.935	104.75
314.165	97.75
314.394	107.75
314.624	90.75
314.853	103.75
315.083	97.75
315.312	93.75
315.542	99.75
315.771	87.75
316.001	81.75
316.23	111.75
316.46	91.75
316.689	100.75
316.919	110.75
317.148	100.75
317.377	81.75
317.607	92.75
317.836	96.75
318.065	90.75
318.295	97.75
318.524	79.75
318.753	90.75
318.983	93.75
319.212	103.75
319.441	103.75
319.67	105.75
319.9	103.75
320.129	91.75
320.358	97.75
320.587	103.75
320.816	92.75
321.046	110.75
321.275	95.75
321.504	79.75
321.733	96.75
321.962	96.75
322.191	107.75
322.42	97.75
322.649	112.75
322.878	125.75
323.108	111.75
323.337	130.75
323.566	130.75
323.795	161.75
324.024	218.75
324.253	443.75
324.482	973.75
324.71	2003.75
324.939	2734.75
325.168	988.75
325.397	282.75
325.626	152.75
325.855	144.75
326.084	136.75
326.313	147.75
326.542	163.75
326.77	243.75
326.999	486.75
327.228	1090.75
327.457	2026.75
327.686	1691.75
327.914	416.75
328.143	204.75
328.372	155.75
328.6	130.75
328.829	117.75
329.058	136.75
329.287	142.75
329.515	110.75
329.744	110.75
329.972	97.75
330.201	106.75
330.43	104.75
330.658	128.75
330.887	151.75
331.115	134.75
331.344	110.75
331.572	104.75
331.801	106.75
332.03	112.75
332.258	101.75
332.486	98.75
332.715	82.75
332.943	108.75
333.172	92.75
333.4	99.75
333.629	112.75
333.857	119.75
334.085	100.75
334.314	97.75
334.542	88.75
334.771	99.75
334.999	105.75
335.227	95.75
335.455	111.75
335.684	90.75
335.912	90.75
336.14	94.75
336.369	88.75
336.597	99.75
336.825	105.75
337.053	87.75
337.281	91.75
337.51	78.75
337.738	111.75
337.966	104.75
338.194	94.75
338.422	96.75
338.65	98.75
338.878	99.75
339.106	86.75
339.334	81.75
339.562	80.75
339.79	88.75
340.018	96.75
340.246	90.75
340.474	90.75
340.702	93.75
340.93	89.75
341.158	85.75
341.386	96.75
341.614	87.75
341.842	86.75
342.07	85.75
342.298	82.75
342.526	86.75
342.754	92.75
342.981	91.75
343.209	91.75
343.437	112.75
343.665	95.75
343.893	82.75
344.12	98.75
344.348	84.75
344.576	93.75
344.804	81.75
345.031	99.75
345.259	107.75
345.487	100.75
345.714	88.75
345.942	95.75
346.17	98.75
346.397	97.75
346.625	83.75
346.853	101.75
347.08	92.75
347.308	89.75
347.535	99.75
347.763	86.75
347.99	100.75
348.218	112.75
348.445	109.75
348.673	90.75
348.9	80.75
349.128	98.75
349.355	90.75
349.583	91.75
349.81	83.75
350.037	95.75
350.265	88.75
350.492	92.75
350.72	90.75
350.947	92.75
351.174	107.75
351.402	124.75
351.629	114.75
351.856	101.75
352.083	116.75
352.311	109.75
352.538	118.75
352.765	112.75
352.992	106.75
353.22	94.75
353.447	103.75
353.674	111.75
353.901	103.75
354.128	93.75
354.355	107.75
354.583	96.75
354.81	92.75
355.037	93.75
355.264	85.75
355.491	98.75
355.718	77.75
355.945	103.75
356.172	103.75
356.399	111.75
356.626	100.75
356.853	88.75
357.08	98.75
357.307	85.75
357.534	92.75
357.761	86.75
357.988	90.75
358.215	76.75
358.441	99.75
358.668	81.75
358.895	76.75
359.122	86.75
359.349	71.75
359.576	107.75
359.802	110.75
360.029	124.75
360.256	122.75
360.483	98.75
360.709	99.75
360.936	80.75
361.163	91.75
361.39	83.75
361.616	94.75
361.843	92.75
362.07	92.75
362.296	95.75
362.523	93.75
362.749	92.75
362.976	90.75
363.203	96.75
363.429	87.75
363.656	90.75
363.882	85.75
364.109	90.75
364.335	92.75
364.562	99.75
364.788	93.75
365.015	103.75
365.241	87.75
365.468	110.75
365.694	100.75
365.92	96.75
366.147	97.75
366.373	86.75
366.599	99.75
366.826	92.75
367.052	79.75
367.278	94.75
367.505	97.75
367.731	90.75
367.957	99.75
368.184	83.75
368.41	106.75
368.636	106.75
368.862	126.75
369.089	111.75
369.315	85.75
369.541	95.75
369.767	92.75
369.993	78.75
370.219	104.75
370.445	90.75
370.672	93.75
370.898	102.75
371.124	85.75
371.35	99.75
371.576	88.75
371.802	78.75
372.028	85.75
372.254	74.75
372.48	99.75
372.706	87.75
372.932	94.75
373.158	99.75
373.384	101.75
373.61	104.75
373.835	90.75
374.061	88.75
374.287	98.75
374.513	103.75
374.739	76.75
374.965	78.75
375.191	84.75
375.416	81.75
375.642	77.75
375.868	99.75
376.094	96.75
376.319	95.75
376.545	82.75
376.771	84.75
376.997	79.75
377.222	92.75
377.448	93.75
377.674	81.75
377.899	103.75
378.125	84.75
378.35	95.75
378.576	79.75
378.802	104.75
379.027	84.75
379.253	92.75
379.478	91.75
379.704	92.75
379.929	86.75
380.155	87.75
380.38	94.75
380.606	98.75
380.831	102.75
381.057	97.75
381.282	92.75
381.507	96.75
381.733	99.75
381.958	94.75
382.184	78.75
382.409	99.75
382.634	96.75
382.86	90.75
383.085	95.75
383.31	99.75
383.535	91.75
383.761	114.75
383.986	101.75
384.211	83.75
384.436	104.75
384.662	93.75
384.887	98.75
385.112	103.75
385.337	90.75
385.562	98.75
385.787	84.75
386.013	95.75
386.238	113.75
386.463	96.75
386.688	102.75
386.913	105.75
387.138	101.75
387.363	96.75
387.588	93.75
387.813	86.75
388.038	93.75
388.263	94.75
388.488	98.75
388.713	87.75
388.938	103.75
389.163	96.75
389.387	91.75
389.612	88.75
389.837	96.75
390.062	109.75
390.287	84.75
390.512	90.75
390.736	97.75
390.961	90.75
391.186	82.75
391.411	97.75
391.636	92.75
391.86	88.75
392.085	92.75
392.31	86.75
392.534	90.75
392.759	87.75
392.984	83.75
393.208	67.75
393.433	82.75
393.658	92.75
393.882	104.75
394.107	82.75
394.331	82.75
394.556	86.75
394.78	89.75
395.005	89.75
395.229	82.75
395.454	85.75
395.678	74.75
395.903	87.75
396.127	94.75
396.352	84.75
396.576	92.75
396.801	97.75
397.025	77.75
397.249	67.75
397.474	75.75
397.698	89.75
397.922	91.75
398.147	87.75
398.371	95.75
398.595	81.75
398.82	90.75
399.044	91.75
399.268	77.75
399.492	92.75
399.717	110.75
399.941	86.75
400.165	74.75
400.389	92.75
400.613	112.75
400.837	92.75
401.062	84.75
401.286	90.75
401.51	88.75
401.734	77.75
401.958	103.75
402.182	134.75
402.406	160.75
402.63	130.75
402.854	86.75
403.078	96.75
403.302	90.75
403.526	86.75
403.75	88.75
403.974	78.75
404.198	95.75
404.422	85.75
404.645	78.75
404.869	83.75
405.093	101.75
405.317	90.75
405.541	95.75
405.765	99.75
405.988	110.75
406.212	170.75
406.436	245.75
406.66	143.75
406.883	107.75
407.107	104.75
407.331	91.75
407.555	118.75
407.778	104.75
408.002	90.75
408.226	95.75
408.449	89.75
408.673	98.75
408.896	100.75
409.12	88.75
409.344	93.75
409.567	97.75
409.791	100.75
410.014	109.75
410.238	104.75
410.461	105.75
410.685	88.75
410.908	102.75
411.132	115.75
411.355	91.75
411.578	87.75
411.802	96.75
412.025	78.75
412.249	91.75
412.472	84.75
412.695	101.75
412.919	83.75
413.142	95.75
413.365	90.75
413.589	86.75
413.812	88.75
414.035	80.75
414.258	87.75
414.482	97.75
414.705	94.75
414.928	94.75
415.151	90.75
415.374	83.75
415.597	96.75
415.821	92.75
416.044	103.75
416.267	71.75
416.49	86.75
416.713	92.75
416.936	84.75
417.159	84.75
417.382	92.75
417.605	93.75
417.828	102.75
418.051	88.75
418.274	85.75
418.497	78.75
418.72	79.75
418.943	84.75
419.166	84.75
419.389	81.75
419.611	88.75
419.834	94.75
420.057	98.75
420.28	84.75
420.503	100.75
420.726	99.75
420.948	84.75
421.171	101.75
421.394	90.75
421.617	80.75
421.839	84.75
422.062	82.75
422.285	87.75
422.507	103.75
422.73	103.75
422.953	83.75
423.175	84.75
423.398	95.75
423.621	98.75
423.843	99.75
424.066	84.75
424.288	87.75
424.511	90.75
424.733	109.75
424.956	123.75
425.178	96.75
425.401	110.75
425.623	112.75
425.846	90.75
426.068	94.75
426.291	105.75
426.513	84.75
426.735	81.75
426.958	103.75
427.18	107.75
427.402	139.75
427.625	187.75
427.847	142.75
428.069	105.75
428.292	91.75
428.514	95.75
428.736	81.75
428.958	94.75
429.181	93.75
429.403	83.75
429.625	89.75
429.847	93.75
430.069	108.75
430.292	97.75
430.514	100.75
430.736	77.75
430.958	76.75
431.18	74.75
431.402	86.75
431.624	88.75
431.846	88.75
432.068	92.75
432.29	92.75
432.512	91.75
432.734	101.75
432.956	100.75
433.178	95.75
433.4	88.75
433.622	88.75
433.844	76.75
434.066	72.75
434.287	89.75
434.509	70.75
434.731	92.75
434.953	82.75
435.175	98.75
435.397	91.75
435.618	90.75
435.84	125.75
436.062	126.75
436.284	111.75
436.505	102.75
436.727	104.75
436.949	103.75
437.17	90.75
437.392	96.75
437.614	102.75
437.835	108.75
438.057	109.75
438.278	133.75
438.5	100.75
438.721	150.75
438.943	121.75
439.165	85.75
439.386	100.75
439.608	94.75
439.829	108.75
440.05	126.75
440.272	170.75
440.493	95.75
440.715	92.75
440.936	111.75
441.158	86.75
441.379	103.75
441.6	107.75
441.822	100.75
442.043	84.75
442.264	114.75
442.486	114.75
442.707	104.75
442.928	95.75
443.149	153.75
443.371	146.75
443.592	117.75
443.813	114.75
444.034	111.75
444.255	92.75
444.476	96.75
444.698	95.75
444.919	95.75
445.14	138.75
445.361	125.75
445.582	118.75
445.803	173.75
446.024	140.75
446.245	158.75
446.466	119.75
446.687	83.75
446.908	86.75
447.129	88.75
447.35	98.75
447.571	94.75
447.792	91.75
448.013	107.75
448.234	112.75
448.455	109.75
448.675	119.75
448.896	145.75
449.117	114.75
449.338	96.75
449.559	144.75
449.779	148.75
450	82.75
450.221	83.75
450.442	95.75
450.662	90.75
450.883	101.75
451.104	114.75
451.324	110.75
451.545	92.75
451.766	94.75
451.986	88.75
452.207	91.75
452.428	79.75
452.648	95.75
452.869	110.75
453.089	113.75
453.31	147.75
453.53	87.75
453.751	100.75
453.971	105.75
454.192	103.75
454.412	93.75
454.633	94.75
454.853	95.75
455.073	92.75
455.294	94.75
455.514	96.75
455.734	82.75
455.955	93.75
456.175	77.75
456.395	88.75
456.616	82.75
456.836	89.75
457.056	76.75
457.276	78.75
457.497	94.75
457.717	85.75
457.937	79.75
458.157	75.75
458.377	82.75
458.598	114.75
458.818	167.75
459.038	163.75
459.258	127.75
459.478	79.75
459.698	79.75
459.918	96.75
460.138	83.75
460.358	98.75
460.578	94.75
460.798	94.75
461.018	98.75
461.238	83.75
461.458	88.75
461.678	77.75
461.898	96.75
462.118	90.75
462.338	91.75
462.558	99.75
462.777	87.75
462.997	98.75
463.217	78.75
463.437	88.75
463.657	84.75
463.876	76.75
464.096	82.75
464.316	90.75
464.536	98.75
464.755	103.75
464.975	112.75
465.195	204.75
465.414	182.75
465.634	87.75
465.854	104.75
466.073	86.75
466.293	91.75
466.512	93.75
466.732	80.75
466.951	88.75
467.171	90.75
467.391	74.75
467.61	98.75
467.829	95.75
468.049	82.75
468.268	91.75
468.488	89.75
468.707	80.75
468.927	86.75
469.146	86.75
469.365	83.75
469.585	86.75
469.804	80.75
470.023	109.75
470.243	84.75
470.462	118.75
470.681	123.75
470.901	98.75
471.12	89.75
471.339	90.75
471.558	92.75
471.777	79.75
471.997	101.75
472.216	94.75
472.435	107.75
472.654	84.75
472.873	89.75
473.092	96.75
473.311	82.75
473.53	98.75
473.749	79.75
473.968	102.75
474.187	117.75
474.406	117.75
474.625	109.75
474.844	90.75
475.063	87.75
475.282	80.75
475.501	89.75
475.72	93.75
475.939	86.75
476.158	78.75
476.377	83.75
476.596	80.75
476.814	96.75
477.033	96.75
477.252	87.75
477.471	85.75
477.69	84.75
477.908	90.75
478.127	86.75
478.346	93.75
478.564	76.75
478.783	82.75
479.002	95.75
479.22	102.75
479.439	102.75
479.658	109.75
479.876	91.75
480.095	84.75
480.313	88.75
480.532	93.75
480.751	77.75
480.969	84.75
481.188	96.75
481.406	75.75
481.624	87.75
481.843	78.75
482.061	83.75
482.28	86.75
482.498	93.75
482.717	85.75
482.935	77.75
483.153	84.75
483.372	83.75
483.59	87.75
483.808	74.75
484.027	90.75
484.245	93.75
484.463	97.75
484.681	79.75
484.9	83.75
485.118	103.75
485.336	98.75
485.554	104.75
485.772	104.75
485.99	94.75
486.209	96.75
486.427	118.75
486.645	98.75
486.863	117.75
487.081	98.75
487.299	101.75
487.517	92.75
487.735	101.75
487.953	108.75
488.171	94.75
488.389	95.75
488.607	107.75
488.825	102.75
489.043	95.75
489.261	91.75
489.479	90.75
489.696	82.75
489.914	69.75
490.132	76.75
490.35	94.75
490.568	97.75
490.786	86.75
491.003	97.75
491.221	94.75
491.439	76.75
491.657	96.75
491.874	95.75
492.092	82.75
492.31	81.75
492.527	96.75
492.745	91.75
492.963	80.75
493.18	89.75
493.398	101.75
493.615	95.75
493.833	82.75
494.05	86.75
494.268	85.75
494.485	86.75
494.703	84.75
494.92	84.75
495.138	98.75
495.355	91.75
495.573	86.75
495.79	82.75
496.008	84.75
496.225	95.75
496.442	103.75
496.66	99.75
496.877	87.75
497.094	106.75
497.312	91.75
497.529	90.75
497.746	102.75
497.963	84.75
498.181	98.75
498.398	94.75
498.615	104.75
498.832	119.75
499.049	80.75
499.267	95.75
499.484	91.75
499.701	95.75
499.918	90.75
500.135	92.75
500.352	81.75
500.569	91.75
500.786	87.75
501.003	95.75
501.22	112.75
501.437	83.75
501.654	104.75
501.871	106.75
502.088	92.75
502.305	101.75
502.522	90.75
502.739	95.75
502.956	103.75
503.172	91.75
503.389	95.75
503.606	101.75
503.823	110.75
504.04	90.75
504.256	97.75
504.473	106.75
504.69	104.75
504.907	80.75
505.123	98.75
505.34	95.75
505.557	92.75
505.773	86.75
505.99	89.75
506.207	86.75
506.423	94.75
506.64	102.75
506.856	94.75
507.073	85.75
507.289	86.75
507.506	117.75
507.722	98.75
507.939	113.75
508.155	99.75
508.372	96.75
508.588	86.75
508.805	102.75
509.021	102.75
509.238	101.75
509.454	101.75
509.67	117.75
509.887	102.75
510.103	137.75
510.319	236.75
510.536	791.75
510.752	2534.75
510.968	709.75
511.184	168.75
511.401	118.75
511.617	92.75
511.833	90.75
512.049	99.75
512.265	100.75
512.481	101.75
512.698	76.75
512.914	98.75
513.13	102.75
513.346	91.75
513.562	94.75
513.778	102.75
513.994	107.75
514.21	92.75
514.426	123.75
514.642	141.75
514.858	136.75
515.074	167.75
515.29	490.75
