Data from Uncirc_1991_H10_HRD10591_00015.txt Node
Date: Wed Jan 03 11:50:41 EST 2024
User: Yrep
Spectrometer: HR+D1059
Trigger mode: 1
Integration Time (sec): 1.000000E-1
Scans to average: 1
Electric dark correction enabled: true
Nonlinearity correction enabled: false
Boxcar width: 0
XAxis mode: Wavelengths
Number of Pixels in Spectrum: 2048
>>>>>Begin Spectral Data<<<<<
223.165	-8
223.4	-8
223.635	-8
223.869	-17
224.104	-6
224.338	-19
224.573	-19
224.808	-13
225.042	-6
225.277	-7
225.511	4
225.746	26
225.98	6
226.215	-6
226.449	4
226.683	8
226.918	21
227.152	32
227.387	43
227.621	41
227.856	50
228.09	43
228.324	38
228.559	66
228.793	177
229.027	494
229.262	526
229.496	645
229.73	875
229.964	885
230.199	571
230.433	508
230.667	514
230.901	481
231.136	461
231.37	455
231.604	454
231.838	483
232.072	472
232.306	496
232.541	498
232.775	512
233.009	492
233.243	518
233.477	513
233.711	514
233.945	534
234.179	542
234.413	549
234.647	536
234.881	542
235.115	543
235.349	580
235.583	590
235.817	645
236.051	688
236.285	652
236.519	671
236.753	726
236.987	975
237.221	1509
237.455	1635
237.689	971
237.922	804
238.156	778
238.39	730
238.624	666
238.858	667
239.091	674
239.325	678
239.559	705
239.793	772
240.027	800
240.26	986
240.494	1054
240.728	1017
240.961	976
241.195	878
241.429	817
241.662	814
241.896	789
242.13	807
242.363	810
242.597	834
242.83	866
243.064	895
243.298	856
243.531	874
243.765	860
243.998	897
244.232	874
244.465	941
244.699	926
244.932	944
245.166	945
245.399	939
245.633	937
245.866	970
246.099	964
246.333	994
246.566	1011
246.8	1025
247.033	1037
247.266	1106
247.5	1141
247.733	1229
247.966	1227
248.2	1199
248.433	1226
248.666	1287
248.899	1450
249.133	1538
249.366	1531
249.599	1422
249.832	1258
250.066	1276
250.299	1327
250.532	1410
250.765	1629
250.998	1836
251.231	1724
251.465	1566
251.698	1513
251.931	1470
252.164	1466
252.397	1534
252.63	1542
252.863	1649
253.096	1779
253.329	1854
253.562	1772
253.795	1676
254.028	1661
254.261	1714
254.494	1924
254.727	2332
254.96	2411
255.193	2058
255.426	1847
255.659	1711
255.892	1659
256.124	1597
256.357	1618
256.59	1572
256.823	1567
257.056	1580
257.289	1605
257.521	1606
257.754	1629
257.987	1584
258.22	1605
258.452	1597
258.685	1626
258.918	1624
259.151	1695
259.383	1776
259.616	1804
259.849	1916
260.081	2072
260.314	2250
260.547	2146
260.779	1965
261.012	1874
261.244	1816
261.477	1757
261.71	1775
261.942	1818
262.175	1838
262.407	1743
262.64	1718
262.872	1746
263.105	1694
263.337	1718
263.57	1696
263.802	1758
264.035	1758
264.267	1734
264.499	1729
264.732	1779
264.964	1762
265.197	1792
265.429	1766
265.661	1782
265.894	1818
266.126	1775
266.358	1808
266.591	1864
266.823	1928
267.055	1960
267.287	1955
267.52	1948
267.752	1913
267.984	1971
268.216	1927
268.448	2015
268.681	2067
268.913	2206
269.145	2488
269.377	2544
269.609	2403
269.841	2371
270.073	2522
270.306	2812
270.538	3001
270.77	2846
271.002	2641
271.234	2633
271.466	2787
271.698	2925
271.93	2912
272.162	2949
272.394	2831
272.626	2689
272.858	2446
273.09	2392
273.322	2359
273.553	2308
273.785	2339
274.017	2266
274.249	2334
274.481	2311
274.713	2392
274.945	2403
275.176	2375
275.408	2356
275.64	2362
275.872	2384
276.104	2359
276.335	2413
276.567	2446
276.799	2647
277.031	2869
277.262	3037
277.494	2880
277.726	2695
277.957	2577
278.189	2476
278.421	2436
278.652	2433
278.884	2477
279.115	2404
279.347	2438
279.579	2466
279.81	2426
280.042	2427
280.273	2458
280.505	2445
280.736	2443
280.968	2439
281.199	2471
281.431	2468
281.662	2480
281.894	2538
282.125	2575
282.356	2791
282.588	2899
282.819	2745
283.051	2610
283.282	2573
283.513	2582
283.745	2636
283.976	2693
284.207	2688
284.439	2692
284.67	2716
284.901	2659
285.132	2646
285.364	2661
285.595	2654
285.826	2658
286.057	2775
286.288	2747
286.52	2684
286.751	2744
286.982	2766
287.213	2736
287.444	2799
287.675	2878
287.906	2923
288.138	2990
288.369	2978
288.6	2941
288.831	2904
289.062	2846
289.293	2880
289.524	2865
289.755	2858
289.986	2884
290.217	2837
290.448	2857
290.679	2894
290.91	2869
291.141	2855
291.371	2848
291.602	2907
291.833	2878
292.064	2821
292.295	2820
292.526	2915
292.757	2939
292.987	2846
293.218	2809
293.449	2860
293.68	2930
293.91	2918
294.141	2926
294.372	2850
294.603	2873
294.833	2890
295.064	2934
295.295	2906
295.525	2916
295.756	2964
295.987	3065
296.217	3193
296.448	3206
296.679	2999
296.909	2958
297.14	2982
297.37	3050
297.601	3058
297.831	3057
298.062	3077
298.292	3096
298.523	3118
298.753	3178
298.984	3165
299.214	3139
299.445	3072
299.675	3110
299.905	3187
300.136	3099
300.366	3156
300.597	3197
300.827	3306
301.057	3390
301.288	3406
301.518	3326
301.748	3405
301.979	3398
302.209	3426
302.439	3404
302.669	3367
302.9	3362
303.13	3331
303.36	3386
303.59	3377
303.82	3431
304.051	3336
304.281	3317
304.511	3317
304.741	3294
304.971	3328
305.201	3273
305.431	3306
305.661	3296
305.891	3322
306.121	3350
306.352	3332
306.582	3376
306.812	3283
307.042	3327
307.272	3288
307.502	3294
307.731	3311
307.961	3293
308.191	3299
308.421	3318
308.651	3367
308.881	3398
309.111	3432
309.341	3443
309.571	3543
309.8	3539
310.03	3626
310.26	3609
310.49	3634
310.72	3756
310.949	3892
311.179	3863
311.409	3695
311.639	3751
311.868	3678
312.098	3702
312.328	3799
312.557	4015
312.787	4085
313.017	3912
313.246	3838
313.476	3723
313.706	3802
313.935	3988
314.165	3999
314.394	4040
314.624	3991
314.853	3896
315.083	3798
315.312	3778
315.542	3757
315.771	3694
316.001	3668
316.23	3641
316.46	3744
316.689	3727
316.919	3774
317.148	3796
317.377	3797
317.607	3748
317.836	3719
318.065	3676
318.295	3661
318.524	3663
318.753	3670
318.983	3759
319.212	3695
319.441	3708
319.67	3825
319.9	3709
320.129	3742
320.358	3779
320.587	3779
320.816	3876
321.046	3866
321.275	3835
321.504	3838
321.733	3885
321.962	3954
322.191	4004
322.42	4156
322.649	4216
322.878	4287
323.108	4371
323.337	4649
323.566	4763
323.795	5113
324.024	5665
324.253	7422
324.482	11121
324.71	15573
324.939	15624
325.168	13563
325.397	6779
325.626	5322
325.855	4906
326.084	4772
326.313	4813
326.542	4977
326.77	5634
326.999	7046
327.228	10498
327.457	14758
327.686	14246
327.914	7484
328.143	5893
328.372	5565
328.6	5301
328.829	5284
329.058	5489
329.287	5532
329.515	5055
329.744	4758
329.972	4824
330.201	4884
330.43	5160
330.658	5506
330.887	5847
331.115	5439
331.344	5048
331.572	4915
331.801	5023
332.03	5029
332.258	4928
332.486	4894
332.715	5000
332.943	5155
333.172	5295
333.4	5408
333.629	5490
333.857	5569
334.085	5427
334.314	5341
334.542	5263
334.771	5374
334.999	5235
335.227	5130
335.455	5087
335.684	4994
335.912	4935
336.14	4926
336.369	4960
336.597	5009
336.825	5007
337.053	4849
337.281	4774
337.51	4749
337.738	4698
337.966	4677
338.194	4712
338.422	4646
338.65	4581
338.878	4588
339.106	4545
339.334	4548
339.562	4457
339.79	4460
340.018	4401
340.246	4423
340.474	4487
340.702	4420
340.93	4382
341.158	4411
341.386	4396
341.614	4452
341.842	4378
342.07	4282
342.298	4324
342.526	4272
342.754	4257
342.981	4275
343.209	4449
343.437	4623
343.665	4835
343.893	5135
344.12	5159
344.348	4917
344.576	4827
344.804	4712
345.031	4659
345.259	4579
345.487	4439
345.714	4378
345.942	4257
346.17	4182
346.397	4200
346.625	4276
346.853	4182
347.08	4184
347.308	4251
347.535	4372
347.763	4327
347.99	4291
348.218	4355
348.445	4374
348.673	4310
348.9	4174
349.128	4145
349.355	4010
349.583	4098
349.81	4077
350.037	4064
350.265	3999
350.492	4035
350.72	4028
350.947	4105
351.174	4150
351.402	4277
351.629	4194
351.856	4209
352.083	4297
352.311	4239
352.538	4254
352.765	4203
352.992	4193
353.22	4116
353.447	4089
353.674	4026
353.901	4005
354.128	3925
354.355	3987
354.583	3969
354.81	3996
355.037	3995
355.264	3902
355.491	3885
355.718	3973
355.945	3937
356.172	3960
356.399	3944
356.626	3882
356.853	3914
357.08	3957
357.307	3971
357.534	3967
357.761	3971
357.988	3896
358.215	3870
358.441	3948
358.668	3967
358.895	4040
359.122	4065
359.349	4144
359.576	4303
359.802	4532
360.029	4688
360.256	4647
360.483	4456
360.709	4306
360.936	4237
361.163	4190
361.39	4214
361.616	4182
361.843	4173
362.07	4165
362.296	4206
362.523	4126
362.749	4144
362.976	4122
363.203	4014
363.429	4043
363.656	3992
363.882	4047
364.109	3949
364.335	4008
364.562	4018
364.788	4042
365.015	3988
365.241	4047
365.468	4082
365.694	4075
365.92	4090
366.147	3961
366.373	4046
366.599	3997
366.826	3931
367.052	3949
367.278	4024
367.505	3999
367.731	4066
367.957	4030
368.184	4076
368.41	4195
368.636	4241
368.862	4286
369.089	4246
369.315	4157
369.541	4130
369.767	4192
369.993	4165
370.219	4188
370.445	4197
370.672	4158
370.898	4254
371.124	4245
371.35	4292
371.576	4228
371.802	4215
372.028	4224
372.254	4175
372.48	4275
372.706	4420
372.932	4502
373.158	4343
373.384	4371
373.61	4313
373.835	4385
374.061	4372
374.287	4421
374.513	4437
374.739	4574
374.965	4714
375.191	4743
375.416	4631
375.642	4439
375.868	4462
376.094	4393
376.319	4396
376.545	4299
376.771	4333
376.997	4297
377.222	4283
377.448	4302
377.674	4323
377.899	4218
378.125	4282
378.35	4206
378.576	4232
378.802	4145
379.027	4204
379.253	4234
379.478	4204
379.704	4249
379.929	4258
380.155	4281
380.38	4310
380.606	4234
380.831	4302
381.057	4300
381.282	4316
381.507	4294
381.733	4248
381.958	4378
382.184	4426
382.409	4509
382.634	4525
382.86	4485
383.085	4547
383.31	4626
383.535	4689
383.761	4767
383.986	4815
384.211	4971
384.436	5020
384.662	4981
384.887	5045
385.112	5084
385.337	5131
385.562	5159
385.787	5170
386.013	5208
386.238	5286
386.463	5211
386.688	5258
386.913	5095
387.138	5082
387.363	5054
387.588	5022
387.813	5045
388.038	5042
388.263	5075
388.488	5121
388.713	5128
388.938	5094
389.163	5111
389.387	5075
389.612	5005
389.837	5025
390.062	4966
390.287	5025
390.512	5045
390.736	5172
390.961	5144
391.186	5275
391.411	5355
391.636	5468
391.86	5611
392.085	5687
392.31	5635
392.534	5463
392.759	5402
392.984	5303
393.208	5265
393.433	5274
393.658	5246
393.882	5283
394.107	5318
394.331	5363
394.556	5306
394.78	5425
395.005	5407
395.229	5406
395.454	5681
395.678	5727
395.903	5760
396.127	5806
396.352	5603
396.576	5401
396.801	5397
397.025	5503
397.249	5585
397.474	5724
397.698	5725
397.922	5946
398.147	6066
398.371	6036
398.595	6184
398.82	6413
399.044	7017
399.268	7697
399.492	8726
399.717	9374
399.941	9197
400.165	8622
400.389	7998
400.613	7246
400.837	6749
401.062	6565
401.286	6449
401.51	6407
401.734	6366
401.958	6544
402.182	6569
402.406	6733
402.63	6757
402.854	6951
403.078	6904
403.302	7092
403.526	7181
403.75	7327
403.974	7267
404.198	7198
404.422	7388
404.645	7278
404.869	7212
405.093	7368
405.317	7389
405.541	7455
405.765	7139
405.988	7107
406.212	7261
406.436	7468
406.66	7607
406.883	7597
407.107	8220
407.331	8784
407.555	9232
407.778	8973
408.002	8136
408.226	7781
408.449	7686
408.673	7525
408.896	7715
409.12	7943
409.344	7333
409.567	7064
409.791	7070
410.014	6861
410.238	6823
410.461	6895
410.685	7039
410.908	7074
411.132	7279
411.355	7328
411.578	6940
411.802	6671
412.025	6571
412.249	6684
412.472	6762
412.695	6655
412.919	6428
413.142	6312
413.365	6291
413.589	6351
413.812	6254
414.035	6168
414.258	6221
414.482	6346
414.705	6389
414.928	6319
415.151	6354
415.374	6274
415.597	6234
415.821	6140
416.044	6129
416.267	6181
416.49	6197
416.713	6138
416.936	6212
417.159	6183
417.382	6362
417.605	6286
417.828	6428
418.051	6613
418.274	6407
418.497	6339
418.72	6445
418.943	6389
419.166	6791
419.389	7143
419.611	7090
419.834	6910
420.057	6743
420.28	6514
420.503	6306
420.726	6364
420.948	6520
421.171	7026
421.394	7037
421.617	6438
421.839	6394
422.062	6512
422.285	6714
422.507	7506
422.73	8034
422.953	7383
423.175	6951
423.398	6849
423.621	7040
423.843	7294
424.066	7102
424.288	7132
424.511	7400
424.733	7748
424.956	8303
425.178	7744
425.401	8037
425.623	7889
425.846	6824
426.068	6677
426.291	6591
426.513	6504
426.735	6623
426.958	7145
427.18	8052
427.402	9282
427.625	9328
427.847	7707
428.069	6790
428.292	6442
428.514	6090
428.736	5987
428.958	6003
429.181	5843
429.403	5830
429.625	6010
429.847	6362
430.069	6919
430.292	6371
430.514	5771
430.736	5815
430.958	5723
431.18	5646
431.402	5574
431.624	5653
431.846	5708
432.068	5659
432.29	5768
432.512	5706
432.734	5848
432.956	5764
433.178	5865
433.4	5834
433.622	5676
433.844	5774
434.066	5755
434.287	5786
434.509	5986
434.731	6300
434.953	6447
435.175	6527
435.397	6799
435.618	6595
435.84	7031
436.062	8032
436.284	7917
436.505	6635
436.727	6268
436.949	5930
437.17	5847
437.392	5845
437.614	6054
437.835	6368
438.057	7477
438.278	8183
438.5	8101
438.721	9028
438.943	7785
439.165	6568
439.386	6222
439.608	6332
439.829	6434
440.05	6775
440.272	7194
440.493	6475
440.715	6223
440.936	6093
441.158	6194
441.379	6262
441.6	6677
441.822	6836
442.043	7283
442.264	8164
442.486	7893
442.707	7003
442.928	6757
443.149	6941
443.371	7228
443.592	7742
443.813	8892
444.034	8866
444.255	7451
444.476	7301
444.698	7504
444.919	7498
445.14	7408
445.361	7327
445.582	7396
445.803	8183
446.024	8858
446.245	8545
446.466	7605
446.687	6545
446.908	6226
447.129	5844
447.35	5683
447.571	5708
447.792	5510
448.013	5658
448.234	5880
448.455	6672
448.675	8036
448.896	8465
449.117	6851
449.338	7150
449.559	8611
449.779	8834
450	6558
450.221	5900
450.442	5541
450.662	5539
450.883	5623
451.104	5713
451.324	5580
451.545	5435
451.766	5172
451.986	5145
452.207	5008
452.428	5060
452.648	5084
452.869	5131
453.089	5195
453.31	5273
453.53	5152
453.751	5061
453.971	5055
454.192	5267
454.412	5013
454.633	4971
454.853	4926
455.073	4964
455.294	5361
455.514	6008
455.734	5414
455.955	4868
456.175	4791
456.395	4676
456.616	4596
456.836	4625
457.056	4615
457.276	4565
457.497	4767
457.717	4681
457.937	4798
458.157	4849
458.377	5048
458.598	5328
458.818	5966
459.038	6958
459.258	6782
459.478	5983
459.698	5722
459.918	5878
460.138	5972
460.358	6270
460.578	6193
460.798	6292
461.018	6321
461.238	6188
461.458	6184
461.678	6076
461.898	6216
462.118	6330
462.338	6554
462.558	6690
462.777	6931
462.997	7502
463.217	7954
463.437	7674
463.657	7222
463.876	7046
464.096	7039
464.316	6998
464.536	7143
464.755	6842
464.975	6831
465.195	7036
465.414	7098
465.634	6226
465.854	5825
466.073	5621
466.293	5415
466.512	5312
466.732	5138
466.951	5144
467.171	5235
467.391	5267
467.61	5353
467.829	5307
468.049	5265
468.268	5016
468.488	4915
468.707	4942
468.927	4913
469.146	4931
469.365	4960
469.585	5029
469.804	5212
470.023	5412
470.243	5381
470.462	5478
470.681	5665
470.901	5516
471.12	5288
471.339	5268
471.558	5292
471.777	5149
471.997	5061
472.216	5029
472.435	4925
472.654	4953
472.873	4899
473.092	4932
473.311	4929
473.53	5025
473.749	5093
473.968	5636
474.187	6908
474.406	6343
474.625	5302
474.844	5055
475.063	5024
475.282	4950
475.501	5116
475.72	5092
475.939	5182
476.158	5151
476.377	5152
476.596	5199
476.814	5332
477.033	5375
477.252	5451
477.471	5482
477.69	5594
477.908	5687
478.127	5847
478.346	5892
478.564	5980
478.783	6082
479.002	6286
479.22	6258
479.439	6342
479.658	6509
479.876	6547
480.095	6764
480.313	7143
480.532	7075
480.751	6803
480.969	6815
481.188	6660
481.406	6384
481.624	6257
481.843	6074
482.061	6068
482.28	5948
482.498	5823
482.717	5818
482.935	5794
483.153	5839
483.372	5874
483.59	5800
483.808	5844
484.027	5936
484.245	6005
484.463	5912
484.681	6078
484.9	6091
485.118	6134
485.336	6198
485.554	6213
485.772	6275
485.99	6234
486.209	6333
486.427	6255
486.645	6363
486.863	6551
487.081	6454
487.299	6390
487.517	6343
487.735	6326
487.953	6238
488.171	6226
488.389	6346
488.607	6339
488.825	6300
489.043	6345
489.261	6400
489.479	6397
489.696	6482
489.914	6556
490.132	6477
490.35	6598
490.568	6684
490.786	6742
491.003	6765
491.221	6993
491.439	7109
491.657	7109
491.874	7155
492.092	7145
492.31	7251
492.527	7156
492.745	7258
492.963	7422
493.18	7321
493.398	7412
493.615	7602
493.833	7652
494.05	7518
494.268	7528
494.485	7549
494.703	7472
494.92	7472
495.138	7576
495.355	7560
495.573	7535
495.79	7535
496.008	7643
496.225	7593
496.442	7540
496.66	7620
496.877	7679
497.094	7742
497.312	7898
497.529	7993
497.746	8142
497.963	8481
498.181	8898
498.398	9121
498.615	9492
498.832	9917
499.049	10425
499.267	10996
499.484	11739
499.701	12496
499.918	13215
500.135	14073
500.352	14698
500.569	14812
500.786	14673
501.003	14223
501.22	13550
501.437	12840
501.654	12066
501.871	11466
502.088	10666
502.305	10110
502.522	9588
502.739	9386
502.956	8832
503.172	8536
503.389	8200
503.606	8254
503.823	8094
504.04	8042
504.256	8125
504.473	8273
504.69	8286
504.907	8028
505.123	7653
505.34	7566
505.557	7372
505.773	7265
505.99	7212
506.207	7103
506.423	7014
506.64	6938
506.856	6878
507.073	6815
507.289	6646
507.506	6717
507.722	6863
507.939	6885
508.155	6594
508.372	6427
508.588	6519
508.805	6413
509.021	6524
509.238	6768
509.454	6747
509.67	6510
509.887	6365
510.103	6391
510.319	6501
510.536	7574
510.752	11012
510.968	7406
511.184	6188
511.401	6163
511.617	6000
511.833	5877
512.049	5882
512.265	5951
512.481	5964
512.698	5863
512.914	5841
513.13	5895
513.346	5906
513.562	5895
513.778	5888
513.994	6070
514.21	6155
514.426	6366
514.642	6682
514.858	6720
515.074	7180
515.29	8476
515.506	10999
515.721	8159
515.937	6968
516.153	6766
516.369	6667
516.585	6737
516.801	6849
517.016	6977
517.232	7193
517.448	7366
517.664	7547
517.879	7540
518.095	7459
518.311	7381
518.527	7122
518.742	6858
518.958	6678
519.173	6459
519.389	6383
519.605	6286
519.82	6252
520.036	6375
520.251	6572
520.467	6641
520.682	6471
520.898	6528
521.113	6642
521.329	6900
521.544	7601
521.76	9493
521.975	13877
522.19	10933
522.406	7195
522.621	6162
522.836	5853
523.052	5669
523.267	5464
523.482	5415
523.698	5286
523.913	5247
524.128	5238
524.343	5130
524.559	5106
524.774	4982
524.989	5043
525.204	5056
525.419	5115
525.634	4958
525.849	4874
526.064	4837
526.28	4808
526.495	4884
526.71	4816
526.925	4826
527.14	4870
527.355	4819
527.57	4734
527.785	4759
527.999	4732
528.214	4810
528.429	4792
528.644	4799
528.859	4759
529.074	4791
529.289	4957
529.503	5600
529.718	5312
529.933	4981
530.148	4950
530.363	4827
530.577	4744
530.792	4778
531.007	4788
531.221	4733
531.436	4751
531.651	4701
531.865	4742
532.08	4703
532.295	4683
532.509	4694
532.724	4622
532.938	4677
533.153	4715
533.367	4723
533.582	4661
533.796	4616
534.011	4658
534.225	4611
534.44	4573
534.654	4508
534.868	4566
535.083	4512
535.297	4591
535.511	4596
535.726	4634
535.94	4622
536.154	4517
536.369	4412
536.583	4362
536.797	4419
537.011	4308
537.225	4295
537.44	4342
537.654	4364
537.868	4400
538.082	4414
538.296	4317
538.51	4360
538.724	4345
538.938	4295
539.153	4246
539.367	4399
539.581	4304
539.795	4286
540.009	4270
540.222	4224
540.436	4284
540.65	4343
540.864	4311
541.078	4322
541.292	4295
541.506	4252
541.72	4162
541.934	4095
542.147	4030
