Data from Uncirc_1991_H10_HRD10591_00030.txt Node
Date: Wed Jan 03 11:50:44 EST 2024
User: Yrep
Spectrometer: HR+D1059
Trigger mode: 1
Integration Time (sec): 1.000000E-1
Scans to average: 1
Electric dark correction enabled: true
Nonlinearity correction enabled: false
Boxcar width: 0
XAxis mode: Wavelengths
Number of Pixels in Spectrum: 2048
>>>>>Begin Spectral Data<<<<<
223.165	-17.5
223.4	-17.5
223.635	-17.5
223.869	-13.5
224.104	-22.5
224.338	-14.5
224.573	-10.5
224.808	-9.5
225.042	-6.5
225.277	-5.5
225.511	-8.5
225.746	-5.5
225.98	9.5
226.215	3.5
226.449	12.5
226.683	14.5
226.918	36.5
227.152	37.5
227.387	38.5
227.621	34.5
227.856	46.5
228.09	52.5
228.324	58.5
228.559	56.5
228.793	54.5
229.027	77.5
229.262	82.5
229.496	81.5
229.73	87.5
229.964	92.5
230.199	58.5
230.433	84.5
230.667	86.5
230.901	86.5
231.136	92.5
231.37	79.5
231.604	93.5
231.838	93.5
232.072	85.5
232.306	80.5
232.541	86.5
232.775	88.5
233.009	72.5
233.243	89.5
233.477	90.5
233.711	88.5
233.945	83.5
234.179	83.5
234.413	81.5
234.647	90.5
234.881	78.5
235.115	80.5
235.349	79.5
235.583	95.5
235.817	88.5
236.051	83.5
236.285	88.5
236.519	69.5
236.753	80.5
236.987	86.5
237.221	74.5
237.455	82.5
237.689	82.5
237.922	83.5
238.156	85.5
238.39	83.5
238.624	83.5
238.858	87.5
239.091	69.5
239.325	75.5
239.559	84.5
239.793	77.5
240.027	84.5
240.26	80.5
240.494	102.5
240.728	80.5
240.961	83.5
241.195	76.5
241.429	91.5
241.662	80.5
241.896	85.5
242.13	85.5
242.363	74.5
242.597	100.5
242.83	89.5
243.064	90.5
243.298	86.5
243.531	82.5
243.765	73.5
243.998	76.5
244.232	95.5
244.465	81.5
244.699	87.5
244.932	86.5
245.166	77.5
245.399	75.5
245.633	94.5
245.866	73.5
246.099	79.5
246.333	78.5
246.566	92.5
246.8	82.5
247.033	73.5
247.266	80.5
247.5	76.5
247.733	80.5
247.966	87.5
248.2	72.5
248.433	79.5
248.666	92.5
248.899	79.5
249.133	98.5
249.366	97.5
249.599	96.5
249.832	70.5
250.066	84.5
250.299	99.5
250.532	74.5
250.765	84.5
250.998	78.5
251.231	96.5
251.465	87.5
251.698	92.5
251.931	94.5
252.164	83.5
252.397	86.5
252.63	78.5
252.863	81.5
253.096	78.5
253.329	95.5
253.562	79.5
253.795	80.5
254.028	78.5
254.261	87.5
254.494	85.5
254.727	86.5
254.96	89.5
255.193	91.5
255.426	80.5
255.659	64.5
255.892	77.5
256.124	80.5
256.357	83.5
256.59	81.5
256.823	90.5
257.056	71.5
257.289	77.5
257.521	79.5
257.754	76.5
257.987	85.5
258.22	93.5
258.452	74.5
258.685	75.5
258.918	84.5
259.151	77.5
259.383	84.5
259.616	82.5
259.849	81.5
260.081	78.5
260.314	95.5
260.547	108.5
260.779	79.5
261.012	97.5
261.244	80.5
261.477	78.5
261.71	97.5
261.942	116.5
262.175	113.5
262.407	109.5
262.64	78.5
262.872	84.5
263.105	82.5
263.337	84.5
263.57	93.5
263.802	88.5
264.035	89.5
264.267	90.5
264.499	82.5
264.732	97.5
264.964	85.5
265.197	86.5
265.429	90.5
265.661	97.5
265.894	89.5
266.126	88.5
266.358	95.5
266.591	72.5
266.823	101.5
267.055	86.5
267.287	89.5
267.52	84.5
267.752	85.5
267.984	71.5
268.216	97.5
268.448	82.5
268.681	100.5
268.913	81.5
269.145	76.5
269.377	99.5
269.609	81.5
269.841	85.5
270.073	91.5
270.306	86.5
270.538	89.5
270.77	93.5
271.002	87.5
271.234	83.5
271.466	91.5
271.698	90.5
271.93	82.5
272.162	89.5
272.394	94.5
272.626	86.5
272.858	95.5
273.09	94.5
273.322	99.5
273.553	100.5
273.785	98.5
274.017	78.5
274.249	80.5
274.481	87.5
274.713	82.5
274.945	98.5
275.176	92.5
275.408	95.5
275.64	89.5
275.872	87.5
276.104	98.5
276.335	88.5
276.567	102.5
276.799	98.5
277.031	93.5
277.262	90.5
277.494	88.5
277.726	83.5
277.957	92.5
278.189	93.5
278.421	103.5
278.652	100.5
278.884	94.5
279.115	80.5
279.347	92.5
279.579	89.5
279.81	78.5
280.042	95.5
280.273	100.5
280.505	88.5
280.736	81.5
280.968	96.5
281.199	86.5
281.431	97.5
281.662	96.5
281.894	95.5
282.125	115.5
282.356	134.5
282.588	143.5
282.819	111.5
283.051	92.5
283.282	88.5
283.513	88.5
283.745	116.5
283.976	87.5
284.207	85.5
284.439	78.5
284.67	94.5
284.901	95.5
285.132	89.5
285.364	84.5
285.595	99.5
285.826	94.5
286.057	92.5
286.288	87.5
286.52	84.5
286.751	80.5
286.982	72.5
287.213	88.5
287.444	109.5
287.675	106.5
287.906	84.5
288.138	97.5
288.369	110.5
288.6	98.5
288.831	101.5
289.062	84.5
289.293	93.5
289.524	94.5
289.755	92.5
289.986	88.5
290.217	81.5
290.448	91.5
290.679	93.5
290.91	85.5
291.141	92.5
291.371	98.5
291.602	93.5
291.833	70.5
292.064	87.5
292.295	85.5
292.526	93.5
292.757	89.5
292.987	95.5
293.218	87.5
293.449	84.5
293.68	67.5
293.91	91.5
294.141	94.5
294.372	83.5
294.603	88.5
294.833	87.5
295.064	102.5
295.295	90.5
295.525	97.5
295.756	114.5
295.987	111.5
296.217	144.5
296.448	134.5
296.679	104.5
296.909	97.5
297.14	86.5
297.37	105.5
297.601	107.5
297.831	89.5
298.062	89.5
298.292	94.5
298.523	86.5
298.753	93.5
298.984	99.5
299.214	91.5
299.445	90.5
299.675	78.5
299.905	95.5
300.136	96.5
300.366	92.5
300.597	86.5
300.827	103.5
301.057	104.5
301.288	105.5
301.518	93.5
301.748	94.5
301.979	86.5
302.209	105.5
302.439	88.5
302.669	105.5
302.9	83.5
303.13	100.5
303.36	101.5
303.59	111.5
303.82	106.5
304.051	106.5
304.281	89.5
304.511	102.5
304.741	98.5
304.971	90.5
305.201	91.5
305.431	88.5
305.661	96.5
305.891	93.5
306.121	92.5
306.352	115.5
306.582	112.5
306.812	105.5
307.042	97.5
307.272	100.5
307.502	92.5
307.731	86.5
307.961	97.5
308.191	100.5
308.421	102.5
308.651	92.5
308.881	106.5
309.111	93.5
309.341	93.5
309.571	108.5
309.8	109.5
310.03	98.5
310.26	109.5
310.49	89.5
310.72	100.5
310.949	106.5
311.179	110.5
311.409	102.5
311.639	97.5
311.868	106.5
312.098	98.5
312.328	100.5
312.557	97.5
312.787	112.5
313.017	107.5
313.246	89.5
313.476	98.5
313.706	104.5
313.935	100.5
314.165	105.5
314.394	100.5
314.624	102.5
314.853	108.5
315.083	87.5
315.312	95.5
315.542	88.5
315.771	94.5
316.001	102.5
316.23	98.5
316.46	92.5
316.689	93.5
316.919	99.5
317.148	103.5
317.377	94.5
317.607	103.5
317.836	97.5
318.065	95.5
318.295	100.5
318.524	100.5
318.753	88.5
318.983	112.5
319.212	106.5
319.441	109.5
319.67	103.5
319.9	80.5
320.129	93.5
320.358	108.5
320.587	101.5
320.816	101.5
321.046	98.5
321.275	98.5
321.504	102.5
321.733	96.5
321.962	94.5
322.191	108.5
322.42	114.5
322.649	113.5
322.878	120.5
323.108	109.5
323.337	127.5
323.566	140.5
323.795	145.5
324.024	213.5
324.253	424.5
324.482	860.5
324.71	1865.5
324.939	2575.5
325.168	914.5
325.397	276.5
325.626	169.5
325.855	129.5
326.084	135.5
326.313	146.5
326.542	157.5
326.77	242.5
326.999	487.5
327.228	999.5
327.457	1946.5
327.686	1589.5
327.914	409.5
328.143	188.5
328.372	148.5
328.6	142.5
328.829	132.5
329.058	128.5
329.287	136.5
329.515	106.5
329.744	112.5
329.972	103.5
330.201	113.5
330.43	99.5
330.658	128.5
330.887	153.5
331.115	125.5
331.344	118.5
331.572	106.5
331.801	117.5
332.03	108.5
332.258	94.5
332.486	97.5
332.715	97.5
332.943	101.5
333.172	96.5
333.4	100.5
333.629	96.5
333.857	117.5
334.085	113.5
334.314	89.5
334.542	101.5
334.771	114.5
334.999	102.5
335.227	102.5
335.455	97.5
335.684	94.5
335.912	100.5
336.14	108.5
336.369	94.5
336.597	104.5
336.825	99.5
337.053	87.5
337.281	98.5
337.51	94.5
337.738	102.5
337.966	96.5
338.194	101.5
338.422	98.5
338.65	100.5
338.878	100.5
339.106	89.5
339.334	91.5
339.562	101.5
339.79	88.5
340.018	105.5
340.246	103.5
340.474	96.5
340.702	96.5
340.93	98.5
341.158	93.5
341.386	106.5
341.614	93.5
341.842	109.5
342.07	104.5
342.298	104.5
342.526	80.5
342.754	91.5
342.981	103.5
343.209	94.5
343.437	102.5
343.665	102.5
343.893	91.5
344.12	84.5
344.348	103.5
344.576	87.5
344.804	85.5
345.031	96.5
345.259	103.5
345.487	93.5
345.714	102.5
345.942	86.5
346.17	88.5
346.397	95.5
346.625	93.5
346.853	100.5
347.08	92.5
347.308	91.5
347.535	107.5
347.763	99.5
347.99	93.5
348.218	96.5
348.445	108.5
348.673	106.5
348.9	95.5
349.128	103.5
349.355	102.5
349.583	104.5
349.81	94.5
350.037	108.5
350.265	103.5
350.492	95.5
350.72	102.5
350.947	101.5
351.174	122.5
351.402	123.5
351.629	102.5
351.856	96.5
352.083	93.5
352.311	100.5
352.538	116.5
352.765	112.5
352.992	128.5
353.22	115.5
353.447	119.5
353.674	103.5
353.901	104.5
354.128	98.5
354.355	99.5
354.583	99.5
354.81	105.5
355.037	97.5
355.264	106.5
355.491	93.5
355.718	90.5
355.945	88.5
356.172	99.5
356.399	96.5
356.626	110.5
356.853	100.5
357.08	97.5
357.307	90.5
357.534	93.5
357.761	89.5
357.988	97.5
358.215	102.5
358.441	99.5
358.668	90.5
358.895	94.5
359.122	104.5
359.349	95.5
359.576	94.5
359.802	105.5
360.029	125.5
360.256	109.5
360.483	79.5
360.709	92.5
360.936	95.5
361.163	100.5
361.39	92.5
361.616	108.5
361.843	99.5
362.07	100.5
362.296	100.5
362.523	98.5
362.749	97.5
362.976	112.5
363.203	92.5
363.429	86.5
363.656	91.5
363.882	110.5
364.109	84.5
364.335	94.5
364.562	101.5
364.788	86.5
365.015	83.5
365.241	97.5
365.468	106.5
365.694	101.5
365.92	104.5
366.147	98.5
366.373	80.5
366.599	91.5
366.826	96.5
367.052	100.5
367.278	86.5
367.505	100.5
367.731	110.5
367.957	92.5
368.184	90.5
368.41	95.5
368.636	115.5
368.862	113.5
369.089	120.5
369.315	115.5
369.541	113.5
369.767	106.5
369.993	89.5
370.219	102.5
370.445	100.5
370.672	73.5
370.898	91.5
371.124	94.5
371.35	98.5
371.576	94.5
371.802	91.5
372.028	97.5
372.254	94.5
372.48	87.5
372.706	87.5
372.932	86.5
373.158	92.5
373.384	91.5
373.61	93.5
373.835	92.5
374.061	87.5
374.287	93.5
374.513	92.5
374.739	73.5
374.965	88.5
375.191	94.5
375.416	78.5
375.642	94.5
375.868	96.5
376.094	80.5
376.319	92.5
376.545	97.5
376.771	88.5
376.997	91.5
377.222	97.5
377.448	90.5
377.674	85.5
377.899	89.5
378.125	105.5
378.35	70.5
378.576	89.5
378.802	80.5
379.027	99.5
379.253	92.5
379.478	77.5
379.704	90.5
379.929	100.5
380.155	103.5
380.38	99.5
380.606	99.5
380.831	87.5
381.057	94.5
381.282	86.5
381.507	104.5
381.733	108.5
381.958	104.5
382.184	104.5
382.409	93.5
382.634	109.5
382.86	89.5
383.085	105.5
383.31	96.5
383.535	110.5
383.761	97.5
383.986	94.5
384.211	88.5
384.436	93.5
384.662	97.5
384.887	99.5
385.112	105.5
385.337	89.5
385.562	97.5
385.787	105.5
386.013	103.5
386.238	111.5
386.463	108.5
386.688	125.5
386.913	100.5
387.138	104.5
387.363	96.5
387.588	108.5
387.813	104.5
388.038	105.5
388.263	87.5
388.488	99.5
388.713	110.5
388.938	88.5
389.163	99.5
389.387	112.5
389.612	106.5
389.837	93.5
390.062	84.5
390.287	99.5
390.512	101.5
390.736	100.5
390.961	89.5
391.186	91.5
391.411	90.5
391.636	115.5
391.86	94.5
392.085	93.5
392.31	87.5
392.534	82.5
392.759	94.5
392.984	86.5
393.208	84.5
393.433	91.5
393.658	98.5
393.882	74.5
394.107	88.5
394.331	98.5
394.556	92.5
394.78	87.5
395.005	97.5
395.229	90.5
395.454	100.5
395.678	92.5
395.903	94.5
396.127	78.5
396.352	84.5
396.576	90.5
396.801	92.5
397.025	80.5
397.249	89.5
397.474	94.5
397.698	86.5
397.922	90.5
398.147	89.5
398.371	87.5
398.595	86.5
398.82	88.5
399.044	85.5
399.268	92.5
399.492	87.5
399.717	85.5
399.941	92.5
400.165	99.5
400.389	103.5
400.613	99.5
400.837	101.5
401.062	82.5
401.286	90.5
401.51	106.5
401.734	91.5
401.958	107.5
402.182	118.5
402.406	183.5
402.63	118.5
402.854	99.5
403.078	76.5
403.302	106.5
403.526	78.5
403.75	77.5
403.974	98.5
404.198	94.5
404.422	98.5
404.645	79.5
404.869	104.5
405.093	107.5
405.317	110.5
405.541	102.5
405.765	106.5
405.988	103.5
406.212	167.5
406.436	223.5
406.66	144.5
406.883	101.5
407.107	93.5
407.331	102.5
407.555	117.5
407.778	113.5
408.002	100.5
408.226	97.5
408.449	83.5
408.673	91.5
408.896	100.5
409.12	118.5
409.344	93.5
409.567	72.5
409.791	86.5
410.014	88.5
410.238	93.5
410.461	85.5
410.685	97.5
410.908	92.5
411.132	97.5
411.355	88.5
411.578	88.5
411.802	84.5
412.025	90.5
412.249	90.5
412.472	98.5
412.695	103.5
412.919	97.5
413.142	97.5
413.365	81.5
413.589	85.5
413.812	81.5
414.035	95.5
414.258	97.5
414.482	87.5
414.705	96.5
414.928	94.5
415.151	88.5
415.374	103.5
415.597	100.5
415.821	85.5
416.044	95.5
416.267	99.5
416.49	93.5
416.713	92.5
416.936	87.5
417.159	98.5
417.382	80.5
417.605	95.5
417.828	83.5
418.051	96.5
418.274	87.5
418.497	104.5
418.72	90.5
418.943	88.5
419.166	86.5
419.389	97.5
419.611	101.5
419.834	95.5
420.057	91.5
420.28	100.5
420.503	92.5
420.726	89.5
420.948	104.5
421.171	90.5
421.394	100.5
421.617	89.5
421.839	100.5
422.062	97.5
422.285	87.5
422.507	111.5
422.73	105.5
422.953	103.5
423.175	77.5
423.398	93.5
423.621	81.5
423.843	85.5
424.066	112.5
424.288	99.5
424.511	91.5
424.733	99.5
424.956	106.5
425.178	101.5
425.401	101.5
425.623	105.5
425.846	88.5
426.068	94.5
426.291	99.5
426.513	108.5
426.735	103.5
426.958	114.5
427.18	110.5
427.402	137.5
427.625	160.5
427.847	137.5
428.069	119.5
428.292	98.5
428.514	88.5
428.736	68.5
428.958	95.5
429.181	89.5
429.403	92.5
429.625	98.5
429.847	90.5
430.069	111.5
430.292	100.5
430.514	108.5
430.736	88.5
430.958	81.5
431.18	96.5
431.402	69.5
431.624	86.5
431.846	80.5
432.068	104.5
432.29	85.5
432.512	98.5
432.734	79.5
432.956	93.5
433.178	98.5
433.4	99.5
433.622	86.5
433.844	100.5
434.066	98.5
434.287	96.5
434.509	87.5
434.731	95.5
434.953	85.5
435.175	95.5
435.397	84.5
435.618	89.5
435.84	102.5
436.062	126.5
436.284	129.5
436.505	103.5
436.727	97.5
436.949	95.5
437.17	86.5
437.392	80.5
437.614	92.5
437.835	109.5
438.057	125.5
438.278	113.5
438.5	112.5
438.721	126.5
438.943	125.5
439.165	104.5
439.386	90.5
439.608	98.5
439.829	123.5
440.05	125.5
440.272	133.5
440.493	107.5
440.715	102.5
440.936	96.5
441.158	89.5
441.379	90.5
441.6	101.5
441.822	103.5
442.043	114.5
442.264	113.5
442.486	100.5
442.707	93.5
442.928	108.5
443.149	148.5
443.371	142.5
443.592	119.5
443.813	117.5
444.034	106.5
444.255	89.5
444.476	95.5
444.698	82.5
444.919	89.5
445.14	141.5
445.361	125.5
445.582	124.5
445.803	149.5
446.024	149.5
446.245	127.5
446.466	128.5
446.687	80.5
446.908	94.5
447.129	100.5
447.35	96.5
447.571	93.5
447.792	110.5
448.013	88.5
448.234	122.5
448.455	103.5
448.675	121.5
448.896	113.5
449.117	102.5
449.338	102.5
449.559	138.5
449.779	150.5
450	101.5
450.221	105.5
450.442	85.5
450.662	99.5
450.883	108.5
451.104	110.5
451.324	102.5
451.545	84.5
451.766	83.5
451.986	98.5
452.207	104.5
452.428	98.5
452.648	101.5
452.869	106.5
453.089	116.5
453.31	129.5
453.53	92.5
453.751	94.5
453.971	113.5
454.192	118.5
454.412	101.5
454.633	88.5
454.853	90.5
455.073	88.5
455.294	100.5
455.514	95.5
455.734	85.5
455.955	92.5
456.175	95.5
456.395	76.5
456.616	82.5
456.836	90.5
457.056	86.5
457.276	89.5
457.497	79.5
457.717	95.5
457.937	84.5
458.157	88.5
458.377	94.5
458.598	106.5
458.818	146.5
459.038	164.5
459.258	120.5
459.478	102.5
459.698	79.5
459.918	97.5
460.138	84.5
460.358	84.5
460.578	89.5
460.798	102.5
461.018	88.5
461.238	93.5
461.458	94.5
461.678	109.5
461.898	96.5
462.118	89.5
462.338	89.5
462.558	86.5
462.777	82.5
462.997	104.5
463.217	87.5
463.437	98.5
463.657	97.5
463.876	81.5
464.096	99.5
464.316	97.5
464.536	95.5
464.755	101.5
464.975	110.5
465.195	165.5
465.414	172.5
465.634	114.5
465.854	106.5
466.073	96.5
466.293	95.5
466.512	95.5
466.732	88.5
466.951	85.5
467.171	91.5
467.391	96.5
467.61	93.5
467.829	113.5
468.049	85.5
468.268	96.5
468.488	89.5
468.707	95.5
468.927	93.5
469.146	81.5
469.365	85.5
469.585	88.5
469.804	91.5
470.023	95.5
470.243	90.5
470.462	103.5
470.681	112.5
470.901	94.5
471.12	96.5
471.339	104.5
471.558	88.5
471.777	78.5
471.997	92.5
472.216	92.5
472.435	100.5
472.654	83.5
472.873	74.5
473.092	88.5
473.311	87.5
473.53	102.5
473.749	97.5
473.968	96.5
474.187	115.5
474.406	118.5
474.625	88.5
474.844	90.5
475.063	88.5
475.282	88.5
475.501	73.5
475.72	80.5
475.939	88.5
476.158	98.5
476.377	85.5
476.596	99.5
476.814	106.5
477.033	95.5
477.252	101.5
477.471	93.5
477.69	99.5
477.908	86.5
478.127	81.5
478.346	90.5
478.564	80.5
478.783	92.5
479.002	84.5
479.22	90.5
479.439	105.5
479.658	83.5
479.876	97.5
480.095	91.5
480.313	101.5
480.532	97.5
480.751	88.5
480.969	99.5
481.188	82.5
481.406	81.5
481.624	83.5
481.843	97.5
482.061	80.5
482.28	99.5
482.498	93.5
482.717	101.5
482.935	100.5
483.153	103.5
483.372	81.5
483.59	85.5
483.808	89.5
484.027	102.5
484.245	91.5
484.463	89.5
484.681	97.5
484.9	88.5
485.118	104.5
485.336	99.5
485.554	98.5
485.772	110.5
485.99	107.5
486.209	105.5
486.427	106.5
486.645	105.5
486.863	113.5
487.081	96.5
487.299	84.5
487.517	85.5
487.735	90.5
487.953	89.5
488.171	98.5
488.389	102.5
488.607	106.5
488.825	88.5
489.043	84.5
489.261	95.5
489.479	94.5
489.696	83.5
489.914	104.5
490.132	89.5
490.35	94.5
490.568	88.5
490.786	89.5
491.003	88.5
491.221	88.5
491.439	85.5
491.657	87.5
491.874	89.5
492.092	99.5
492.31	94.5
492.527	102.5
492.745	78.5
492.963	79.5
493.18	95.5
493.398	106.5
493.615	100.5
493.833	83.5
494.05	87.5
494.268	95.5
494.485	94.5
494.703	84.5
494.92	86.5
495.138	93.5
495.355	89.5
495.573	96.5
495.79	91.5
496.008	97.5
496.225	99.5
496.442	94.5
496.66	87.5
496.877	101.5
497.094	93.5
497.312	97.5
497.529	100.5
497.746	97.5
497.963	94.5
498.181	89.5
498.398	97.5
498.615	112.5
498.832	100.5
499.049	84.5
499.267	87.5
499.484	89.5
499.701	85.5
499.918	96.5
500.135	87.5
500.352	94.5
500.569	98.5
500.786	85.5
501.003	93.5
501.22	88.5
501.437	101.5
501.654	94.5
501.871	95.5
502.088	93.5
502.305	85.5
502.522	108.5
502.739	84.5
502.956	101.5
503.172	96.5
503.389	91.5
503.606	118.5
503.823	98.5
504.04	103.5
504.256	99.5
504.473	95.5
504.69	85.5
504.907	84.5
505.123	97.5
505.34	95.5
505.557	97.5
505.773	94.5
505.99	95.5
506.207	87.5
506.423	106.5
506.64	106.5
506.856	95.5
507.073	96.5
507.289	93.5
507.506	112.5
507.722	110.5
507.939	121.5
508.155	84.5
508.372	96.5
508.588	108.5
508.805	90.5
509.021	89.5
509.238	105.5
509.454	94.5
509.67	106.5
509.887	111.5
510.103	130.5
510.319	217.5
510.536	714.5
510.752	2250.5
510.968	670.5
511.184	148.5
511.401	102.5
511.617	111.5
511.833	96.5
512.049	97.5
512.265	108.5
512.481	101.5
512.698	98.5
512.914	108.5
513.13	94.5
513.346	93.5
513.562	105.5
513.778	99.5
513.994	106.5
514.21	105.5
514.426	120.5
514.642	149.5
514.858	132.5
515.074	165.5
515.29	457.5
515.506	1591.5
515.721	589.5
515.937	143.5
516.153	132.5
516.369	114.5
516.585	103.5
516.801	92.5
517.016	116.5
517.232	102.5
517.448	93.5
517.664	91.5
517.879	87.5
518.095	88.5
518.311	93.5
518.527	107.5
518.742	103.5
518.958	116.5
519.173	89.5
519.389	113.5
519.605	104.5
519.82	97.5
520.036	100.5
520.251	117.5
520.467	125.5
520.682	99.5
520.898	111.5
521.113	128.5
521.329	134.5
521.544	194.5
521.76	583.5
521.975	2603.5
522.19	1560.5
522.406	338.5
522.621	138.5
522.836	112.5
523.052	99.5
523.267	100.5
523.482	101.5
523.698	104.5
523.913	125.5
524.128	110.5
524.343	92.5
524.559	102.5
524.774	96.5
524.989	109.5
525.204	108.5
525.419	99.5
525.634	84.5
525.849	84.5
526.064	90.5
526.28	95.5
526.495	95.5
526.71	94.5
526.925	98.5
527.14	95.5
527.355	98.5
527.57	106.5
527.785	88.5
527.999	93.5
528.214	106.5
528.429	95.5
528.644	98.5
528.859	100.5
529.074	100.5
529.289	128.5
529.503	187.5
529.718	112.5
529.933	90.5
530.148	98.5
530.363	89.5
530.577	92.5
530.792	84.5
531.007	87.5
531.221	93.5
531.436	94.5
531.651	95.5
531.865	96.5
532.08	90.5
532.295	97.5
532.509	96.5
532.724	89.5
532.938	106.5
533.153	102.5
533.367	88.5
