Data from Uncirc_1991_H10_HRD10591_00083.txt Node
Date: Wed Jan 03 11:50:54 EST 2024
User: Yrep
Spectrometer: HR+D1059
Trigger mode: 1
Integration Time (sec): 1.000000E-1
Scans to average: 1
Electric dark correction enabled: true
Nonlinearity correction enabled: false
Boxcar width: 0
XAxis mode: Wavelengths
Number of Pixels in Spectrum: 2048
>>>>>Begin Spectral Data<<<<<
223.165	-14.31
223.4	-14.31
223.635	-14.31
223.869	-7.31
224.104	-8.31
224.338	-18.31
224.573	-31.31
224.808	-12.31
225.042	-6.31
225.277	2.69
225.511	-16.31
225.746	7.69
225.98	20.69
226.215	6.69
226.449	9.69
226.683	19.69
226.918	23.69
227.152	23.69
227.387	28.69
227.621	33.69
227.856	44.69
228.09	55.69
228.324	49.69
228.559	67.69
228.793	50.69
229.027	57.69
229.262	76.69
229.496	81.69
229.73	84.69
229.964	99.69
230.199	81.69
230.433	84.69
230.667	77.69
230.901	85.69
231.136	88.69
231.37	93.69
231.604	70.69
231.838	87.69
232.072	72.69
232.306	83.69
232.541	89.69
232.775	76.69
233.009	80.69
233.243	98.69
233.477	88.69
233.711	96.69
233.945	81.69
234.179	89.69
234.413	99.69
234.647	88.69
234.881	94.69
235.115	84.69
235.349	77.69
235.583	94.69
235.817	76.69
236.051	70.69
236.285	81.69
236.519	87.69
236.753	82.69
236.987	91.69
237.221	93.69
237.455	92.69
237.689	77.69
237.922	76.69
238.156	72.69
238.39	69.69
238.624	71.69
238.858	82.69
239.091	85.69
239.325	94.69
239.559	73.69
239.793	82.69
240.027	75.69
240.26	84.69
240.494	70.69
240.728	93.69
240.961	76.69
241.195	89.69
241.429	79.69
241.662	71.69
241.896	71.69
242.13	80.69
242.363	92.69
242.597	85.69
242.83	68.69
243.064	78.69
243.298	78.69
243.531	83.69
243.765	73.69
243.998	63.69
244.232	94.69
244.465	79.69
244.699	82.69
244.932	74.69
245.166	76.69
245.399	78.69
245.633	92.69
245.866	85.69
246.099	84.69
246.333	76.69
246.566	91.69
246.8	79.69
247.033	95.69
247.266	77.69
247.5	63.69
247.733	87.69
247.966	80.69
248.2	79.69
248.433	93.69
248.666	73.69
248.899	91.69
249.133	75.69
249.366	76.69
249.599	107.69
249.832	85.69
250.066	68.69
250.299	80.69
250.532	84.69
250.765	78.69
250.998	69.69
251.231	88.69
251.465	71.69
251.698	83.69
251.931	89.69
252.164	80.69
252.397	94.69
252.63	77.69
252.863	80.69
253.096	82.69
253.329	82.69
253.562	64.69
253.795	82.69
254.028	80.69
254.261	65.69
254.494	68.69
254.727	95.69
254.96	88.69
255.193	79.69
255.426	75.69
255.659	84.69
255.892	85.69
256.124	65.69
256.357	84.69
256.59	77.69
256.823	86.69
257.056	80.69
257.289	83.69
257.521	83.69
257.754	84.69
257.987	77.69
258.22	80.69
258.452	77.69
258.685	83.69
258.918	83.69
259.151	73.69
259.383	86.69
259.616	88.69
259.849	87.69
260.081	89.69
260.314	93.69
260.547	89.69
260.779	81.69
261.012	82.69
261.244	68.69
261.477	88.69
261.71	106.69
261.942	131.69
262.175	125.69
262.407	102.69
262.64	91.69
262.872	77.69
263.105	75.69
263.337	97.69
263.57	93.69
263.802	86.69
264.035	75.69
264.267	81.69
264.499	85.69
264.732	95.69
264.964	76.69
265.197	77.69
265.429	91.69
265.661	81.69
265.894	83.69
266.126	89.69
266.358	79.69
266.591	75.69
266.823	76.69
267.055	92.69
267.287	88.69
267.52	79.69
267.752	104.69
267.984	89.69
268.216	96.69
268.448	96.69
268.681	83.69
268.913	85.69
269.145	98.69
269.377	84.69
269.609	92.69
269.841	92.69
270.073	95.69
270.306	72.69
270.538	95.69
270.77	81.69
271.002	88.69
271.234	81.69
271.466	92.69
271.698	83.69
271.93	88.69
272.162	79.69
272.394	96.69
272.626	88.69
272.858	91.69
273.09	87.69
273.322	85.69
273.553	95.69
273.785	73.69
274.017	91.69
274.249	82.69
274.481	98.69
274.713	80.69
274.945	101.69
275.176	94.69
275.408	90.69
275.64	85.69
275.872	79.69
276.104	90.69
276.335	90.69
276.567	108.69
276.799	123.69
277.031	107.69
277.262	96.69
277.494	82.69
277.726	91.69
277.957	80.69
278.189	93.69
278.421	99.69
278.652	93.69
278.884	95.69
279.115	91.69
279.347	97.69
279.579	82.69
279.81	84.69
280.042	88.69
280.273	87.69
280.505	83.69
280.736	79.69
280.968	87.69
281.199	89.69
281.431	88.69
281.662	93.69
281.894	99.69
282.125	117.69
282.356	124.69
282.588	156.69
282.819	124.69
283.051	88.69
283.282	83.69
283.513	79.69
283.745	85.69
283.976	64.69
284.207	72.69
284.439	90.69
284.67	69.69
284.901	72.69
285.132	85.69
285.364	82.69
285.595	88.69
285.826	86.69
286.057	79.69
286.288	92.69
286.52	88.69
286.751	80.69
286.982	84.69
287.213	84.69
287.444	93.69
287.675	99.69
287.906	95.69
288.138	100.69
288.369	91.69
288.6	95.69
288.831	98.69
289.062	88.69
289.293	90.69
289.524	94.69
289.755	93.69
289.986	82.69
290.217	93.69
290.448	87.69
290.679	86.69
290.91	94.69
291.141	96.69
291.371	88.69
291.602	87.69
291.833	92.69
292.064	86.69
292.295	88.69
292.526	98.69
292.757	97.69
292.987	105.69
293.218	95.69
293.449	97.69
293.68	89.69
293.91	103.69
294.141	95.69
294.372	106.69
294.603	93.69
294.833	93.69
295.064	97.69
295.295	77.69
295.525	95.69
295.756	106.69
295.987	97.69
296.217	123.69
296.448	120.69
296.679	93.69
296.909	95.69
297.14	95.69
297.37	100.69
297.601	87.69
297.831	89.69
298.062	100.69
298.292	101.69
298.523	91.69
298.753	97.69
298.984	94.69
299.214	97.69
299.445	93.69
299.675	99.69
299.905	102.69
300.136	98.69
300.366	95.69
300.597	73.69
300.827	79.69
301.057	102.69
301.288	95.69
301.518	94.69
301.748	95.69
301.979	99.69
302.209	95.69
302.439	102.69
302.669	85.69
302.9	95.69
303.13	98.69
303.36	99.69
303.59	89.69
303.82	120.69
304.051	92.69
304.281	93.69
304.511	92.69
304.741	91.69
304.971	79.69
305.201	83.69
305.431	92.69
305.661	93.69
305.891	101.69
306.121	102.69
306.352	96.69
306.582	100.69
306.812	102.69
307.042	93.69
307.272	105.69
307.502	94.69
307.731	87.69
307.961	104.69
308.191	89.69
308.421	94.69
308.651	87.69
308.881	94.69
309.111	97.69
309.341	96.69
309.571	99.69
309.8	89.69
310.03	103.69
310.26	102.69
310.49	103.69
310.72	117.69
310.949	108.69
311.179	111.69
311.409	87.69
311.639	98.69
311.868	108.69
312.098	87.69
312.328	103.69
312.557	111.69
312.787	121.69
313.017	108.69
313.246	100.69
313.476	99.69
313.706	92.69
313.935	95.69
314.165	105.69
314.394	103.69
314.624	95.69
314.853	90.69
315.083	104.69
315.312	97.69
315.542	83.69
315.771	101.69
316.001	99.69
316.23	87.69
316.46	87.69
316.689	91.69
316.919	93.69
317.148	80.69
317.377	113.69
317.607	98.69
317.836	97.69
318.065	95.69
318.295	101.69
318.524	93.69
318.753	100.69
318.983	100.69
319.212	100.69
319.441	117.69
319.67	91.69
319.9	102.69
320.129	104.69
320.358	85.69
320.587	101.69
320.816	89.69
321.046	109.69
321.275	102.69
321.504	86.69
321.733	78.69
321.962	113.69
322.191	111.69
322.42	105.69
322.649	119.69
322.878	123.69
323.108	103.69
323.337	128.69
323.566	130.69
323.795	177.69
324.024	223.69
324.253	429.69
324.482	931.69
324.71	2019.69
324.939	2705.69
325.168	977.69
325.397	272.69
325.626	166.69
325.855	150.69
326.084	126.69
326.313	147.69
326.542	164.69
326.77	252.69
326.999	512.69
327.228	1052.69
327.457	1995.69
327.686	1645.69
327.914	416.69
328.143	197.69
328.372	152.69
328.6	131.69
328.829	124.69
329.058	126.69
329.287	130.69
329.515	110.69
329.744	100.69
329.972	102.69
330.201	85.69
330.43	94.69
330.658	120.69
330.887	154.69
331.115	114.69
331.344	91.69
331.572	107.69
331.801	101.69
332.03	103.69
332.258	92.69
332.486	93.69
332.715	90.69
332.943	86.69
333.172	89.69
333.4	111.69
333.629	110.69
333.857	124.69
334.085	100.69
334.314	101.69
334.542	106.69
334.771	101.69
334.999	113.69
335.227	91.69
335.455	99.69
335.684	109.69
335.912	99.69
336.14	88.69
336.369	103.69
336.597	110.69
336.825	87.69
337.053	96.69
337.281	90.69
337.51	95.69
337.738	87.69
337.966	85.69
338.194	95.69
338.422	91.69
338.65	96.69
338.878	87.69
339.106	93.69
339.334	96.69
339.562	95.69
339.79	88.69
340.018	94.69
340.246	87.69
340.474	95.69
340.702	101.69
340.93	90.69
341.158	95.69
341.386	96.69
341.614	110.69
341.842	87.69
342.07	89.69
342.298	112.69
342.526	86.69
342.754	99.69
342.981	95.69
343.209	94.69
343.437	116.69
343.665	87.69
343.893	91.69
344.12	95.69
344.348	103.69
344.576	107.69
344.804	93.69
345.031	95.69
345.259	101.69
345.487	92.69
345.714	94.69
345.942	86.69
346.17	105.69
346.397	90.69
346.625	101.69
346.853	98.69
347.08	100.69
347.308	93.69
347.535	111.69
347.763	112.69
347.99	109.69
348.218	111.69
348.445	104.69
348.673	102.69
348.9	100.69
349.128	100.69
349.355	87.69
349.583	95.69
349.81	100.69
350.037	94.69
350.265	92.69
350.492	103.69
350.72	98.69
350.947	105.69
351.174	108.69
351.402	112.69
351.629	102.69
351.856	111.69
352.083	99.69
352.311	110.69
352.538	100.69
352.765	105.69
352.992	109.69
353.22	106.69
353.447	100.69
353.674	104.69
353.901	90.69
354.128	111.69
354.355	109.69
354.583	120.69
354.81	88.69
355.037	101.69
355.264	92.69
355.491	99.69
355.718	102.69
355.945	88.69
356.172	91.69
356.399	113.69
356.626	88.69
356.853	93.69
357.08	79.69
357.307	98.69
357.534	98.69
357.761	88.69
357.988	104.69
358.215	101.69
358.441	111.69
358.668	89.69
358.895	91.69
359.122	94.69
359.349	79.69
359.576	102.69
359.802	103.69
360.029	108.69
360.256	91.69
360.483	97.69
360.709	93.69
360.936	99.69
361.163	90.69
361.39	94.69
361.616	83.69
361.843	91.69
362.07	105.69
362.296	107.69
362.523	91.69
362.749	84.69
362.976	97.69
363.203	107.69
363.429	86.69
363.656	91.69
363.882	94.69
364.109	105.69
364.335	99.69
364.562	80.69
364.788	92.69
365.015	96.69
365.241	96.69
365.468	104.69
365.694	108.69
365.92	96.69
366.147	95.69
366.373	82.69
366.599	100.69
366.826	101.69
367.052	103.69
367.278	92.69
367.505	99.69
367.731	99.69
367.957	83.69
368.184	97.69
368.41	101.69
368.636	123.69
368.862	109.69
369.089	104.69
369.315	101.69
369.541	94.69
369.767	83.69
369.993	92.69
370.219	87.69
370.445	87.69
370.672	96.69
370.898	73.69
371.124	93.69
371.35	98.69
371.576	84.69
371.802	86.69
372.028	100.69
372.254	96.69
372.48	102.69
372.706	85.69
372.932	77.69
373.158	84.69
373.384	100.69
373.61	81.69
373.835	100.69
374.061	90.69
374.287	113.69
374.513	108.69
374.739	98.69
374.965	90.69
375.191	97.69
375.416	85.69
375.642	100.69
375.868	99.69
376.094	100.69
376.319	101.69
376.545	87.69
376.771	82.69
376.997	110.69
377.222	98.69
377.448	96.69
377.674	88.69
377.899	96.69
378.125	98.69
378.35	101.69
378.576	100.69
378.802	80.69
379.027	87.69
379.253	91.69
379.478	102.69
379.704	93.69
379.929	98.69
380.155	98.69
380.38	100.69
380.606	96.69
380.831	99.69
381.057	89.69
381.282	110.69
381.507	93.69
381.733	103.69
381.958	101.69
382.184	87.69
382.409	85.69
382.634	98.69
382.86	102.69
383.085	95.69
383.31	98.69
383.535	105.69
383.761	99.69
383.986	88.69
384.211	83.69
384.436	92.69
384.662	83.69
384.887	91.69
385.112	104.69
385.337	99.69
385.562	91.69
385.787	95.69
386.013	105.69
386.238	112.69
386.463	100.69
386.688	108.69
386.913	97.69
387.138	98.69
387.363	101.69
387.588	103.69
387.813	103.69
388.038	101.69
388.263	112.69
388.488	114.69
388.713	96.69
388.938	91.69
389.163	95.69
389.387	103.69
389.612	102.69
389.837	98.69
390.062	103.69
390.287	89.69
390.512	94.69
390.736	89.69
390.961	85.69
391.186	80.69
391.411	90.69
391.636	93.69
391.86	89.69
392.085	65.69
392.31	88.69
392.534	67.69
392.759	92.69
392.984	93.69
393.208	94.69
393.433	88.69
393.658	105.69
393.882	95.69
394.107	92.69
394.331	83.69
394.556	97.69
394.78	87.69
395.005	87.69
395.229	83.69
395.454	83.69
395.678	94.69
395.903	92.69
396.127	89.69
396.352	103.69
396.576	91.69
396.801	85.69
397.025	87.69
397.249	95.69
397.474	94.69
397.698	82.69
397.922	88.69
398.147	83.69
398.371	87.69
398.595	83.69
398.82	68.69
399.044	85.69
399.268	88.69
399.492	93.69
399.717	93.69
399.941	97.69
400.165	95.69
400.389	104.69
400.613	102.69
400.837	101.69
401.062	82.69
401.286	85.69
401.51	84.69
401.734	95.69
401.958	99.69
402.182	131.69
402.406	158.69
402.63	134.69
402.854	102.69
403.078	93.69
403.302	80.69
403.526	87.69
403.75	89.69
403.974	91.69
404.198	88.69
404.422	92.69
404.645	75.69
404.869	96.69
405.093	95.69
405.317	100.69
405.541	94.69
405.765	104.69
405.988	125.69
406.212	167.69
406.436	248.69
406.66	161.69
406.883	114.69
407.107	91.69
407.331	104.69
407.555	109.69
407.778	98.69
408.002	91.69
408.226	84.69
408.449	78.69
408.673	93.69
408.896	98.69
409.12	111.69
409.344	97.69
409.567	100.69
409.791	87.69
410.014	95.69
410.238	93.69
410.461	82.69
410.685	111.69
410.908	95.69
411.132	93.69
411.355	116.69
411.578	101.69
411.802	84.69
412.025	85.69
412.249	92.69
412.472	89.69
412.695	107.69
412.919	100.69
413.142	97.69
413.365	101.69
413.589	79.69
413.812	93.69
414.035	92.69
414.258	77.69
414.482	88.69
414.705	98.69
414.928	85.69
415.151	97.69
415.374	108.69
415.597	83.69
415.821	91.69
416.044	97.69
416.267	95.69
416.49	92.69
416.713	94.69
416.936	94.69
417.159	109.69
417.382	85.69
417.605	103.69
417.828	104.69
418.051	91.69
418.274	101.69
418.497	87.69
418.72	74.69
418.943	88.69
419.166	98.69
419.389	75.69
419.611	87.69
419.834	100.69
420.057	93.69
420.28	101.69
420.503	85.69
420.726	83.69
420.948	83.69
421.171	91.69
421.394	97.69
421.617	102.69
421.839	85.69
422.062	87.69
422.285	93.69
422.507	116.69
422.73	101.69
422.953	90.69
423.175	86.69
423.398	96.69
423.621	92.69
423.843	98.69
424.066	80.69
424.288	101.69
424.511	84.69
424.733	102.69
424.956	110.69
425.178	82.69
425.401	113.69
425.623	110.69
425.846	94.69
426.068	88.69
426.291	82.69
426.513	87.69
426.735	83.69
426.958	108.69
427.18	110.69
427.402	155.69
427.625	183.69
427.847	140.69
428.069	101.69
428.292	91.69
428.514	82.69
428.736	76.69
428.958	103.69
429.181	81.69
429.403	81.69
429.625	86.69
429.847	91.69
430.069	107.69
430.292	96.69
430.514	75.69
430.736	88.69
430.958	89.69
431.18	83.69
431.402	82.69
431.624	89.69
431.846	88.69
432.068	86.69
432.29	84.69
432.512	91.69
432.734	91.69
432.956	86.69
433.178	105.69
433.4	110.69
433.622	71.69
433.844	94.69
434.066	86.69
434.287	81.69
434.509	96.69
434.731	82.69
434.953	88.69
435.175	85.69
435.397	80.69
435.618	91.69
435.84	121.69
436.062	147.69
436.284	124.69
436.505	108.69
436.727	99.69
436.949	102.69
437.17	88.69
437.392	91.69
437.614	96.69
437.835	110.69
438.057	131.69
438.278	127.69
438.5	108.69
438.721	133.69
438.943	102.69
439.165	115.69
439.386	95.69
439.608	94.69
439.829	107.69
440.05	134.69
440.272	159.69
440.493	89.69
440.715	89.69
440.936	108.69
441.158	81.69
441.379	75.69
441.6	101.69
441.822	93.69
442.043	100.69
442.264	99.69
442.486	111.69
442.707	81.69
442.928	121.69
443.149	134.69
443.371	129.69
443.592	107.69
443.813	138.69
444.034	112.69
444.255	111.69
444.476	97.69
444.698	88.69
444.919	94.69
445.14	145.69
445.361	129.69
445.582	124.69
445.803	149.69
446.024	142.69
446.245	143.69
446.466	117.69
446.687	99.69
446.908	101.69
447.129	91.69
447.35	94.69
447.571	86.69
447.792	84.69
448.013	120.69
448.234	116.69
448.455	110.69
448.675	132.69
448.896	119.69
449.117	95.69
449.338	113.69
449.559	143.69
449.779	155.69
450	90.69
450.221	87.69
450.442	86.69
450.662	91.69
450.883	97.69
451.104	112.69
451.324	96.69
451.545	82.69
451.766	85.69
451.986	85.69
452.207	81.69
452.428	87.69
452.648	94.69
452.869	101.69
453.089	121.69
453.31	130.69
453.53	91.69
453.751	96.69
453.971	112.69
454.192	128.69
454.412	90.69
454.633	88.69
454.853	75.69
455.073	91.69
455.294	95.69
455.514	116.69
455.734	95.69
455.955	88.69
456.175	90.69
456.395	85.69
456.616	96.69
456.836	73.69
457.056	88.69
457.276	84.69
457.497	76.69
457.717	91.69
457.937	90.69
458.157	82.69
458.377	99.69
458.598	100.69
458.818	167.69
459.038	170.69
459.258	125.69
459.478	93.69
459.698	91.69
459.918	90.69
460.138	88.69
460.358	89.69
460.578	100.69
460.798	93.69
461.018	98.69
461.238	79.69
461.458	81.69
461.678	91.69
461.898	103.69
462.118	101.69
462.338	91.69
462.558	86.69
462.777	95.69
462.997	77.69
463.217	87.69
463.437	101.69
463.657	88.69
463.876	90.69
464.096	95.69
464.316	88.69
464.536	92.69
464.755	100.69
464.975	115.69
465.195	168.69
465.414	166.69
465.634	104.69
465.854	100.69
466.073	100.69
466.293	87.69
466.512	75.69
466.732	86.69
466.951	89.69
467.171	88.69
467.391	86.69
467.61	108.69
467.829	92.69
468.049	89.69
468.268	88.69
468.488	108.69
468.707	96.69
468.927	76.69
469.146	86.69
469.365	94.69
469.585	86.69
469.804	109.69
470.023	99.69
470.243	98.69
470.462	101.69
470.681	101.69
470.901	85.69
471.12	89.69
471.339	76.69
471.558	66.69
471.777	89.69
471.997	87.69
472.216	93.69
472.435	75.69
472.654	87.69
472.873	100.69
473.092	85.69
473.311	84.69
473.53	83.69
473.749	85.69
473.968	96.69
474.187	106.69
474.406	100.69
474.625	92.69
474.844	100.69
475.063	82.69
475.282	98.69
475.501	94.69
475.72	92.69
475.939	93.69
476.158	91.69
476.377	94.69
476.596	101.69
476.814	87.69
477.033	100.69
477.252	87.69
477.471	84.69
477.69	87.69
477.908	88.69
478.127	84.69
478.346	78.69
478.564	89.69
478.783	112.69
479.002	103.69
479.22	87.69
479.439	104.69
479.658	99.69
479.876	98.69
480.095	88.69
480.313	81.69
480.532	91.69
480.751	86.69
480.969	96.69
481.188	103.69
481.406	97.69
481.624	98.69
481.843	100.69
482.061	80.69
482.28	93.69
482.498	90.69
482.717	87.69
482.935	85.69
483.153	79.69
483.372	93.69
483.59	89.69
483.808	89.69
484.027	91.69
484.245	88.69
484.463	102.69
484.681	93.69
484.9	93.69
485.118	98.69
485.336	100.69
485.554	97.69
485.772	94.69
485.99	84.69
486.209	102.69
486.427	111.69
486.645	112.69
486.863	115.69
487.081	99.69
487.299	88.69
487.517	107.69
487.735	91.69
487.953	84.69
488.171	94.69
488.389	95.69
488.607	103.69
488.825	80.69
489.043	96.69
489.261	72.69
489.479	84.69
489.696	93.69
489.914	104.69
490.132	81.69
490.35	95.69
490.568	73.69
490.786	84.69
491.003	91.69
491.221	92.69
491.439	99.69
491.657	89.69
491.874	99.69
492.092	113.69
492.31	87.69
492.527	77.69
492.745	86.69
492.963	93.69
493.18	90.69
493.398	97.69
493.615	107.69
493.833	101.69
494.05	94.69
494.268	77.69
494.485	105.69
494.703	99.69
494.92	100.69
495.138	93.69
495.355	93.69
495.573	91.69
495.79	92.69
496.008	91.69
496.225	101.69
496.442	96.69
496.66	90.69
496.877	95.69
497.094	97.69
497.312	101.69
497.529	82.69
497.746	97.69
497.963	86.69
498.181	91.69
498.398	113.69
498.615	109.69
498.832	92.69
499.049	85.69
499.267	109.69
499.484	80.69
499.701	93.69
499.918	89.69
500.135	96.69
500.352	86.69
500.569	89.69
500.786	87.69
501.003	83.69
501.22	87.69
501.437	99.69
501.654	113.69
501.871	107.69
502.088	79.69
502.305	98.69
502.522	96.69
502.739	73.69
502.956	93.69
503.172	89.69
503.389	92.69
503.606	103.69
503.823	102.69
504.04	102.69
504.256	110.69
504.473	87.69
504.69	82.69
504.907	106.69
505.123	104.69
505.34	109.69
505.557	100.69
505.773	101.69
505.99	91.69
506.207	94.69
506.423	105.69
506.64	101.69
506.856	97.69
507.073	102.69
507.289	105.69
507.506	105.69
507.722	102.69
507.939	99.69
508.155	107.69
508.372	100.69
508.588	91.69
508.805	88.69
509.021	110.69
509.238	94.69
509.454	97.69
509.67	92.69
509.887	124.69
510.103	128.69
510.319	232.69
510.536	780.69
510.752	2461.69
510.968	676.69
511.184	163.69
511.401	114.69
511.617	100.69
511.833	91.69
512.049	97.69
512.265	95.69
512.481	99.69
512.698	78.69
512.914	92.69
513.13	84.69
513.346	96.69
513.562	100.69
513.778	103.69
513.994	99.69
514.21	104.69
514.426	108.69
