Data from Uncirc_1991_H10_HRD10591_00008.txt Node
Date: Wed Jan 03 11:50:39 EST 2024
User: Yrep
Spectrometer: HR+D1059
Trigger mode: 1
Integration Time (sec): 1.000000E-1
Scans to average: 1
Electric dark correction enabled: true
Nonlinearity correction enabled: false
Boxcar width: 0
XAxis mode: Wavelengths
Number of Pixels in Spectrum: 2048
>>>>>Begin Spectral Data<<<<<
223.165	-10.5
223.4	-10.5
223.635	-10.5
223.869	-11.5
224.104	-12.5
224.338	-10.5
224.573	-29.5
224.808	-7.5
225.042	-1.5
225.277	-5.5
225.511	-14.5
225.746	-17.5
225.98	10.5
226.215	6.5
226.449	18.5
226.683	11.5
226.918	33.5
227.152	40.5
227.387	41.5
227.621	24.5
227.856	23.5
228.09	34.5
228.324	44.5
228.559	55.5
228.793	52.5
229.027	63.5
229.262	57.5
229.496	62.5
229.73	66.5
229.964	80.5
230.199	79.5
230.433	69.5
230.667	72.5
230.901	92.5
231.136	84.5
231.37	62.5
231.604	80.5
231.838	68.5
232.072	73.5
232.306	80.5
232.541	80.5
232.775	82.5
233.009	85.5
233.243	77.5
233.477	80.5
233.711	64.5
233.945	82.5
234.179	83.5
234.413	79.5
234.647	76.5
234.881	67.5
235.115	78.5
235.349	82.5
235.583	83.5
235.817	70.5
236.051	81.5
236.285	66.5
236.519	78.5
236.753	72.5
236.987	77.5
237.221	82.5
237.455	77.5
237.689	70.5
237.922	79.5
238.156	60.5
238.39	69.5
238.624	73.5
238.858	78.5
239.091	63.5
239.325	69.5
239.559	73.5
239.793	70.5
240.027	86.5
240.26	67.5
240.494	78.5
240.728	73.5
240.961	87.5
241.195	78.5
241.429	69.5
241.662	74.5
241.896	49.5
242.13	72.5
242.363	75.5
242.597	66.5
242.83	69.5
243.064	77.5
243.298	70.5
243.531	90.5
243.765	78.5
243.998	79.5
244.232	82.5
244.465	85.5
244.699	83.5
244.932	67.5
245.166	74.5
245.399	91.5
245.633	77.5
245.866	80.5
246.099	76.5
246.333	71.5
246.566	63.5
246.8	73.5
247.033	71.5
247.266	76.5
247.5	76.5
247.733	75.5
247.966	80.5
248.2	73.5
248.433	56.5
248.666	74.5
248.899	69.5
249.133	90.5
249.366	88.5
249.599	91.5
249.832	81.5
250.066	87.5
250.299	65.5
250.532	67.5
250.765	73.5
250.998	74.5
251.231	76.5
251.465	93.5
251.698	86.5
251.931	85.5
252.164	80.5
252.397	73.5
252.63	73.5
252.863	75.5
253.096	69.5
253.329	75.5
253.562	89.5
253.795	82.5
254.028	76.5
254.261	83.5
254.494	73.5
254.727	74.5
254.96	75.5
255.193	56.5
255.426	77.5
255.659	84.5
255.892	73.5
256.124	70.5
256.357	79.5
256.59	84.5
256.823	74.5
257.056	66.5
257.289	81.5
257.521	63.5
257.754	78.5
257.987	88.5
258.22	76.5
258.452	86.5
258.685	77.5
258.918	80.5
259.151	89.5
259.383	74.5
259.616	73.5
259.849	90.5
260.081	81.5
260.314	63.5
260.547	55.5
260.779	89.5
261.012	82.5
261.244	89.5
261.477	90.5
261.71	87.5
261.942	105.5
262.175	94.5
262.407	92.5
262.64	73.5
262.872	73.5
263.105	80.5
263.337	83.5
263.57	79.5
263.802	70.5
264.035	83.5
264.267	80.5
264.499	75.5
264.732	64.5
264.964	82.5
265.197	76.5
265.429	87.5
265.661	84.5
265.894	74.5
266.126	78.5
266.358	64.5
266.591	83.5
266.823	65.5
267.055	90.5
267.287	74.5
267.52	74.5
267.752	78.5
267.984	85.5
268.216	80.5
268.448	89.5
268.681	85.5
268.913	91.5
269.145	85.5
269.377	80.5
269.609	70.5
269.841	87.5
270.073	79.5
270.306	72.5
270.538	97.5
270.77	78.5
271.002	100.5
271.234	89.5
271.466	74.5
271.698	66.5
271.93	79.5
272.162	85.5
272.394	86.5
272.626	80.5
272.858	74.5
273.09	89.5
273.322	94.5
273.553	77.5
273.785	81.5
274.017	86.5
274.249	77.5
274.481	66.5
274.713	77.5
274.945	74.5
275.176	87.5
275.408	74.5
275.64	81.5
275.872	87.5
276.104	83.5
276.335	84.5
276.567	104.5
276.799	105.5
277.031	107.5
277.262	90.5
277.494	76.5
277.726	77.5
277.957	82.5
278.189	93.5
278.421	98.5
278.652	82.5
278.884	79.5
279.115	80.5
279.347	86.5
279.579	89.5
279.81	89.5
280.042	80.5
280.273	65.5
280.505	76.5
280.736	88.5
280.968	78.5
281.199	98.5
281.431	77.5
281.662	93.5
281.894	90.5
282.125	88.5
282.356	106.5
282.588	122.5
282.819	94.5
283.051	83.5
283.282	88.5
283.513	81.5
283.745	91.5
283.976	91.5
284.207	78.5
284.439	89.5
284.67	89.5
284.901	78.5
285.132	83.5
285.364	75.5
285.595	85.5
285.826	85.5
286.057	94.5
286.288	73.5
286.52	75.5
286.751	79.5
286.982	78.5
287.213	92.5
287.444	82.5
287.675	78.5
287.906	98.5
288.138	83.5
288.369	90.5
288.6	87.5
288.831	72.5
289.062	79.5
289.293	59.5
289.524	80.5
289.755	85.5
289.986	78.5
290.217	83.5
290.448	81.5
290.679	78.5
290.91	79.5
291.141	91.5
291.371	85.5
291.602	83.5
291.833	71.5
292.064	89.5
292.295	78.5
292.526	93.5
292.757	83.5
292.987	91.5
293.218	64.5
293.449	85.5
293.68	77.5
293.91	89.5
294.141	81.5
294.372	77.5
294.603	84.5
294.833	82.5
295.064	84.5
295.295	82.5
295.525	80.5
295.756	89.5
295.987	101.5
296.217	123.5
296.448	117.5
296.679	83.5
296.909	87.5
297.14	92.5
297.37	83.5
297.601	88.5
297.831	97.5
298.062	84.5
298.292	85.5
298.523	84.5
298.753	82.5
298.984	89.5
299.214	83.5
299.445	79.5
299.675	66.5
299.905	97.5
300.136	84.5
300.366	86.5
300.597	100.5
300.827	81.5
301.057	90.5
301.288	87.5
301.518	88.5
301.748	88.5
301.979	87.5
302.209	80.5
302.439	88.5
302.669	77.5
302.9	93.5
303.13	81.5
303.36	77.5
303.59	111.5
303.82	93.5
304.051	87.5
304.281	80.5
304.511	87.5
304.741	90.5
304.971	77.5
305.201	82.5
305.431	86.5
305.661	83.5
305.891	88.5
306.121	80.5
306.352	93.5
306.582	93.5
306.812	96.5
307.042	78.5
307.272	93.5
307.502	76.5
307.731	81.5
307.961	94.5
308.191	88.5
308.421	86.5
308.651	76.5
308.881	90.5
309.111	79.5
309.341	93.5
309.571	92.5
309.8	96.5
310.03	93.5
310.26	85.5
310.49	85.5
310.72	77.5
310.949	105.5
311.179	91.5
311.409	88.5
311.639	82.5
311.868	88.5
312.098	105.5
312.328	80.5
312.557	94.5
312.787	104.5
313.017	90.5
313.246	92.5
313.476	89.5
313.706	80.5
313.935	86.5
314.165	94.5
314.394	96.5
314.624	92.5
314.853	97.5
315.083	92.5
315.312	91.5
315.542	93.5
315.771	71.5
316.001	94.5
316.23	82.5
316.46	83.5
316.689	73.5
316.919	89.5
317.148	103.5
317.377	83.5
317.607	89.5
317.836	87.5
318.065	76.5
318.295	79.5
318.524	87.5
318.753	94.5
318.983	91.5
319.212	89.5
319.441	89.5
319.67	93.5
319.9	94.5
320.129	89.5
320.358	65.5
320.587	100.5
320.816	94.5
321.046	94.5
321.275	93.5
321.504	95.5
321.733	96.5
321.962	93.5
322.191	97.5
322.42	114.5
322.649	101.5
322.878	94.5
323.108	130.5
323.337	110.5
323.566	113.5
323.795	157.5
324.024	210.5
324.253	417.5
324.482	888.5
324.71	1857.5
324.939	2534.5
325.168	898.5
325.397	269.5
325.626	149.5
325.855	127.5
326.084	121.5
326.313	120.5
326.542	155.5
326.77	225.5
326.999	468.5
327.228	1020.5
327.457	1928.5
327.686	1518.5
327.914	377.5
328.143	204.5
328.372	119.5
328.6	134.5
328.829	127.5
329.058	121.5
329.287	117.5
329.515	98.5
329.744	114.5
329.972	94.5
330.201	101.5
330.43	105.5
330.658	114.5
330.887	133.5
331.115	126.5
331.344	104.5
331.572	92.5
331.801	116.5
332.03	88.5
332.258	98.5
332.486	80.5
332.715	91.5
332.943	88.5
333.172	84.5
333.4	87.5
333.629	105.5
333.857	101.5
334.085	109.5
334.314	92.5
334.542	87.5
334.771	78.5
334.999	91.5
335.227	100.5
335.455	95.5
335.684	94.5
335.912	89.5
336.14	99.5
336.369	94.5
336.597	105.5
336.825	93.5
337.053	90.5
337.281	83.5
337.51	79.5
337.738	92.5
337.966	98.5
338.194	84.5
338.422	102.5
338.65	94.5
338.878	89.5
339.106	96.5
339.334	88.5
339.562	93.5
339.79	95.5
340.018	82.5
340.246	93.5
340.474	91.5
340.702	84.5
340.93	78.5
341.158	91.5
341.386	106.5
341.614	93.5
341.842	93.5
342.07	81.5
342.298	77.5
342.526	94.5
342.754	73.5
342.981	75.5
343.209	91.5
343.437	89.5
343.665	89.5
343.893	92.5
344.12	96.5
344.348	104.5
344.576	74.5
344.804	90.5
345.031	90.5
345.259	105.5
345.487	91.5
345.714	90.5
345.942	80.5
346.17	87.5
346.397	93.5
346.625	93.5
346.853	91.5
347.08	92.5
347.308	85.5
347.535	93.5
347.763	107.5
347.99	88.5
348.218	101.5
348.445	92.5
348.673	98.5
348.9	91.5
349.128	77.5
349.355	93.5
349.583	71.5
349.81	87.5
350.037	81.5
350.265	95.5
350.492	82.5
350.72	96.5
350.947	83.5
351.174	102.5
351.402	102.5
351.629	87.5
351.856	108.5
352.083	107.5
352.311	99.5
352.538	101.5
352.765	95.5
352.992	99.5
353.22	110.5
353.447	85.5
353.674	90.5
353.901	95.5
354.128	93.5
354.355	85.5
354.583	88.5
354.81	90.5
355.037	99.5
355.264	91.5
355.491	98.5
355.718	86.5
355.945	81.5
356.172	79.5
356.399	95.5
356.626	103.5
356.853	81.5
357.08	95.5
357.307	89.5
357.534	98.5
357.761	86.5
357.988	100.5
358.215	88.5
358.441	78.5
358.668	75.5
358.895	95.5
359.122	89.5
359.349	89.5
359.576	91.5
359.802	112.5
360.029	106.5
360.256	106.5
360.483	92.5
360.709	93.5
360.936	77.5
361.163	100.5
361.39	93.5
361.616	93.5
361.843	77.5
362.07	96.5
362.296	90.5
362.523	63.5
362.749	85.5
362.976	86.5
363.203	76.5
363.429	99.5
363.656	106.5
363.882	94.5
364.109	102.5
364.335	89.5
364.562	93.5
364.788	82.5
365.015	82.5
365.241	88.5
365.468	91.5
365.694	96.5
365.92	91.5
366.147	78.5
366.373	74.5
366.599	87.5
366.826	81.5
367.052	81.5
367.278	69.5
367.505	76.5
367.731	93.5
367.957	82.5
368.184	86.5
368.41	93.5
368.636	105.5
368.862	116.5
369.089	108.5
369.315	96.5
369.541	87.5
369.767	97.5
369.993	77.5
370.219	95.5
370.445	77.5
370.672	76.5
370.898	85.5
371.124	73.5
371.35	67.5
371.576	73.5
371.802	90.5
372.028	76.5
372.254	77.5
372.48	89.5
372.706	78.5
372.932	97.5
373.158	73.5
373.384	93.5
373.61	79.5
373.835	96.5
374.061	88.5
374.287	97.5
374.513	86.5
374.739	91.5
374.965	82.5
375.191	85.5
375.416	77.5
375.642	87.5
375.868	88.5
376.094	81.5
376.319	73.5
376.545	85.5
376.771	92.5
376.997	78.5
377.222	73.5
377.448	63.5
377.674	89.5
377.899	93.5
378.125	85.5
378.35	84.5
378.576	70.5
378.802	76.5
379.027	66.5
379.253	103.5
379.478	90.5
379.704	94.5
379.929	86.5
380.155	92.5
380.38	102.5
380.606	85.5
380.831	74.5
381.057	91.5
381.282	84.5
381.507	87.5
381.733	89.5
381.958	90.5
382.184	88.5
382.409	75.5
382.634	104.5
382.86	107.5
383.085	94.5
383.31	94.5
383.535	90.5
383.761	95.5
383.986	92.5
384.211	85.5
384.436	85.5
384.662	88.5
384.887	88.5
385.112	97.5
385.337	98.5
385.562	97.5
385.787	82.5
386.013	103.5
386.238	105.5
386.463	98.5
386.688	91.5
386.913	81.5
387.138	93.5
387.363	98.5
387.588	103.5
387.813	87.5
388.038	103.5
388.263	112.5
388.488	110.5
388.713	106.5
388.938	89.5
389.163	106.5
389.387	91.5
389.612	94.5
389.837	79.5
390.062	91.5
390.287	88.5
390.512	89.5
390.736	82.5
390.961	89.5
391.186	90.5
391.411	83.5
391.636	91.5
391.86	69.5
392.085	90.5
392.31	85.5
392.534	76.5
392.759	74.5
392.984	94.5
393.208	97.5
393.433	77.5
393.658	79.5
393.882	83.5
394.107	77.5
394.331	80.5
394.556	86.5
394.78	85.5
395.005	99.5
395.229	81.5
395.454	82.5
395.678	70.5
395.903	83.5
396.127	73.5
396.352	93.5
396.576	73.5
396.801	89.5
397.025	74.5
397.249	88.5
397.474	90.5
397.698	79.5
397.922	83.5
398.147	98.5
398.371	82.5
398.595	85.5
398.82	94.5
399.044	85.5
399.268	82.5
399.492	86.5
399.717	95.5
399.941	88.5
400.165	75.5
400.389	82.5
400.613	97.5
400.837	83.5
401.062	82.5
401.286	81.5
401.51	92.5
401.734	95.5
401.958	98.5
402.182	121.5
402.406	167.5
402.63	102.5
402.854	91.5
403.078	69.5
403.302	75.5
403.526	84.5
403.75	89.5
403.974	85.5
404.198	87.5
404.422	79.5
404.645	90.5
404.869	78.5
405.093	85.5
405.317	92.5
405.541	115.5
405.765	78.5
405.988	113.5
406.212	161.5
406.436	219.5
406.66	127.5
406.883	104.5
407.107	98.5
407.331	81.5
407.555	87.5
407.778	96.5
408.002	79.5
408.226	80.5
408.449	81.5
408.673	95.5
408.896	94.5
409.12	95.5
409.344	87.5
409.567	99.5
409.791	90.5
410.014	89.5
410.238	84.5
410.461	67.5
410.685	89.5
410.908	74.5
411.132	94.5
411.355	91.5
411.578	87.5
411.802	74.5
412.025	89.5
412.249	77.5
412.472	84.5
412.695	96.5
412.919	77.5
413.142	79.5
413.365	65.5
413.589	91.5
413.812	79.5
414.035	91.5
414.258	74.5
414.482	73.5
414.705	67.5
414.928	89.5
415.151	86.5
415.374	78.5
415.597	72.5
415.821	85.5
416.044	76.5
416.267	87.5
416.49	84.5
416.713	85.5
416.936	77.5
417.159	83.5
417.382	77.5
417.605	80.5
417.828	97.5
418.051	94.5
418.274	82.5
418.497	76.5
418.72	75.5
418.943	83.5
419.166	84.5
419.389	83.5
419.611	71.5
419.834	76.5
420.057	92.5
420.28	94.5
420.503	82.5
420.726	86.5
420.948	79.5
421.171	86.5
421.394	90.5
421.617	77.5
421.839	80.5
422.062	88.5
422.285	73.5
422.507	96.5
422.73	107.5
422.953	96.5
423.175	81.5
423.398	84.5
423.621	75.5
423.843	81.5
424.066	81.5
424.288	77.5
424.511	72.5
424.733	97.5
424.956	111.5
425.178	94.5
425.401	110.5
425.623	109.5
425.846	83.5
426.068	91.5
426.291	93.5
426.513	73.5
426.735	80.5
426.958	98.5
427.18	104.5
427.402	149.5
427.625	159.5
427.847	117.5
428.069	99.5
428.292	73.5
428.514	88.5
428.736	89.5
428.958	76.5
429.181	90.5
429.403	82.5
429.625	87.5
429.847	92.5
430.069	102.5
430.292	87.5
430.514	81.5
430.736	61.5
430.958	82.5
431.18	97.5
431.402	87.5
431.624	93.5
431.846	83.5
432.068	77.5
432.29	81.5
432.512	85.5
432.734	79.5
432.956	85.5
433.178	98.5
433.4	85.5
433.622	80.5
433.844	77.5
434.066	90.5
434.287	83.5
434.509	77.5
434.731	79.5
434.953	90.5
435.175	79.5
435.397	82.5
435.618	83.5
435.84	109.5
436.062	125.5
436.284	114.5
436.505	91.5
436.727	102.5
436.949	95.5
437.17	77.5
437.392	78.5
437.614	102.5
437.835	95.5
438.057	109.5
438.278	105.5
438.5	111.5
438.721	130.5
438.943	99.5
439.165	89.5
439.386	88.5
439.608	81.5
439.829	101.5
440.05	110.5
440.272	167.5
440.493	92.5
440.715	77.5
440.936	85.5
441.158	95.5
441.379	74.5
441.6	89.5
441.822	91.5
442.043	85.5
442.264	91.5
442.486	100.5
442.707	78.5
442.928	104.5
443.149	143.5
443.371	130.5
443.592	109.5
443.813	120.5
444.034	113.5
444.255	89.5
444.476	89.5
444.698	73.5
444.919	87.5
445.14	127.5
445.361	109.5
445.582	117.5
445.803	137.5
446.024	137.5
446.245	141.5
446.466	98.5
446.687	90.5
446.908	86.5
447.129	93.5
447.35	85.5
447.571	87.5
447.792	96.5
448.013	79.5
448.234	96.5
448.455	85.5
448.675	108.5
448.896	124.5
449.117	82.5
449.338	97.5
449.559	145.5
449.779	145.5
450	93.5
450.221	96.5
450.442	95.5
450.662	98.5
450.883	96.5
451.104	104.5
451.324	77.5
451.545	87.5
451.766	64.5
451.986	82.5
452.207	69.5
452.428	89.5
452.648	96.5
452.869	96.5
453.089	97.5
453.31	106.5
453.53	85.5
453.751	89.5
453.971	94.5
454.192	100.5
454.412	94.5
454.633	79.5
454.853	81.5
455.073	89.5
455.294	81.5
455.514	104.5
455.734	94.5
455.955	82.5
456.175	89.5
456.395	98.5
456.616	85.5
456.836	98.5
457.056	67.5
457.276	79.5
457.497	76.5
457.717	97.5
457.937	84.5
458.157	91.5
458.377	94.5
458.598	98.5
458.818	135.5
459.038	147.5
459.258	121.5
459.478	89.5
459.698	81.5
459.918	80.5
460.138	75.5
460.358	87.5
460.578	84.5
460.798	80.5
461.018	87.5
461.238	82.5
461.458	83.5
461.678	83.5
461.898	95.5
462.118	80.5
462.338	89.5
462.558	77.5
462.777	70.5
462.997	78.5
463.217	75.5
463.437	79.5
463.657	91.5
463.876	90.5
464.096	86.5
464.316	85.5
464.536	99.5
464.755	90.5
464.975	101.5
465.195	150.5
465.414	163.5
465.634	93.5
465.854	77.5
466.073	83.5
466.293	84.5
466.512	88.5
466.732	64.5
466.951	88.5
467.171	89.5
467.391	73.5
467.61	97.5
467.829	90.5
468.049	78.5
468.268	82.5
468.488	88.5
468.707	80.5
468.927	81.5
469.146	65.5
469.365	80.5
469.585	69.5
469.804	71.5
470.023	88.5
470.243	85.5
470.462	102.5
470.681	109.5
470.901	90.5
471.12	83.5
471.339	90.5
471.558	79.5
471.777	79.5
471.997	82.5
472.216	89.5
472.435	74.5
472.654	84.5
472.873	87.5
473.092	85.5
473.311	74.5
473.53	77.5
473.749	79.5
473.968	89.5
474.187	108.5
474.406	107.5
474.625	71.5
474.844	93.5
475.063	82.5
475.282	74.5
475.501	75.5
475.72	74.5
475.939	87.5
476.158	78.5
476.377	85.5
476.596	80.5
476.814	79.5
477.033	85.5
477.252	87.5
477.471	81.5
477.69	74.5
477.908	84.5
478.127	79.5
478.346	81.5
478.564	77.5
478.783	102.5
479.002	93.5
479.22	77.5
479.439	105.5
479.658	104.5
479.876	88.5
480.095	64.5
480.313	76.5
480.532	80.5
480.751	83.5
480.969	102.5
481.188	99.5
481.406	95.5
481.624	85.5
481.843	73.5
482.061	85.5
482.28	74.5
482.498	78.5
482.717	95.5
482.935	90.5
483.153	87.5
483.372	73.5
483.59	73.5
483.808	89.5
484.027	76.5
484.245	77.5
484.463	90.5
484.681	94.5
484.9	83.5
485.118	84.5
485.336	109.5
485.554	92.5
485.772	78.5
485.99	97.5
486.209	92.5
486.427	102.5
486.645	111.5
486.863	109.5
487.081	92.5
487.299	102.5
487.517	86.5
487.735	94.5
487.953	95.5
488.171	81.5
488.389	90.5
488.607	92.5
488.825	99.5
489.043	90.5
489.261	84.5
489.479	81.5
489.696	83.5
489.914	82.5
490.132	83.5
490.35	94.5
490.568	78.5
490.786	75.5
491.003	85.5
491.221	89.5
491.439	88.5
491.657	87.5
491.874	87.5
492.092	86.5
492.31	90.5
492.527	82.5
492.745	86.5
492.963	70.5
493.18	94.5
493.398	75.5
493.615	89.5
493.833	103.5
494.05	98.5
494.268	104.5
494.485	87.5
494.703	80.5
494.92	84.5
495.138	82.5
495.355	93.5
495.573	90.5
495.79	89.5
496.008	93.5
496.225	95.5
496.442	86.5
496.66	82.5
496.877	95.5
497.094	89.5
497.312	77.5
497.529	99.5
497.746	92.5
497.963	97.5
498.181	78.5
498.398	90.5
498.615	96.5
498.832	101.5
499.049	86.5
499.267	95.5
499.484	77.5
499.701	94.5
499.918	89.5
500.135	88.5
500.352	81.5
500.569	90.5
500.786	87.5
501.003	80.5
501.22	79.5
501.437	99.5
501.654	75.5
501.871	90.5
502.088	83.5
502.305	96.5
502.522	102.5
502.739	77.5
502.956	87.5
503.172	81.5
503.389	90.5
503.606	98.5
503.823	81.5
504.04	79.5
504.256	78.5
504.473	75.5
504.69	87.5
504.907	79.5
505.123	81.5
505.34	73.5
505.557	77.5
505.773	91.5
505.99	89.5
506.207	82.5
506.423	77.5
506.64	91.5
506.856	77.5
507.073	82.5
507.289	92.5
507.506	73.5
507.722	111.5
507.939	125.5
508.155	101.5
508.372	97.5
508.588	94.5
508.805	97.5
509.021	100.5
509.238	96.5
509.454	89.5
509.67	87.5
509.887	105.5
510.103	106.5
510.319	201.5
510.536	706.5
510.752	2153.5
510.968	591.5
511.184	135.5
511.401	89.5
511.617	104.5
511.833	87.5
512.049	89.5
512.265	89.5
512.481	81.5
512.698	89.5
512.914	88.5
513.13	91.5
513.346	101.5
513.562	91.5
513.778	96.5
513.994	97.5
514.21	106.5
514.426	100.5
514.642	127.5
514.858	119.5
515.074	162.5
515.29	445.5
515.506	1395.5
515.721	527.5
515.937	154.5
516.153	122.5
516.369	84.5
516.585	96.5
516.801	82.5
517.016	96.5
517.232	84.5
517.448	87.5
517.664	90.5
517.879	96.5
518.095	95.5
518.311	90.5
518.527	81.5
518.742	81.5
518.958	91.5
519.173	102.5
519.389	97.5
519.605	88.5
519.82	88.5
520.036	96.5
520.251	111.5
520.467	90.5
520.682	108.5
520.898	96.5
521.113	98.5
521.329	130.5
521.544	191.5
521.76	551.5
521.975	2389.5
522.19	1379.5
522.406	303.5
522.621	113.5
522.836	89.5
523.052	86.5
523.267	92.5
523.482	79.5
523.698	109.5
523.913	118.5
524.128	88.5
524.343	79.5
524.559	98.5
524.774	93.5
524.989	105.5
525.204	110.5
525.419	93.5
525.634	79.5
525.849	82.5
526.064	77.5
526.28	89.5
526.495	104.5
526.71	86.5
526.925	83.5
527.14	82.5
527.355	85.5
527.57	81.5
527.785	88.5
527.999	85.5
528.214	87.5
528.429	94.5
528.644	94.5
528.859	94.5
529.074	98.5
529.289	124.5
529.503	176.5
529.718	113.5
529.933	85.5
530.148	68.5
530.363	79.5
530.577	88.5
530.792	82.5
531.007	81.5
531.221	82.5
531.436	83.5
531.651	81.5
531.865	96.5
532.08	85.5
532.295	84.5
532.509	80.5
532.724	93.5
532.938	87.5
533.153	89.5
533.367	91.5
533.582	102.5
533.796	89.5
534.011	91.5
534.225	92.5
534.44	93.5
534.654	82.5
534.868	89.5
535.083	95.5
535.297	85.5
535.511	110.5
535.726	109.5
535.94	100.5
536.154	94.5
536.369	89.5
536.583	108.5
536.797	83.5
537.011	81.5
