Data from Uncirc_1991_H10_HRD10591_00005.txt Node
Date: Wed Jan 03 11:50:39 EST 2024
User: Yrep
Spectrometer: HR+D1059
Trigger mode: 1
Integration Time (sec): 1.000000E-1
Scans to average: 1
Electric dark correction enabled: true
Nonlinearity correction enabled: false
Boxcar width: 0
XAxis mode: Wavelengths
Number of Pixels in Spectrum: 2048
>>>>>Begin Spectral Data<<<<<
223.165	-21.38
223.4	-21.38
223.635	-21.38
223.869	-17.38
224.104	-16.38
224.338	-10.38
224.573	-23.38
224.808	-8.38
225.042	-11.38
225.277	-8.38
225.511	-9.38
225.746	15.62
225.98	-2.38
226.215	10.62
226.449	24.62
226.683	28.62
226.918	22.62
227.152	26.62
227.387	26.62
227.621	23.62
227.856	39.62
228.09	53.62
228.324	52.62
228.559	64.62
228.793	56.62
229.027	58.62
229.262	56.62
229.496	78.62
229.73	92.62
229.964	76.62
230.199	68.62
230.433	82.62
230.667	81.62
230.901	74.62
231.136	75.62
231.37	83.62
231.604	67.62
231.838	60.62
232.072	88.62
232.306	72.62
232.541	87.62
232.775	90.62
233.009	70.62
233.243	76.62
233.477	86.62
233.711	79.62
233.945	84.62
234.179	69.62
234.413	70.62
234.647	90.62
234.881	86.62
235.115	82.62
235.349	79.62
235.583	73.62
235.817	78.62
236.051	81.62
236.285	81.62
236.519	78.62
236.753	85.62
236.987	103.62
237.221	89.62
237.455	79.62
237.689	77.62
237.922	80.62
238.156	85.62
238.39	83.62
238.624	68.62
238.858	76.62
239.091	80.62
239.325	75.62
239.559	76.62
239.793	74.62
240.027	83.62
240.26	75.62
240.494	84.62
240.728	68.62
240.961	78.62
241.195	84.62
241.429	74.62
241.662	67.62
241.896	74.62
242.13	71.62
242.363	82.62
242.597	76.62
242.83	84.62
243.064	97.62
243.298	66.62
243.531	66.62
243.765	75.62
243.998	80.62
244.232	90.62
244.465	82.62
244.699	76.62
244.932	83.62
245.166	72.62
245.399	78.62
245.633	76.62
245.866	86.62
246.099	76.62
246.333	72.62
246.566	78.62
246.8	81.62
247.033	84.62
247.266	82.62
247.5	75.62
247.733	82.62
247.966	69.62
248.2	82.62
248.433	93.62
248.666	95.62
248.899	84.62
249.133	92.62
249.366	100.62
249.599	99.62
249.832	81.62
250.066	77.62
250.299	86.62
250.532	77.62
250.765	90.62
250.998	87.62
251.231	83.62
251.465	90.62
251.698	73.62
251.931	62.62
252.164	86.62
252.397	89.62
252.63	90.62
252.863	90.62
253.096	100.62
253.329	83.62
253.562	75.62
253.795	85.62
254.028	86.62
254.261	74.62
254.494	76.62
254.727	78.62
254.96	82.62
255.193	84.62
255.426	83.62
255.659	92.62
255.892	87.62
256.124	78.62
256.357	80.62
256.59	87.62
256.823	93.62
257.056	85.62
257.289	75.62
257.521	91.62
257.754	79.62
257.987	83.62
258.22	85.62
258.452	71.62
258.685	92.62
258.918	83.62
259.151	82.62
259.383	88.62
259.616	94.62
259.849	87.62
260.081	70.62
260.314	77.62
260.547	83.62
260.779	79.62
261.012	85.62
261.244	84.62
261.477	86.62
261.71	107.62
261.942	93.62
262.175	113.62
262.407	98.62
262.64	88.62
262.872	80.62
263.105	82.62
263.337	74.62
263.57	79.62
263.802	73.62
264.035	75.62
264.267	69.62
264.499	71.62
264.732	78.62
264.964	78.62
265.197	86.62
265.429	82.62
265.661	86.62
265.894	83.62
266.126	89.62
266.358	97.62
266.591	73.62
266.823	90.62
267.055	78.62
267.287	77.62
267.52	99.62
267.752	90.62
267.984	95.62
268.216	83.62
268.448	77.62
268.681	84.62
268.913	96.62
269.145	86.62
269.377	88.62
269.609	81.62
269.841	75.62
270.073	90.62
270.306	84.62
270.538	70.62
270.77	84.62
271.002	92.62
271.234	85.62
271.466	78.62
271.698	84.62
271.93	76.62
272.162	87.62
272.394	84.62
272.626	83.62
272.858	97.62
273.09	92.62
273.322	79.62
273.553	70.62
273.785	74.62
274.017	95.62
274.249	90.62
274.481	90.62
274.713	90.62
274.945	93.62
275.176	80.62
275.408	104.62
275.64	92.62
275.872	86.62
276.104	82.62
276.335	84.62
276.567	87.62
276.799	96.62
277.031	89.62
277.262	98.62
277.494	89.62
277.726	98.62
277.957	83.62
278.189	92.62
278.421	94.62
278.652	103.62
278.884	79.62
279.115	83.62
279.347	85.62
279.579	78.62
279.81	84.62
280.042	78.62
280.273	90.62
280.505	90.62
280.736	97.62
280.968	85.62
281.199	97.62
281.431	90.62
281.662	93.62
281.894	103.62
282.125	84.62
282.356	104.62
282.588	123.62
282.819	99.62
283.051	89.62
283.282	96.62
283.513	96.62
283.745	81.62
283.976	88.62
284.207	77.62
284.439	85.62
284.67	71.62
284.901	95.62
285.132	79.62
285.364	84.62
285.595	78.62
285.826	81.62
286.057	88.62
286.288	77.62
286.52	86.62
286.751	79.62
286.982	96.62
287.213	87.62
287.444	100.62
287.675	90.62
287.906	92.62
288.138	86.62
288.369	91.62
288.6	93.62
288.831	87.62
289.062	99.62
289.293	99.62
289.524	76.62
289.755	90.62
289.986	66.62
290.217	76.62
290.448	78.62
290.679	97.62
290.91	92.62
291.141	89.62
291.371	112.62
291.602	87.62
291.833	96.62
292.064	88.62
292.295	69.62
292.526	84.62
292.757	90.62
292.987	81.62
293.218	99.62
293.449	75.62
293.68	82.62
293.91	74.62
294.141	97.62
294.372	76.62
294.603	88.62
294.833	85.62
295.064	86.62
295.295	95.62
295.525	83.62
295.756	106.62
295.987	100.62
296.217	140.62
296.448	122.62
296.679	79.62
296.909	86.62
297.14	84.62
297.37	101.62
297.601	101.62
297.831	99.62
298.062	94.62
298.292	103.62
298.523	107.62
298.753	90.62
298.984	108.62
299.214	88.62
299.445	95.62
299.675	86.62
299.905	97.62
300.136	96.62
300.366	109.62
300.597	104.62
300.827	90.62
301.057	100.62
301.288	91.62
301.518	83.62
301.748	85.62
301.979	106.62
302.209	94.62
302.439	90.62
302.669	93.62
302.9	86.62
303.13	89.62
303.36	85.62
303.59	102.62
303.82	99.62
304.051	118.62
304.281	92.62
304.511	97.62
304.741	96.62
304.971	84.62
305.201	97.62
305.431	85.62
305.661	88.62
305.891	89.62
306.121	99.62
306.352	92.62
306.582	100.62
306.812	97.62
307.042	85.62
307.272	97.62
307.502	87.62
307.731	85.62
307.961	91.62
308.191	79.62
308.421	85.62
308.651	77.62
308.881	102.62
309.111	94.62
309.341	92.62
309.571	99.62
309.8	100.62
310.03	95.62
310.26	96.62
310.49	91.62
310.72	107.62
310.949	104.62
311.179	104.62
311.409	100.62
311.639	112.62
311.868	90.62
312.098	102.62
312.328	103.62
312.557	106.62
312.787	94.62
313.017	107.62
313.246	91.62
313.476	86.62
313.706	86.62
313.935	90.62
314.165	94.62
314.394	87.62
314.624	78.62
314.853	90.62
315.083	83.62
315.312	87.62
315.542	93.62
315.771	76.62
316.001	82.62
316.23	87.62
316.46	92.62
316.689	95.62
316.919	93.62
317.148	103.62
317.377	84.62
317.607	84.62
317.836	106.62
318.065	82.62
318.295	103.62
318.524	94.62
318.753	93.62
318.983	95.62
319.212	95.62
319.441	100.62
319.67	106.62
319.9	101.62
320.129	91.62
320.358	94.62
320.587	104.62
320.816	98.62
321.046	80.62
321.275	104.62
321.504	97.62
321.733	91.62
321.962	102.62
322.191	115.62
322.42	87.62
322.649	97.62
322.878	117.62
323.108	110.62
323.337	120.62
323.566	122.62
323.795	147.62
324.024	197.62
324.253	394.62
324.482	794.62
324.71	1704.62
324.939	2314.62
325.168	832.62
325.397	247.62
325.626	152.62
325.855	127.62
326.084	116.62
326.313	123.62
326.542	145.62
326.77	227.62
326.999	430.62
327.228	914.62
327.457	1767.62
327.686	1429.62
327.914	353.62
328.143	198.62
328.372	133.62
328.6	110.62
328.829	113.62
329.058	127.62
329.287	121.62
329.515	115.62
329.744	105.62
329.972	104.62
330.201	86.62
330.43	107.62
330.658	119.62
330.887	135.62
331.115	127.62
331.344	104.62
331.572	87.62
331.801	113.62
332.03	113.62
332.258	92.62
332.486	86.62
332.715	86.62
332.943	87.62
333.172	96.62
333.4	105.62
333.629	111.62
333.857	109.62
334.085	107.62
334.314	94.62
334.542	104.62
334.771	110.62
334.999	100.62
335.227	99.62
335.455	83.62
335.684	94.62
335.912	114.62
336.14	102.62
336.369	107.62
336.597	105.62
336.825	104.62
337.053	91.62
337.281	108.62
337.51	79.62
337.738	97.62
337.966	87.62
338.194	94.62
338.422	102.62
338.65	95.62
338.878	78.62
339.106	83.62
339.334	108.62
339.562	101.62
339.79	92.62
340.018	85.62
340.246	112.62
340.474	98.62
340.702	94.62
340.93	95.62
341.158	97.62
341.386	81.62
341.614	103.62
341.842	115.62
342.07	94.62
342.298	89.62
342.526	94.62
342.754	94.62
342.981	93.62
343.209	89.62
343.437	97.62
343.665	87.62
343.893	90.62
344.12	96.62
344.348	85.62
344.576	74.62
344.804	95.62
345.031	83.62
345.259	92.62
345.487	90.62
345.714	95.62
345.942	92.62
346.17	101.62
346.397	83.62
346.625	90.62
346.853	86.62
347.08	95.62
347.308	107.62
347.535	100.62
347.763	104.62
347.99	96.62
348.218	99.62
348.445	100.62
348.673	85.62
348.9	98.62
349.128	87.62
349.355	97.62
349.583	84.62
349.81	96.62
350.037	100.62
350.265	91.62
350.492	93.62
350.72	102.62
350.947	100.62
351.174	87.62
351.402	118.62
351.629	112.62
351.856	99.62
352.083	104.62
352.311	96.62
352.538	110.62
352.765	112.62
352.992	89.62
353.22	107.62
353.447	90.62
353.674	100.62
353.901	98.62
354.128	100.62
354.355	108.62
354.583	102.62
354.81	83.62
355.037	88.62
355.264	90.62
355.491	92.62
355.718	103.62
355.945	81.62
356.172	91.62
356.399	86.62
356.626	100.62
356.853	99.62
357.08	96.62
357.307	81.62
357.534	86.62
357.761	85.62
357.988	95.62
358.215	91.62
358.441	93.62
358.668	74.62
358.895	90.62
359.122	78.62
359.349	92.62
359.576	85.62
359.802	87.62
360.029	112.62
360.256	116.62
360.483	91.62
360.709	78.62
360.936	100.62
361.163	93.62
361.39	101.62
361.616	100.62
361.843	106.62
362.07	98.62
362.296	96.62
362.523	84.62
362.749	99.62
362.976	94.62
363.203	90.62
363.429	83.62
363.656	96.62
363.882	82.62
364.109	84.62
364.335	102.62
364.562	74.62
364.788	79.62
365.015	89.62
365.241	93.62
365.468	104.62
365.694	98.62
365.92	93.62
366.147	85.62
366.373	93.62
366.599	80.62
366.826	80.62
367.052	97.62
367.278	90.62
367.505	102.62
367.731	98.62
367.957	88.62
368.184	81.62
368.41	109.62
368.636	103.62
368.862	105.62
369.089	104.62
369.315	87.62
369.541	86.62
369.767	95.62
369.993	92.62
370.219	76.62
370.445	95.62
370.672	88.62
370.898	85.62
371.124	78.62
371.35	84.62
371.576	100.62
371.802	79.62
372.028	94.62
372.254	101.62
372.48	93.62
372.706	87.62
372.932	68.62
373.158	80.62
373.384	90.62
373.61	98.62
373.835	79.62
374.061	87.62
374.287	86.62
374.513	91.62
374.739	90.62
374.965	95.62
375.191	86.62
375.416	96.62
375.642	83.62
375.868	92.62
376.094	90.62
376.319	88.62
376.545	82.62
376.771	87.62
376.997	95.62
377.222	93.62
377.448	94.62
377.674	86.62
377.899	104.62
378.125	95.62
378.35	99.62
378.576	107.62
378.802	86.62
379.027	85.62
379.253	92.62
379.478	104.62
379.704	98.62
379.929	101.62
380.155	96.62
380.38	73.62
380.606	71.62
380.831	83.62
381.057	109.62
381.282	86.62
381.507	92.62
381.733	104.62
381.958	89.62
382.184	94.62
382.409	95.62
382.634	91.62
382.86	92.62
383.085	101.62
383.31	90.62
383.535	104.62
383.761	98.62
383.986	102.62
384.211	88.62
384.436	91.62
384.662	96.62
384.887	111.62
385.112	101.62
385.337	103.62
385.562	107.62
385.787	108.62
386.013	98.62
386.238	111.62
386.463	102.62
386.688	110.62
386.913	98.62
387.138	100.62
387.363	99.62
387.588	87.62
387.813	92.62
388.038	104.62
388.263	98.62
388.488	95.62
388.713	97.62
388.938	95.62
389.163	90.62
389.387	99.62
389.612	93.62
389.837	100.62
390.062	92.62
390.287	88.62
390.512	69.62
390.736	69.62
390.961	92.62
391.186	96.62
391.411	95.62
391.636	87.62
391.86	80.62
392.085	84.62
392.31	93.62
392.534	84.62
392.759	82.62
392.984	96.62
393.208	91.62
393.433	97.62
393.658	82.62
393.882	96.62
394.107	92.62
394.331	82.62
394.556	90.62
394.78	89.62
395.005	90.62
395.229	87.62
395.454	86.62
395.678	83.62
395.903	81.62
396.127	75.62
396.352	88.62
396.576	90.62
396.801	86.62
397.025	82.62
397.249	89.62
397.474	98.62
397.698	96.62
397.922	92.62
398.147	92.62
398.371	98.62
398.595	98.62
398.82	83.62
399.044	92.62
399.268	78.62
399.492	94.62
399.717	100.62
399.941	92.62
400.165	77.62
400.389	89.62
400.613	79.62
400.837	88.62
401.062	81.62
401.286	99.62
401.51	82.62
401.734	95.62
401.958	99.62
402.182	98.62
402.406	128.62
402.63	125.62
402.854	93.62
403.078	87.62
403.302	99.62
403.526	83.62
403.75	76.62
403.974	75.62
404.198	88.62
404.422	88.62
404.645	89.62
404.869	97.62
405.093	92.62
405.317	92.62
405.541	105.62
405.765	90.62
405.988	115.62
406.212	160.62
406.436	189.62
406.66	138.62
406.883	107.62
407.107	99.62
407.331	102.62
407.555	101.62
407.778	90.62
408.002	94.62
408.226	108.62
408.449	75.62
408.673	98.62
408.896	84.62
409.12	101.62
409.344	86.62
409.567	105.62
409.791	94.62
410.014	87.62
410.238	84.62
410.461	100.62
410.685	102.62
410.908	91.62
411.132	100.62
411.355	95.62
411.578	102.62
411.802	92.62
412.025	81.62
412.249	85.62
412.472	92.62
412.695	85.62
412.919	88.62
413.142	92.62
413.365	99.62
413.589	104.62
413.812	100.62
414.035	87.62
414.258	87.62
414.482	95.62
414.705	86.62
414.928	86.62
415.151	82.62
415.374	103.62
415.597	82.62
415.821	84.62
416.044	85.62
416.267	82.62
416.49	78.62
416.713	100.62
416.936	88.62
417.159	84.62
417.382	97.62
417.605	94.62
417.828	95.62
418.051	98.62
418.274	107.62
418.497	94.62
418.72	81.62
418.943	90.62
419.166	79.62
419.389	91.62
419.611	86.62
419.834	92.62
420.057	101.62
420.28	92.62
420.503	76.62
420.726	99.62
420.948	87.62
421.171	95.62
421.394	96.62
421.617	95.62
421.839	94.62
422.062	85.62
422.285	95.62
422.507	95.62
422.73	95.62
422.953	75.62
423.175	95.62
423.398	79.62
423.621	93.62
423.843	100.62
424.066	89.62
424.288	74.62
424.511	93.62
424.733	105.62
424.956	98.62
425.178	94.62
425.401	116.62
425.623	93.62
425.846	98.62
426.068	85.62
426.291	86.62
426.513	90.62
426.735	94.62
426.958	86.62
427.18	110.62
427.402	147.62
427.625	146.62
427.847	110.62
428.069	99.62
428.292	86.62
428.514	88.62
428.736	88.62
428.958	83.62
429.181	94.62
429.403	76.62
429.625	88.62
429.847	90.62
430.069	112.62
430.292	95.62
430.514	91.62
430.736	90.62
430.958	92.62
431.18	96.62
431.402	84.62
431.624	77.62
431.846	77.62
432.068	86.62
432.29	70.62
432.512	84.62
432.734	86.62
432.956	97.62
433.178	86.62
433.4	104.62
433.622	85.62
433.844	98.62
434.066	94.62
434.287	91.62
434.509	94.62
434.731	82.62
434.953	96.62
435.175	100.62
435.397	86.62
435.618	97.62
435.84	99.62
436.062	98.62
436.284	123.62
436.505	109.62
436.727	103.62
436.949	84.62
437.17	97.62
437.392	82.62
437.614	91.62
437.835	120.62
438.057	111.62
438.278	109.62
438.5	112.62
438.721	123.62
438.943	106.62
439.165	98.62
439.386	93.62
439.608	94.62
439.829	95.62
440.05	113.62
440.272	140.62
440.493	108.62
440.715	83.62
440.936	87.62
441.158	92.62
441.379	88.62
441.6	99.62
441.822	100.62
442.043	86.62
442.264	101.62
442.486	92.62
442.707	98.62
442.928	99.62
443.149	103.62
443.371	101.62
443.592	103.62
443.813	114.62
444.034	123.62
444.255	94.62
444.476	96.62
444.698	94.62
444.919	85.62
445.14	143.62
445.361	118.62
445.582	108.62
445.803	131.62
446.024	129.62
446.245	134.62
446.466	112.62
446.687	97.62
446.908	84.62
447.129	89.62
447.35	100.62
447.571	90.62
447.792	92.62
448.013	99.62
448.234	102.62
448.455	106.62
448.675	110.62
448.896	123.62
449.117	86.62
449.338	106.62
449.559	126.62
449.779	123.62
450	95.62
450.221	101.62
450.442	80.62
450.662	89.62
450.883	92.62
451.104	86.62
451.324	91.62
451.545	98.62
451.766	79.62
451.986	98.62
452.207	94.62
452.428	107.62
452.648	98.62
452.869	100.62
453.089	118.62
453.31	101.62
453.53	104.62
453.751	87.62
453.971	84.62
454.192	108.62
454.412	92.62
454.633	90.62
454.853	89.62
455.073	86.62
455.294	84.62
455.514	102.62
455.734	92.62
455.955	98.62
456.175	74.62
456.395	96.62
456.616	102.62
456.836	86.62
457.056	64.62
457.276	82.62
457.497	71.62
457.717	74.62
457.937	73.62
458.157	83.62
458.377	86.62
458.598	91.62
458.818	138.62
459.038	154.62
459.258	125.62
459.478	84.62
459.698	77.62
459.918	91.62
460.138	98.62
460.358	91.62
460.578	80.62
460.798	102.62
461.018	84.62
461.238	91.62
461.458	85.62
461.678	94.62
461.898	79.62
462.118	91.62
462.338	91.62
462.558	82.62
462.777	93.62
462.997	95.62
463.217	82.62
463.437	94.62
463.657	94.62
463.876	71.62
464.096	86.62
464.316	92.62
464.536	89.62
464.755	77.62
464.975	98.62
465.195	127.62
465.414	137.62
465.634	99.62
465.854	86.62
466.073	90.62
466.293	93.62
466.512	77.62
466.732	90.62
466.951	81.62
467.171	82.62
467.391	88.62
467.61	97.62
467.829	78.62
468.049	94.62
468.268	83.62
468.488	85.62
468.707	95.62
468.927	88.62
469.146	100.62
469.365	90.62
469.585	87.62
469.804	91.62
470.023	102.62
470.243	104.62
470.462	81.62
470.681	98.62
470.901	103.62
471.12	82.62
471.339	78.62
471.558	74.62
471.777	88.62
471.997	85.62
472.216	97.62
472.435	92.62
472.654	95.62
472.873	81.62
473.092	92.62
473.311	77.62
473.53	90.62
473.749	96.62
473.968	103.62
474.187	95.62
474.406	67.62
474.625	93.62
474.844	88.62
475.063	75.62
475.282	95.62
475.501	75.62
475.72	90.62
475.939	71.62
476.158	82.62
476.377	80.62
476.596	86.62
476.814	71.62
477.033	75.62
477.252	95.62
477.471	83.62
477.69	86.62
477.908	88.62
478.127	88.62
478.346	83.62
478.564	82.62
478.783	86.62
479.002	91.62
479.22	83.62
479.439	98.62
479.658	90.62
479.876	88.62
480.095	85.62
480.313	95.62
480.532	90.62
480.751	91.62
480.969	97.62
481.188	91.62
481.406	89.62
481.624	92.62
481.843	90.62
482.061	85.62
482.28	90.62
482.498	96.62
482.717	79.62
482.935	83.62
483.153	84.62
483.372	103.62
483.59	98.62
483.808	88.62
484.027	95.62
484.245	86.62
484.463	91.62
484.681	94.62
484.9	75.62
485.118	79.62
485.336	98.62
485.554	102.62
485.772	89.62
485.99	98.62
486.209	90.62
486.427	103.62
486.645	112.62
486.863	105.62
487.081	109.62
487.299	98.62
487.517	92.62
487.735	101.62
487.953	89.62
488.171	82.62
488.389	80.62
488.607	92.62
488.825	89.62
489.043	95.62
489.261	96.62
489.479	77.62
489.696	89.62
489.914	71.62
490.132	83.62
490.35	92.62
490.568	91.62
490.786	103.62
491.003	99.62
491.221	94.62
491.439	96.62
491.657	91.62
491.874	108.62
492.092	99.62
492.31	88.62
492.527	94.62
492.745	81.62
492.963	82.62
493.18	88.62
493.398	109.62
493.615	93.62
493.833	88.62
494.05	87.62
494.268	88.62
494.485	95.62
494.703	101.62
494.92	102.62
495.138	86.62
495.355	68.62
495.573	78.62
495.79	76.62
496.008	78.62
496.225	95.62
496.442	95.62
496.66	105.62
496.877	86.62
497.094	92.62
497.312	86.62
497.529	99.62
497.746	101.62
497.963	94.62
498.181	93.62
498.398	95.62
498.615	100.62
498.832	97.62
499.049	106.62
499.267	96.62
499.484	86.62
499.701	88.62
499.918	86.62
500.135	93.62
500.352	107.62
500.569	97.62
500.786	94.62
501.003	84.62
501.22	84.62
501.437	92.62
501.654	82.62
501.871	110.62
502.088	86.62
502.305	76.62
502.522	86.62
502.739	82.62
502.956	86.62
503.172	100.62
503.389	86.62
503.606	104.62
503.823	92.62
504.04	107.62
504.256	98.62
504.473	97.62
504.69	84.62
504.907	90.62
505.123	99.62
505.34	78.62
505.557	86.62
505.773	81.62
505.99	93.62
506.207	84.62
506.423	82.62
506.64	92.62
506.856	103.62
507.073	94.62
507.289	99.62
507.506	103.62
507.722	104.62
507.939	101.62
508.155	95.62
508.372	101.62
508.588	87.62
508.805	73.62
509.021	79.62
509.238	94.62
509.454	103.62
509.67	88.62
509.887	107.62
510.103	119.62
510.319	173.62
510.536	648.62
510.752	1950.62
510.968	528.62
511.184	132.62
511.401	108.62
511.617	102.62
511.833	90.62
512.049	98.62
512.265	94.62
512.481	95.62
512.698	93.62
512.914	90.62
513.13	92.62
513.346	96.62
513.562	91.62
513.778	105.62
513.994	84.62
514.21	112.62
514.426	102.62
514.642	135.62
514.858	122.62
515.074	157.62
515.29	397.62
515.506	1254.62
515.721	476.62
