Data from Uncirc_1991_H10_HRD10591_00067.txt Node
Date: Wed Jan 03 11:50:51 EST 2024
User: Yrep
Spectrometer: HR+D1059
Trigger mode: 1
Integration Time (sec): 1.000000E-1
Scans to average: 1
Electric dark correction enabled: true
Nonlinearity correction enabled: false
Boxcar width: 0
XAxis mode: Wavelengths
Number of Pixels in Spectrum: 2048
>>>>>Begin Spectral Data<<<<<
223.165	-35.12
223.4	-35.12
223.635	-35.12
223.869	-20.12
224.104	-12.12
224.338	-10.12
224.573	-4.12
224.808	-11.12
225.042	-15.12
225.277	-9.12
225.511	-0.12
225.746	-9.12
225.98	24.88
226.215	18.88
226.449	3.88
226.683	19.88
226.918	21.88
227.152	36.88
227.387	34.88
227.621	44.88
227.856	37.88
228.09	47.88
228.324	51.88
228.559	54.88
228.793	41.88
229.027	56.88
229.262	58.88
229.496	64.88
229.73	74.88
229.964	72.88
230.199	61.88
230.433	68.88
230.667	60.88
230.901	50.88
231.136	74.88
231.37	58.88
231.604	76.88
231.838	67.88
232.072	81.88
232.306	56.88
232.541	72.88
232.775	72.88
233.009	77.88
233.243	80.88
233.477	68.88
233.711	80.88
233.945	75.88
234.179	87.88
234.413	86.88
234.647	95.88
234.881	69.88
235.115	67.88
235.349	80.88
235.583	78.88
235.817	81.88
236.051	78.88
236.285	70.88
236.519	66.88
236.753	66.88
236.987	80.88
237.221	67.88
237.455	82.88
237.689	74.88
237.922	59.88
238.156	70.88
238.39	66.88
238.624	77.88
238.858	83.88
239.091	82.88
239.325	64.88
239.559	64.88
239.793	71.88
240.027	82.88
240.26	70.88
240.494	78.88
240.728	61.88
240.961	70.88
241.195	74.88
241.429	68.88
241.662	67.88
241.896	74.88
242.13	78.88
242.363	65.88
242.597	76.88
242.83	76.88
243.064	67.88
243.298	74.88
243.531	70.88
243.765	77.88
243.998	80.88
244.232	72.88
244.465	82.88
244.699	75.88
244.932	68.88
245.166	80.88
245.399	81.88
245.633	72.88
245.866	64.88
246.099	64.88
246.333	77.88
246.566	84.88
246.8	88.88
247.033	73.88
247.266	74.88
247.5	67.88
247.733	52.88
247.966	72.88
248.2	72.88
248.433	78.88
248.666	70.88
248.899	78.88
249.133	78.88
249.366	96.88
249.599	100.88
249.832	71.88
250.066	94.88
250.299	67.88
250.532	75.88
250.765	75.88
250.998	83.88
251.231	61.88
251.465	66.88
251.698	61.88
251.931	62.88
252.164	62.88
252.397	71.88
252.63	76.88
252.863	63.88
253.096	75.88
253.329	68.88
253.562	78.88
253.795	90.88
254.028	80.88
254.261	75.88
254.494	87.88
254.727	89.88
254.96	81.88
255.193	80.88
255.426	65.88
255.659	70.88
255.892	76.88
256.124	67.88
256.357	72.88
256.59	79.88
256.823	71.88
257.056	84.88
257.289	71.88
257.521	91.88
257.754	73.88
257.987	82.88
258.22	78.88
258.452	68.88
258.685	71.88
258.918	78.88
259.151	78.88
259.383	86.88
259.616	81.88
259.849	78.88
260.081	76.88
260.314	84.88
260.547	79.88
260.779	82.88
261.012	87.88
261.244	76.88
261.477	93.88
261.71	83.88
261.942	101.88
262.175	112.88
262.407	80.88
262.64	83.88
262.872	82.88
263.105	84.88
263.337	76.88
263.57	68.88
263.802	78.88
264.035	79.88
264.267	73.88
264.499	83.88
264.732	86.88
264.964	76.88
265.197	84.88
265.429	69.88
265.661	84.88
265.894	82.88
266.126	84.88
266.358	83.88
266.591	77.88
266.823	87.88
267.055	83.88
267.287	70.88
267.52	77.88
267.752	80.88
267.984	81.88
268.216	81.88
268.448	72.88
268.681	75.88
268.913	78.88
269.145	83.88
269.377	81.88
269.609	71.88
269.841	83.88
270.073	89.88
270.306	84.88
270.538	85.88
270.77	82.88
271.002	89.88
271.234	91.88
271.466	71.88
271.698	96.88
271.93	72.88
272.162	72.88
272.394	66.88
272.626	77.88
272.858	77.88
273.09	75.88
273.322	83.88
273.553	82.88
273.785	76.88
274.017	81.88
274.249	84.88
274.481	76.88
274.713	75.88
274.945	82.88
275.176	90.88
275.408	70.88
275.64	74.88
275.872	79.88
276.104	75.88
276.335	87.88
276.567	109.88
276.799	112.88
277.031	97.88
277.262	86.88
277.494	88.88
277.726	85.88
277.957	74.88
278.189	86.88
278.421	82.88
278.652	91.88
278.884	75.88
279.115	100.88
279.347	72.88
279.579	72.88
279.81	91.88
280.042	70.88
280.273	84.88
280.505	91.88
280.736	84.88
280.968	68.88
281.199	77.88
281.431	97.88
281.662	76.88
281.894	79.88
282.125	91.88
282.356	91.88
282.588	120.88
282.819	107.88
283.051	80.88
283.282	73.88
283.513	90.88
283.745	76.88
283.976	78.88
284.207	76.88
284.439	62.88
284.67	78.88
284.901	88.88
285.132	90.88
285.364	97.88
285.595	88.88
285.826	70.88
286.057	77.88
286.288	82.88
286.52	70.88
286.751	82.88
286.982	94.88
287.213	91.88
287.444	87.88
287.675	96.88
287.906	103.88
288.138	65.88
288.369	86.88
288.6	90.88
288.831	78.88
289.062	84.88
289.293	93.88
289.524	80.88
289.755	75.88
289.986	81.88
290.217	74.88
290.448	64.88
290.679	86.88
290.91	78.88
291.141	81.88
291.371	94.88
291.602	86.88
291.833	95.88
292.064	90.88
292.295	94.88
292.526	92.88
292.757	86.88
292.987	85.88
293.218	104.88
293.449	90.88
293.68	79.88
293.91	81.88
294.141	83.88
294.372	67.88
294.603	88.88
294.833	85.88
295.064	75.88
295.295	82.88
295.525	98.88
295.756	89.88
295.987	109.88
296.217	130.88
296.448	115.88
296.679	94.88
296.909	99.88
297.14	78.88
297.37	89.88
297.601	92.88
297.831	94.88
298.062	86.88
298.292	82.88
298.523	70.88
298.753	85.88
298.984	78.88
299.214	82.88
299.445	79.88
299.675	94.88
299.905	94.88
300.136	82.88
300.366	94.88
300.597	86.88
300.827	97.88
301.057	93.88
301.288	83.88
301.518	79.88
301.748	95.88
301.979	95.88
302.209	74.88
302.439	77.88
302.669	83.88
302.9	86.88
303.13	80.88
303.36	104.88
303.59	105.88
303.82	99.88
304.051	94.88
304.281	99.88
304.511	79.88
304.741	86.88
304.971	77.88
305.201	81.88
305.431	82.88
305.661	76.88
305.891	100.88
306.121	104.88
306.352	98.88
306.582	90.88
306.812	91.88
307.042	100.88
307.272	82.88
307.502	84.88
307.731	81.88
307.961	94.88
308.191	80.88
308.421	85.88
308.651	93.88
308.881	81.88
309.111	97.88
309.341	103.88
309.571	99.88
309.8	87.88
310.03	99.88
310.26	101.88
310.49	94.88
310.72	94.88
310.949	88.88
311.179	90.88
311.409	85.88
311.639	83.88
311.868	90.88
312.098	90.88
312.328	82.88
312.557	99.88
312.787	111.88
313.017	83.88
313.246	81.88
313.476	85.88
313.706	90.88
313.935	90.88
314.165	85.88
314.394	92.88
314.624	86.88
314.853	84.88
315.083	94.88
315.312	76.88
315.542	84.88
315.771	89.88
316.001	73.88
316.23	109.88
316.46	86.88
316.689	75.88
316.919	101.88
317.148	99.88
317.377	88.88
317.607	91.88
317.836	87.88
318.065	86.88
318.295	86.88
318.524	89.88
318.753	87.88
318.983	89.88
319.212	92.88
319.441	111.88
319.67	102.88
319.9	96.88
320.129	73.88
320.358	102.88
320.587	89.88
320.816	84.88
321.046	103.88
321.275	98.88
321.504	74.88
321.733	100.88
321.962	98.88
322.191	103.88
322.42	91.88
322.649	103.88
322.878	110.88
323.108	101.88
323.337	126.88
323.566	130.88
323.795	159.88
324.024	203.88
324.253	418.88
324.482	862.88
324.71	1855.88
324.939	2518.88
325.168	890.88
325.397	255.88
325.626	152.88
325.855	127.88
326.084	127.88
326.313	128.88
326.542	134.88
326.77	224.88
326.999	483.88
327.228	989.88
327.457	1890.88
327.686	1505.88
327.914	385.88
328.143	196.88
328.372	138.88
328.6	127.88
328.829	120.88
329.058	102.88
329.287	128.88
329.515	84.88
329.744	93.88
329.972	102.88
330.201	98.88
330.43	101.88
330.658	109.88
330.887	130.88
331.115	113.88
331.344	108.88
331.572	115.88
331.801	102.88
332.03	88.88
332.258	111.88
332.486	80.88
332.715	97.88
332.943	102.88
333.172	113.88
333.4	104.88
333.629	113.88
333.857	96.88
334.085	93.88
334.314	91.88
334.542	96.88
334.771	102.88
334.999	94.88
335.227	93.88
335.455	83.88
335.684	99.88
335.912	92.88
336.14	104.88
336.369	93.88
336.597	92.88
336.825	87.88
337.053	83.88
337.281	97.88
337.51	95.88
337.738	83.88
337.966	93.88
338.194	99.88
338.422	91.88
338.65	84.88
338.878	87.88
339.106	90.88
339.334	92.88
339.562	73.88
339.79	90.88
340.018	90.88
340.246	83.88
340.474	82.88
340.702	94.88
340.93	75.88
341.158	95.88
341.386	106.88
341.614	81.88
341.842	87.88
342.07	92.88
342.298	89.88
342.526	77.88
342.754	90.88
342.981	91.88
343.209	89.88
343.437	110.88
343.665	78.88
343.893	90.88
344.12	91.88
344.348	73.88
344.576	88.88
344.804	90.88
345.031	90.88
345.259	83.88
345.487	92.88
345.714	92.88
345.942	95.88
346.17	83.88
346.397	79.88
346.625	90.88
346.853	83.88
347.08	95.88
347.308	92.88
347.535	91.88
347.763	100.88
347.99	89.88
348.218	104.88
348.445	91.88
348.673	98.88
348.9	93.88
349.128	97.88
349.355	84.88
349.583	86.88
349.81	98.88
350.037	85.88
350.265	87.88
350.492	87.88
350.72	95.88
350.947	103.88
351.174	104.88
351.402	98.88
351.629	109.88
351.856	113.88
352.083	90.88
352.311	92.88
352.538	114.88
352.765	95.88
352.992	98.88
353.22	99.88
353.447	93.88
353.674	108.88
353.901	95.88
354.128	86.88
354.355	97.88
354.583	97.88
354.81	95.88
355.037	108.88
355.264	94.88
355.491	86.88
355.718	82.88
355.945	87.88
356.172	106.88
356.399	86.88
356.626	86.88
356.853	84.88
357.08	75.88
357.307	84.88
357.534	89.88
357.761	80.88
357.988	87.88
358.215	80.88
358.441	90.88
358.668	93.88
358.895	84.88
359.122	75.88
359.349	91.88
359.576	96.88
359.802	90.88
360.029	103.88
360.256	105.88
360.483	98.88
360.709	76.88
360.936	83.88
361.163	90.88
361.39	94.88
361.616	103.88
361.843	74.88
362.07	89.88
362.296	87.88
362.523	88.88
362.749	92.88
362.976	90.88
363.203	89.88
363.429	86.88
363.656	79.88
363.882	77.88
364.109	94.88
364.335	94.88
364.562	92.88
364.788	88.88
365.015	82.88
365.241	90.88
365.468	106.88
365.694	95.88
365.92	95.88
366.147	92.88
366.373	89.88
366.599	86.88
366.826	80.88
367.052	96.88
367.278	101.88
367.505	92.88
367.731	95.88
367.957	76.88
368.184	97.88
368.41	104.88
368.636	110.88
368.862	121.88
369.089	104.88
369.315	96.88
369.541	104.88
369.767	96.88
369.993	97.88
370.219	81.88
370.445	96.88
370.672	93.88
370.898	90.88
371.124	84.88
371.35	75.88
371.576	82.88
371.802	82.88
372.028	64.88
372.254	76.88
372.48	81.88
372.706	90.88
372.932	89.88
373.158	95.88
373.384	98.88
373.61	90.88
373.835	92.88
374.061	66.88
374.287	85.88
374.513	88.88
374.739	83.88
374.965	64.88
375.191	79.88
375.416	90.88
375.642	100.88
375.868	91.88
376.094	87.88
376.319	91.88
376.545	77.88
376.771	89.88
376.997	88.88
377.222	77.88
377.448	92.88
377.674	72.88
377.899	80.88
378.125	82.88
378.35	84.88
378.576	84.88
378.802	92.88
379.027	94.88
379.253	90.88
379.478	92.88
379.704	83.88
379.929	92.88
380.155	106.88
380.38	90.88
380.606	98.88
380.831	76.88
381.057	98.88
381.282	90.88
381.507	90.88
381.733	89.88
381.958	104.88
382.184	75.88
382.409	97.88
382.634	90.88
382.86	105.88
383.085	100.88
383.31	112.88
383.535	85.88
383.761	101.88
383.986	99.88
384.211	89.88
384.436	79.88
384.662	90.88
384.887	98.88
385.112	89.88
385.337	86.88
385.562	97.88
385.787	107.88
386.013	108.88
386.238	104.88
386.463	103.88
386.688	101.88
386.913	91.88
387.138	84.88
387.363	97.88
387.588	92.88
387.813	99.88
388.038	105.88
388.263	105.88
388.488	95.88
388.713	95.88
388.938	96.88
389.163	84.88
389.387	89.88
389.612	91.88
389.837	90.88
390.062	91.88
390.287	94.88
390.512	80.88
390.736	95.88
390.961	92.88
391.186	91.88
391.411	76.88
391.636	90.88
391.86	95.88
392.085	86.88
392.31	88.88
392.534	91.88
392.759	93.88
392.984	87.88
393.208	80.88
393.433	82.88
393.658	91.88
393.882	81.88
394.107	80.88
394.331	74.88
394.556	80.88
394.78	85.88
395.005	83.88
395.229	87.88
395.454	90.88
395.678	94.88
395.903	86.88
396.127	87.88
396.352	77.88
396.576	79.88
396.801	87.88
397.025	92.88
397.249	95.88
397.474	81.88
397.698	86.88
397.922	78.88
398.147	75.88
398.371	88.88
398.595	81.88
398.82	78.88
399.044	81.88
399.268	82.88
399.492	78.88
399.717	91.88
399.941	78.88
400.165	79.88
400.389	78.88
400.613	81.88
400.837	77.88
401.062	66.88
401.286	68.88
401.51	95.88
401.734	90.88
401.958	94.88
402.182	96.88
402.406	140.88
402.63	103.88
402.854	88.88
403.078	90.88
403.302	67.88
403.526	74.88
403.75	90.88
403.974	96.88
404.198	90.88
404.422	85.88
404.645	84.88
404.869	95.88
405.093	92.88
405.317	76.88
405.541	94.88
405.765	82.88
405.988	115.88
406.212	161.88
406.436	192.88
406.66	134.88
406.883	109.88
407.107	103.88
407.331	95.88
407.555	91.88
407.778	99.88
408.002	92.88
408.226	77.88
408.449	74.88
408.673	87.88
408.896	86.88
409.12	97.88
409.344	86.88
409.567	79.88
409.791	94.88
410.014	78.88
410.238	80.88
410.461	89.88
410.685	74.88
410.908	78.88
411.132	99.88
411.355	88.88
411.578	89.88
411.802	62.88
412.025	84.88
412.249	80.88
412.472	96.88
412.695	94.88
412.919	79.88
413.142	94.88
413.365	88.88
413.589	83.88
413.812	84.88
414.035	90.88
414.258	92.88
414.482	89.88
414.705	95.88
414.928	79.88
415.151	84.88
415.374	80.88
415.597	83.88
415.821	83.88
416.044	76.88
416.267	81.88
416.49	94.88
416.713	82.88
416.936	73.88
417.159	89.88
417.382	79.88
417.605	82.88
417.828	80.88
418.051	78.88
418.274	88.88
418.497	76.88
418.72	104.88
418.943	104.88
419.166	91.88
419.389	92.88
419.611	86.88
419.834	94.88
420.057	68.88
420.28	79.88
420.503	74.88
420.726	84.88
420.948	79.88
421.171	93.88
421.394	63.88
421.617	99.88
421.839	78.88
422.062	88.88
422.285	78.88
422.507	87.88
422.73	103.88
422.953	85.88
423.175	86.88
423.398	90.88
423.621	92.88
423.843	79.88
424.066	89.88
424.288	82.88
424.511	72.88
424.733	100.88
424.956	112.88
425.178	82.88
425.401	95.88
425.623	100.88
425.846	96.88
426.068	79.88
426.291	90.88
426.513	91.88
426.735	92.88
426.958	97.88
427.18	86.88
427.402	122.88
427.625	139.88
427.847	112.88
428.069	90.88
428.292	84.88
428.514	71.88
428.736	92.88
428.958	88.88
429.181	90.88
429.403	80.88
429.625	80.88
429.847	86.88
430.069	93.88
430.292	82.88
430.514	93.88
430.736	82.88
430.958	74.88
431.18	94.88
431.402	86.88
431.624	82.88
431.846	76.88
432.068	78.88
432.29	77.88
432.512	83.88
432.734	88.88
432.956	77.88
433.178	76.88
433.4	93.88
433.622	88.88
433.844	80.88
434.066	90.88
434.287	86.88
434.509	79.88
434.731	81.88
434.953	83.88
435.175	78.88
435.397	84.88
435.618	86.88
435.84	106.88
436.062	119.88
436.284	120.88
436.505	84.88
436.727	82.88
436.949	88.88
437.17	87.88
437.392	58.88
437.614	80.88
437.835	97.88
438.057	133.88
438.278	93.88
438.5	104.88
438.721	135.88
438.943	93.88
439.165	86.88
439.386	87.88
439.608	89.88
439.829	107.88
440.05	120.88
440.272	140.88
440.493	83.88
440.715	90.88
440.936	98.88
441.158	97.88
441.379	92.88
441.6	80.88
441.822	84.88
442.043	87.88
442.264	99.88
442.486	94.88
442.707	94.88
442.928	97.88
443.149	130.88
443.371	123.88
443.592	110.88
443.813	109.88
444.034	120.88
444.255	95.88
444.476	88.88
444.698	65.88
444.919	89.88
445.14	133.88
445.361	117.88
445.582	108.88
445.803	119.88
446.024	130.88
446.245	133.88
446.466	119.88
446.687	96.88
446.908	76.88
447.129	91.88
447.35	79.88
447.571	97.88
447.792	90.88
448.013	98.88
448.234	111.88
448.455	101.88
448.675	106.88
448.896	98.88
449.117	96.88
449.338	94.88
449.559	126.88
449.779	138.88
450	94.88
450.221	88.88
450.442	74.88
450.662	89.88
450.883	94.88
451.104	91.88
451.324	86.88
451.545	86.88
451.766	97.88
451.986	97.88
452.207	71.88
452.428	91.88
452.648	97.88
452.869	109.88
453.089	116.88
453.31	107.88
453.53	79.88
453.751	94.88
453.971	92.88
454.192	116.88
454.412	88.88
454.633	98.88
454.853	80.88
455.073	103.88
455.294	94.88
455.514	91.88
455.734	80.88
455.955	92.88
456.175	79.88
456.395	73.88
456.616	96.88
456.836	70.88
457.056	68.88
457.276	93.88
457.497	76.88
457.717	85.88
457.937	89.88
458.157	85.88
458.377	111.88
458.598	93.88
458.818	124.88
459.038	131.88
459.258	131.88
459.478	76.88
459.698	96.88
459.918	95.88
460.138	87.88
460.358	85.88
460.578	86.88
460.798	86.88
461.018	92.88
461.238	91.88
461.458	78.88
461.678	86.88
461.898	86.88
462.118	82.88
462.338	81.88
462.558	78.88
462.777	78.88
462.997	98.88
463.217	83.88
463.437	78.88
463.657	87.88
463.876	85.88
464.096	75.88
464.316	76.88
464.536	78.88
464.755	78.88
464.975	90.88
465.195	157.88
465.414	138.88
465.634	84.88
465.854	79.88
466.073	92.88
466.293	88.88
466.512	72.88
466.732	78.88
466.951	78.88
467.171	83.88
467.391	110.88
467.61	100.88
467.829	103.88
468.049	94.88
468.268	83.88
468.488	89.88
468.707	68.88
468.927	76.88
469.146	65.88
469.365	89.88
469.585	73.88
469.804	89.88
470.023	91.88
470.243	84.88
470.462	91.88
470.681	116.88
470.901	89.88
471.12	94.88
471.339	79.88
471.558	80.88
471.777	83.88
471.997	90.88
472.216	78.88
472.435	82.88
472.654	85.88
472.873	75.88
473.092	82.88
473.311	87.88
473.53	88.88
473.749	95.88
473.968	87.88
474.187	95.88
474.406	86.88
474.625	86.88
474.844	92.88
475.063	82.88
475.282	87.88
475.501	90.88
475.72	106.88
475.939	95.88
476.158	90.88
476.377	83.88
476.596	89.88
476.814	84.88
477.033	91.88
477.252	78.88
477.471	74.88
477.69	91.88
477.908	80.88
478.127	72.88
478.346	96.88
478.564	89.88
478.783	84.88
479.002	83.88
479.22	71.88
479.439	90.88
479.658	77.88
479.876	89.88
480.095	92.88
480.313	87.88
480.532	66.88
480.751	84.88
480.969	79.88
481.188	97.88
481.406	86.88
481.624	83.88
481.843	84.88
482.061	83.88
482.28	86.88
482.498	90.88
482.717	89.88
482.935	87.88
483.153	90.88
483.372	90.88
483.59	95.88
483.808	80.88
484.027	79.88
484.245	88.88
484.463	88.88
484.681	95.88
484.9	82.88
485.118	96.88
485.336	82.88
485.554	83.88
485.772	88.88
485.99	92.88
486.209	97.88
486.427	98.88
486.645	95.88
486.863	104.88
487.081	98.88
487.299	103.88
487.517	110.88
487.735	91.88
487.953	83.88
488.171	75.88
488.389	95.88
488.607	109.88
488.825	84.88
489.043	80.88
489.261	88.88
489.479	81.88
489.696	74.88
489.914	92.88
490.132	103.88
490.35	97.88
490.568	90.88
490.786	83.88
491.003	86.88
491.221	100.88
491.439	92.88
491.657	78.88
491.874	99.88
492.092	92.88
492.31	94.88
492.527	72.88
492.745	89.88
492.963	89.88
493.18	81.88
493.398	76.88
493.615	104.88
493.833	84.88
494.05	86.88
494.268	85.88
494.485	87.88
494.703	85.88
494.92	95.88
495.138	96.88
495.355	98.88
495.573	86.88
495.79	89.88
496.008	79.88
496.225	77.88
496.442	89.88
496.66	87.88
496.877	85.88
497.094	78.88
497.312	86.88
497.529	73.88
497.746	88.88
497.963	93.88
498.181	85.88
498.398	90.88
498.615	94.88
498.832	93.88
499.049	88.88
499.267	90.88
499.484	95.88
499.701	80.88
499.918	96.88
500.135	84.88
500.352	92.88
500.569	101.88
500.786	87.88
501.003	82.88
501.22	89.88
501.437	86.88
501.654	92.88
501.871	105.88
502.088	82.88
502.305	89.88
502.522	91.88
502.739	83.88
502.956	92.88
503.172	100.88
503.389	87.88
503.606	83.88
503.823	100.88
504.04	99.88
504.256	90.88
504.473	96.88
504.69	109.88
504.907	89.88
505.123	86.88
505.34	72.88
505.557	91.88
505.773	90.88
505.99	87.88
506.207	91.88
506.423	92.88
506.64	91.88
506.856	96.88
507.073	86.88
507.289	94.88
507.506	99.88
507.722	114.88
507.939	100.88
508.155	89.88
508.372	92.88
508.588	97.88
508.805	83.88
509.021	86.88
509.238	90.88
509.454	96.88
509.67	107.88
509.887	103.88
510.103	128.88
510.319	190.88
510.536	679.88
510.752	2116.88
510.968	586.88
511.184	140.88
511.401	105.88
511.617	107.88
511.833	98.88
512.049	93.88
512.265	96.88
512.481	99.88
512.698	74.88
512.914	98.88
513.13	86.88
513.346	89.88
513.562	74.88
513.778	92.88
513.994	102.88
514.21	76.88
514.426	100.88
514.642	117.88
514.858	108.88
515.074	149.88
515.29	399.88
515.506	1369.88
515.721	490.88
515.937	134.88
516.153	104.88
516.369	94.88
516.585	96.88
516.801	91.88
517.016	88.88
517.232	83.88
