Data from Uncirc_1991_H10_HRD10591_00079.txt Node
Date: Wed Jan 03 11:50:54 EST 2024
User: Yrep
Spectrometer: HR+D1059
Trigger mode: 1
Integration Time (sec): 1.000000E-1
Scans to average: 1
Electric dark correction enabled: true
Nonlinearity correction enabled: false
Boxcar width: 0
XAxis mode: Wavelengths
Number of Pixels in Spectrum: 2048
>>>>>Begin Spectral Data<<<<<
223.165	-11.19
223.4	-11.19
223.635	-11.19
223.869	-26.19
224.104	-11.19
224.338	-19.19
224.573	-27.19
224.808	-8.19
225.042	-25.19
225.277	-3.19
225.511	-2.19
225.746	0.81
225.98	2.81
226.215	24.81
226.449	20.81
226.683	25.81
226.918	22.81
227.152	35.81
227.387	37.81
227.621	37.81
227.856	31.81
228.09	54.81
228.324	58.81
228.559	64.81
228.793	59.81
229.027	58.81
229.262	74.81
229.496	81.81
229.73	92.81
229.964	82.81
230.199	61.81
230.433	70.81
230.667	75.81
230.901	79.81
231.136	82.81
231.37	85.81
231.604	85.81
231.838	67.81
232.072	74.81
232.306	87.81
232.541	79.81
232.775	74.81
233.009	97.81
233.243	77.81
233.477	74.81
233.711	77.81
233.945	82.81
234.179	76.81
234.413	83.81
234.647	71.81
234.881	69.81
235.115	84.81
235.349	56.81
235.583	75.81
235.817	68.81
236.051	91.81
236.285	85.81
236.519	78.81
236.753	81.81
236.987	77.81
237.221	89.81
237.455	91.81
237.689	69.81
237.922	91.81
238.156	81.81
238.39	84.81
238.624	78.81
238.858	87.81
239.091	58.81
239.325	68.81
239.559	74.81
239.793	73.81
240.027	76.81
240.26	84.81
240.494	60.81
240.728	90.81
240.961	62.81
241.195	83.81
241.429	73.81
241.662	66.81
241.896	79.81
242.13	68.81
242.363	94.81
242.597	65.81
242.83	81.81
243.064	69.81
243.298	74.81
243.531	73.81
243.765	91.81
243.998	82.81
244.232	84.81
244.465	87.81
244.699	81.81
244.932	76.81
245.166	86.81
245.399	74.81
245.633	68.81
245.866	66.81
246.099	77.81
246.333	70.81
246.566	73.81
246.8	79.81
247.033	75.81
247.266	80.81
247.5	76.81
247.733	78.81
247.966	86.81
248.2	91.81
248.433	59.81
248.666	85.81
248.899	63.81
249.133	85.81
249.366	101.81
249.599	92.81
249.832	84.81
250.066	81.81
250.299	79.81
250.532	71.81
250.765	73.81
250.998	78.81
251.231	84.81
251.465	73.81
251.698	78.81
251.931	78.81
252.164	84.81
252.397	80.81
252.63	85.81
252.863	69.81
253.096	88.81
253.329	86.81
253.562	72.81
253.795	77.81
254.028	75.81
254.261	80.81
254.494	91.81
254.727	79.81
254.96	84.81
255.193	73.81
255.426	64.81
255.659	76.81
255.892	74.81
256.124	91.81
256.357	79.81
256.59	85.81
256.823	74.81
257.056	83.81
257.289	87.81
257.521	79.81
257.754	82.81
257.987	99.81
258.22	78.81
258.452	73.81
258.685	81.81
258.918	89.81
259.151	70.81
259.383	81.81
259.616	74.81
259.849	86.81
260.081	92.81
260.314	105.81
260.547	83.81
260.779	83.81
261.012	92.81
261.244	81.81
261.477	97.81
261.71	80.81
261.942	106.81
262.175	115.81
262.407	98.81
262.64	75.81
262.872	77.81
263.105	73.81
263.337	79.81
263.57	78.81
263.802	80.81
264.035	95.81
264.267	79.81
264.499	84.81
264.732	86.81
264.964	78.81
265.197	81.81
265.429	74.81
265.661	84.81
265.894	89.81
266.126	80.81
266.358	79.81
266.591	87.81
266.823	86.81
267.055	78.81
267.287	89.81
267.52	91.81
267.752	80.81
267.984	77.81
268.216	90.81
268.448	103.81
268.681	94.81
268.913	89.81
269.145	80.81
269.377	98.81
269.609	80.81
269.841	95.81
270.073	80.81
270.306	89.81
270.538	87.81
270.77	69.81
271.002	88.81
271.234	85.81
271.466	83.81
271.698	91.81
271.93	89.81
272.162	89.81
272.394	94.81
272.626	98.81
272.858	80.81
273.09	85.81
273.322	97.81
273.553	75.81
273.785	63.81
274.017	65.81
274.249	82.81
274.481	82.81
274.713	91.81
274.945	86.81
275.176	93.81
275.408	91.81
275.64	69.81
275.872	75.81
276.104	80.81
276.335	84.81
276.567	87.81
276.799	103.81
277.031	99.81
277.262	100.81
277.494	82.81
277.726	87.81
277.957	78.81
278.189	82.81
278.421	83.81
278.652	89.81
278.884	88.81
279.115	87.81
279.347	85.81
279.579	79.81
279.81	91.81
280.042	80.81
280.273	93.81
280.505	96.81
280.736	99.81
280.968	79.81
281.199	81.81
281.431	83.81
281.662	83.81
281.894	88.81
282.125	89.81
282.356	121.81
282.588	158.81
282.819	112.81
283.051	95.81
283.282	93.81
283.513	92.81
283.745	92.81
283.976	85.81
284.207	90.81
284.439	86.81
284.67	96.81
284.901	97.81
285.132	83.81
285.364	89.81
285.595	89.81
285.826	89.81
286.057	76.81
286.288	84.81
286.52	84.81
286.751	90.81
286.982	79.81
287.213	90.81
287.444	94.81
287.675	99.81
287.906	75.81
288.138	88.81
288.369	85.81
288.6	89.81
288.831	89.81
289.062	94.81
289.293	81.81
289.524	90.81
289.755	93.81
289.986	80.81
290.217	94.81
290.448	100.81
290.679	95.81
290.91	95.81
291.141	90.81
291.371	95.81
291.602	79.81
291.833	79.81
292.064	82.81
292.295	102.81
292.526	85.81
292.757	87.81
292.987	94.81
293.218	78.81
293.449	70.81
293.68	87.81
293.91	80.81
294.141	83.81
294.372	87.81
294.603	84.81
294.833	82.81
295.064	78.81
295.295	83.81
295.525	90.81
295.756	106.81
295.987	114.81
296.217	126.81
296.448	129.81
296.679	92.81
296.909	85.81
297.14	86.81
297.37	100.81
297.601	85.81
297.831	89.81
298.062	93.81
298.292	82.81
298.523	99.81
298.753	87.81
298.984	82.81
299.214	101.81
299.445	99.81
299.675	99.81
299.905	83.81
300.136	79.81
300.366	92.81
300.597	75.81
300.827	98.81
301.057	103.81
301.288	103.81
301.518	84.81
301.748	90.81
301.979	94.81
302.209	99.81
302.439	89.81
302.669	86.81
302.9	94.81
303.13	92.81
303.36	97.81
303.59	96.81
303.82	111.81
304.051	94.81
304.281	99.81
304.511	73.81
304.741	80.81
304.971	85.81
305.201	92.81
305.431	107.81
305.661	88.81
305.891	85.81
306.121	90.81
306.352	95.81
306.582	102.81
306.812	101.81
307.042	89.81
307.272	90.81
307.502	86.81
307.731	103.81
307.961	93.81
308.191	87.81
308.421	100.81
308.651	97.81
308.881	88.81
309.111	96.81
309.341	96.81
309.571	110.81
309.8	99.81
310.03	91.81
310.26	90.81
310.49	90.81
310.72	99.81
310.949	105.81
311.179	95.81
311.409	98.81
311.639	100.81
311.868	97.81
312.098	110.81
312.328	95.81
312.557	102.81
312.787	106.81
313.017	95.81
313.246	86.81
313.476	86.81
313.706	99.81
313.935	90.81
314.165	100.81
314.394	96.81
314.624	97.81
314.853	89.81
315.083	92.81
315.312	99.81
315.542	95.81
315.771	86.81
316.001	87.81
316.23	94.81
316.46	98.81
316.689	95.81
316.919	103.81
317.148	107.81
317.377	105.81
317.607	95.81
317.836	101.81
318.065	85.81
318.295	79.81
318.524	81.81
318.753	103.81
318.983	94.81
319.212	100.81
319.441	117.81
319.67	99.81
319.9	98.81
320.129	93.81
320.358	91.81
320.587	95.81
320.816	95.81
321.046	108.81
321.275	96.81
321.504	104.81
321.733	109.81
321.962	101.81
322.191	104.81
322.42	110.81
322.649	111.81
322.878	110.81
323.108	113.81
323.337	130.81
323.566	142.81
323.795	169.81
324.024	230.81
324.253	460.81
324.482	1004.81
324.71	2081.81
324.939	2818.81
325.168	1005.81
325.397	283.81
325.626	164.81
325.855	144.81
326.084	123.81
326.313	147.81
326.542	158.81
326.77	257.81
326.999	533.81
327.228	1095.81
327.457	2132.81
327.686	1705.81
327.914	419.81
328.143	226.81
328.372	145.81
328.6	125.81
328.829	119.81
329.058	149.81
329.287	153.81
329.515	109.81
329.744	100.81
329.972	106.81
330.201	107.81
330.43	110.81
330.658	129.81
330.887	155.81
331.115	130.81
331.344	94.81
331.572	108.81
331.801	119.81
332.03	103.81
332.258	101.81
332.486	91.81
332.715	98.81
332.943	100.81
333.172	106.81
333.4	94.81
333.629	116.81
333.857	109.81
334.085	99.81
334.314	102.81
334.542	108.81
334.771	102.81
334.999	96.81
335.227	90.81
335.455	84.81
335.684	91.81
335.912	92.81
336.14	97.81
336.369	104.81
336.597	103.81
336.825	107.81
337.053	97.81
337.281	93.81
337.51	88.81
337.738	110.81
337.966	97.81
338.194	96.81
338.422	92.81
338.65	94.81
338.878	100.81
339.106	92.81
339.334	102.81
339.562	106.81
339.79	101.81
340.018	93.81
340.246	95.81
340.474	91.81
340.702	86.81
340.93	107.81
341.158	88.81
341.386	111.81
341.614	115.81
341.842	107.81
342.07	96.81
342.298	87.81
342.526	87.81
342.754	87.81
342.981	100.81
343.209	83.81
343.437	107.81
343.665	73.81
343.893	82.81
344.12	108.81
344.348	89.81
344.576	90.81
344.804	97.81
345.031	106.81
345.259	103.81
345.487	110.81
345.714	96.81
345.942	90.81
346.17	85.81
346.397	101.81
346.625	90.81
346.853	90.81
347.08	94.81
347.308	101.81
347.535	104.81
347.763	108.81
347.99	96.81
348.218	103.81
348.445	102.81
348.673	94.81
348.9	108.81
349.128	93.81
349.355	85.81
349.583	94.81
349.81	85.81
350.037	97.81
350.265	102.81
350.492	104.81
350.72	89.81
350.947	108.81
351.174	107.81
351.402	116.81
351.629	100.81
351.856	111.81
352.083	107.81
352.311	109.81
352.538	123.81
352.765	105.81
352.992	109.81
353.22	118.81
353.447	95.81
353.674	110.81
353.901	105.81
354.128	117.81
354.355	88.81
354.583	82.81
354.81	100.81
355.037	84.81
355.264	94.81
355.491	93.81
355.718	91.81
355.945	94.81
356.172	91.81
356.399	100.81
356.626	88.81
356.853	85.81
357.08	86.81
357.307	90.81
357.534	97.81
357.761	102.81
357.988	96.81
358.215	92.81
358.441	100.81
358.668	108.81
358.895	88.81
359.122	83.81
359.349	98.81
359.576	83.81
359.802	102.81
360.029	121.81
360.256	110.81
360.483	108.81
360.709	96.81
360.936	97.81
361.163	98.81
361.39	88.81
361.616	92.81
361.843	85.81
362.07	98.81
362.296	95.81
362.523	90.81
362.749	79.81
362.976	86.81
363.203	93.81
363.429	89.81
363.656	103.81
363.882	88.81
364.109	102.81
364.335	81.81
364.562	91.81
364.788	87.81
365.015	94.81
365.241	97.81
365.468	105.81
365.694	102.81
365.92	93.81
366.147	94.81
366.373	96.81
366.599	96.81
366.826	85.81
367.052	89.81
367.278	94.81
367.505	94.81
367.731	97.81
367.957	98.81
368.184	88.81
368.41	118.81
368.636	114.81
368.862	126.81
369.089	113.81
369.315	96.81
369.541	103.81
369.767	85.81
369.993	93.81
370.219	94.81
370.445	91.81
370.672	95.81
370.898	92.81
371.124	90.81
371.35	83.81
371.576	93.81
371.802	90.81
372.028	80.81
372.254	99.81
372.48	106.81
372.706	81.81
372.932	81.81
373.158	88.81
373.384	85.81
373.61	86.81
373.835	81.81
374.061	87.81
374.287	97.81
374.513	85.81
374.739	83.81
374.965	90.81
375.191	94.81
375.416	98.81
375.642	78.81
375.868	85.81
376.094	96.81
376.319	94.81
376.545	95.81
376.771	95.81
376.997	107.81
377.222	87.81
377.448	94.81
377.674	97.81
377.899	94.81
378.125	92.81
378.35	94.81
378.576	94.81
378.802	102.81
379.027	100.81
379.253	91.81
379.478	90.81
379.704	98.81
379.929	93.81
380.155	86.81
380.38	95.81
380.606	98.81
380.831	83.81
381.057	102.81
381.282	90.81
381.507	95.81
381.733	96.81
381.958	80.81
382.184	86.81
382.409	98.81
382.634	94.81
382.86	101.81
383.085	100.81
383.31	102.81
383.535	97.81
383.761	94.81
383.986	75.81
384.211	95.81
384.436	85.81
384.662	99.81
384.887	91.81
385.112	105.81
385.337	100.81
385.562	83.81
385.787	102.81
386.013	117.81
386.238	115.81
386.463	105.81
386.688	111.81
386.913	93.81
387.138	102.81
387.363	95.81
387.588	98.81
387.813	95.81
388.038	113.81
388.263	102.81
388.488	99.81
388.713	99.81
388.938	96.81
389.163	95.81
389.387	105.81
389.612	93.81
389.837	91.81
390.062	99.81
390.287	106.81
390.512	83.81
390.736	89.81
390.961	100.81
391.186	89.81
391.411	96.81
391.636	76.81
391.86	85.81
392.085	92.81
392.31	81.81
392.534	84.81
392.759	99.81
392.984	101.81
393.208	89.81
393.433	89.81
393.658	94.81
393.882	75.81
394.107	91.81
394.331	97.81
394.556	99.81
394.78	92.81
395.005	95.81
395.229	95.81
395.454	83.81
395.678	89.81
395.903	81.81
396.127	77.81
396.352	87.81
396.576	83.81
396.801	91.81
397.025	95.81
397.249	76.81
397.474	95.81
397.698	82.81
397.922	81.81
398.147	95.81
398.371	98.81
398.595	77.81
398.82	81.81
399.044	85.81
399.268	101.81
399.492	80.81
399.717	96.81
399.941	82.81
400.165	95.81
400.389	97.81
400.613	85.81
400.837	103.81
401.062	94.81
401.286	102.81
401.51	92.81
401.734	90.81
401.958	107.81
402.182	137.81
402.406	173.81
402.63	115.81
402.854	88.81
403.078	114.81
403.302	89.81
403.526	91.81
403.75	92.81
403.974	89.81
404.198	89.81
404.422	86.81
404.645	87.81
404.869	92.81
405.093	86.81
405.317	109.81
405.541	106.81
405.765	88.81
405.988	122.81
406.212	178.81
406.436	246.81
406.66	158.81
406.883	106.81
407.107	98.81
407.331	101.81
407.555	106.81
407.778	102.81
408.002	97.81
408.226	92.81
408.449	89.81
408.673	97.81
408.896	87.81
409.12	105.81
409.344	89.81
409.567	99.81
409.791	89.81
410.014	101.81
410.238	106.81
410.461	82.81
410.685	100.81
410.908	94.81
411.132	114.81
411.355	98.81
411.578	97.81
411.802	97.81
412.025	91.81
412.249	89.81
412.472	94.81
412.695	98.81
412.919	103.81
413.142	94.81
413.365	77.81
413.589	90.81
413.812	90.81
414.035	86.81
414.258	88.81
414.482	92.81
414.705	84.81
414.928	86.81
415.151	88.81
415.374	79.81
415.597	83.81
415.821	104.81
416.044	82.81
416.267	95.81
416.49	81.81
416.713	82.81
416.936	92.81
417.159	87.81
417.382	81.81
417.605	68.81
417.828	91.81
418.051	93.81
418.274	95.81
418.497	78.81
418.72	85.81
418.943	83.81
419.166	97.81
419.389	92.81
419.611	90.81
419.834	75.81
420.057	90.81
420.28	78.81
420.503	82.81
420.726	91.81
420.948	92.81
421.171	101.81
421.394	95.81
421.617	88.81
421.839	99.81
422.062	101.81
422.285	111.81
422.507	110.81
422.73	114.81
422.953	100.81
423.175	107.81
423.398	94.81
423.621	83.81
423.843	98.81
424.066	94.81
424.288	98.81
424.511	91.81
424.733	100.81
424.956	123.81
425.178	104.81
425.401	106.81
425.623	97.81
425.846	94.81
426.068	104.81
426.291	84.81
426.513	81.81
426.735	91.81
426.958	99.81
427.18	113.81
427.402	157.81
427.625	211.81
427.847	148.81
428.069	111.81
428.292	87.81
428.514	65.81
428.736	99.81
428.958	79.81
429.181	88.81
429.403	99.81
429.625	95.81
429.847	88.81
430.069	125.81
430.292	97.81
430.514	78.81
430.736	82.81
430.958	63.81
431.18	75.81
431.402	82.81
431.624	88.81
431.846	79.81
432.068	86.81
432.29	77.81
432.512	90.81
432.734	86.81
432.956	86.81
433.178	99.81
433.4	108.81
433.622	101.81
433.844	86.81
434.066	94.81
434.287	92.81
434.509	81.81
434.731	90.81
434.953	88.81
435.175	85.81
435.397	93.81
435.618	115.81
435.84	111.81
436.062	160.81
436.284	134.81
436.505	96.81
436.727	118.81
436.949	95.81
437.17	92.81
437.392	80.81
437.614	80.81
437.835	111.81
438.057	127.81
438.278	128.81
438.5	116.81
438.721	143.81
438.943	122.81
439.165	95.81
439.386	87.81
439.608	79.81
439.829	91.81
440.05	139.81
440.272	163.81
440.493	90.81
440.715	93.81
440.936	78.81
441.158	75.81
441.379	81.81
441.6	102.81
441.822	105.81
442.043	101.81
442.264	122.81
442.486	118.81
442.707	94.81
442.928	121.81
443.149	161.81
443.371	148.81
443.592	126.81
443.813	132.81
444.034	115.81
444.255	91.81
444.476	93.81
444.698	77.81
444.919	95.81
445.14	118.81
445.361	116.81
445.582	125.81
445.803	164.81
446.024	166.81
446.245	157.81
446.466	117.81
446.687	79.81
446.908	89.81
447.129	97.81
447.35	107.81
447.571	85.81
447.792	98.81
448.013	110.81
448.234	107.81
448.455	105.81
448.675	131.81
448.896	141.81
449.117	106.81
449.338	110.81
449.559	153.81
449.779	140.81
450	102.81
450.221	95.81
450.442	83.81
450.662	86.81
450.883	114.81
451.104	107.81
451.324	82.81
451.545	85.81
451.766	89.81
451.986	86.81
452.207	91.81
452.428	89.81
452.648	77.81
452.869	121.81
453.089	106.81
453.31	115.81
453.53	94.81
453.751	100.81
453.971	95.81
454.192	119.81
454.412	99.81
454.633	74.81
454.853	91.81
455.073	96.81
455.294	87.81
455.514	98.81
455.734	92.81
455.955	70.81
456.175	80.81
456.395	70.81
456.616	89.81
456.836	90.81
457.056	98.81
457.276	86.81
457.497	84.81
457.717	96.81
457.937	71.81
458.157	77.81
458.377	102.81
458.598	115.81
458.818	167.81
459.038	177.81
459.258	132.81
459.478	91.81
459.698	80.81
459.918	103.81
460.138	86.81
460.358	84.81
460.578	96.81
460.798	104.81
461.018	86.81
461.238	81.81
461.458	90.81
461.678	92.81
461.898	98.81
462.118	73.81
462.338	79.81
462.558	83.81
462.777	79.81
462.997	75.81
463.217	89.81
463.437	96.81
463.657	70.81
463.876	76.81
464.096	86.81
464.316	81.81
464.536	95.81
464.755	106.81
464.975	108.81
465.195	190.81
465.414	184.81
465.634	106.81
465.854	87.81
466.073	86.81
466.293	79.81
466.512	86.81
466.732	87.81
466.951	90.81
467.171	89.81
467.391	94.81
467.61	113.81
467.829	103.81
468.049	82.81
468.268	85.81
468.488	85.81
468.707	73.81
468.927	73.81
469.146	80.81
469.365	87.81
469.585	84.81
469.804	87.81
470.023	71.81
470.243	89.81
470.462	111.81
470.681	118.81
470.901	95.81
471.12	87.81
471.339	83.81
471.558	92.81
471.777	76.81
471.997	79.81
472.216	84.81
472.435	96.81
472.654	85.81
472.873	87.81
473.092	85.81
473.311	93.81
473.53	78.81
473.749	74.81
473.968	111.81
474.187	116.81
474.406	107.81
474.625	87.81
474.844	89.81
475.063	91.81
475.282	83.81
475.501	103.81
475.72	85.81
475.939	76.81
476.158	73.81
476.377	84.81
476.596	78.81
476.814	91.81
477.033	84.81
477.252	97.81
477.471	96.81
477.69	88.81
477.908	96.81
478.127	94.81
478.346	97.81
478.564	85.81
478.783	91.81
479.002	66.81
479.22	92.81
479.439	118.81
479.658	106.81
479.876	100.81
480.095	92.81
480.313	101.81
480.532	100.81
480.751	81.81
480.969	95.81
481.188	94.81
481.406	116.81
481.624	86.81
481.843	89.81
482.061	93.81
482.28	97.81
482.498	85.81
482.717	101.81
482.935	87.81
483.153	90.81
483.372	83.81
483.59	91.81
483.808	83.81
484.027	98.81
484.245	95.81
484.463	90.81
484.681	96.81
484.9	82.81
485.118	96.81
485.336	88.81
485.554	100.81
485.772	102.81
485.99	95.81
486.209	109.81
486.427	94.81
486.645	99.81
486.863	121.81
487.081	93.81
487.299	79.81
487.517	100.81
487.735	89.81
487.953	87.81
488.171	85.81
488.389	101.81
488.607	104.81
488.825	87.81
489.043	86.81
489.261	86.81
489.479	94.81
489.696	89.81
489.914	93.81
490.132	85.81
490.35	101.81
490.568	91.81
490.786	75.81
491.003	92.81
491.221	92.81
491.439	84.81
491.657	93.81
491.874	89.81
492.092	91.81
492.31	94.81
492.527	85.81
492.745	93.81
492.963	87.81
493.18	78.81
493.398	80.81
493.615	94.81
493.833	76.81
494.05	84.81
494.268	95.81
494.485	88.81
494.703	99.81
494.92	83.81
495.138	81.81
495.355	92.81
495.573	97.81
495.79	81.81
496.008	89.81
496.225	98.81
496.442	81.81
496.66	85.81
496.877	81.81
497.094	82.81
497.312	79.81
497.529	80.81
497.746	83.81
497.963	85.81
498.181	91.81
498.398	95.81
498.615	115.81
498.832	108.81
499.049	103.81
499.267	78.81
499.484	86.81
499.701	101.81
499.918	86.81
500.135	90.81
500.352	87.81
500.569	83.81
500.786	87.81
501.003	106.81
501.22	89.81
501.437	99.81
501.654	96.81
501.871	99.81
502.088	109.81
502.305	97.81
502.522	90.81
502.739	85.81
502.956	93.81
503.172	82.81
503.389	93.81
503.606	99.81
503.823	101.81
504.04	88.81
504.256	80.81
504.473	71.81
504.69	89.81
504.907	94.81
505.123	86.81
505.34	93.81
505.557	92.81
505.773	91.81
505.99	82.81
506.207	79.81
506.423	89.81
506.64	82.81
506.856	76.81
507.073	87.81
507.289	90.81
507.506	99.81
507.722	113.81
507.939	114.81
508.155	95.81
508.372	86.81
508.588	83.81
508.805	93.81
509.021	93.81
509.238	95.81
509.454	93.81
509.67	95.81
509.887	110.81
510.103	130.81
510.319	218.81
510.536	818.81
510.752	2603.81
510.968	727.81
511.184	163.81
511.401	112.81
511.617	115.81
511.833	98.81
512.049	93.81
512.265	91.81
512.481	92.81
512.698	84.81
512.914	100.81
513.13	92.81
513.346	106.81
513.562	92.81
513.778	105.81
513.994	99.81
514.21	94.81
514.426	117.81
514.642	140.81
514.858	125.81
515.074	168.81
515.29	535.81
