Data from Uncirc_1991_H10_HRD10591_00018.txt Node
Date: Wed Jan 03 11:50:41 EST 2024
User: Yrep
Spectrometer: HR+D1059
Trigger mode: 1
Integration Time (sec): 1.000000E-1
Scans to average: 1
Electric dark correction enabled: true
Nonlinearity correction enabled: false
Boxcar width: 0
XAxis mode: Wavelengths
Number of Pixels in Spectrum: 2048
>>>>>Begin Spectral Data<<<<<
223.165	-22.25
223.4	-22.25
223.635	-22.25
223.869	-29.25
224.104	-18.25
224.338	-10.25
224.573	-5.25
224.808	-6.25
225.042	-3.25
225.277	-15.25
225.511	-7.25
225.746	6.75
225.98	22.75
226.215	24.75
226.449	-0.25
226.683	15.75
226.918	22.75
227.152	24.75
227.387	35.75
227.621	33.75
227.856	44.75
228.09	34.75
228.324	54.75
228.559	58.75
228.793	62.75
229.027	63.75
229.262	67.75
229.496	68.75
229.73	72.75
229.964	72.75
230.199	71.75
230.433	85.75
230.667	78.75
230.901	76.75
231.136	72.75
231.37	83.75
231.604	77.75
231.838	73.75
232.072	80.75
232.306	72.75
232.541	87.75
232.775	66.75
233.009	68.75
233.243	81.75
233.477	86.75
233.711	84.75
233.945	87.75
234.179	74.75
234.413	68.75
234.647	76.75
234.881	89.75
235.115	76.75
235.349	83.75
235.583	81.75
235.817	76.75
236.051	62.75
236.285	82.75
236.519	80.75
236.753	78.75
236.987	86.75
237.221	74.75
237.455	84.75
237.689	79.75
237.922	73.75
238.156	67.75
238.39	72.75
238.624	75.75
238.858	84.75
239.091	71.75
239.325	64.75
239.559	74.75
239.793	66.75
240.027	78.75
240.26	82.75
240.494	83.75
240.728	77.75
240.961	80.75
241.195	86.75
241.429	70.75
241.662	72.75
241.896	65.75
242.13	74.75
242.363	78.75
242.597	76.75
242.83	57.75
243.064	73.75
243.298	82.75
243.531	64.75
243.765	76.75
243.998	83.75
244.232	70.75
244.465	72.75
244.699	71.75
244.932	81.75
245.166	71.75
245.399	58.75
245.633	76.75
245.866	79.75
246.099	68.75
246.333	67.75
246.566	76.75
246.8	58.75
247.033	72.75
247.266	81.75
247.5	84.75
247.733	82.75
247.966	81.75
248.2	81.75
248.433	68.75
248.666	82.75
248.899	81.75
249.133	81.75
249.366	92.75
249.599	91.75
249.832	73.75
250.066	80.75
250.299	66.75
250.532	70.75
250.765	83.75
250.998	77.75
251.231	71.75
251.465	83.75
251.698	81.75
251.931	71.75
252.164	70.75
252.397	77.75
252.63	76.75
252.863	80.75
253.096	81.75
253.329	65.75
253.562	77.75
253.795	79.75
254.028	78.75
254.261	80.75
254.494	64.75
254.727	72.75
254.96	80.75
255.193	67.75
255.426	71.75
255.659	84.75
255.892	83.75
256.124	66.75
256.357	81.75
256.59	70.75
256.823	80.75
257.056	55.75
257.289	78.75
257.521	75.75
257.754	73.75
257.987	75.75
258.22	71.75
258.452	80.75
258.685	83.75
258.918	83.75
259.151	80.75
259.383	76.75
259.616	76.75
259.849	81.75
260.081	81.75
260.314	75.75
260.547	85.75
260.779	102.75
261.012	82.75
261.244	88.75
261.477	86.75
261.71	88.75
261.942	100.75
262.175	99.75
262.407	90.75
262.64	78.75
262.872	83.75
263.105	86.75
263.337	87.75
263.57	96.75
263.802	76.75
264.035	81.75
264.267	95.75
264.499	89.75
264.732	79.75
264.964	76.75
265.197	65.75
265.429	84.75
265.661	70.75
265.894	90.75
266.126	83.75
266.358	79.75
266.591	100.75
266.823	72.75
267.055	75.75
267.287	94.75
267.52	84.75
267.752	92.75
267.984	91.75
268.216	84.75
268.448	80.75
268.681	79.75
268.913	94.75
269.145	79.75
269.377	79.75
269.609	74.75
269.841	86.75
270.073	81.75
270.306	89.75
270.538	84.75
270.77	76.75
271.002	88.75
271.234	76.75
271.466	81.75
271.698	88.75
271.93	90.75
272.162	81.75
272.394	90.75
272.626	87.75
272.858	86.75
273.09	76.75
273.322	76.75
273.553	86.75
273.785	90.75
274.017	76.75
274.249	74.75
274.481	70.75
274.713	83.75
274.945	79.75
275.176	71.75
275.408	95.75
275.64	89.75
275.872	88.75
276.104	93.75
276.335	83.75
276.567	81.75
276.799	98.75
277.031	75.75
277.262	80.75
277.494	74.75
277.726	80.75
277.957	74.75
278.189	74.75
278.421	83.75
278.652	79.75
278.884	88.75
279.115	91.75
279.347	79.75
279.579	78.75
279.81	74.75
280.042	90.75
280.273	78.75
280.505	76.75
280.736	87.75
280.968	99.75
281.199	91.75
281.431	82.75
281.662	67.75
281.894	78.75
282.125	106.75
282.356	98.75
282.588	115.75
282.819	97.75
283.051	74.75
283.282	92.75
283.513	90.75
283.745	94.75
283.976	76.75
284.207	72.75
284.439	71.75
284.67	85.75
284.901	82.75
285.132	73.75
285.364	67.75
285.595	73.75
285.826	73.75
286.057	95.75
286.288	75.75
286.52	74.75
286.751	79.75
286.982	71.75
287.213	78.75
287.444	84.75
287.675	77.75
287.906	88.75
288.138	81.75
288.369	82.75
288.6	98.75
288.831	62.75
289.062	70.75
289.293	78.75
289.524	66.75
289.755	82.75
289.986	81.75
290.217	86.75
290.448	86.75
290.679	85.75
290.91	92.75
291.141	90.75
291.371	84.75
291.602	92.75
291.833	75.75
292.064	84.75
292.295	75.75
292.526	82.75
292.757	98.75
292.987	98.75
293.218	104.75
293.449	100.75
293.68	95.75
293.91	80.75
294.141	91.75
294.372	76.75
294.603	89.75
294.833	109.75
295.064	98.75
295.295	94.75
295.525	84.75
295.756	95.75
295.987	108.75
296.217	120.75
296.448	98.75
296.679	88.75
296.909	81.75
297.14	83.75
297.37	81.75
297.601	90.75
297.831	77.75
298.062	72.75
298.292	75.75
298.523	65.75
298.753	88.75
298.984	86.75
299.214	90.75
299.445	90.75
299.675	87.75
299.905	79.75
300.136	82.75
300.366	76.75
300.597	84.75
300.827	87.75
301.057	89.75
301.288	100.75
301.518	95.75
301.748	76.75
301.979	82.75
302.209	75.75
302.439	93.75
302.669	81.75
302.9	98.75
303.13	87.75
303.36	78.75
303.59	88.75
303.82	96.75
304.051	78.75
304.281	83.75
304.511	100.75
304.741	81.75
304.971	84.75
305.201	83.75
305.431	88.75
305.661	84.75
305.891	83.75
306.121	93.75
306.352	91.75
306.582	82.75
306.812	71.75
307.042	82.75
307.272	78.75
307.502	92.75
307.731	83.75
307.961	98.75
308.191	72.75
308.421	86.75
308.651	84.75
308.881	81.75
309.111	84.75
309.341	74.75
309.571	92.75
309.8	81.75
310.03	101.75
310.26	91.75
310.49	110.75
310.72	96.75
310.949	99.75
311.179	92.75
311.409	91.75
311.639	84.75
311.868	92.75
312.098	92.75
312.328	86.75
312.557	106.75
312.787	94.75
313.017	94.75
313.246	95.75
313.476	97.75
313.706	76.75
313.935	106.75
314.165	93.75
314.394	102.75
314.624	98.75
314.853	90.75
315.083	82.75
315.312	67.75
315.542	88.75
315.771	86.75
316.001	88.75
316.23	97.75
316.46	94.75
316.689	87.75
316.919	85.75
317.148	76.75
317.377	84.75
317.607	92.75
317.836	93.75
318.065	86.75
318.295	92.75
318.524	72.75
318.753	96.75
318.983	81.75
319.212	87.75
319.441	100.75
319.67	108.75
319.9	90.75
320.129	86.75
320.358	99.75
320.587	92.75
320.816	81.75
321.046	95.75
321.275	98.75
321.504	109.75
321.733	89.75
321.962	89.75
322.191	93.75
322.42	106.75
322.649	112.75
322.878	103.75
323.108	96.75
323.337	114.75
323.566	130.75
323.795	144.75
324.024	196.75
324.253	367.75
324.482	774.75
324.71	1590.75
324.939	2152.75
325.168	769.75
325.397	235.75
325.626	144.75
325.855	118.75
326.084	119.75
326.313	127.75
326.542	144.75
326.77	206.75
326.999	419.75
327.228	881.75
327.457	1630.75
327.686	1296.75
327.914	335.75
328.143	172.75
328.372	141.75
328.6	98.75
328.829	92.75
329.058	109.75
329.287	111.75
329.515	89.75
329.744	109.75
329.972	100.75
330.201	93.75
330.43	105.75
330.658	98.75
330.887	118.75
331.115	110.75
331.344	90.75
331.572	91.75
331.801	106.75
332.03	100.75
332.258	102.75
332.486	84.75
332.715	80.75
332.943	94.75
333.172	89.75
333.4	84.75
333.629	99.75
333.857	106.75
334.085	105.75
334.314	88.75
334.542	82.75
334.771	104.75
334.999	94.75
335.227	102.75
335.455	96.75
335.684	83.75
335.912	92.75
336.14	78.75
336.369	87.75
336.597	101.75
336.825	90.75
337.053	91.75
337.281	95.75
337.51	94.75
337.738	94.75
337.966	68.75
338.194	86.75
338.422	83.75
338.65	82.75
338.878	94.75
339.106	88.75
339.334	89.75
339.562	96.75
339.79	81.75
340.018	94.75
340.246	92.75
340.474	100.75
340.702	94.75
340.93	76.75
341.158	84.75
341.386	87.75
341.614	91.75
341.842	89.75
342.07	100.75
342.298	84.75
342.526	90.75
342.754	71.75
342.981	97.75
343.209	83.75
343.437	101.75
343.665	84.75
343.893	90.75
344.12	92.75
344.348	87.75
344.576	77.75
344.804	78.75
345.031	89.75
345.259	77.75
345.487	99.75
345.714	87.75
345.942	108.75
346.17	85.75
346.397	80.75
346.625	90.75
346.853	84.75
347.08	77.75
347.308	81.75
347.535	99.75
347.763	94.75
347.99	83.75
348.218	88.75
348.445	105.75
348.673	82.75
348.9	77.75
349.128	92.75
349.355	103.75
349.583	92.75
349.81	94.75
350.037	90.75
350.265	90.75
350.492	88.75
350.72	85.75
350.947	82.75
351.174	91.75
351.402	105.75
351.629	99.75
351.856	96.75
352.083	92.75
352.311	99.75
352.538	103.75
352.765	90.75
352.992	108.75
353.22	93.75
353.447	91.75
353.674	94.75
353.901	86.75
354.128	90.75
354.355	94.75
354.583	91.75
354.81	99.75
355.037	91.75
355.264	90.75
355.491	86.75
355.718	93.75
355.945	90.75
356.172	72.75
356.399	96.75
356.626	86.75
356.853	91.75
357.08	86.75
357.307	98.75
357.534	89.75
357.761	106.75
357.988	95.75
358.215	96.75
358.441	97.75
358.668	92.75
358.895	81.75
359.122	76.75
359.349	78.75
359.576	87.75
359.802	84.75
360.029	101.75
360.256	97.75
360.483	104.75
360.709	80.75
360.936	89.75
361.163	88.75
361.39	78.75
361.616	82.75
361.843	88.75
362.07	98.75
362.296	83.75
362.523	83.75
362.749	90.75
362.976	78.75
363.203	83.75
363.429	70.75
363.656	86.75
363.882	64.75
364.109	83.75
364.335	73.75
364.562	83.75
364.788	86.75
365.015	102.75
365.241	100.75
365.468	94.75
365.694	98.75
365.92	81.75
366.147	87.75
366.373	98.75
366.599	78.75
366.826	84.75
367.052	92.75
367.278	93.75
367.505	95.75
367.731	97.75
367.957	92.75
368.184	98.75
368.41	95.75
368.636	96.75
368.862	107.75
369.089	94.75
369.315	87.75
369.541	85.75
369.767	84.75
369.993	77.75
370.219	94.75
370.445	76.75
370.672	76.75
370.898	86.75
371.124	82.75
371.35	88.75
371.576	70.75
371.802	91.75
372.028	78.75
372.254	89.75
372.48	90.75
372.706	80.75
372.932	96.75
373.158	92.75
373.384	91.75
373.61	96.75
373.835	88.75
374.061	94.75
374.287	76.75
374.513	84.75
374.739	91.75
374.965	84.75
375.191	87.75
375.416	74.75
375.642	80.75
375.868	84.75
376.094	96.75
376.319	72.75
376.545	90.75
376.771	86.75
376.997	88.75
377.222	87.75
377.448	103.75
377.674	88.75
377.899	89.75
378.125	83.75
378.35	80.75
378.576	83.75
378.802	83.75
379.027	85.75
379.253	88.75
379.478	81.75
379.704	91.75
379.929	81.75
380.155	84.75
380.38	83.75
380.606	90.75
380.831	96.75
381.057	94.75
381.282	81.75
381.507	84.75
381.733	105.75
381.958	95.75
382.184	91.75
382.409	89.75
382.634	83.75
382.86	91.75
383.085	92.75
383.31	104.75
383.535	102.75
383.761	92.75
383.986	91.75
384.211	96.75
384.436	87.75
384.662	100.75
384.887	96.75
385.112	106.75
385.337	105.75
385.562	106.75
385.787	87.75
386.013	99.75
386.238	96.75
386.463	91.75
386.688	98.75
386.913	91.75
387.138	79.75
387.363	80.75
387.588	102.75
387.813	91.75
388.038	100.75
388.263	96.75
388.488	81.75
388.713	91.75
388.938	105.75
389.163	95.75
389.387	90.75
389.612	98.75
389.837	87.75
390.062	94.75
390.287	89.75
390.512	89.75
390.736	93.75
390.961	89.75
391.186	107.75
391.411	96.75
391.636	93.75
391.86	97.75
392.085	79.75
392.31	74.75
392.534	76.75
392.759	67.75
392.984	82.75
393.208	71.75
393.433	82.75
393.658	71.75
393.882	95.75
394.107	95.75
394.331	84.75
394.556	86.75
394.78	82.75
395.005	84.75
395.229	79.75
395.454	86.75
395.678	87.75
395.903	93.75
396.127	74.75
396.352	89.75
396.576	90.75
396.801	90.75
397.025	94.75
397.249	66.75
397.474	79.75
397.698	84.75
397.922	91.75
398.147	95.75
398.371	92.75
398.595	75.75
398.82	72.75
399.044	93.75
399.268	82.75
399.492	85.75
399.717	68.75
399.941	86.75
400.165	82.75
400.389	89.75
400.613	85.75
400.837	80.75
401.062	74.75
401.286	88.75
401.51	94.75
401.734	84.75
401.958	94.75
402.182	106.75
402.406	143.75
402.63	112.75
402.854	79.75
403.078	82.75
403.302	73.75
403.526	87.75
403.75	87.75
403.974	77.75
404.198	81.75
404.422	98.75
404.645	87.75
404.869	86.75
405.093	85.75
405.317	88.75
405.541	87.75
405.765	90.75
405.988	113.75
406.212	164.75
406.436	190.75
406.66	131.75
406.883	81.75
407.107	86.75
407.331	90.75
407.555	91.75
407.778	96.75
408.002	72.75
408.226	87.75
408.449	75.75
408.673	79.75
408.896	89.75
409.12	100.75
409.344	96.75
409.567	88.75
409.791	81.75
410.014	87.75
410.238	84.75
410.461	74.75
410.685	81.75
410.908	86.75
411.132	84.75
411.355	87.75
411.578	83.75
411.802	79.75
412.025	71.75
412.249	80.75
412.472	80.75
412.695	88.75
412.919	92.75
413.142	78.75
413.365	91.75
413.589	91.75
413.812	87.75
414.035	90.75
414.258	86.75
414.482	83.75
414.705	75.75
414.928	85.75
415.151	75.75
415.374	86.75
415.597	85.75
415.821	76.75
416.044	83.75
416.267	89.75
416.49	86.75
416.713	84.75
416.936	80.75
417.159	77.75
417.382	87.75
417.605	74.75
417.828	85.75
418.051	79.75
418.274	76.75
418.497	79.75
418.72	92.75
418.943	102.75
419.166	86.75
419.389	93.75
419.611	95.75
419.834	92.75
420.057	89.75
420.28	87.75
420.503	71.75
420.726	91.75
420.948	81.75
421.171	98.75
421.394	82.75
421.617	72.75
421.839	73.75
422.062	100.75
422.285	87.75
422.507	96.75
422.73	98.75
422.953	101.75
423.175	80.75
423.398	80.75
423.621	83.75
423.843	97.75
424.066	72.75
424.288	82.75
424.511	75.75
424.733	95.75
424.956	94.75
425.178	102.75
425.401	87.75
425.623	99.75
425.846	87.75
426.068	83.75
426.291	81.75
426.513	83.75
426.735	75.75
426.958	83.75
427.18	80.75
427.402	130.75
427.625	144.75
427.847	115.75
428.069	102.75
428.292	84.75
428.514	72.75
428.736	77.75
428.958	87.75
429.181	87.75
429.403	89.75
429.625	81.75
429.847	84.75
430.069	78.75
430.292	95.75
430.514	73.75
430.736	83.75
430.958	71.75
431.18	68.75
431.402	80.75
431.624	92.75
431.846	81.75
432.068	66.75
432.29	76.75
432.512	87.75
432.734	78.75
432.956	88.75
433.178	96.75
433.4	81.75
433.622	86.75
433.844	86.75
434.066	85.75
434.287	98.75
434.509	96.75
434.731	96.75
434.953	83.75
435.175	71.75
435.397	71.75
435.618	86.75
435.84	90.75
436.062	126.75
436.284	115.75
436.505	90.75
436.727	101.75
436.949	98.75
437.17	85.75
437.392	76.75
437.614	78.75
437.835	90.75
438.057	105.75
438.278	104.75
438.5	95.75
438.721	119.75
438.943	115.75
439.165	86.75
439.386	82.75
439.608	98.75
439.829	92.75
440.05	118.75
440.272	121.75
440.493	96.75
440.715	95.75
440.936	82.75
441.158	80.75
441.379	76.75
441.6	84.75
441.822	94.75
442.043	82.75
442.264	90.75
442.486	90.75
442.707	97.75
442.928	100.75
443.149	114.75
443.371	116.75
443.592	97.75
443.813	98.75
444.034	101.75
444.255	86.75
444.476	81.75
444.698	75.75
444.919	91.75
445.14	120.75
445.361	108.75
445.582	121.75
445.803	129.75
446.024	124.75
446.245	115.75
446.466	104.75
446.687	95.75
446.908	81.75
447.129	89.75
447.35	86.75
447.571	80.75
447.792	70.75
448.013	92.75
448.234	104.75
448.455	86.75
448.675	111.75
448.896	107.75
449.117	93.75
449.338	86.75
449.559	121.75
449.779	127.75
450	85.75
450.221	87.75
450.442	75.75
450.662	83.75
450.883	87.75
451.104	105.75
451.324	82.75
451.545	78.75
451.766	76.75
451.986	82.75
452.207	81.75
452.428	98.75
452.648	91.75
452.869	93.75
453.089	105.75
453.31	110.75
453.53	97.75
453.751	76.75
453.971	102.75
454.192	105.75
454.412	89.75
454.633	90.75
454.853	87.75
455.073	72.75
455.294	90.75
455.514	106.75
455.734	83.75
455.955	82.75
456.175	80.75
456.395	85.75
456.616	81.75
456.836	81.75
457.056	86.75
457.276	78.75
457.497	75.75
457.717	81.75
457.937	67.75
458.157	75.75
458.377	79.75
458.598	104.75
458.818	112.75
459.038	138.75
459.258	112.75
459.478	73.75
459.698	84.75
459.918	93.75
460.138	75.75
460.358	78.75
460.578	82.75
460.798	85.75
461.018	87.75
461.238	89.75
461.458	71.75
461.678	83.75
461.898	71.75
462.118	67.75
462.338	71.75
462.558	85.75
462.777	91.75
462.997	80.75
463.217	88.75
463.437	80.75
463.657	76.75
463.876	105.75
464.096	78.75
464.316	83.75
464.536	90.75
464.755	90.75
464.975	97.75
465.195	136.75
465.414	130.75
465.634	91.75
465.854	87.75
466.073	73.75
466.293	94.75
466.512	89.75
466.732	61.75
466.951	72.75
467.171	99.75
467.391	93.75
467.61	90.75
467.829	79.75
468.049	83.75
468.268	83.75
468.488	102.75
468.707	81.75
468.927	91.75
469.146	82.75
469.365	76.75
469.585	88.75
469.804	93.75
470.023	90.75
470.243	91.75
470.462	86.75
470.681	94.75
470.901	90.75
471.12	92.75
471.339	88.75
471.558	80.75
471.777	72.75
471.997	71.75
472.216	67.75
472.435	98.75
472.654	86.75
472.873	83.75
473.092	75.75
473.311	80.75
473.53	88.75
473.749	81.75
473.968	88.75
474.187	89.75
474.406	91.75
474.625	82.75
474.844	73.75
475.063	91.75
475.282	83.75
475.501	88.75
475.72	90.75
475.939	89.75
476.158	84.75
476.377	81.75
476.596	86.75
476.814	64.75
477.033	94.75
477.252	89.75
477.471	89.75
477.69	82.75
477.908	88.75
478.127	78.75
478.346	67.75
478.564	72.75
478.783	75.75
479.002	72.75
479.22	80.75
479.439	96.75
479.658	103.75
479.876	94.75
480.095	86.75
480.313	79.75
480.532	79.75
480.751	88.75
480.969	82.75
481.188	91.75
481.406	105.75
481.624	83.75
481.843	76.75
482.061	82.75
482.28	82.75
482.498	90.75
482.717	83.75
482.935	70.75
483.153	84.75
483.372	92.75
483.59	87.75
483.808	76.75
484.027	84.75
484.245	86.75
484.463	91.75
484.681	90.75
484.9	81.75
485.118	87.75
485.336	89.75
485.554	83.75
485.772	94.75
485.99	109.75
486.209	92.75
486.427	108.75
486.645	100.75
486.863	112.75
487.081	101.75
487.299	84.75
487.517	79.75
487.735	87.75
487.953	84.75
488.171	95.75
488.389	90.75
488.607	81.75
488.825	83.75
489.043	85.75
489.261	91.75
489.479	66.75
489.696	81.75
489.914	82.75
490.132	96.75
490.35	94.75
490.568	75.75
490.786	80.75
491.003	82.75
491.221	89.75
491.439	86.75
491.657	83.75
491.874	77.75
492.092	80.75
492.31	100.75
492.527	82.75
492.745	77.75
492.963	88.75
493.18	81.75
493.398	78.75
493.615	93.75
493.833	87.75
494.05	72.75
494.268	75.75
494.485	98.75
494.703	84.75
494.92	79.75
495.138	75.75
495.355	92.75
495.573	82.75
495.79	78.75
496.008	90.75
496.225	95.75
496.442	84.75
496.66	89.75
496.877	79.75
497.094	77.75
497.312	99.75
497.529	96.75
497.746	76.75
497.963	96.75
498.181	80.75
498.398	94.75
498.615	88.75
498.832	95.75
499.049	89.75
499.267	87.75
499.484	78.75
499.701	74.75
499.918	82.75
500.135	89.75
500.352	88.75
500.569	92.75
500.786	83.75
501.003	82.75
501.22	91.75
501.437	93.75
501.654	73.75
501.871	94.75
502.088	79.75
502.305	81.75
502.522	84.75
502.739	88.75
502.956	82.75
503.172	82.75
503.389	84.75
503.606	94.75
503.823	89.75
504.04	81.75
504.256	82.75
504.473	72.75
504.69	58.75
504.907	73.75
505.123	88.75
505.34	74.75
505.557	90.75
505.773	92.75
505.99	89.75
506.207	80.75
506.423	81.75
506.64	92.75
506.856	89.75
507.073	82.75
507.289	98.75
507.506	96.75
507.722	109.75
507.939	105.75
508.155	79.75
508.372	88.75
508.588	71.75
508.805	98.75
509.021	102.75
509.238	114.75
509.454	99.75
509.67	97.75
509.887	95.75
510.103	112.75
510.319	186.75
510.536	615.75
510.752	1901.75
510.968	530.75
511.184	139.75
511.401	100.75
511.617	82.75
511.833	91.75
512.049	87.75
512.265	78.75
512.481	74.75
512.698	92.75
512.914	101.75
513.13	106.75
513.346	86.75
513.562	92.75
513.778	87.75
513.994	100.75
514.21	94.75
514.426	96.75
514.642	102.75
514.858	118.75
515.074	152.75
515.29	372.75
515.506	1236.75
515.721	471.75
515.937	136.75
516.153	104.75
516.369	96.75
516.585	78.75
516.801	94.75
517.016	85.75
517.232	86.75
517.448	95.75
517.664	95.75
