Data from Uncirc_1991_H10_HRD10591_00063.txt Node
Date: Wed Jan 03 11:50:50 EST 2024
User: Yrep
Spectrometer: HR+D1059
Trigger mode: 1
Integration Time (sec): 1.000000E-1
Scans to average: 1
Electric dark correction enabled: true
Nonlinearity correction enabled: false
Boxcar width: 0
XAxis mode: Wavelengths
Number of Pixels in Spectrum: 2048
>>>>>Begin Spectral Data<<<<<
223.165	-14.31
223.4	-14.31
223.635	-14.31
223.869	-19.31
224.104	-21.31
224.338	-0.31
224.573	-25.31
224.808	-9.31
225.042	-14.31
225.277	-11.31
225.511	3.69
225.746	8.69
225.98	15.69
226.215	7.69
226.449	12.69
226.683	14.69
226.918	16.69
227.152	35.69
227.387	30.69
227.621	32.69
227.856	60.69
228.09	35.69
228.324	36.69
228.559	44.69
228.793	58.69
229.027	54.69
229.262	65.69
229.496	59.69
229.73	78.69
229.964	81.69
230.199	75.69
230.433	65.69
230.667	68.69
230.901	84.69
231.136	74.69
231.37	77.69
231.604	80.69
231.838	81.69
232.072	88.69
232.306	73.69
232.541	75.69
232.775	88.69
233.009	76.69
233.243	70.69
233.477	78.69
233.711	84.69
233.945	80.69
234.179	74.69
234.413	73.69
234.647	68.69
234.881	92.69
235.115	72.69
235.349	74.69
235.583	67.69
235.817	65.69
236.051	73.69
236.285	86.69
236.519	52.69
236.753	58.69
236.987	65.69
237.221	78.69
237.455	92.69
237.689	76.69
237.922	80.69
238.156	72.69
238.39	80.69
238.624	63.69
238.858	64.69
239.091	67.69
239.325	67.69
239.559	67.69
239.793	77.69
240.027	87.69
240.26	79.69
240.494	89.69
240.728	73.69
240.961	84.69
241.195	86.69
241.429	79.69
241.662	70.69
241.896	69.69
242.13	74.69
242.363	75.69
242.597	80.69
242.83	70.69
243.064	83.69
243.298	77.69
243.531	90.69
243.765	64.69
243.998	68.69
244.232	85.69
244.465	74.69
244.699	70.69
244.932	63.69
245.166	76.69
245.399	74.69
245.633	74.69
245.866	88.69
246.099	59.69
246.333	78.69
246.566	72.69
246.8	71.69
247.033	70.69
247.266	80.69
247.5	83.69
247.733	79.69
247.966	80.69
248.2	77.69
248.433	78.69
248.666	87.69
248.899	78.69
249.133	84.69
249.366	91.69
249.599	82.69
249.832	67.69
250.066	82.69
250.299	76.69
250.532	90.69
250.765	78.69
250.998	65.69
251.231	83.69
251.465	82.69
251.698	84.69
251.931	79.69
252.164	88.69
252.397	73.69
252.63	80.69
252.863	75.69
253.096	71.69
253.329	88.69
253.562	84.69
253.795	79.69
254.028	81.69
254.261	78.69
254.494	83.69
254.727	74.69
254.96	92.69
255.193	79.69
255.426	78.69
255.659	93.69
255.892	95.69
256.124	72.69
256.357	72.69
256.59	88.69
256.823	65.69
257.056	82.69
257.289	70.69
257.521	83.69
257.754	68.69
257.987	83.69
258.22	80.69
258.452	86.69
258.685	81.69
258.918	79.69
259.151	87.69
259.383	92.69
259.616	86.69
259.849	98.69
260.081	90.69
260.314	70.69
260.547	79.69
260.779	92.69
261.012	78.69
261.244	78.69
261.477	83.69
261.71	87.69
261.942	115.69
262.175	116.69
262.407	77.69
262.64	67.69
262.872	82.69
263.105	72.69
263.337	79.69
263.57	82.69
263.802	76.69
264.035	78.69
264.267	63.69
264.499	74.69
264.732	80.69
264.964	65.69
265.197	70.69
265.429	92.69
265.661	88.69
265.894	98.69
266.126	70.69
266.358	94.69
266.591	78.69
266.823	98.69
267.055	99.69
267.287	85.69
267.52	90.69
267.752	82.69
267.984	83.69
268.216	78.69
268.448	80.69
268.681	73.69
268.913	81.69
269.145	85.69
269.377	82.69
269.609	87.69
269.841	78.69
270.073	77.69
270.306	79.69
270.538	79.69
270.77	79.69
271.002	83.69
271.234	89.69
271.466	80.69
271.698	77.69
271.93	80.69
272.162	93.69
272.394	93.69
272.626	94.69
272.858	77.69
273.09	91.69
273.322	70.69
273.553	78.69
273.785	80.69
274.017	74.69
274.249	79.69
274.481	80.69
274.713	97.69
274.945	77.69
275.176	78.69
275.408	81.69
275.64	75.69
275.872	80.69
276.104	80.69
276.335	75.69
276.567	91.69
276.799	104.69
277.031	89.69
277.262	101.69
277.494	88.69
277.726	72.69
277.957	86.69
278.189	88.69
278.421	80.69
278.652	70.69
278.884	79.69
279.115	84.69
279.347	81.69
279.579	86.69
279.81	87.69
280.042	82.69
280.273	86.69
280.505	82.69
280.736	83.69
280.968	84.69
281.199	76.69
281.431	61.69
281.662	94.69
281.894	75.69
282.125	101.69
282.356	126.69
282.588	141.69
282.819	109.69
283.051	86.69
283.282	80.69
283.513	87.69
283.745	75.69
283.976	73.69
284.207	89.69
284.439	82.69
284.67	90.69
284.901	87.69
285.132	93.69
285.364	62.69
285.595	79.69
285.826	78.69
286.057	100.69
286.288	78.69
286.52	88.69
286.751	86.69
286.982	96.69
287.213	95.69
287.444	90.69
287.675	87.69
287.906	84.69
288.138	79.69
288.369	103.69
288.6	87.69
288.831	89.69
289.062	83.69
289.293	89.69
289.524	73.69
289.755	79.69
289.986	97.69
290.217	81.69
290.448	81.69
290.679	89.69
290.91	92.69
291.141	89.69
291.371	83.69
291.602	75.69
291.833	78.69
292.064	98.69
292.295	74.69
292.526	83.69
292.757	75.69
292.987	80.69
293.218	78.69
293.449	78.69
293.68	95.69
293.91	84.69
294.141	79.69
294.372	92.69
294.603	94.69
294.833	83.69
295.064	90.69
295.295	82.69
295.525	99.69
295.756	82.69
295.987	103.69
296.217	115.69
296.448	126.69
296.679	82.69
296.909	97.69
297.14	91.69
297.37	94.69
297.601	84.69
297.831	96.69
298.062	87.69
298.292	82.69
298.523	88.69
298.753	98.69
298.984	97.69
299.214	90.69
299.445	79.69
299.675	76.69
299.905	87.69
300.136	95.69
300.366	79.69
300.597	97.69
300.827	92.69
301.057	95.69
301.288	87.69
301.518	100.69
301.748	94.69
301.979	94.69
302.209	86.69
302.439	89.69
302.669	99.69
302.9	92.69
303.13	95.69
303.36	80.69
303.59	100.69
303.82	97.69
304.051	83.69
304.281	85.69
304.511	85.69
304.741	84.69
304.971	76.69
305.201	65.69
305.431	94.69
305.661	78.69
305.891	94.69
306.121	94.69
306.352	100.69
306.582	93.69
306.812	110.69
307.042	81.69
307.272	88.69
307.502	102.69
307.731	88.69
307.961	88.69
308.191	86.69
308.421	75.69
308.651	90.69
308.881	92.69
309.111	98.69
309.341	85.69
309.571	91.69
309.8	87.69
310.03	95.69
310.26	97.69
310.49	87.69
310.72	97.69
310.949	88.69
311.179	97.69
311.409	76.69
311.639	95.69
311.868	94.69
312.098	78.69
312.328	94.69
312.557	84.69
312.787	99.69
313.017	94.69
313.246	107.69
313.476	90.69
313.706	88.69
313.935	100.69
314.165	102.69
314.394	95.69
314.624	89.69
314.853	89.69
315.083	78.69
315.312	99.69
315.542	90.69
315.771	87.69
316.001	79.69
316.23	84.69
316.46	91.69
316.689	72.69
316.919	78.69
317.148	91.69
317.377	95.69
317.607	98.69
317.836	82.69
318.065	93.69
318.295	104.69
318.524	79.69
318.753	68.69
318.983	103.69
319.212	67.69
319.441	103.69
319.67	99.69
319.9	78.69
320.129	90.69
320.358	87.69
320.587	100.69
320.816	95.69
321.046	94.69
321.275	84.69
321.504	91.69
321.733	105.69
321.962	103.69
322.191	94.69
322.42	112.69
322.649	106.69
322.878	108.69
323.108	129.69
323.337	121.69
323.566	130.69
323.795	162.69
324.024	209.69
324.253	402.69
324.482	938.69
324.71	1941.69
324.939	2674.69
325.168	968.69
325.397	262.69
325.626	152.69
325.855	136.69
326.084	110.69
326.313	134.69
326.542	150.69
326.77	262.69
326.999	495.69
327.228	1056.69
327.457	2078.69
327.686	1663.69
327.914	422.69
328.143	215.69
328.372	146.69
328.6	124.69
328.829	118.69
329.058	133.69
329.287	130.69
329.515	108.69
329.744	97.69
329.972	88.69
330.201	100.69
330.43	100.69
330.658	109.69
330.887	134.69
331.115	131.69
331.344	106.69
331.572	91.69
331.801	93.69
332.03	93.69
332.258	77.69
332.486	93.69
332.715	96.69
332.943	80.69
333.172	93.69
333.4	96.69
333.629	101.69
333.857	111.69
334.085	90.69
334.314	86.69
334.542	84.69
334.771	100.69
334.999	95.69
335.227	87.69
335.455	99.69
335.684	98.69
335.912	94.69
336.14	104.69
336.369	98.69
336.597	90.69
336.825	95.69
337.053	79.69
337.281	104.69
337.51	94.69
337.738	92.69
337.966	81.69
338.194	96.69
338.422	89.69
338.65	91.69
338.878	92.69
339.106	90.69
339.334	91.69
339.562	94.69
339.79	87.69
340.018	82.69
340.246	82.69
340.474	87.69
340.702	95.69
340.93	92.69
341.158	80.69
341.386	80.69
341.614	91.69
341.842	79.69
342.07	90.69
342.298	80.69
342.526	88.69
342.754	88.69
342.981	84.69
343.209	79.69
343.437	99.69
343.665	66.69
343.893	90.69
344.12	81.69
344.348	82.69
344.576	93.69
344.804	91.69
345.031	88.69
345.259	81.69
345.487	84.69
345.714	95.69
345.942	86.69
346.17	85.69
346.397	76.69
346.625	83.69
346.853	91.69
347.08	91.69
347.308	95.69
347.535	98.69
347.763	88.69
347.99	99.69
348.218	98.69
348.445	111.69
348.673	120.69
348.9	87.69
349.128	86.69
349.355	90.69
349.583	80.69
349.81	98.69
350.037	99.69
350.265	98.69
350.492	102.69
350.72	92.69
350.947	97.69
351.174	105.69
351.402	100.69
351.629	96.69
351.856	99.69
352.083	89.69
352.311	104.69
352.538	90.69
352.765	92.69
352.992	122.69
353.22	109.69
353.447	100.69
353.674	92.69
353.901	98.69
354.128	89.69
354.355	90.69
354.583	105.69
354.81	95.69
355.037	98.69
355.264	94.69
355.491	78.69
355.718	86.69
355.945	100.69
356.172	91.69
356.399	80.69
356.626	89.69
356.853	90.69
357.08	82.69
357.307	95.69
357.534	99.69
357.761	83.69
357.988	93.69
358.215	94.69
358.441	81.69
358.668	98.69
358.895	96.69
359.122	96.69
359.349	73.69
359.576	99.69
359.802	100.69
360.029	113.69
360.256	114.69
360.483	95.69
360.709	85.69
360.936	88.69
361.163	88.69
361.39	93.69
361.616	84.69
361.843	80.69
362.07	81.69
362.296	95.69
362.523	77.69
362.749	90.69
362.976	90.69
363.203	83.69
363.429	81.69
363.656	82.69
363.882	87.69
364.109	89.69
364.335	88.69
364.562	91.69
364.788	91.69
365.015	91.69
365.241	107.69
365.468	94.69
365.694	102.69
365.92	94.69
366.147	79.69
366.373	75.69
366.599	72.69
366.826	90.69
367.052	83.69
367.278	78.69
367.505	75.69
367.731	96.69
367.957	95.69
368.184	87.69
368.41	103.69
368.636	96.69
368.862	137.69
369.089	103.69
369.315	82.69
369.541	91.69
369.767	95.69
369.993	89.69
370.219	86.69
370.445	93.69
370.672	73.69
370.898	86.69
371.124	75.69
371.35	75.69
371.576	73.69
371.802	89.69
372.028	109.69
372.254	79.69
372.48	84.69
372.706	83.69
372.932	76.69
373.158	74.69
373.384	73.69
373.61	92.69
373.835	68.69
374.061	89.69
374.287	94.69
374.513	86.69
374.739	85.69
374.965	85.69
375.191	85.69
375.416	77.69
375.642	68.69
375.868	89.69
376.094	94.69
376.319	80.69
376.545	96.69
376.771	89.69
376.997	87.69
377.222	67.69
377.448	75.69
377.674	88.69
377.899	89.69
378.125	87.69
378.35	100.69
378.576	95.69
378.802	97.69
379.027	83.69
379.253	78.69
379.478	93.69
379.704	93.69
379.929	71.69
380.155	65.69
380.38	83.69
380.606	72.69
380.831	87.69
381.057	95.69
381.282	90.69
381.507	72.69
381.733	88.69
381.958	111.69
382.184	94.69
382.409	90.69
382.634	94.69
382.86	94.69
383.085	94.69
383.31	90.69
383.535	93.69
383.761	95.69
383.986	81.69
384.211	85.69
384.436	96.69
384.662	96.69
384.887	107.69
385.112	102.69
385.337	90.69
385.562	104.69
385.787	91.69
386.013	100.69
386.238	93.69
386.463	98.69
386.688	110.69
386.913	107.69
387.138	90.69
387.363	90.69
387.588	81.69
387.813	99.69
388.038	95.69
388.263	99.69
388.488	96.69
388.713	87.69
388.938	98.69
389.163	97.69
389.387	91.69
389.612	80.69
389.837	90.69
390.062	81.69
390.287	81.69
390.512	83.69
390.736	90.69
390.961	88.69
391.186	96.69
391.411	91.69
391.636	85.69
391.86	84.69
392.085	97.69
392.31	92.69
392.534	83.69
392.759	85.69
392.984	91.69
393.208	84.69
393.433	76.69
393.658	64.69
393.882	70.69
394.107	89.69
394.331	76.69
394.556	82.69
394.78	86.69
395.005	91.69
395.229	94.69
395.454	86.69
395.678	81.69
395.903	93.69
396.127	89.69
396.352	77.69
396.576	90.69
396.801	69.69
397.025	66.69
397.249	93.69
397.474	98.69
397.698	70.69
397.922	81.69
398.147	75.69
398.371	74.69
398.595	84.69
398.82	82.69
399.044	92.69
399.268	96.69
399.492	76.69
399.717	80.69
399.941	82.69
400.165	105.69
400.389	90.69
400.613	78.69
400.837	72.69
401.062	100.69
401.286	85.69
401.51	87.69
401.734	78.69
401.958	100.69
402.182	120.69
402.406	145.69
402.63	104.69
402.854	84.69
403.078	81.69
403.302	98.69
403.526	84.69
403.75	86.69
403.974	87.69
404.198	85.69
404.422	98.69
404.645	82.69
404.869	92.69
405.093	87.69
405.317	77.69
405.541	95.69
405.765	89.69
405.988	105.69
406.212	162.69
406.436	223.69
406.66	139.69
406.883	105.69
407.107	85.69
407.331	92.69
407.555	87.69
407.778	87.69
408.002	88.69
408.226	90.69
408.449	86.69
408.673	80.69
408.896	100.69
409.12	101.69
409.344	85.69
409.567	97.69
409.791	96.69
410.014	79.69
410.238	94.69
410.461	90.69
410.685	83.69
410.908	100.69
411.132	108.69
411.355	92.69
411.578	87.69
411.802	90.69
412.025	75.69
412.249	92.69
412.472	92.69
412.695	86.69
412.919	87.69
413.142	86.69
413.365	90.69
413.589	79.69
413.812	86.69
414.035	94.69
414.258	79.69
414.482	87.69
414.705	79.69
414.928	92.69
415.151	74.69
415.374	87.69
415.597	87.69
415.821	74.69
416.044	78.69
416.267	74.69
416.49	79.69
416.713	86.69
416.936	82.69
417.159	90.69
417.382	78.69
417.605	75.69
417.828	99.69
418.051	92.69
418.274	99.69
418.497	92.69
418.72	83.69
418.943	84.69
419.166	85.69
419.389	82.69
419.611	70.69
419.834	73.69
420.057	92.69
420.28	75.69
420.503	93.69
420.726	74.69
420.948	82.69
421.171	93.69
421.394	99.69
421.617	81.69
421.839	94.69
422.062	83.69
422.285	86.69
422.507	100.69
422.73	107.69
422.953	84.69
423.175	79.69
423.398	72.69
423.621	94.69
423.843	74.69
424.066	83.69
424.288	88.69
424.511	94.69
424.733	95.69
424.956	106.69
425.178	99.69
425.401	103.69
425.623	96.69
425.846	89.69
426.068	92.69
426.291	94.69
426.513	91.69
426.735	100.69
426.958	96.69
427.18	101.69
427.402	139.69
427.625	172.69
427.847	114.69
428.069	100.69
428.292	89.69
428.514	77.69
428.736	68.69
428.958	71.69
429.181	80.69
429.403	77.69
429.625	88.69
429.847	82.69
430.069	86.69
430.292	92.69
430.514	85.69
430.736	107.69
430.958	91.69
431.18	94.69
431.402	76.69
431.624	82.69
431.846	95.69
432.068	77.69
432.29	87.69
432.512	87.69
432.734	82.69
432.956	69.69
433.178	100.69
433.4	84.69
433.622	96.69
433.844	92.69
434.066	98.69
434.287	83.69
434.509	88.69
434.731	100.69
434.953	75.69
435.175	83.69
435.397	99.69
435.618	82.69
435.84	101.69
436.062	143.69
436.284	122.69
436.505	98.69
436.727	108.69
436.949	82.69
437.17	94.69
437.392	82.69
437.614	95.69
437.835	96.69
438.057	106.69
438.278	124.69
438.5	107.69
438.721	134.69
438.943	97.69
439.165	91.69
439.386	84.69
439.608	83.69
439.829	98.69
440.05	142.69
440.272	143.69
440.493	111.69
440.715	88.69
440.936	92.69
441.158	71.69
441.379	74.69
441.6	104.69
441.822	94.69
442.043	92.69
442.264	100.69
442.486	103.69
442.707	84.69
442.928	97.69
443.149	121.69
443.371	112.69
443.592	121.69
443.813	130.69
444.034	118.69
444.255	83.69
444.476	86.69
444.698	85.69
444.919	83.69
445.14	126.69
445.361	138.69
445.582	118.69
445.803	125.69
446.024	148.69
446.245	137.69
446.466	127.69
446.687	90.69
446.908	98.69
447.129	79.69
447.35	92.69
447.571	90.69
447.792	84.69
448.013	90.69
448.234	105.69
448.455	101.69
448.675	122.69
448.896	131.69
449.117	97.69
449.338	110.69
449.559	154.69
449.779	154.69
450	101.69
450.221	94.69
450.442	82.69
450.662	88.69
450.883	96.69
451.104	110.69
451.324	87.69
451.545	83.69
451.766	68.69
451.986	91.69
452.207	88.69
452.428	81.69
452.648	99.69
452.869	110.69
453.089	107.69
453.31	113.69
453.53	84.69
453.751	91.69
453.971	100.69
454.192	116.69
454.412	83.69
454.633	73.69
454.853	90.69
455.073	77.69
455.294	96.69
455.514	106.69
455.734	79.69
455.955	82.69
456.175	94.69
456.395	76.69
456.616	83.69
456.836	92.69
457.056	74.69
457.276	88.69
457.497	67.69
457.717	79.69
457.937	84.69
458.157	77.69
458.377	86.69
458.598	111.69
458.818	156.69
459.038	159.69
459.258	116.69
459.478	88.69
459.698	78.69
459.918	86.69
460.138	70.69
460.358	68.69
460.578	103.69
460.798	83.69
461.018	85.69
461.238	80.69
461.458	85.69
461.678	70.69
461.898	88.69
462.118	94.69
462.338	75.69
462.558	90.69
462.777	86.69
462.997	92.69
463.217	81.69
463.437	81.69
463.657	88.69
463.876	81.69
464.096	76.69
464.316	93.69
464.536	89.69
464.755	104.69
464.975	119.69
465.195	143.69
465.414	168.69
465.634	86.69
465.854	84.69
466.073	82.69
466.293	91.69
466.512	75.69
466.732	80.69
466.951	92.69
467.171	89.69
467.391	109.69
467.61	96.69
467.829	83.69
468.049	75.69
468.268	87.69
468.488	81.69
468.707	73.69
468.927	84.69
469.146	87.69
469.365	65.69
469.585	78.69
469.804	92.69
470.023	94.69
470.243	83.69
470.462	100.69
470.681	108.69
470.901	98.69
471.12	83.69
471.339	91.69
471.558	83.69
471.777	93.69
471.997	92.69
472.216	94.69
472.435	89.69
472.654	91.69
472.873	88.69
473.092	86.69
473.311	82.69
473.53	75.69
473.749	83.69
473.968	104.69
474.187	121.69
474.406	84.69
474.625	91.69
474.844	100.69
475.063	87.69
475.282	72.69
475.501	83.69
475.72	84.69
475.939	71.69
476.158	84.69
476.377	76.69
476.596	89.69
476.814	87.69
477.033	89.69
477.252	86.69
477.471	77.69
477.69	79.69
477.908	97.69
478.127	88.69
478.346	76.69
478.564	79.69
478.783	98.69
479.002	88.69
479.22	90.69
479.439	95.69
479.658	102.69
479.876	91.69
480.095	95.69
480.313	97.69
480.532	84.69
480.751	87.69
480.969	94.69
481.188	84.69
481.406	93.69
481.624	82.69
481.843	89.69
482.061	84.69
482.28	97.69
482.498	90.69
482.717	84.69
482.935	82.69
483.153	86.69
483.372	80.69
483.59	98.69
483.808	56.69
484.027	74.69
484.245	94.69
484.463	92.69
484.681	104.69
484.9	79.69
485.118	83.69
485.336	107.69
485.554	89.69
485.772	95.69
485.99	101.69
486.209	96.69
486.427	84.69
486.645	107.69
486.863	112.69
487.081	105.69
487.299	88.69
487.517	98.69
487.735	82.69
487.953	98.69
488.171	83.69
488.389	84.69
488.607	88.69
488.825	72.69
489.043	91.69
489.261	96.69
489.479	93.69
489.696	90.69
489.914	82.69
490.132	74.69
490.35	83.69
490.568	95.69
490.786	68.69
491.003	90.69
491.221	100.69
491.439	96.69
491.657	89.69
491.874	82.69
492.092	77.69
492.31	90.69
492.527	96.69
492.745	85.69
492.963	82.69
493.18	85.69
493.398	108.69
493.615	88.69
493.833	95.69
494.05	73.69
494.268	94.69
494.485	78.69
494.703	77.69
494.92	80.69
495.138	95.69
495.355	84.69
495.573	90.69
495.79	84.69
496.008	97.69
496.225	93.69
496.442	67.69
496.66	107.69
496.877	96.69
497.094	86.69
497.312	90.69
497.529	80.69
497.746	98.69
497.963	90.69
498.181	81.69
498.398	95.69
498.615	87.69
498.832	106.69
499.049	90.69
499.267	103.69
499.484	92.69
499.701	79.69
499.918	86.69
500.135	90.69
500.352	88.69
500.569	84.69
500.786	81.69
501.003	70.69
501.22	84.69
501.437	89.69
501.654	95.69
501.871	96.69
502.088	98.69
502.305	83.69
502.522	90.69
502.739	86.69
502.956	96.69
503.172	101.69
503.389	85.69
503.606	98.69
503.823	94.69
504.04	78.69
504.256	88.69
504.473	87.69
504.69	91.69
504.907	83.69
505.123	87.69
505.34	89.69
505.557	80.69
505.773	93.69
505.99	87.69
506.207	92.69
506.423	88.69
506.64	85.69
506.856	86.69
507.073	84.69
507.289	94.69
507.506	106.69
507.722	116.69
507.939	100.69
508.155	82.69
508.372	86.69
508.588	91.69
508.805	79.69
509.021	92.69
509.238	94.69
509.454	100.69
509.67	96.69
509.887	108.69
510.103	126.69
510.319	207.69
510.536	722.69
510.752	2258.69
510.968	607.69
511.184	156.69
511.401	114.69
511.617	94.69
511.833	96.69
512.049	90.69
512.265	80.69
512.481	79.69
512.698	88.69
512.914	91.69
513.13	81.69
513.346	88.69
513.562	92.69
513.778	103.69
513.994	95.69
514.21	99.69
514.426	126.69
514.642	128.69
514.858	120.69
515.074	168.69
515.29	447.69
515.506	1426.69
515.721	554.69
515.937	142.69
516.153	112.69
516.369	81.69
516.585	86.69
516.801	95.69
517.016	93.69
