Data from Uncirc_1991_H10_HRD10591_00010.txt Node
Date: Wed Jan 03 11:50:40 EST 2024
User: Yrep
Spectrometer: HR+D1059
Trigger mode: 1
Integration Time (sec): 1.000000E-1
Scans to average: 1
Electric dark correction enabled: true
Nonlinearity correction enabled: false
Boxcar width: 0
XAxis mode: Wavelengths
Number of Pixels in Spectrum: 2048
>>>>>Begin Spectral Data<<<<<
223.165	-17.44
223.4	-17.44
223.635	-17.44
223.869	-21.44
224.104	-9.44
224.338	-16.44
224.573	-8.44
224.808	-11.44
225.042	-9.44
225.277	0.56
225.511	-3.44
225.746	-7.44
225.98	10.56
226.215	17.56
226.449	11.56
226.683	21.56
226.918	22.56
227.152	20.56
227.387	45.56
227.621	33.56
227.856	46.56
228.09	39.56
228.324	63.56
228.559	47.56
228.793	57.56
229.027	69.56
229.262	70.56
229.496	70.56
229.73	77.56
229.964	86.56
230.199	80.56
230.433	63.56
230.667	74.56
230.901	85.56
231.136	79.56
231.37	69.56
231.604	80.56
231.838	77.56
232.072	86.56
232.306	85.56
232.541	70.56
232.775	78.56
233.009	78.56
233.243	89.56
233.477	77.56
233.711	80.56
233.945	88.56
234.179	80.56
234.413	83.56
234.647	81.56
234.881	77.56
235.115	71.56
235.349	84.56
235.583	71.56
235.817	83.56
236.051	72.56
236.285	65.56
236.519	80.56
236.753	75.56
236.987	77.56
237.221	92.56
237.455	79.56
237.689	63.56
237.922	77.56
238.156	70.56
238.39	91.56
238.624	75.56
238.858	85.56
239.091	75.56
239.325	78.56
239.559	81.56
239.793	79.56
240.027	82.56
240.26	84.56
240.494	66.56
240.728	82.56
240.961	91.56
241.195	80.56
241.429	71.56
241.662	82.56
241.896	70.56
242.13	88.56
242.363	83.56
242.597	82.56
242.83	82.56
243.064	93.56
243.298	76.56
243.531	77.56
243.765	70.56
243.998	90.56
244.232	73.56
244.465	82.56
244.699	74.56
244.932	86.56
245.166	80.56
245.399	92.56
245.633	80.56
245.866	67.56
246.099	75.56
246.333	83.56
246.566	92.56
246.8	85.56
247.033	83.56
247.266	79.56
247.5	66.56
247.733	87.56
247.966	73.56
248.2	91.56
248.433	77.56
248.666	74.56
248.899	76.56
249.133	84.56
249.366	96.56
249.599	84.56
249.832	69.56
250.066	90.56
250.299	86.56
250.532	84.56
250.765	100.56
250.998	89.56
251.231	77.56
251.465	81.56
251.698	86.56
251.931	78.56
252.164	70.56
252.397	84.56
252.63	83.56
252.863	85.56
253.096	74.56
253.329	79.56
253.562	90.56
253.795	88.56
254.028	81.56
254.261	70.56
254.494	64.56
254.727	93.56
254.96	89.56
255.193	85.56
255.426	84.56
255.659	81.56
255.892	74.56
256.124	77.56
256.357	91.56
256.59	76.56
256.823	79.56
257.056	91.56
257.289	77.56
257.521	98.56
257.754	65.56
257.987	78.56
258.22	75.56
258.452	69.56
258.685	72.56
258.918	79.56
259.151	82.56
259.383	89.56
259.616	67.56
259.849	82.56
260.081	93.56
260.314	85.56
260.547	81.56
260.779	93.56
261.012	84.56
261.244	90.56
261.477	88.56
261.71	92.56
261.942	121.56
262.175	108.56
262.407	77.56
262.64	68.56
262.872	83.56
263.105	90.56
263.337	76.56
263.57	90.56
263.802	75.56
264.035	69.56
264.267	74.56
264.499	83.56
264.732	70.56
264.964	108.56
265.197	75.56
265.429	87.56
265.661	84.56
265.894	93.56
266.126	74.56
266.358	95.56
266.591	70.56
266.823	77.56
267.055	90.56
267.287	81.56
267.52	78.56
267.752	93.56
267.984	88.56
268.216	64.56
268.448	100.56
268.681	78.56
268.913	79.56
269.145	77.56
269.377	79.56
269.609	87.56
269.841	78.56
270.073	78.56
270.306	77.56
270.538	97.56
270.77	89.56
271.002	77.56
271.234	81.56
271.466	91.56
271.698	82.56
271.93	81.56
272.162	90.56
272.394	86.56
272.626	81.56
272.858	81.56
273.09	87.56
273.322	82.56
273.553	79.56
273.785	77.56
274.017	76.56
274.249	85.56
274.481	75.56
274.713	85.56
274.945	68.56
275.176	88.56
275.408	87.56
275.64	91.56
275.872	96.56
276.104	79.56
276.335	99.56
276.567	93.56
276.799	94.56
277.031	98.56
277.262	83.56
277.494	92.56
277.726	78.56
277.957	76.56
278.189	101.56
278.421	99.56
278.652	81.56
278.884	77.56
279.115	92.56
279.347	100.56
279.579	95.56
279.81	84.56
280.042	71.56
280.273	83.56
280.505	85.56
280.736	79.56
280.968	75.56
281.199	85.56
281.431	81.56
281.662	86.56
281.894	98.56
282.125	103.56
282.356	116.56
282.588	127.56
282.819	113.56
283.051	75.56
283.282	96.56
283.513	93.56
283.745	87.56
283.976	86.56
284.207	78.56
284.439	97.56
284.67	82.56
284.901	78.56
285.132	77.56
285.364	90.56
285.595	87.56
285.826	85.56
286.057	91.56
286.288	84.56
286.52	80.56
286.751	79.56
286.982	79.56
287.213	75.56
287.444	93.56
287.675	99.56
287.906	94.56
288.138	91.56
288.369	90.56
288.6	86.56
288.831	99.56
289.062	80.56
289.293	92.56
289.524	88.56
289.755	93.56
289.986	90.56
290.217	87.56
290.448	93.56
290.679	85.56
290.91	76.56
291.141	85.56
291.371	89.56
291.602	93.56
291.833	93.56
292.064	79.56
292.295	81.56
292.526	94.56
292.757	82.56
292.987	82.56
293.218	85.56
293.449	94.56
293.68	95.56
293.91	91.56
294.141	89.56
294.372	90.56
294.603	91.56
294.833	93.56
295.064	78.56
295.295	94.56
295.525	93.56
295.756	94.56
295.987	116.56
296.217	129.56
296.448	111.56
296.679	95.56
296.909	87.56
297.14	86.56
297.37	93.56
297.601	97.56
297.831	92.56
298.062	82.56
298.292	75.56
298.523	94.56
298.753	104.56
298.984	88.56
299.214	80.56
299.445	93.56
299.675	80.56
299.905	81.56
300.136	88.56
300.366	98.56
300.597	84.56
300.827	101.56
301.057	109.56
301.288	96.56
301.518	79.56
301.748	83.56
301.979	95.56
302.209	100.56
302.439	89.56
302.669	101.56
302.9	66.56
303.13	89.56
303.36	98.56
303.59	84.56
303.82	110.56
304.051	95.56
304.281	97.56
304.511	90.56
304.741	88.56
304.971	89.56
305.201	93.56
305.431	82.56
305.661	86.56
305.891	97.56
306.121	94.56
306.352	111.56
306.582	102.56
306.812	94.56
307.042	88.56
307.272	96.56
307.502	84.56
307.731	82.56
307.961	101.56
308.191	97.56
308.421	96.56
308.651	97.56
308.881	94.56
309.111	84.56
309.341	89.56
309.571	98.56
309.8	88.56
310.03	93.56
310.26	97.56
310.49	109.56
310.72	84.56
310.949	116.56
311.179	93.56
311.409	99.56
311.639	101.56
311.868	102.56
312.098	95.56
312.328	88.56
312.557	113.56
312.787	100.56
313.017	103.56
313.246	98.56
313.476	97.56
313.706	87.56
313.935	91.56
314.165	92.56
314.394	107.56
314.624	95.56
314.853	84.56
315.083	95.56
315.312	84.56
315.542	90.56
315.771	78.56
316.001	86.56
316.23	80.56
316.46	97.56
316.689	89.56
316.919	102.56
317.148	94.56
317.377	99.56
317.607	96.56
317.836	97.56
318.065	79.56
318.295	89.56
318.524	80.56
318.753	90.56
318.983	86.56
319.212	109.56
319.441	95.56
319.67	97.56
319.9	93.56
320.129	96.56
320.358	90.56
320.587	93.56
320.816	96.56
321.046	110.56
321.275	98.56
321.504	92.56
321.733	88.56
321.962	99.56
322.191	89.56
322.42	99.56
322.649	111.56
322.878	113.56
323.108	115.56
323.337	118.56
323.566	132.56
323.795	167.56
324.024	217.56
324.253	409.56
324.482	882.56
324.71	1870.56
324.939	2486.56
325.168	896.56
325.397	253.56
325.626	143.56
325.855	119.56
326.084	127.56
326.313	134.56
326.542	162.56
326.77	243.56
326.999	450.56
327.228	1001.56
327.457	1909.56
327.686	1505.56
327.914	395.56
328.143	185.56
328.372	137.56
328.6	105.56
328.829	116.56
329.058	126.56
329.287	122.56
329.515	123.56
329.744	100.56
329.972	95.56
330.201	113.56
330.43	123.56
330.658	114.56
330.887	144.56
331.115	116.56
331.344	96.56
331.572	95.56
331.801	112.56
332.03	99.56
332.258	99.56
332.486	100.56
332.715	100.56
332.943	97.56
333.172	98.56
333.4	90.56
333.629	111.56
333.857	100.56
334.085	98.56
334.314	100.56
334.542	99.56
334.771	108.56
334.999	104.56
335.227	95.56
335.455	85.56
335.684	86.56
335.912	95.56
336.14	102.56
336.369	90.56
336.597	114.56
336.825	94.56
337.053	97.56
337.281	96.56
337.51	91.56
337.738	81.56
337.966	93.56
338.194	102.56
338.422	105.56
338.65	99.56
338.878	100.56
339.106	85.56
339.334	87.56
339.562	82.56
339.79	81.56
340.018	95.56
340.246	106.56
340.474	99.56
340.702	93.56
340.93	86.56
341.158	83.56
341.386	92.56
341.614	91.56
341.842	93.56
342.07	102.56
342.298	78.56
342.526	80.56
342.754	76.56
342.981	86.56
343.209	100.56
343.437	94.56
343.665	100.56
343.893	95.56
344.12	85.56
344.348	100.56
344.576	100.56
344.804	96.56
345.031	91.56
345.259	93.56
345.487	87.56
345.714	98.56
345.942	92.56
346.17	83.56
346.397	87.56
346.625	97.56
346.853	87.56
347.08	85.56
347.308	95.56
347.535	106.56
347.763	100.56
347.99	111.56
348.218	91.56
348.445	114.56
348.673	94.56
348.9	102.56
349.128	97.56
349.355	89.56
349.583	87.56
349.81	85.56
350.037	88.56
350.265	92.56
350.492	99.56
350.72	81.56
350.947	104.56
351.174	103.56
351.402	104.56
351.629	93.56
351.856	95.56
352.083	98.56
352.311	94.56
352.538	101.56
352.765	104.56
352.992	104.56
353.22	121.56
353.447	86.56
353.674	93.56
353.901	91.56
354.128	93.56
354.355	95.56
354.583	94.56
354.81	109.56
355.037	86.56
355.264	92.56
355.491	89.56
355.718	95.56
355.945	97.56
356.172	101.56
356.399	96.56
356.626	80.56
356.853	100.56
357.08	93.56
357.307	91.56
357.534	96.56
357.761	84.56
357.988	89.56
358.215	85.56
358.441	99.56
358.668	86.56
358.895	73.56
359.122	91.56
359.349	80.56
359.576	89.56
359.802	116.56
360.029	133.56
360.256	117.56
360.483	101.56
360.709	77.56
360.936	92.56
361.163	83.56
361.39	96.56
361.616	96.56
361.843	89.56
362.07	91.56
362.296	91.56
362.523	86.56
362.749	92.56
362.976	98.56
363.203	81.56
363.429	93.56
363.656	89.56
363.882	87.56
364.109	96.56
364.335	80.56
364.562	96.56
364.788	94.56
365.015	85.56
365.241	84.56
365.468	104.56
365.694	106.56
365.92	94.56
366.147	78.56
366.373	90.56
366.599	83.56
366.826	79.56
367.052	86.56
367.278	92.56
367.505	85.56
367.731	81.56
367.957	80.56
368.184	94.56
368.41	103.56
368.636	109.56
368.862	122.56
369.089	114.56
369.315	86.56
369.541	86.56
369.767	86.56
369.993	93.56
370.219	85.56
370.445	83.56
370.672	96.56
370.898	96.56
371.124	92.56
371.35	78.56
371.576	85.56
371.802	85.56
372.028	99.56
372.254	87.56
372.48	84.56
372.706	75.56
372.932	90.56
373.158	87.56
373.384	81.56
373.61	81.56
373.835	92.56
374.061	76.56
374.287	86.56
374.513	93.56
374.739	87.56
374.965	86.56
375.191	105.56
375.416	78.56
375.642	81.56
375.868	94.56
376.094	97.56
376.319	77.56
376.545	93.56
376.771	79.56
376.997	98.56
377.222	96.56
377.448	88.56
377.674	90.56
377.899	91.56
378.125	95.56
378.35	89.56
378.576	87.56
378.802	94.56
379.027	101.56
379.253	102.56
379.478	85.56
379.704	87.56
379.929	107.56
380.155	100.56
380.38	96.56
380.606	86.56
380.831	93.56
381.057	98.56
381.282	85.56
381.507	96.56
381.733	93.56
381.958	101.56
382.184	91.56
382.409	92.56
382.634	89.56
382.86	105.56
383.085	102.56
383.31	95.56
383.535	96.56
383.761	93.56
383.986	96.56
384.211	89.56
384.436	93.56
384.662	89.56
384.887	108.56
385.112	94.56
385.337	96.56
385.562	94.56
385.787	99.56
386.013	110.56
386.238	124.56
386.463	95.56
386.688	108.56
386.913	108.56
387.138	102.56
387.363	98.56
387.588	94.56
387.813	97.56
388.038	113.56
388.263	105.56
388.488	93.56
388.713	99.56
388.938	92.56
389.163	93.56
389.387	96.56
389.612	87.56
389.837	87.56
390.062	105.56
390.287	94.56
390.512	89.56
390.736	92.56
390.961	92.56
391.186	91.56
391.411	91.56
391.636	93.56
391.86	82.56
392.085	67.56
392.31	92.56
392.534	90.56
392.759	89.56
392.984	85.56
393.208	84.56
393.433	91.56
393.658	79.56
393.882	82.56
394.107	89.56
394.331	91.56
394.556	95.56
394.78	91.56
395.005	84.56
395.229	90.56
395.454	87.56
395.678	96.56
395.903	75.56
396.127	83.56
396.352	82.56
396.576	83.56
396.801	93.56
397.025	98.56
397.249	91.56
397.474	101.56
397.698	94.56
397.922	84.56
398.147	76.56
398.371	78.56
398.595	85.56
398.82	83.56
399.044	91.56
399.268	90.56
399.492	78.56
399.717	94.56
399.941	89.56
400.165	95.56
400.389	88.56
400.613	82.56
400.837	89.56
401.062	83.56
401.286	80.56
401.51	90.56
401.734	97.56
401.958	108.56
402.182	118.56
402.406	159.56
402.63	103.56
402.854	90.56
403.078	94.56
403.302	84.56
403.526	83.56
403.75	83.56
403.974	85.56
404.198	88.56
404.422	89.56
404.645	106.56
404.869	93.56
405.093	91.56
405.317	81.56
405.541	100.56
405.765	100.56
405.988	122.56
406.212	172.56
406.436	221.56
406.66	141.56
406.883	82.56
407.107	89.56
407.331	96.56
407.555	108.56
407.778	119.56
408.002	97.56
408.226	94.56
408.449	95.56
408.673	87.56
408.896	86.56
409.12	97.56
409.344	106.56
409.567	82.56
409.791	85.56
410.014	98.56
410.238	78.56
410.461	95.56
410.685	88.56
410.908	93.56
411.132	89.56
411.355	99.56
411.578	102.56
411.802	98.56
412.025	96.56
412.249	89.56
412.472	88.56
412.695	85.56
412.919	86.56
413.142	97.56
413.365	87.56
413.589	85.56
413.812	86.56
414.035	102.56
414.258	98.56
414.482	87.56
414.705	84.56
414.928	74.56
415.151	81.56
415.374	92.56
415.597	87.56
415.821	91.56
416.044	83.56
416.267	99.56
416.49	93.56
416.713	80.56
416.936	80.56
417.159	86.56
417.382	86.56
417.605	92.56
417.828	91.56
418.051	100.56
418.274	102.56
418.497	88.56
418.72	89.56
418.943	91.56
419.166	78.56
419.389	95.56
419.611	112.56
419.834	96.56
420.057	93.56
420.28	90.56
420.503	86.56
420.726	97.56
420.948	94.56
421.171	96.56
421.394	90.56
421.617	90.56
421.839	78.56
422.062	89.56
422.285	82.56
422.507	110.56
422.73	113.56
422.953	85.56
423.175	95.56
423.398	96.56
423.621	101.56
423.843	85.56
424.066	88.56
424.288	91.56
424.511	91.56
424.733	101.56
424.956	116.56
425.178	102.56
425.401	103.56
425.623	93.56
425.846	83.56
426.068	86.56
426.291	95.56
426.513	90.56
426.735	87.56
426.958	100.56
427.18	105.56
427.402	154.56
427.625	179.56
427.847	118.56
428.069	103.56
428.292	109.56
428.514	84.56
428.736	90.56
428.958	77.56
429.181	81.56
429.403	82.56
429.625	80.56
429.847	82.56
430.069	110.56
430.292	86.56
430.514	75.56
430.736	74.56
430.958	87.56
431.18	85.56
431.402	81.56
431.624	102.56
431.846	85.56
432.068	90.56
432.29	82.56
432.512	82.56
432.734	81.56
432.956	95.56
433.178	99.56
433.4	102.56
433.622	98.56
433.844	93.56
434.066	93.56
434.287	96.56
434.509	87.56
434.731	73.56
434.953	83.56
435.175	92.56
435.397	93.56
435.618	92.56
435.84	100.56
436.062	118.56
436.284	116.56
436.505	104.56
436.727	95.56
436.949	106.56
437.17	94.56
437.392	78.56
437.614	98.56
437.835	101.56
438.057	105.56
438.278	114.56
438.5	108.56
438.721	113.56
438.943	111.56
439.165	90.56
439.386	99.56
439.608	111.56
439.829	101.56
440.05	136.56
440.272	161.56
440.493	111.56
440.715	93.56
440.936	100.56
441.158	90.56
441.379	96.56
441.6	87.56
441.822	93.56
442.043	80.56
442.264	109.56
442.486	94.56
442.707	93.56
442.928	99.56
443.149	134.56
443.371	118.56
443.592	114.56
443.813	110.56
444.034	102.56
444.255	85.56
444.476	94.56
444.698	94.56
444.919	94.56
445.14	131.56
445.361	117.56
445.582	119.56
445.803	141.56
446.024	140.56
446.245	129.56
446.466	112.56
446.687	80.56
446.908	82.56
447.129	100.56
447.35	65.56
447.571	107.56
447.792	94.56
448.013	86.56
448.234	95.56
448.455	107.56
448.675	116.56
448.896	125.56
449.117	103.56
449.338	93.56
449.559	138.56
449.779	146.56
450	99.56
450.221	92.56
450.442	82.56
450.662	93.56
450.883	99.56
451.104	93.56
451.324	95.56
451.545	72.56
451.766	90.56
451.986	83.56
452.207	86.56
452.428	96.56
452.648	103.56
452.869	100.56
453.089	112.56
453.31	112.56
453.53	92.56
453.751	81.56
453.971	105.56
454.192	101.56
454.412	104.56
454.633	83.56
454.853	82.56
455.073	89.56
455.294	85.56
455.514	95.56
455.734	97.56
455.955	100.56
456.175	85.56
456.395	77.56
456.616	82.56
456.836	84.56
457.056	80.56
457.276	81.56
457.497	90.56
457.717	80.56
457.937	97.56
458.157	76.56
458.377	94.56
458.598	103.56
458.818	151.56
459.038	165.56
459.258	129.56
459.478	74.56
459.698	82.56
459.918	81.56
460.138	82.56
460.358	93.56
460.578	79.56
460.798	82.56
461.018	83.56
461.238	76.56
461.458	83.56
461.678	88.56
461.898	82.56
462.118	94.56
462.338	90.56
462.558	90.56
462.777	80.56
462.997	97.56
463.217	87.56
463.437	74.56
463.657	80.56
463.876	83.56
464.096	83.56
464.316	98.56
464.536	87.56
464.755	93.56
464.975	93.56
465.195	154.56
465.414	138.56
465.634	81.56
465.854	91.56
466.073	86.56
466.293	90.56
466.512	96.56
466.732	85.56
466.951	96.56
467.171	93.56
467.391	92.56
467.61	101.56
467.829	97.56
468.049	85.56
468.268	79.56
468.488	85.56
468.707	94.56
468.927	97.56
469.146	102.56
469.365	110.56
469.585	73.56
469.804	103.56
470.023	85.56
470.243	89.56
470.462	106.56
470.681	117.56
470.901	85.56
471.12	84.56
471.339	95.56
471.558	83.56
471.777	76.56
471.997	70.56
472.216	87.56
472.435	82.56
472.654	86.56
472.873	89.56
473.092	84.56
473.311	90.56
473.53	84.56
473.749	78.56
473.968	86.56
474.187	88.56
474.406	96.56
474.625	79.56
474.844	87.56
475.063	86.56
475.282	83.56
475.501	82.56
475.72	88.56
475.939	85.56
476.158	89.56
476.377	87.56
476.596	98.56
476.814	85.56
477.033	97.56
477.252	82.56
477.471	100.56
477.69	90.56
477.908	98.56
478.127	82.56
478.346	94.56
478.564	69.56
478.783	79.56
479.002	83.56
479.22	90.56
479.439	102.56
479.658	100.56
479.876	87.56
480.095	103.56
480.313	98.56
480.532	90.56
480.751	75.56
480.969	77.56
481.188	109.56
481.406	77.56
481.624	99.56
481.843	89.56
482.061	95.56
482.28	78.56
482.498	86.56
482.717	76.56
482.935	92.56
483.153	88.56
483.372	78.56
483.59	98.56
483.808	95.56
484.027	89.56
484.245	88.56
484.463	85.56
484.681	96.56
484.9	80.56
485.118	92.56
485.336	83.56
485.554	89.56
485.772	96.56
485.99	106.56
486.209	113.56
486.427	102.56
486.645	121.56
486.863	130.56
487.081	100.56
487.299	92.56
487.517	94.56
487.735	95.56
487.953	101.56
488.171	92.56
488.389	90.56
488.607	98.56
488.825	77.56
489.043	86.56
489.261	95.56
489.479	96.56
489.696	96.56
489.914	83.56
490.132	82.56
490.35	102.56
490.568	91.56
490.786	99.56
491.003	87.56
491.221	89.56
491.439	82.56
491.657	96.56
491.874	91.56
492.092	78.56
492.31	98.56
492.527	84.56
492.745	78.56
492.963	86.56
493.18	91.56
493.398	85.56
493.615	100.56
493.833	94.56
494.05	100.56
494.268	84.56
494.485	92.56
494.703	84.56
494.92	97.56
495.138	96.56
495.355	89.56
495.573	93.56
495.79	99.56
496.008	95.56
496.225	87.56
496.442	95.56
496.66	87.56
496.877	95.56
497.094	92.56
497.312	87.56
497.529	89.56
497.746	84.56
497.963	90.56
498.181	96.56
498.398	103.56
498.615	95.56
498.832	112.56
499.049	96.56
499.267	88.56
499.484	90.56
499.701	99.56
499.918	95.56
500.135	82.56
500.352	78.56
500.569	83.56
500.786	89.56
501.003	82.56
501.22	87.56
501.437	95.56
501.654	97.56
501.871	113.56
502.088	86.56
502.305	96.56
502.522	85.56
502.739	97.56
502.956	94.56
503.172	101.56
503.389	89.56
503.606	114.56
503.823	78.56
504.04	76.56
504.256	80.56
504.473	77.56
504.69	94.56
504.907	83.56
505.123	103.56
505.34	84.56
505.557	93.56
505.773	106.56
505.99	97.56
506.207	85.56
506.423	86.56
506.64	86.56
506.856	82.56
507.073	79.56
507.289	74.56
507.506	97.56
507.722	113.56
507.939	98.56
508.155	105.56
508.372	85.56
508.588	78.56
508.805	101.56
509.021	89.56
509.238	92.56
509.454	85.56
509.67	96.56
509.887	114.56
510.103	129.56
510.319	209.56
510.536	719.56
510.752	2130.56
510.968	605.56
511.184	136.56
511.401	109.56
511.617	107.56
511.833	92.56
512.049	105.56
512.265	97.56
512.481	102.56
512.698	95.56
512.914	92.56
513.13	89.56
513.346	94.56
513.562	107.56
513.778	105.56
513.994	109.56
514.21	105.56
514.426	128.56
514.642	122.56
514.858	122.56
515.074	165.56
515.29	470.56
515.506	1462.56
515.721	537.56
515.937	157.56
516.153	100.56
