Data from Uncirc_1991_H10_HRD10591_00085.txt Node
Date: Wed Jan 03 11:50:55 EST 2024
User: Yrep
Spectrometer: HR+D1059
Trigger mode: 1
Integration Time (sec): 1.000000E-1
Scans to average: 1
Electric dark correction enabled: true
Nonlinearity correction enabled: false
Boxcar width: 0
XAxis mode: Wavelengths
Number of Pixels in Spectrum: 2048
>>>>>Begin Spectral Data<<<<<
223.165	-17.94
223.4	-17.94
223.635	-17.94
223.869	-18.94
224.104	-14.94
224.338	-26.94
224.573	-11.94
224.808	-1.94
225.042	-8.94
225.277	-15.94
225.511	-0.94
225.746	4.06
225.98	0.06
226.215	6.06
226.449	21.06
226.683	34.06
226.918	20.06
227.152	33.06
227.387	33.06
227.621	31.06
227.856	48.06
228.09	42.06
228.324	58.06
228.559	44.06
228.793	67.06
229.027	66.06
229.262	81.06
229.496	72.06
229.73	97.06
229.964	106.06
230.199	85.06
230.433	86.06
230.667	72.06
230.901	69.06
231.136	71.06
231.37	60.06
231.604	91.06
231.838	77.06
232.072	76.06
232.306	87.06
232.541	94.06
232.775	75.06
233.009	78.06
233.243	76.06
233.477	78.06
233.711	97.06
233.945	87.06
234.179	90.06
234.413	84.06
234.647	81.06
234.881	78.06
235.115	87.06
235.349	83.06
235.583	79.06
235.817	80.06
236.051	56.06
236.285	77.06
236.519	73.06
236.753	75.06
236.987	93.06
237.221	81.06
237.455	86.06
237.689	100.06
237.922	90.06
238.156	81.06
238.39	73.06
238.624	75.06
238.858	88.06
239.091	83.06
239.325	85.06
239.559	81.06
239.793	74.06
240.027	76.06
240.26	78.06
240.494	72.06
240.728	81.06
240.961	72.06
241.195	78.06
241.429	77.06
241.662	79.06
241.896	72.06
242.13	71.06
242.363	71.06
242.597	73.06
242.83	72.06
243.064	88.06
243.298	70.06
243.531	74.06
243.765	85.06
243.998	82.06
244.232	85.06
244.465	89.06
244.699	73.06
244.932	82.06
245.166	85.06
245.399	88.06
245.633	77.06
245.866	73.06
246.099	70.06
246.333	81.06
246.566	85.06
246.8	81.06
247.033	76.06
247.266	79.06
247.5	90.06
247.733	75.06
247.966	94.06
248.2	82.06
248.433	82.06
248.666	78.06
248.899	99.06
249.133	98.06
249.366	102.06
249.599	94.06
249.832	81.06
250.066	88.06
250.299	88.06
250.532	84.06
250.765	85.06
250.998	76.06
251.231	67.06
251.465	84.06
251.698	94.06
251.931	96.06
252.164	86.06
252.397	87.06
252.63	77.06
252.863	86.06
253.096	82.06
253.329	82.06
253.562	92.06
253.795	101.06
254.028	81.06
254.261	92.06
254.494	75.06
254.727	91.06
254.96	93.06
255.193	85.06
255.426	62.06
255.659	79.06
255.892	83.06
256.124	86.06
256.357	90.06
256.59	87.06
256.823	88.06
257.056	85.06
257.289	83.06
257.521	83.06
257.754	88.06
257.987	94.06
258.22	83.06
258.452	73.06
258.685	93.06
258.918	80.06
259.151	69.06
259.383	87.06
259.616	89.06
259.849	79.06
260.081	69.06
260.314	69.06
260.547	82.06
260.779	80.06
261.012	83.06
261.244	83.06
261.477	93.06
261.71	95.06
261.942	134.06
262.175	152.06
262.407	97.06
262.64	103.06
262.872	99.06
263.105	73.06
263.337	87.06
263.57	75.06
263.802	88.06
264.035	97.06
264.267	87.06
264.499	86.06
264.732	79.06
264.964	77.06
265.197	99.06
265.429	95.06
265.661	66.06
265.894	95.06
266.126	81.06
266.358	76.06
266.591	76.06
266.823	74.06
267.055	67.06
267.287	82.06
267.52	91.06
267.752	82.06
267.984	100.06
268.216	81.06
268.448	91.06
268.681	95.06
268.913	98.06
269.145	92.06
269.377	94.06
269.609	81.06
269.841	87.06
270.073	84.06
270.306	83.06
270.538	71.06
270.77	85.06
271.002	84.06
271.234	85.06
271.466	89.06
271.698	87.06
271.93	86.06
272.162	94.06
272.394	94.06
272.626	89.06
272.858	66.06
273.09	81.06
273.322	83.06
273.553	81.06
273.785	89.06
274.017	93.06
274.249	88.06
274.481	82.06
274.713	102.06
274.945	101.06
275.176	92.06
275.408	80.06
275.64	94.06
275.872	78.06
276.104	96.06
276.335	91.06
276.567	111.06
276.799	125.06
277.031	111.06
277.262	87.06
277.494	93.06
277.726	89.06
277.957	89.06
278.189	91.06
278.421	81.06
278.652	93.06
278.884	84.06
279.115	93.06
279.347	100.06
279.579	79.06
279.81	97.06
280.042	90.06
280.273	98.06
280.505	97.06
280.736	79.06
280.968	92.06
281.199	98.06
281.431	92.06
281.662	86.06
281.894	93.06
282.125	119.06
282.356	130.06
282.588	176.06
282.819	133.06
283.051	76.06
283.282	96.06
283.513	85.06
283.745	102.06
283.976	80.06
284.207	90.06
284.439	93.06
284.67	77.06
284.901	75.06
285.132	79.06
285.364	85.06
285.595	91.06
285.826	85.06
286.057	98.06
286.288	97.06
286.52	99.06
286.751	104.06
286.982	99.06
287.213	83.06
287.444	82.06
287.675	89.06
287.906	81.06
288.138	97.06
288.369	94.06
288.6	106.06
288.831	93.06
289.062	88.06
289.293	93.06
289.524	101.06
289.755	93.06
289.986	106.06
290.217	101.06
290.448	89.06
290.679	88.06
290.91	94.06
291.141	77.06
291.371	89.06
291.602	90.06
291.833	91.06
292.064	82.06
292.295	91.06
292.526	92.06
292.757	85.06
292.987	81.06
293.218	94.06
293.449	85.06
293.68	99.06
293.91	99.06
294.141	101.06
294.372	91.06
294.603	91.06
294.833	95.06
295.064	97.06
295.295	97.06
295.525	93.06
295.756	103.06
295.987	122.06
296.217	184.06
296.448	157.06
296.679	97.06
296.909	92.06
297.14	91.06
297.37	103.06
297.601	99.06
297.831	79.06
298.062	85.06
298.292	98.06
298.523	91.06
298.753	88.06
298.984	107.06
299.214	102.06
299.445	85.06
299.675	93.06
299.905	94.06
300.136	108.06
300.366	96.06
300.597	93.06
300.827	86.06
301.057	104.06
301.288	126.06
301.518	97.06
301.748	97.06
301.979	99.06
302.209	99.06
302.439	93.06
302.669	105.06
302.9	85.06
303.13	90.06
303.36	106.06
303.59	109.06
303.82	111.06
304.051	108.06
304.281	80.06
304.511	93.06
304.741	95.06
304.971	83.06
305.201	70.06
305.431	84.06
305.661	87.06
305.891	83.06
306.121	110.06
306.352	102.06
306.582	107.06
306.812	102.06
307.042	83.06
307.272	106.06
307.502	95.06
307.731	93.06
307.961	90.06
308.191	81.06
308.421	106.06
308.651	94.06
308.881	99.06
309.111	112.06
309.341	103.06
309.571	99.06
309.8	110.06
310.03	106.06
310.26	111.06
310.49	105.06
310.72	98.06
310.949	101.06
311.179	105.06
311.409	94.06
311.639	101.06
311.868	121.06
312.098	99.06
312.328	90.06
312.557	112.06
312.787	131.06
313.017	118.06
313.246	110.06
313.476	96.06
313.706	95.06
313.935	79.06
314.165	122.06
314.394	107.06
314.624	111.06
314.853	97.06
315.083	100.06
315.312	89.06
315.542	85.06
315.771	97.06
316.001	90.06
316.23	107.06
316.46	99.06
316.689	101.06
316.919	94.06
317.148	100.06
317.377	104.06
317.607	101.06
317.836	103.06
318.065	85.06
318.295	83.06
318.524	94.06
318.753	91.06
318.983	91.06
319.212	117.06
319.441	101.06
319.67	133.06
319.9	111.06
320.129	90.06
320.358	105.06
320.587	103.06
320.816	101.06
321.046	110.06
321.275	101.06
321.504	101.06
321.733	104.06
321.962	102.06
322.191	124.06
322.42	114.06
322.649	139.06
322.878	147.06
323.108	129.06
323.337	138.06
323.566	157.06
323.795	184.06
324.024	251.06
324.253	498.06
324.482	1103.06
324.71	2292.06
324.939	3113.06
325.168	1128.06
325.397	333.06
325.626	183.06
325.855	135.06
326.084	140.06
326.313	151.06
326.542	181.06
326.77	288.06
326.999	553.06
327.228	1175.06
327.457	2210.06
327.686	1812.06
327.914	477.06
328.143	246.06
328.372	198.06
328.6	150.06
328.829	142.06
329.058	168.06
329.287	188.06
329.515	130.06
329.744	123.06
329.972	92.06
330.201	102.06
330.43	140.06
330.658	153.06
330.887	201.06
331.115	166.06
331.344	127.06
331.572	121.06
331.801	112.06
332.03	112.06
332.258	106.06
332.486	94.06
332.715	93.06
332.943	111.06
333.172	100.06
333.4	97.06
333.629	115.06
333.857	118.06
334.085	110.06
334.314	102.06
334.542	108.06
334.771	92.06
334.999	102.06
335.227	102.06
335.455	110.06
335.684	115.06
335.912	90.06
336.14	102.06
336.369	91.06
336.597	102.06
336.825	103.06
337.053	100.06
337.281	83.06
337.51	95.06
337.738	92.06
337.966	104.06
338.194	115.06
338.422	103.06
338.65	91.06
338.878	97.06
339.106	94.06
339.334	81.06
339.562	88.06
339.79	91.06
340.018	93.06
340.246	99.06
340.474	110.06
340.702	87.06
340.93	101.06
341.158	83.06
341.386	94.06
341.614	103.06
341.842	94.06
342.07	97.06
342.298	89.06
342.526	81.06
342.754	81.06
342.981	85.06
343.209	96.06
343.437	102.06
343.665	84.06
343.893	95.06
344.12	111.06
344.348	103.06
344.576	90.06
344.804	98.06
345.031	116.06
345.259	101.06
345.487	94.06
345.714	99.06
345.942	94.06
346.17	88.06
346.397	103.06
346.625	96.06
346.853	99.06
347.08	90.06
347.308	107.06
347.535	104.06
347.763	117.06
347.99	108.06
348.218	104.06
348.445	118.06
348.673	126.06
348.9	88.06
349.128	94.06
349.355	94.06
349.583	83.06
349.81	97.06
350.037	93.06
350.265	107.06
350.492	92.06
350.72	105.06
350.947	114.06
351.174	117.06
351.402	130.06
351.629	101.06
351.856	113.06
352.083	118.06
352.311	118.06
352.538	132.06
352.765	120.06
352.992	120.06
353.22	112.06
353.447	119.06
353.674	93.06
353.901	110.06
354.128	102.06
354.355	101.06
354.583	107.06
354.81	98.06
355.037	95.06
355.264	88.06
355.491	90.06
355.718	99.06
355.945	103.06
356.172	96.06
356.399	84.06
356.626	90.06
356.853	91.06
357.08	95.06
357.307	77.06
357.534	88.06
357.761	85.06
357.988	102.06
358.215	103.06
358.441	98.06
358.668	94.06
358.895	87.06
359.122	87.06
359.349	88.06
359.576	110.06
359.802	100.06
360.029	141.06
360.256	148.06
360.483	133.06
360.709	104.06
360.936	85.06
361.163	94.06
361.39	107.06
361.616	120.06
361.843	101.06
362.07	103.06
362.296	101.06
362.523	90.06
362.749	103.06
362.976	105.06
363.203	104.06
363.429	79.06
363.656	102.06
363.882	87.06
364.109	87.06
364.335	93.06
364.562	98.06
364.788	96.06
365.015	97.06
365.241	95.06
365.468	123.06
365.694	120.06
365.92	103.06
366.147	116.06
366.373	95.06
366.599	82.06
366.826	101.06
367.052	88.06
367.278	103.06
367.505	93.06
367.731	83.06
367.957	109.06
368.184	107.06
368.41	112.06
368.636	126.06
368.862	127.06
369.089	118.06
369.315	100.06
369.541	88.06
369.767	86.06
369.993	89.06
370.219	105.06
370.445	99.06
370.672	89.06
370.898	84.06
371.124	85.06
371.35	90.06
371.576	89.06
371.802	81.06
372.028	78.06
372.254	85.06
372.48	87.06
372.706	83.06
372.932	71.06
373.158	87.06
373.384	98.06
373.61	97.06
373.835	87.06
374.061	76.06
374.287	110.06
374.513	88.06
374.739	100.06
374.965	96.06
375.191	86.06
375.416	88.06
375.642	95.06
375.868	100.06
376.094	94.06
376.319	85.06
376.545	85.06
376.771	90.06
376.997	89.06
377.222	77.06
377.448	85.06
377.674	85.06
377.899	86.06
378.125	101.06
378.35	91.06
378.576	82.06
378.802	79.06
379.027	101.06
379.253	99.06
379.478	87.06
379.704	83.06
379.929	94.06
380.155	90.06
380.38	88.06
380.606	99.06
380.831	95.06
381.057	93.06
381.282	98.06
381.507	91.06
381.733	86.06
381.958	91.06
382.184	94.06
382.409	113.06
382.634	97.06
382.86	96.06
383.085	95.06
383.31	82.06
383.535	102.06
383.761	105.06
383.986	106.06
384.211	90.06
384.436	110.06
384.662	113.06
384.887	107.06
385.112	97.06
385.337	106.06
385.562	100.06
385.787	107.06
386.013	106.06
386.238	110.06
386.463	127.06
386.688	117.06
386.913	94.06
387.138	93.06
387.363	100.06
387.588	70.06
387.813	107.06
388.038	94.06
388.263	111.06
388.488	115.06
388.713	94.06
388.938	81.06
389.163	109.06
389.387	100.06
389.612	107.06
389.837	86.06
390.062	96.06
390.287	94.06
390.512	87.06
390.736	93.06
390.961	85.06
391.186	92.06
391.411	83.06
391.636	100.06
391.86	91.06
392.085	91.06
392.31	94.06
392.534	79.06
392.759	86.06
392.984	82.06
393.208	89.06
393.433	106.06
393.658	94.06
393.882	81.06
394.107	79.06
394.331	93.06
394.556	99.06
394.78	110.06
395.005	107.06
395.229	96.06
395.454	77.06
395.678	79.06
395.903	86.06
396.127	89.06
396.352	83.06
396.576	85.06
396.801	87.06
397.025	84.06
397.249	85.06
397.474	92.06
397.698	85.06
397.922	83.06
398.147	90.06
398.371	82.06
398.595	84.06
398.82	83.06
399.044	85.06
399.268	86.06
399.492	95.06
399.717	96.06
399.941	85.06
400.165	107.06
400.389	89.06
400.613	84.06
400.837	86.06
401.062	94.06
401.286	87.06
401.51	93.06
401.734	102.06
401.958	124.06
402.182	153.06
402.406	214.06
402.63	158.06
402.854	111.06
403.078	95.06
403.302	95.06
403.526	96.06
403.75	86.06
403.974	103.06
404.198	99.06
404.422	90.06
404.645	92.06
404.869	86.06
405.093	105.06
405.317	105.06
405.541	104.06
405.765	122.06
405.988	142.06
406.212	225.06
406.436	338.06
406.66	204.06
406.883	113.06
407.107	108.06
407.331	113.06
407.555	114.06
407.778	112.06
408.002	90.06
408.226	94.06
408.449	76.06
408.673	76.06
408.896	87.06
409.12	95.06
409.344	91.06
409.567	90.06
409.791	91.06
410.014	90.06
410.238	84.06
410.461	98.06
410.685	90.06
410.908	100.06
411.132	112.06
411.355	108.06
411.578	90.06
411.802	89.06
412.025	81.06
412.249	107.06
412.472	95.06
412.695	67.06
412.919	88.06
413.142	87.06
413.365	93.06
413.589	83.06
413.812	101.06
414.035	97.06
414.258	86.06
414.482	103.06
414.705	88.06
414.928	89.06
415.151	78.06
415.374	93.06
415.597	86.06
415.821	92.06
416.044	85.06
416.267	100.06
416.49	81.06
416.713	87.06
416.936	89.06
417.159	85.06
417.382	94.06
417.605	87.06
417.828	93.06
418.051	103.06
418.274	97.06
418.497	90.06
418.72	83.06
418.943	80.06
419.166	80.06
419.389	82.06
419.611	84.06
419.834	88.06
420.057	91.06
420.28	91.06
420.503	79.06
420.726	78.06
420.948	76.06
421.171	92.06
421.394	110.06
421.617	97.06
421.839	84.06
422.062	90.06
422.285	97.06
422.507	108.06
422.73	115.06
422.953	97.06
423.175	100.06
423.398	102.06
423.621	78.06
423.843	80.06
424.066	83.06
424.288	84.06
424.511	87.06
424.733	93.06
424.956	125.06
425.178	105.06
425.401	108.06
425.623	114.06
425.846	99.06
426.068	100.06
426.291	91.06
426.513	102.06
426.735	84.06
426.958	91.06
427.18	114.06
427.402	161.06
427.625	228.06
427.847	170.06
428.069	113.06
428.292	92.06
428.514	100.06
428.736	89.06
428.958	89.06
429.181	93.06
429.403	98.06
429.625	89.06
429.847	101.06
430.069	116.06
430.292	94.06
430.514	89.06
430.736	76.06
430.958	89.06
431.18	80.06
431.402	96.06
431.624	89.06
431.846	88.06
432.068	82.06
432.29	95.06
432.512	82.06
432.734	97.06
432.956	97.06
433.178	103.06
433.4	109.06
433.622	107.06
433.844	85.06
434.066	95.06
434.287	101.06
434.509	93.06
434.731	97.06
434.953	84.06
435.175	98.06
435.397	90.06
435.618	104.06
435.84	121.06
436.062	139.06
436.284	129.06
436.505	103.06
436.727	113.06
436.949	116.06
437.17	92.06
437.392	87.06
437.614	104.06
437.835	128.06
438.057	174.06
438.278	131.06
438.5	127.06
438.721	137.06
438.943	110.06
439.165	93.06
439.386	102.06
439.608	96.06
439.829	110.06
440.05	153.06
440.272	195.06
440.493	116.06
440.715	85.06
440.936	91.06
441.158	83.06
441.379	105.06
441.6	108.06
441.822	113.06
442.043	108.06
442.264	110.06
442.486	112.06
442.707	104.06
442.928	124.06
443.149	163.06
443.371	162.06
443.592	128.06
443.813	130.06
444.034	134.06
444.255	104.06
444.476	99.06
444.698	98.06
444.919	97.06
445.14	154.06
445.361	132.06
445.582	137.06
445.803	187.06
446.024	176.06
446.245	176.06
446.466	126.06
446.687	119.06
446.908	106.06
447.129	94.06
447.35	86.06
447.571	82.06
447.792	90.06
448.013	110.06
448.234	118.06
448.455	110.06
448.675	139.06
448.896	152.06
449.117	110.06
449.338	107.06
449.559	155.06
449.779	150.06
450	118.06
450.221	100.06
450.442	111.06
450.662	96.06
450.883	130.06
451.104	134.06
451.324	109.06
451.545	92.06
451.766	80.06
451.986	80.06
452.207	105.06
452.428	105.06
452.648	106.06
452.869	127.06
453.089	151.06
453.31	143.06
453.53	99.06
453.751	97.06
453.971	112.06
454.192	130.06
454.412	113.06
454.633	90.06
454.853	99.06
455.073	89.06
455.294	108.06
455.514	105.06
455.734	95.06
455.955	103.06
456.175	81.06
456.395	98.06
456.616	88.06
456.836	76.06
457.056	81.06
457.276	75.06
457.497	92.06
457.717	93.06
457.937	68.06
458.157	100.06
458.377	109.06
458.598	131.06
458.818	216.06
459.038	240.06
459.258	144.06
459.478	101.06
459.698	93.06
459.918	76.06
460.138	85.06
460.358	79.06
460.578	76.06
460.798	107.06
461.018	90.06
461.238	83.06
461.458	97.06
461.678	91.06
461.898	92.06
462.118	101.06
462.338	77.06
462.558	78.06
462.777	82.06
462.997	93.06
463.217	83.06
463.437	87.06
463.657	82.06
463.876	86.06
464.096	89.06
464.316	107.06
464.536	109.06
464.755	98.06
464.975	131.06
465.195	218.06
465.414	248.06
465.634	107.06
465.854	92.06
466.073	83.06
466.293	76.06
466.512	75.06
466.732	100.06
466.951	89.06
467.171	97.06
467.391	101.06
467.61	118.06
467.829	114.06
468.049	88.06
468.268	86.06
468.488	82.06
468.707	97.06
468.927	97.06
469.146	76.06
469.365	86.06
469.585	88.06
469.804	109.06
470.023	106.06
470.243	108.06
470.462	109.06
470.681	145.06
470.901	94.06
471.12	84.06
471.339	92.06
471.558	96.06
471.777	84.06
471.997	78.06
472.216	93.06
472.435	96.06
472.654	81.06
472.873	105.06
473.092	97.06
473.311	101.06
473.53	86.06
473.749	97.06
473.968	112.06
474.187	120.06
474.406	114.06
474.625	77.06
474.844	90.06
475.063	75.06
475.282	89.06
475.501	78.06
475.72	83.06
475.939	77.06
476.158	84.06
476.377	86.06
476.596	92.06
476.814	108.06
477.033	90.06
477.252	97.06
477.471	98.06
477.69	87.06
477.908	87.06
478.127	89.06
478.346	91.06
478.564	74.06
478.783	96.06
479.002	96.06
479.22	98.06
479.439	103.06
479.658	127.06
479.876	102.06
480.095	93.06
480.313	93.06
480.532	94.06
480.751	95.06
480.969	98.06
481.188	92.06
481.406	104.06
481.624	107.06
481.843	91.06
482.061	79.06
482.28	85.06
482.498	78.06
482.717	77.06
482.935	84.06
483.153	80.06
483.372	91.06
483.59	91.06
483.808	90.06
484.027	98.06
484.245	98.06
484.463	96.06
484.681	110.06
484.9	93.06
485.118	89.06
485.336	91.06
485.554	126.06
485.772	116.06
485.99	95.06
486.209	93.06
486.427	92.06
486.645	125.06
486.863	125.06
487.081	115.06
487.299	86.06
487.517	92.06
487.735	104.06
487.953	99.06
488.171	109.06
488.389	95.06
488.607	103.06
488.825	99.06
489.043	100.06
489.261	92.06
489.479	99.06
489.696	86.06
489.914	96.06
490.132	74.06
490.35	112.06
490.568	83.06
490.786	94.06
491.003	93.06
491.221	100.06
491.439	77.06
491.657	97.06
491.874	86.06
492.092	90.06
492.31	70.06
492.527	84.06
492.745	78.06
492.963	89.06
493.18	97.06
493.398	94.06
493.615	111.06
493.833	93.06
494.05	91.06
494.268	79.06
494.485	93.06
494.703	98.06
494.92	96.06
495.138	106.06
495.355	101.06
495.573	102.06
495.79	86.06
496.008	94.06
496.225	94.06
496.442	90.06
496.66	90.06
496.877	88.06
497.094	87.06
497.312	88.06
497.529	94.06
497.746	102.06
497.963	95.06
498.181	95.06
498.398	93.06
498.615	111.06
498.832	117.06
499.049	91.06
499.267	102.06
499.484	93.06
499.701	95.06
499.918	94.06
500.135	87.06
500.352	78.06
500.569	99.06
500.786	78.06
501.003	88.06
501.22	91.06
501.437	91.06
501.654	98.06
501.871	124.06
502.088	109.06
502.305	92.06
502.522	99.06
502.739	94.06
502.956	84.06
503.172	99.06
503.389	89.06
503.606	114.06
503.823	112.06
504.04	93.06
504.256	78.06
504.473	93.06
504.69	85.06
504.907	88.06
505.123	91.06
505.34	92.06
505.557	92.06
505.773	97.06
505.99	95.06
506.207	88.06
506.423	100.06
506.64	97.06
506.856	95.06
507.073	88.06
507.289	94.06
507.506	110.06
507.722	141.06
507.939	132.06
508.155	89.06
508.372	96.06
508.588	97.06
508.805	104.06
509.021	93.06
509.238	101.06
509.454	95.06
509.67	109.06
509.887	118.06
510.103	151.06
510.319	271.06
510.536	1009.06
510.752	3544.06
510.968	907.06
511.184	189.06
511.401	132.06
511.617	96.06
511.833	91.06
512.049	107.06
512.265	92.06
512.481	95.06
512.698	93.06
512.914	89.06
513.13	97.06
513.346	89.06
513.562	92.06
513.778	97.06
