Data from Uncirc_1991_H10_HRD10591_00061.txt Node
Date: Wed Jan 03 11:50:50 EST 2024
User: Yrep
Spectrometer: HR+D1059
Trigger mode: 1
Integration Time (sec): 1.000000E-1
Scans to average: 1
Electric dark correction enabled: true
Nonlinearity correction enabled: false
Boxcar width: 0
XAxis mode: Wavelengths
Number of Pixels in Spectrum: 2048
>>>>>Begin Spectral Data<<<<<
223.165	-14.56
223.4	-14.56
223.635	-14.56
223.869	-34.56
224.104	-26.56
224.338	-11.56
224.573	-21.56
224.808	-11.56
225.042	-17.56
225.277	2.44
225.511	3.44
225.746	15.44
225.98	8.44
226.215	15.44
226.449	11.44
226.683	16.44
226.918	25.44
227.152	39.44
227.387	25.44
227.621	41.44
227.856	36.44
228.09	34.44
228.324	54.44
228.559	68.44
228.793	63.44
229.027	65.44
229.262	87.44
229.496	74.44
229.73	87.44
229.964	84.44
230.199	68.44
230.433	70.44
230.667	82.44
230.901	67.44
231.136	79.44
231.37	73.44
231.604	87.44
231.838	94.44
232.072	69.44
232.306	102.44
232.541	79.44
232.775	79.44
233.009	79.44
233.243	73.44
233.477	71.44
233.711	87.44
233.945	86.44
234.179	87.44
234.413	82.44
234.647	77.44
234.881	85.44
235.115	93.44
235.349	77.44
235.583	79.44
235.817	87.44
236.051	89.44
236.285	73.44
236.519	84.44
236.753	75.44
236.987	77.44
237.221	92.44
237.455	89.44
237.689	85.44
237.922	87.44
238.156	81.44
238.39	88.44
238.624	81.44
238.858	83.44
239.091	83.44
239.325	86.44
239.559	87.44
239.793	93.44
240.027	79.44
240.26	80.44
240.494	83.44
240.728	81.44
240.961	78.44
241.195	81.44
241.429	86.44
241.662	91.44
241.896	75.44
242.13	73.44
242.363	69.44
242.597	78.44
242.83	81.44
243.064	76.44
243.298	69.44
243.531	83.44
243.765	78.44
243.998	86.44
244.232	84.44
244.465	72.44
244.699	63.44
244.932	83.44
245.166	86.44
245.399	86.44
245.633	86.44
245.866	83.44
246.099	75.44
246.333	83.44
246.566	80.44
246.8	78.44
247.033	83.44
247.266	59.44
247.5	65.44
247.733	85.44
247.966	72.44
248.2	86.44
248.433	75.44
248.666	80.44
248.899	82.44
249.133	63.44
249.366	99.44
249.599	97.44
249.832	77.44
250.066	84.44
250.299	77.44
250.532	75.44
250.765	76.44
250.998	90.44
251.231	93.44
251.465	84.44
251.698	61.44
251.931	83.44
252.164	84.44
252.397	71.44
252.63	87.44
252.863	79.44
253.096	91.44
253.329	67.44
253.562	85.44
253.795	79.44
254.028	80.44
254.261	97.44
254.494	80.44
254.727	66.44
254.96	78.44
255.193	84.44
255.426	76.44
255.659	76.44
255.892	85.44
256.124	77.44
256.357	84.44
256.59	72.44
256.823	69.44
257.056	93.44
257.289	79.44
257.521	83.44
257.754	77.44
257.987	88.44
258.22	81.44
258.452	89.44
258.685	71.44
258.918	79.44
259.151	88.44
259.383	80.44
259.616	83.44
259.849	79.44
260.081	76.44
260.314	86.44
260.547	85.44
260.779	79.44
261.012	82.44
261.244	80.44
261.477	84.44
261.71	97.44
261.942	106.44
262.175	109.44
262.407	102.44
262.64	85.44
262.872	89.44
263.105	87.44
263.337	92.44
263.57	96.44
263.802	70.44
264.035	91.44
264.267	80.44
264.499	79.44
264.732	79.44
264.964	78.44
265.197	88.44
265.429	85.44
265.661	87.44
265.894	86.44
266.126	86.44
266.358	80.44
266.591	94.44
266.823	92.44
267.055	81.44
267.287	77.44
267.52	81.44
267.752	93.44
267.984	81.44
268.216	90.44
268.448	79.44
268.681	87.44
268.913	92.44
269.145	99.44
269.377	93.44
269.609	86.44
269.841	89.44
270.073	93.44
270.306	81.44
270.538	93.44
270.77	91.44
271.002	86.44
271.234	97.44
271.466	81.44
271.698	76.44
271.93	81.44
272.162	98.44
272.394	84.44
272.626	75.44
272.858	85.44
273.09	86.44
273.322	83.44
273.553	81.44
273.785	84.44
274.017	77.44
274.249	83.44
274.481	80.44
274.713	83.44
274.945	85.44
275.176	81.44
275.408	96.44
275.64	88.44
275.872	75.44
276.104	83.44
276.335	82.44
276.567	110.44
276.799	103.44
277.031	104.44
277.262	79.44
277.494	99.44
277.726	95.44
277.957	83.44
278.189	88.44
278.421	92.44
278.652	91.44
278.884	82.44
279.115	87.44
279.347	85.44
279.579	82.44
279.81	104.44
280.042	96.44
280.273	98.44
280.505	95.44
280.736	87.44
280.968	83.44
281.199	79.44
281.431	87.44
281.662	89.44
281.894	95.44
282.125	81.44
282.356	114.44
282.588	149.44
282.819	102.44
283.051	83.44
283.282	82.44
283.513	87.44
283.745	95.44
283.976	73.44
284.207	85.44
284.439	82.44
284.67	81.44
284.901	94.44
285.132	81.44
285.364	82.44
285.595	93.44
285.826	95.44
286.057	85.44
286.288	95.44
286.52	93.44
286.751	90.44
286.982	81.44
287.213	101.44
287.444	88.44
287.675	94.44
287.906	106.44
288.138	106.44
288.369	78.44
288.6	97.44
288.831	83.44
289.062	104.44
289.293	85.44
289.524	86.44
289.755	94.44
289.986	85.44
290.217	92.44
290.448	91.44
290.679	78.44
290.91	92.44
291.141	98.44
291.371	96.44
291.602	82.44
291.833	85.44
292.064	86.44
292.295	86.44
292.526	92.44
292.757	87.44
292.987	80.44
293.218	101.44
293.449	89.44
293.68	107.44
293.91	88.44
294.141	89.44
294.372	80.44
294.603	88.44
294.833	92.44
295.064	86.44
295.295	90.44
295.525	89.44
295.756	101.44
295.987	119.44
296.217	145.44
296.448	144.44
296.679	101.44
296.909	103.44
297.14	98.44
297.37	91.44
297.601	95.44
297.831	88.44
298.062	93.44
298.292	92.44
298.523	91.44
298.753	90.44
298.984	89.44
299.214	93.44
299.445	105.44
299.675	99.44
299.905	104.44
300.136	102.44
300.366	95.44
300.597	96.44
300.827	96.44
301.057	102.44
301.288	91.44
301.518	95.44
301.748	85.44
301.979	105.44
302.209	82.44
302.439	101.44
302.669	97.44
302.9	102.44
303.13	92.44
303.36	85.44
303.59	112.44
303.82	88.44
304.051	113.44
304.281	95.44
304.511	81.44
304.741	103.44
304.971	94.44
305.201	100.44
305.431	108.44
305.661	92.44
305.891	87.44
306.121	96.44
306.352	113.44
306.582	104.44
306.812	89.44
307.042	85.44
307.272	93.44
307.502	89.44
307.731	92.44
307.961	86.44
308.191	109.44
308.421	89.44
308.651	88.44
308.881	81.44
309.111	99.44
309.341	99.44
309.571	103.44
309.8	94.44
310.03	114.44
310.26	105.44
310.49	80.44
310.72	89.44
310.949	108.44
311.179	87.44
311.409	108.44
311.639	100.44
311.868	97.44
312.098	102.44
312.328	99.44
312.557	105.44
312.787	103.44
313.017	100.44
313.246	96.44
313.476	90.44
313.706	95.44
313.935	100.44
314.165	102.44
314.394	95.44
314.624	89.44
314.853	92.44
315.083	86.44
315.312	92.44
315.542	96.44
315.771	100.44
316.001	92.44
316.23	84.44
316.46	88.44
316.689	87.44
316.919	84.44
317.148	104.44
317.377	102.44
317.607	96.44
317.836	93.44
318.065	92.44
318.295	102.44
318.524	109.44
318.753	87.44
318.983	97.44
319.212	107.44
319.441	102.44
319.67	103.44
319.9	94.44
320.129	89.44
320.358	101.44
320.587	99.44
320.816	97.44
321.046	100.44
321.275	109.44
321.504	111.44
321.733	96.44
321.962	100.44
322.191	102.44
322.42	101.44
322.649	109.44
322.878	125.44
323.108	122.44
323.337	127.44
323.566	141.44
323.795	157.44
324.024	219.44
324.253	403.44
324.482	885.44
324.71	1833.44
324.939	2395.44
325.168	882.44
325.397	250.44
325.626	160.44
325.855	137.44
326.084	132.44
326.313	147.44
326.542	151.44
326.77	239.44
326.999	487.44
327.228	1007.44
327.457	1869.44
327.686	1481.44
327.914	383.44
328.143	193.44
328.372	144.44
328.6	124.44
328.829	120.44
329.058	135.44
329.287	125.44
329.515	103.44
329.744	112.44
329.972	101.44
330.201	104.44
330.43	109.44
330.658	120.44
330.887	134.44
331.115	125.44
331.344	97.44
331.572	102.44
331.801	92.44
332.03	113.44
332.258	104.44
332.486	96.44
332.715	95.44
332.943	85.44
333.172	108.44
333.4	95.44
333.629	93.44
333.857	112.44
334.085	113.44
334.314	97.44
334.542	106.44
334.771	105.44
334.999	99.44
335.227	91.44
335.455	85.44
335.684	108.44
335.912	81.44
336.14	98.44
336.369	98.44
336.597	99.44
336.825	111.44
337.053	104.44
337.281	88.44
337.51	113.44
337.738	94.44
337.966	103.44
338.194	97.44
338.422	103.44
338.65	107.44
338.878	93.44
339.106	99.44
339.334	101.44
339.562	105.44
339.79	92.44
340.018	87.44
340.246	93.44
340.474	94.44
340.702	83.44
340.93	97.44
341.158	88.44
341.386	95.44
341.614	90.44
341.842	94.44
342.07	94.44
342.298	92.44
342.526	103.44
342.754	88.44
342.981	101.44
343.209	96.44
343.437	116.44
343.665	81.44
343.893	95.44
344.12	91.44
344.348	97.44
344.576	100.44
344.804	104.44
345.031	98.44
345.259	95.44
345.487	97.44
345.714	102.44
345.942	94.44
346.17	92.44
346.397	94.44
346.625	91.44
346.853	81.44
347.08	99.44
347.308	80.44
347.535	115.44
347.763	93.44
347.99	112.44
348.218	102.44
348.445	117.44
348.673	105.44
348.9	107.44
349.128	100.44
349.355	111.44
349.583	105.44
349.81	96.44
350.037	98.44
350.265	87.44
350.492	92.44
350.72	112.44
350.947	91.44
351.174	114.44
351.402	119.44
351.629	117.44
351.856	97.44
352.083	101.44
352.311	112.44
352.538	120.44
352.765	112.44
352.992	128.44
353.22	110.44
353.447	117.44
353.674	108.44
353.901	95.44
354.128	107.44
354.355	100.44
354.583	86.44
354.81	112.44
355.037	98.44
355.264	102.44
355.491	101.44
355.718	88.44
355.945	100.44
356.172	117.44
356.399	100.44
356.626	102.44
356.853	96.44
357.08	95.44
357.307	86.44
357.534	96.44
357.761	103.44
357.988	91.44
358.215	94.44
358.441	90.44
358.668	87.44
358.895	95.44
359.122	89.44
359.349	95.44
359.576	92.44
359.802	111.44
360.029	118.44
360.256	114.44
360.483	105.44
360.709	86.44
360.936	115.44
361.163	109.44
361.39	111.44
361.616	103.44
361.843	101.44
362.07	106.44
362.296	110.44
362.523	99.44
362.749	92.44
362.976	93.44
363.203	95.44
363.429	88.44
363.656	93.44
363.882	94.44
364.109	97.44
364.335	92.44
364.562	92.44
364.788	94.44
365.015	102.44
365.241	102.44
365.468	109.44
365.694	115.44
365.92	95.44
366.147	99.44
366.373	95.44
366.599	87.44
366.826	86.44
367.052	81.44
367.278	88.44
367.505	91.44
367.731	87.44
367.957	87.44
368.184	80.44
368.41	98.44
368.636	122.44
368.862	115.44
369.089	92.44
369.315	103.44
369.541	95.44
369.767	98.44
369.993	96.44
370.219	77.44
370.445	100.44
370.672	90.44
370.898	79.44
371.124	83.44
371.35	99.44
371.576	90.44
371.802	88.44
372.028	101.44
372.254	87.44
372.48	91.44
372.706	79.44
372.932	88.44
373.158	100.44
373.384	104.44
373.61	100.44
373.835	81.44
374.061	103.44
374.287	89.44
374.513	95.44
374.739	83.44
374.965	75.44
375.191	101.44
375.416	97.44
375.642	92.44
375.868	95.44
376.094	81.44
376.319	95.44
376.545	86.44
376.771	105.44
376.997	101.44
377.222	91.44
377.448	96.44
377.674	98.44
377.899	89.44
378.125	86.44
378.35	90.44
378.576	96.44
378.802	91.44
379.027	102.44
379.253	105.44
379.478	109.44
379.704	95.44
379.929	89.44
380.155	90.44
380.38	89.44
380.606	114.44
380.831	96.44
381.057	94.44
381.282	92.44
381.507	96.44
381.733	88.44
381.958	97.44
382.184	99.44
382.409	105.44
382.634	95.44
382.86	95.44
383.085	95.44
383.31	105.44
383.535	88.44
383.761	99.44
383.986	105.44
384.211	90.44
384.436	89.44
384.662	113.44
384.887	109.44
385.112	96.44
385.337	100.44
385.562	102.44
385.787	116.44
386.013	109.44
386.238	112.44
386.463	96.44
386.688	94.44
386.913	94.44
387.138	104.44
387.363	117.44
387.588	102.44
387.813	106.44
388.038	88.44
388.263	122.44
388.488	105.44
388.713	105.44
388.938	108.44
389.163	94.44
389.387	83.44
389.612	81.44
389.837	108.44
390.062	79.44
390.287	92.44
390.512	92.44
390.736	104.44
390.961	100.44
391.186	87.44
391.411	107.44
391.636	100.44
391.86	97.44
392.085	89.44
392.31	86.44
392.534	81.44
392.759	85.44
392.984	70.44
393.208	101.44
393.433	90.44
393.658	93.44
393.882	88.44
394.107	86.44
394.331	79.44
394.556	83.44
394.78	91.44
395.005	83.44
395.229	96.44
395.454	94.44
395.678	64.44
395.903	96.44
396.127	105.44
396.352	84.44
396.576	92.44
396.801	83.44
397.025	86.44
397.249	94.44
397.474	85.44
397.698	80.44
397.922	91.44
398.147	95.44
398.371	82.44
398.595	102.44
398.82	87.44
399.044	82.44
399.268	84.44
399.492	92.44
399.717	92.44
399.941	105.44
400.165	97.44
400.389	63.44
400.613	79.44
400.837	92.44
401.062	85.44
401.286	90.44
401.51	92.44
401.734	77.44
401.958	111.44
402.182	129.44
402.406	145.44
402.63	123.44
402.854	97.44
403.078	87.44
403.302	100.44
403.526	93.44
403.75	93.44
403.974	81.44
404.198	93.44
404.422	83.44
404.645	94.44
404.869	87.44
405.093	111.44
405.317	93.44
405.541	102.44
405.765	88.44
405.988	125.44
406.212	181.44
406.436	246.44
406.66	147.44
406.883	123.44
407.107	86.44
407.331	115.44
407.555	100.44
407.778	103.44
408.002	83.44
408.226	79.44
408.449	70.44
408.673	96.44
408.896	102.44
409.12	103.44
409.344	88.44
409.567	81.44
409.791	95.44
410.014	104.44
410.238	101.44
410.461	104.44
410.685	92.44
410.908	95.44
411.132	112.44
411.355	103.44
411.578	96.44
411.802	107.44
412.025	85.44
412.249	95.44
412.472	87.44
412.695	91.44
412.919	82.44
413.142	95.44
413.365	90.44
413.589	94.44
413.812	96.44
414.035	94.44
414.258	85.44
414.482	104.44
414.705	95.44
414.928	84.44
415.151	83.44
415.374	92.44
415.597	98.44
415.821	88.44
416.044	101.44
416.267	109.44
416.49	103.44
416.713	99.44
416.936	111.44
417.159	100.44
417.382	81.44
417.605	102.44
417.828	99.44
418.051	82.44
418.274	90.44
418.497	87.44
418.72	91.44
418.943	99.44
419.166	101.44
419.389	101.44
419.611	91.44
419.834	85.44
420.057	98.44
420.28	91.44
420.503	72.44
420.726	90.44
420.948	87.44
421.171	101.44
421.394	117.44
421.617	103.44
421.839	79.44
422.062	99.44
422.285	98.44
422.507	102.44
422.73	104.44
422.953	87.44
423.175	93.44
423.398	93.44
423.621	91.44
423.843	78.44
424.066	101.44
424.288	94.44
424.511	93.44
424.733	90.44
424.956	116.44
425.178	97.44
425.401	103.44
425.623	118.44
425.846	89.44
426.068	92.44
426.291	96.44
426.513	113.44
426.735	105.44
426.958	97.44
427.18	104.44
427.402	145.44
427.625	183.44
427.847	128.44
428.069	87.44
428.292	96.44
428.514	93.44
428.736	88.44
428.958	93.44
429.181	88.44
429.403	97.44
429.625	77.44
429.847	82.44
430.069	108.44
430.292	99.44
430.514	86.44
430.736	97.44
430.958	80.44
431.18	99.44
431.402	86.44
431.624	73.44
431.846	79.44
432.068	91.44
432.29	100.44
432.512	95.44
432.734	93.44
432.956	78.44
433.178	93.44
433.4	101.44
433.622	107.44
433.844	93.44
434.066	91.44
434.287	104.44
434.509	95.44
434.731	94.44
434.953	96.44
435.175	85.44
435.397	85.44
435.618	90.44
435.84	104.44
436.062	131.44
436.284	120.44
436.505	111.44
436.727	120.44
436.949	97.44
437.17	100.44
437.392	77.44
437.614	81.44
437.835	117.44
438.057	134.44
438.278	119.44
438.5	116.44
438.721	131.44
438.943	109.44
439.165	87.44
439.386	91.44
439.608	94.44
439.829	98.44
440.05	125.44
440.272	150.44
440.493	83.44
440.715	105.44
440.936	95.44
441.158	104.44
441.379	100.44
441.6	101.44
441.822	88.44
442.043	96.44
442.264	113.44
442.486	102.44
442.707	99.44
442.928	118.44
443.149	125.44
443.371	130.44
443.592	115.44
443.813	115.44
444.034	130.44
444.255	102.44
444.476	92.44
444.698	79.44
444.919	93.44
445.14	140.44
445.361	121.44
445.582	126.44
445.803	139.44
446.024	153.44
446.245	135.44
446.466	127.44
446.687	87.44
446.908	93.44
447.129	88.44
447.35	101.44
447.571	104.44
447.792	104.44
448.013	108.44
448.234	103.44
448.455	110.44
448.675	125.44
448.896	127.44
449.117	103.44
449.338	105.44
449.559	128.44
449.779	127.44
450	102.44
450.221	103.44
450.442	87.44
450.662	98.44
450.883	108.44
451.104	118.44
451.324	88.44
451.545	92.44
451.766	101.44
451.986	85.44
452.207	99.44
452.428	93.44
452.648	97.44
452.869	112.44
453.089	110.44
453.31	121.44
453.53	99.44
453.751	91.44
453.971	89.44
454.192	101.44
454.412	76.44
454.633	97.44
454.853	85.44
455.073	91.44
455.294	98.44
455.514	112.44
455.734	91.44
455.955	70.44
456.175	93.44
456.395	91.44
456.616	94.44
456.836	79.44
457.056	76.44
457.276	87.44
457.497	81.44
457.717	91.44
457.937	86.44
458.157	83.44
458.377	97.44
458.598	97.44
458.818	168.44
459.038	157.44
459.258	124.44
459.478	88.44
459.698	101.44
459.918	92.44
460.138	87.44
460.358	90.44
460.578	90.44
460.798	94.44
461.018	83.44
461.238	89.44
461.458	103.44
461.678	96.44
461.898	84.44
462.118	99.44
462.338	86.44
462.558	72.44
462.777	81.44
462.997	97.44
463.217	88.44
463.437	85.44
463.657	97.44
463.876	95.44
464.096	103.44
464.316	92.44
464.536	105.44
464.755	97.44
464.975	112.44
465.195	165.44
465.414	163.44
465.634	108.44
465.854	95.44
466.073	101.44
466.293	91.44
466.512	83.44
466.732	75.44
466.951	83.44
467.171	84.44
467.391	94.44
467.61	101.44
467.829	101.44
468.049	97.44
468.268	87.44
468.488	88.44
468.707	81.44
468.927	72.44
469.146	99.44
469.365	100.44
469.585	82.44
469.804	91.44
470.023	100.44
470.243	88.44
470.462	93.44
470.681	103.44
470.901	97.44
471.12	101.44
471.339	79.44
471.558	84.44
471.777	90.44
471.997	86.44
472.216	87.44
472.435	92.44
472.654	97.44
472.873	103.44
473.092	88.44
473.311	70.44
473.53	96.44
473.749	87.44
473.968	92.44
474.187	103.44
474.406	96.44
474.625	78.44
474.844	79.44
475.063	86.44
475.282	92.44
475.501	68.44
475.72	85.44
475.939	88.44
476.158	75.44
476.377	85.44
476.596	88.44
476.814	104.44
477.033	95.44
477.252	73.44
477.471	88.44
477.69	94.44
477.908	84.44
478.127	96.44
478.346	83.44
478.564	85.44
478.783	105.44
479.002	102.44
479.22	100.44
479.439	98.44
479.658	99.44
479.876	90.44
480.095	98.44
480.313	88.44
480.532	74.44
480.751	100.44
480.969	103.44
481.188	103.44
481.406	102.44
481.624	78.44
481.843	101.44
482.061	100.44
482.28	81.44
482.498	94.44
482.717	90.44
482.935	90.44
483.153	100.44
483.372	97.44
483.59	91.44
483.808	88.44
484.027	87.44
484.245	81.44
484.463	85.44
484.681	112.44
484.9	87.44
485.118	96.44
485.336	90.44
485.554	105.44
485.772	93.44
485.99	102.44
486.209	106.44
486.427	97.44
486.645	123.44
486.863	111.44
487.081	90.44
487.299	98.44
487.517	85.44
487.735	92.44
487.953	88.44
488.171	98.44
488.389	102.44
488.607	87.44
488.825	89.44
489.043	93.44
489.261	91.44
489.479	99.44
489.696	102.44
489.914	74.44
490.132	88.44
490.35	82.44
490.568	97.44
490.786	95.44
491.003	94.44
491.221	103.44
491.439	103.44
491.657	79.44
491.874	101.44
492.092	79.44
492.31	95.44
492.527	109.44
492.745	102.44
492.963	93.44
493.18	88.44
493.398	103.44
493.615	90.44
493.833	95.44
494.05	95.44
494.268	100.44
494.485	85.44
494.703	93.44
494.92	88.44
495.138	94.44
495.355	100.44
495.573	96.44
495.79	93.44
496.008	91.44
496.225	92.44
496.442	85.44
496.66	91.44
496.877	95.44
497.094	93.44
497.312	100.44
497.529	82.44
497.746	89.44
497.963	97.44
498.181	88.44
498.398	92.44
498.615	116.44
498.832	103.44
499.049	88.44
499.267	93.44
499.484	87.44
499.701	79.44
499.918	102.44
500.135	71.44
500.352	91.44
500.569	103.44
500.786	93.44
501.003	84.44
501.22	94.44
501.437	92.44
501.654	111.44
501.871	116.44
502.088	93.44
502.305	72.44
502.522	94.44
502.739	101.44
502.956	81.44
503.172	98.44
503.389	88.44
503.606	108.44
503.823	108.44
504.04	102.44
504.256	92.44
504.473	85.44
504.69	92.44
504.907	86.44
505.123	90.44
505.34	91.44
505.557	83.44
505.773	104.44
505.99	107.44
506.207	83.44
506.423	84.44
506.64	93.44
506.856	85.44
507.073	88.44
507.289	89.44
507.506	94.44
507.722	112.44
507.939	104.44
508.155	104.44
508.372	92.44
508.588	94.44
508.805	101.44
509.021	91.44
509.238	83.44
509.454	100.44
509.67	108.44
509.887	111.44
510.103	139.44
510.319	215.44
510.536	787.44
510.752	2417.44
510.968	641.44
511.184	148.44
511.401	101.44
511.617	104.44
511.833	98.44
512.049	83.44
512.265	96.44
512.481	92.44
512.698	95.44
512.914	104.44
513.13	90.44
513.346	97.44
513.562	109.44
513.778	111.44
513.994	96.44
514.21	100.44
