Data from Uncirc_1991_H10_HRD10591_00043.txt Node
Date: Wed Jan 03 11:50:46 EST 2024
User: Yrep
Spectrometer: HR+D1059
Trigger mode: 1
Integration Time (sec): 1.000000E-1
Scans to average: 1
Electric dark correction enabled: true
Nonlinearity correction enabled: false
Boxcar width: 0
XAxis mode: Wavelengths
Number of Pixels in Spectrum: 2048
>>>>>Begin Spectral Data<<<<<
223.165	-12.94
223.4	-12.94
223.635	-12.94
223.869	-8.94
224.104	-19.94
224.338	-22.94
224.573	-29.94
224.808	-27.94
225.042	-7.94
225.277	-3.94
225.511	1.06
225.746	6.06
225.98	7.06
226.215	4.06
226.449	27.06
226.683	33.06
226.918	27.06
227.152	29.06
227.387	28.06
227.621	33.06
227.856	34.06
228.09	46.06
228.324	45.06
228.559	66.06
228.793	55.06
229.027	63.06
229.262	49.06
229.496	81.06
229.73	75.06
229.964	81.06
230.199	68.06
230.433	71.06
230.667	77.06
230.901	66.06
231.136	66.06
231.37	74.06
231.604	83.06
231.838	68.06
232.072	78.06
232.306	81.06
232.541	81.06
232.775	83.06
233.009	73.06
233.243	60.06
233.477	65.06
233.711	71.06
233.945	73.06
234.179	91.06
234.413	84.06
234.647	76.06
234.881	71.06
235.115	75.06
235.349	79.06
235.583	85.06
235.817	91.06
236.051	85.06
236.285	67.06
236.519	87.06
236.753	90.06
236.987	72.06
237.221	102.06
237.455	97.06
237.689	81.06
237.922	71.06
238.156	71.06
238.39	72.06
238.624	72.06
238.858	64.06
239.091	67.06
239.325	68.06
239.559	83.06
239.793	77.06
240.027	80.06
240.26	84.06
240.494	81.06
240.728	94.06
240.961	83.06
241.195	72.06
241.429	83.06
241.662	73.06
241.896	83.06
242.13	75.06
242.363	81.06
242.597	85.06
242.83	74.06
243.064	75.06
243.298	56.06
243.531	63.06
243.765	84.06
243.998	69.06
244.232	75.06
244.465	111.06
244.699	94.06
244.932	77.06
245.166	78.06
245.399	62.06
245.633	64.06
245.866	76.06
246.099	82.06
246.333	88.06
246.566	80.06
246.8	78.06
247.033	76.06
247.266	66.06
247.5	90.06
247.733	73.06
247.966	91.06
248.2	87.06
248.433	85.06
248.666	81.06
248.899	82.06
249.133	93.06
249.366	95.06
249.599	101.06
249.832	92.06
250.066	80.06
250.299	92.06
250.532	66.06
250.765	75.06
250.998	70.06
251.231	73.06
251.465	73.06
251.698	77.06
251.931	76.06
252.164	83.06
252.397	82.06
252.63	76.06
252.863	66.06
253.096	83.06
253.329	99.06
253.562	88.06
253.795	92.06
254.028	81.06
254.261	74.06
254.494	81.06
254.727	78.06
254.96	88.06
255.193	93.06
255.426	67.06
255.659	74.06
255.892	67.06
256.124	82.06
256.357	79.06
256.59	92.06
256.823	90.06
257.056	68.06
257.289	83.06
257.521	79.06
257.754	77.06
257.987	77.06
258.22	68.06
258.452	64.06
258.685	92.06
258.918	86.06
259.151	93.06
259.383	89.06
259.616	78.06
259.849	82.06
260.081	72.06
260.314	79.06
260.547	78.06
260.779	77.06
261.012	99.06
261.244	89.06
261.477	80.06
261.71	71.06
261.942	117.06
262.175	120.06
262.407	79.06
262.64	85.06
262.872	85.06
263.105	69.06
263.337	80.06
263.57	80.06
263.802	80.06
264.035	87.06
264.267	83.06
264.499	64.06
264.732	83.06
264.964	77.06
265.197	95.06
265.429	85.06
265.661	86.06
265.894	77.06
266.126	73.06
266.358	82.06
266.591	79.06
266.823	84.06
267.055	83.06
267.287	85.06
267.52	80.06
267.752	76.06
267.984	69.06
268.216	89.06
268.448	69.06
268.681	76.06
268.913	98.06
269.145	84.06
269.377	100.06
269.609	84.06
269.841	76.06
270.073	76.06
270.306	72.06
270.538	91.06
270.77	81.06
271.002	85.06
271.234	85.06
271.466	89.06
271.698	89.06
271.93	88.06
272.162	78.06
272.394	79.06
272.626	91.06
272.858	77.06
273.09	89.06
273.322	82.06
273.553	91.06
273.785	85.06
274.017	74.06
274.249	92.06
274.481	88.06
274.713	82.06
274.945	79.06
275.176	94.06
275.408	98.06
275.64	80.06
275.872	77.06
276.104	85.06
276.335	92.06
276.567	97.06
276.799	112.06
277.031	109.06
277.262	82.06
277.494	88.06
277.726	83.06
277.957	92.06
278.189	82.06
278.421	95.06
278.652	86.06
278.884	86.06
279.115	90.06
279.347	91.06
279.579	90.06
279.81	83.06
280.042	78.06
280.273	91.06
280.505	77.06
280.736	88.06
280.968	87.06
281.199	97.06
281.431	84.06
281.662	95.06
281.894	93.06
282.125	82.06
282.356	129.06
282.588	149.06
282.819	109.06
283.051	104.06
283.282	72.06
283.513	88.06
283.745	88.06
283.976	88.06
284.207	78.06
284.439	82.06
284.67	93.06
284.901	88.06
285.132	87.06
285.364	89.06
285.595	84.06
285.826	83.06
286.057	76.06
286.288	87.06
286.52	84.06
286.751	93.06
286.982	81.06
287.213	78.06
287.444	76.06
287.675	79.06
287.906	102.06
288.138	95.06
288.369	89.06
288.6	97.06
288.831	84.06
289.062	99.06
289.293	90.06
289.524	83.06
289.755	87.06
289.986	85.06
290.217	81.06
290.448	98.06
290.679	79.06
290.91	92.06
291.141	88.06
291.371	92.06
291.602	94.06
291.833	81.06
292.064	90.06
292.295	77.06
292.526	84.06
292.757	105.06
292.987	82.06
293.218	81.06
293.449	89.06
293.68	86.06
293.91	89.06
294.141	83.06
294.372	96.06
294.603	99.06
294.833	94.06
295.064	81.06
295.295	97.06
295.525	96.06
295.756	100.06
295.987	114.06
296.217	125.06
296.448	117.06
296.679	99.06
296.909	87.06
297.14	75.06
297.37	83.06
297.601	95.06
297.831	86.06
298.062	100.06
298.292	80.06
298.523	102.06
298.753	81.06
298.984	80.06
299.214	81.06
299.445	88.06
299.675	94.06
299.905	101.06
300.136	88.06
300.366	80.06
300.597	82.06
300.827	99.06
301.057	99.06
301.288	111.06
301.518	93.06
301.748	81.06
301.979	99.06
302.209	90.06
302.439	83.06
302.669	87.06
302.9	82.06
303.13	99.06
303.36	95.06
303.59	84.06
303.82	114.06
304.051	101.06
304.281	93.06
304.511	89.06
304.741	88.06
304.971	92.06
305.201	100.06
305.431	91.06
305.661	82.06
305.891	74.06
306.121	90.06
306.352	83.06
306.582	98.06
306.812	77.06
307.042	90.06
307.272	90.06
307.502	84.06
307.731	96.06
307.961	79.06
308.191	82.06
308.421	104.06
308.651	92.06
308.881	81.06
309.111	103.06
309.341	101.06
309.571	91.06
309.8	96.06
310.03	92.06
310.26	89.06
310.49	100.06
310.72	97.06
310.949	112.06
311.179	104.06
311.409	89.06
311.639	96.06
311.868	94.06
312.098	99.06
312.328	90.06
312.557	122.06
312.787	112.06
313.017	107.06
313.246	97.06
313.476	99.06
313.706	98.06
313.935	91.06
314.165	86.06
314.394	120.06
314.624	89.06
314.853	104.06
315.083	81.06
315.312	103.06
315.542	91.06
315.771	87.06
316.001	96.06
316.23	87.06
316.46	75.06
316.689	82.06
316.919	91.06
317.148	94.06
317.377	97.06
317.607	93.06
317.836	94.06
318.065	111.06
318.295	87.06
318.524	82.06
318.753	90.06
318.983	96.06
319.212	108.06
319.441	107.06
319.67	120.06
319.9	96.06
320.129	90.06
320.358	100.06
320.587	76.06
320.816	95.06
321.046	106.06
321.275	99.06
321.504	91.06
321.733	103.06
321.962	100.06
322.191	107.06
322.42	106.06
322.649	105.06
322.878	126.06
323.108	115.06
323.337	135.06
323.566	159.06
323.795	160.06
324.024	241.06
324.253	480.06
324.482	1090.06
324.71	2285.06
324.939	3160.06
325.168	1140.06
325.397	323.06
325.626	171.06
325.855	121.06
326.084	139.06
326.313	139.06
326.542	170.06
326.77	273.06
326.999	561.06
327.228	1219.06
327.457	2329.06
327.686	1905.06
327.914	478.06
328.143	223.06
328.372	179.06
328.6	144.06
328.829	118.06
329.058	138.06
329.287	162.06
329.515	107.06
329.744	106.06
329.972	103.06
330.201	111.06
330.43	119.06
330.658	130.06
330.887	169.06
331.115	139.06
331.344	105.06
331.572	100.06
331.801	113.06
332.03	116.06
332.258	99.06
332.486	93.06
332.715	102.06
332.943	85.06
333.172	94.06
333.4	104.06
333.629	108.06
333.857	112.06
334.085	112.06
334.314	92.06
334.542	92.06
334.771	99.06
334.999	98.06
335.227	99.06
335.455	91.06
335.684	96.06
335.912	87.06
336.14	96.06
336.369	93.06
336.597	98.06
336.825	91.06
337.053	86.06
337.281	84.06
337.51	83.06
337.738	97.06
337.966	95.06
338.194	86.06
338.422	93.06
338.65	68.06
338.878	113.06
339.106	94.06
339.334	85.06
339.562	105.06
339.79	90.06
340.018	77.06
340.246	100.06
340.474	97.06
340.702	92.06
340.93	82.06
341.158	73.06
341.386	90.06
341.614	109.06
341.842	93.06
342.07	98.06
342.298	100.06
342.526	88.06
342.754	80.06
342.981	97.06
343.209	81.06
343.437	96.06
343.665	96.06
343.893	89.06
344.12	86.06
344.348	90.06
344.576	93.06
344.804	97.06
345.031	112.06
345.259	93.06
345.487	98.06
345.714	99.06
345.942	81.06
346.17	80.06
346.397	81.06
346.625	96.06
346.853	89.06
347.08	92.06
347.308	87.06
347.535	94.06
347.763	113.06
347.99	107.06
348.218	100.06
348.445	111.06
348.673	99.06
348.9	100.06
349.128	86.06
349.355	85.06
349.583	88.06
349.81	83.06
350.037	93.06
350.265	101.06
350.492	117.06
350.72	96.06
350.947	99.06
351.174	122.06
351.402	125.06
351.629	102.06
351.856	91.06
352.083	111.06
352.311	106.06
352.538	108.06
352.765	127.06
352.992	116.06
353.22	117.06
353.447	109.06
353.674	103.06
353.901	98.06
354.128	97.06
354.355	109.06
354.583	96.06
354.81	100.06
355.037	98.06
355.264	93.06
355.491	83.06
355.718	87.06
355.945	93.06
356.172	101.06
356.399	92.06
356.626	85.06
356.853	99.06
357.08	91.06
357.307	89.06
357.534	85.06
357.761	83.06
357.988	96.06
358.215	91.06
358.441	93.06
358.668	77.06
358.895	81.06
359.122	94.06
359.349	98.06
359.576	90.06
359.802	98.06
360.029	131.06
360.256	126.06
360.483	108.06
360.709	89.06
360.936	95.06
361.163	87.06
361.39	84.06
361.616	74.06
361.843	93.06
362.07	81.06
362.296	101.06
362.523	99.06
362.749	83.06
362.976	82.06
363.203	102.06
363.429	89.06
363.656	97.06
363.882	95.06
364.109	96.06
364.335	88.06
364.562	93.06
364.788	77.06
365.015	94.06
365.241	111.06
365.468	95.06
365.694	112.06
365.92	95.06
366.147	99.06
366.373	94.06
366.599	80.06
366.826	85.06
367.052	82.06
367.278	88.06
367.505	84.06
367.731	96.06
367.957	97.06
368.184	103.06
368.41	91.06
368.636	117.06
368.862	118.06
369.089	113.06
369.315	110.06
369.541	113.06
369.767	78.06
369.993	93.06
370.219	81.06
370.445	92.06
370.672	98.06
370.898	88.06
371.124	96.06
371.35	91.06
371.576	91.06
371.802	82.06
372.028	78.06
372.254	89.06
372.48	83.06
372.706	83.06
372.932	96.06
373.158	82.06
373.384	89.06
373.61	88.06
373.835	111.06
374.061	95.06
374.287	101.06
374.513	83.06
374.739	98.06
374.965	83.06
375.191	103.06
375.416	95.06
375.642	89.06
375.868	90.06
376.094	89.06
376.319	90.06
376.545	105.06
376.771	88.06
376.997	85.06
377.222	97.06
377.448	94.06
377.674	77.06
377.899	84.06
378.125	90.06
378.35	94.06
378.576	89.06
378.802	82.06
379.027	100.06
379.253	91.06
379.478	87.06
379.704	85.06
379.929	95.06
380.155	91.06
380.38	88.06
380.606	87.06
380.831	86.06
381.057	112.06
381.282	81.06
381.507	92.06
381.733	89.06
381.958	90.06
382.184	103.06
382.409	89.06
382.634	113.06
382.86	90.06
383.085	100.06
383.31	112.06
383.535	96.06
383.761	89.06
383.986	105.06
384.211	88.06
384.436	98.06
384.662	87.06
384.887	101.06
385.112	100.06
385.337	103.06
385.562	93.06
385.787	93.06
386.013	110.06
386.238	92.06
386.463	105.06
386.688	105.06
386.913	105.06
387.138	105.06
387.363	91.06
387.588	95.06
387.813	89.06
388.038	80.06
388.263	107.06
388.488	100.06
388.713	92.06
388.938	88.06
389.163	84.06
389.387	105.06
389.612	98.06
389.837	87.06
390.062	105.06
390.287	97.06
390.512	108.06
390.736	93.06
390.961	81.06
391.186	96.06
391.411	98.06
391.636	90.06
391.86	84.06
392.085	77.06
392.31	76.06
392.534	78.06
392.759	83.06
392.984	82.06
393.208	89.06
393.433	88.06
393.658	76.06
393.882	70.06
394.107	77.06
394.331	84.06
394.556	95.06
394.78	85.06
395.005	106.06
395.229	96.06
395.454	84.06
395.678	82.06
395.903	69.06
396.127	80.06
396.352	87.06
396.576	87.06
396.801	81.06
397.025	85.06
397.249	88.06
397.474	93.06
397.698	82.06
397.922	79.06
398.147	83.06
398.371	72.06
398.595	99.06
398.82	80.06
399.044	83.06
399.268	78.06
399.492	94.06
399.717	89.06
399.941	92.06
400.165	115.06
400.389	104.06
400.613	88.06
400.837	83.06
401.062	82.06
401.286	100.06
401.51	100.06
401.734	98.06
401.958	87.06
402.182	136.06
402.406	174.06
402.63	130.06
402.854	93.06
403.078	85.06
403.302	81.06
403.526	98.06
403.75	89.06
403.974	92.06
404.198	91.06
404.422	96.06
404.645	75.06
404.869	90.06
405.093	99.06
405.317	103.06
405.541	96.06
405.765	104.06
405.988	104.06
406.212	180.06
406.436	266.06
406.66	167.06
406.883	98.06
407.107	107.06
407.331	104.06
407.555	99.06
407.778	113.06
408.002	81.06
408.226	100.06
408.449	92.06
408.673	96.06
408.896	96.06
409.12	95.06
409.344	90.06
409.567	89.06
409.791	99.06
410.014	95.06
410.238	85.06
410.461	100.06
410.685	93.06
410.908	91.06
411.132	123.06
411.355	104.06
411.578	87.06
411.802	75.06
412.025	81.06
412.249	94.06
412.472	82.06
412.695	78.06
412.919	94.06
413.142	90.06
413.365	84.06
413.589	83.06
413.812	91.06
414.035	80.06
414.258	93.06
414.482	90.06
414.705	98.06
414.928	93.06
415.151	92.06
415.374	82.06
415.597	92.06
415.821	98.06
416.044	82.06
416.267	90.06
416.49	79.06
416.713	84.06
416.936	88.06
417.159	82.06
417.382	74.06
417.605	76.06
417.828	83.06
418.051	95.06
418.274	95.06
418.497	96.06
418.72	89.06
418.943	84.06
419.166	77.06
419.389	88.06
419.611	99.06
419.834	82.06
420.057	74.06
420.28	90.06
420.503	97.06
420.726	85.06
420.948	84.06
421.171	105.06
421.394	109.06
421.617	93.06
421.839	93.06
422.062	89.06
422.285	79.06
422.507	109.06
422.73	123.06
422.953	82.06
423.175	97.06
423.398	90.06
423.621	60.06
423.843	85.06
424.066	74.06
424.288	95.06
424.511	100.06
424.733	121.06
424.956	121.06
425.178	107.06
425.401	103.06
425.623	94.06
425.846	104.06
426.068	96.06
426.291	82.06
426.513	96.06
426.735	91.06
426.958	80.06
427.18	122.06
427.402	176.06
427.625	206.06
427.847	155.06
428.069	115.06
428.292	80.06
428.514	103.06
428.736	93.06
428.958	85.06
429.181	79.06
429.403	91.06
429.625	89.06
429.847	107.06
430.069	111.06
430.292	87.06
430.514	76.06
430.736	73.06
430.958	89.06
431.18	83.06
431.402	92.06
431.624	87.06
431.846	76.06
432.068	79.06
432.29	84.06
432.512	96.06
432.734	85.06
432.956	94.06
433.178	108.06
433.4	122.06
433.622	86.06
433.844	89.06
434.066	100.06
434.287	88.06
434.509	96.06
434.731	104.06
434.953	82.06
435.175	87.06
435.397	91.06
435.618	92.06
435.84	123.06
436.062	150.06
436.284	127.06
436.505	115.06
436.727	103.06
436.949	92.06
437.17	85.06
437.392	90.06
437.614	84.06
437.835	115.06
438.057	149.06
438.278	143.06
438.5	133.06
438.721	164.06
438.943	113.06
439.165	93.06
439.386	101.06
439.608	83.06
439.829	109.06
440.05	157.06
440.272	188.06
440.493	114.06
440.715	95.06
440.936	80.06
441.158	95.06
441.379	99.06
441.6	82.06
441.822	100.06
442.043	95.06
442.264	124.06
442.486	116.06
442.707	101.06
442.928	112.06
443.149	155.06
443.371	164.06
443.592	124.06
443.813	138.06
444.034	123.06
444.255	90.06
444.476	100.06
444.698	83.06
444.919	100.06
445.14	126.06
445.361	124.06
445.582	141.06
445.803	185.06
446.024	189.06
446.245	186.06
446.466	134.06
446.687	104.06
446.908	105.06
447.129	106.06
447.35	87.06
447.571	102.06
447.792	89.06
448.013	93.06
448.234	115.06
448.455	117.06
448.675	153.06
448.896	153.06
449.117	105.06
449.338	116.06
449.559	177.06
449.779	187.06
450	100.06
450.221	99.06
450.442	89.06
450.662	99.06
450.883	117.06
451.104	120.06
451.324	121.06
451.545	96.06
451.766	98.06
451.986	84.06
452.207	101.06
452.428	89.06
452.648	100.06
452.869	108.06
453.089	127.06
453.31	149.06
453.53	101.06
453.751	91.06
453.971	116.06
454.192	130.06
454.412	94.06
454.633	79.06
454.853	89.06
455.073	88.06
455.294	95.06
455.514	114.06
455.734	90.06
455.955	85.06
456.175	85.06
456.395	74.06
456.616	83.06
456.836	80.06
457.056	85.06
457.276	87.06
457.497	76.06
457.717	78.06
457.937	91.06
458.157	91.06
458.377	92.06
458.598	108.06
458.818	167.06
459.038	211.06
459.258	139.06
459.478	89.06
459.698	99.06
459.918	91.06
460.138	87.06
460.358	85.06
460.578	94.06
460.798	99.06
461.018	91.06
461.238	98.06
461.458	77.06
461.678	105.06
461.898	87.06
462.118	98.06
462.338	76.06
462.558	80.06
462.777	81.06
462.997	84.06
463.217	87.06
463.437	87.06
463.657	100.06
463.876	86.06
464.096	77.06
464.316	93.06
464.536	99.06
464.755	99.06
464.975	119.06
465.195	199.06
465.414	205.06
465.634	106.06
465.854	100.06
466.073	100.06
466.293	94.06
466.512	82.06
466.732	87.06
466.951	83.06
467.171	79.06
467.391	89.06
467.61	106.06
467.829	109.06
468.049	98.06
468.268	87.06
468.488	78.06
468.707	85.06
468.927	91.06
469.146	92.06
469.365	76.06
469.585	97.06
469.804	87.06
470.023	106.06
470.243	95.06
470.462	110.06
470.681	113.06
470.901	110.06
471.12	89.06
471.339	80.06
471.558	85.06
471.777	93.06
471.997	82.06
472.216	89.06
472.435	95.06
472.654	90.06
472.873	85.06
473.092	90.06
473.311	78.06
473.53	79.06
473.749	93.06
473.968	103.06
474.187	139.06
474.406	113.06
474.625	80.06
474.844	95.06
475.063	80.06
475.282	89.06
475.501	78.06
475.72	75.06
475.939	85.06
476.158	92.06
476.377	90.06
476.596	93.06
476.814	89.06
477.033	86.06
477.252	90.06
477.471	64.06
477.69	73.06
477.908	105.06
478.127	90.06
478.346	91.06
478.564	89.06
478.783	89.06
479.002	85.06
479.22	91.06
479.439	100.06
479.658	116.06
479.876	106.06
480.095	101.06
480.313	84.06
480.532	104.06
480.751	76.06
480.969	110.06
481.188	94.06
481.406	113.06
481.624	92.06
481.843	95.06
482.061	91.06
482.28	91.06
482.498	102.06
482.717	83.06
482.935	87.06
483.153	84.06
483.372	91.06
483.59	90.06
483.808	81.06
484.027	98.06
484.245	95.06
484.463	96.06
484.681	93.06
484.9	78.06
485.118	84.06
485.336	86.06
485.554	86.06
485.772	94.06
485.99	96.06
486.209	93.06
486.427	109.06
486.645	113.06
486.863	121.06
487.081	117.06
487.299	96.06
487.517	99.06
487.735	96.06
487.953	87.06
488.171	98.06
488.389	112.06
488.607	111.06
488.825	94.06
489.043	78.06
489.261	97.06
489.479	95.06
489.696	97.06
489.914	86.06
490.132	96.06
490.35	78.06
490.568	75.06
490.786	65.06
491.003	85.06
491.221	91.06
491.439	92.06
491.657	97.06
491.874	107.06
492.092	83.06
492.31	93.06
492.527	87.06
492.745	67.06
492.963	84.06
493.18	79.06
493.398	92.06
493.615	94.06
493.833	93.06
494.05	75.06
494.268	81.06
494.485	89.06
494.703	86.06
494.92	92.06
495.138	73.06
495.355	99.06
495.573	86.06
495.79	97.06
496.008	88.06
496.225	82.06
496.442	96.06
496.66	94.06
496.877	91.06
497.094	87.06
497.312	90.06
497.529	100.06
497.746	100.06
497.963	91.06
498.181	88.06
498.398	94.06
498.615	114.06
498.832	104.06
499.049	95.06
499.267	93.06
499.484	80.06
499.701	81.06
499.918	83.06
500.135	91.06
500.352	89.06
500.569	84.06
500.786	92.06
501.003	86.06
501.22	77.06
501.437	100.06
501.654	91.06
501.871	109.06
502.088	98.06
502.305	90.06
502.522	87.06
502.739	93.06
502.956	80.06
503.172	86.06
503.389	89.06
503.606	111.06
503.823	88.06
504.04	83.06
504.256	93.06
504.473	83.06
504.69	76.06
504.907	98.06
505.123	104.06
505.34	85.06
505.557	91.06
505.773	77.06
505.99	87.06
506.207	83.06
506.423	82.06
506.64	89.06
506.856	84.06
507.073	96.06
507.289	100.06
507.506	100.06
507.722	120.06
507.939	118.06
508.155	89.06
508.372	95.06
508.588	82.06
508.805	101.06
509.021	103.06
509.238	100.06
509.454	106.06
509.67	112.06
509.887	111.06
510.103	129.06
510.319	226.06
510.536	861.06
510.752	2753.06
510.968	736.06
511.184	170.06
511.401	101.06
511.617	97.06
511.833	95.06
512.049	96.06
512.265	82.06
512.481	90.06
512.698	97.06
512.914	91.06
513.13	87.06
513.346	85.06
513.562	116.06
513.778	89.06
513.994	93.06
514.21	119.06
514.426	118.06
514.642	143.06
514.858	135.06
515.074	195.06
515.29	601.06
