Data from Uncirc_1991_H10_HRD10591_00098.txt Node
Date: Wed Jan 03 11:50:57 EST 2024
User: Yrep
Spectrometer: HR+D1059
Trigger mode: 1
Integration Time (sec): 1.000000E-1
Scans to average: 1
Electric dark correction enabled: true
Nonlinearity correction enabled: false
Boxcar width: 0
XAxis mode: Wavelengths
Number of Pixels in Spectrum: 2048
>>>>>Begin Spectral Data<<<<<
223.165	-24.19
223.4	-24.19
223.635	-24.19
223.869	-27.19
224.104	-16.19
224.338	-6.19
224.573	-26.19
224.808	-4.19
225.042	-8.19
225.277	-16.19
225.511	3.81
225.746	11.81
225.98	4.81
226.215	19.81
226.449	20.81
226.683	28.81
226.918	5.81
227.152	32.81
227.387	28.81
227.621	33.81
227.856	48.81
228.09	51.81
228.324	61.81
228.559	68.81
228.793	66.81
229.027	81.81
229.262	75.81
229.496	58.81
229.73	92.81
229.964	99.81
230.199	84.81
230.433	68.81
230.667	68.81
230.901	59.81
231.136	73.81
231.37	71.81
231.604	71.81
231.838	77.81
232.072	79.81
232.306	77.81
232.541	74.81
232.775	76.81
233.009	86.81
233.243	57.81
233.477	76.81
233.711	84.81
233.945	71.81
234.179	83.81
234.413	72.81
234.647	71.81
234.881	72.81
235.115	76.81
235.349	79.81
235.583	83.81
235.817	75.81
236.051	76.81
236.285	71.81
236.519	51.81
236.753	71.81
236.987	89.81
237.221	87.81
237.455	85.81
237.689	72.81
237.922	66.81
238.156	77.81
238.39	71.81
238.624	82.81
238.858	78.81
239.091	65.81
239.325	80.81
239.559	75.81
239.793	96.81
240.027	77.81
240.26	78.81
240.494	85.81
240.728	79.81
240.961	83.81
241.195	71.81
241.429	73.81
241.662	68.81
241.896	77.81
242.13	73.81
242.363	82.81
242.597	84.81
242.83	75.81
243.064	73.81
243.298	77.81
243.531	77.81
243.765	67.81
243.998	76.81
244.232	72.81
244.465	83.81
244.699	85.81
244.932	73.81
245.166	88.81
245.399	87.81
245.633	75.81
245.866	83.81
246.099	72.81
246.333	66.81
246.566	75.81
246.8	63.81
247.033	76.81
247.266	81.81
247.5	76.81
247.733	67.81
247.966	64.81
248.2	70.81
248.433	82.81
248.666	63.81
248.899	72.81
249.133	83.81
249.366	106.81
249.599	103.81
249.832	86.81
250.066	83.81
250.299	76.81
250.532	66.81
250.765	81.81
250.998	74.81
251.231	73.81
251.465	72.81
251.698	72.81
251.931	84.81
252.164	81.81
252.397	80.81
252.63	81.81
252.863	101.81
253.096	77.81
253.329	77.81
253.562	72.81
253.795	73.81
254.028	83.81
254.261	89.81
254.494	72.81
254.727	71.81
254.96	80.81
255.193	92.81
255.426	75.81
255.659	78.81
255.892	85.81
256.124	73.81
256.357	95.81
256.59	76.81
256.823	81.81
257.056	93.81
257.289	94.81
257.521	59.81
257.754	81.81
257.987	84.81
258.22	76.81
258.452	73.81
258.685	66.81
258.918	80.81
259.151	87.81
259.383	72.81
259.616	74.81
259.849	82.81
260.081	84.81
260.314	77.81
260.547	79.81
260.779	84.81
261.012	77.81
261.244	83.81
261.477	85.81
261.71	105.81
261.942	107.81
262.175	117.81
262.407	96.81
262.64	86.81
262.872	72.81
263.105	83.81
263.337	81.81
263.57	82.81
263.802	83.81
264.035	68.81
264.267	63.81
264.499	79.81
264.732	79.81
264.964	89.81
265.197	78.81
265.429	83.81
265.661	75.81
265.894	63.81
266.126	91.81
266.358	90.81
266.591	84.81
266.823	68.81
267.055	72.81
267.287	76.81
267.52	86.81
267.752	67.81
267.984	93.81
268.216	84.81
268.448	66.81
268.681	80.81
268.913	76.81
269.145	77.81
269.377	89.81
269.609	73.81
269.841	85.81
270.073	78.81
270.306	89.81
270.538	90.81
270.77	88.81
271.002	100.81
271.234	70.81
271.466	82.81
271.698	73.81
271.93	79.81
272.162	80.81
272.394	91.81
272.626	96.81
272.858	95.81
273.09	94.81
273.322	84.81
273.553	71.81
273.785	91.81
274.017	90.81
274.249	69.81
274.481	83.81
274.713	79.81
274.945	91.81
275.176	94.81
275.408	84.81
275.64	99.81
275.872	80.81
276.104	91.81
276.335	81.81
276.567	99.81
276.799	128.81
277.031	99.81
277.262	94.81
277.494	83.81
277.726	83.81
277.957	81.81
278.189	86.81
278.421	88.81
278.652	88.81
278.884	93.81
279.115	94.81
279.347	84.81
279.579	74.81
279.81	78.81
280.042	78.81
280.273	85.81
280.505	100.81
280.736	96.81
280.968	87.81
281.199	88.81
281.431	82.81
281.662	85.81
281.894	99.81
282.125	106.81
282.356	122.81
282.588	149.81
282.819	135.81
283.051	84.81
283.282	85.81
283.513	85.81
283.745	84.81
283.976	80.81
284.207	85.81
284.439	96.81
284.67	96.81
284.901	88.81
285.132	84.81
285.364	62.81
285.595	85.81
285.826	91.81
286.057	90.81
286.288	86.81
286.52	87.81
286.751	77.81
286.982	89.81
287.213	72.81
287.444	92.81
287.675	84.81
287.906	99.81
288.138	91.81
288.369	100.81
288.6	100.81
288.831	87.81
289.062	67.81
289.293	73.81
289.524	74.81
289.755	77.81
289.986	72.81
290.217	86.81
290.448	82.81
290.679	82.81
290.91	91.81
291.141	83.81
291.371	79.81
291.602	94.81
291.833	86.81
292.064	73.81
292.295	78.81
292.526	83.81
292.757	76.81
292.987	83.81
293.218	74.81
293.449	75.81
293.68	88.81
293.91	91.81
294.141	104.81
294.372	101.81
294.603	104.81
294.833	87.81
295.064	89.81
295.295	88.81
295.525	90.81
295.756	91.81
295.987	119.81
296.217	152.81
296.448	114.81
296.679	82.81
296.909	97.81
297.14	91.81
297.37	82.81
297.601	98.81
297.831	89.81
298.062	83.81
298.292	94.81
298.523	99.81
298.753	97.81
298.984	82.81
299.214	76.81
299.445	83.81
299.675	86.81
299.905	98.81
300.136	81.81
300.366	75.81
300.597	87.81
300.827	89.81
301.057	92.81
301.288	95.81
301.518	95.81
301.748	84.81
301.979	98.81
302.209	88.81
302.439	93.81
302.669	90.81
302.9	100.81
303.13	92.81
303.36	84.81
303.59	104.81
303.82	101.81
304.051	97.81
304.281	95.81
304.511	82.81
304.741	89.81
304.971	82.81
305.201	90.81
305.431	87.81
305.661	85.81
305.891	98.81
306.121	91.81
306.352	93.81
306.582	93.81
306.812	96.81
307.042	84.81
307.272	85.81
307.502	95.81
307.731	80.81
307.961	76.81
308.191	92.81
308.421	85.81
308.651	95.81
308.881	101.81
309.111	72.81
309.341	96.81
309.571	95.81
309.8	92.81
310.03	93.81
310.26	82.81
310.49	87.81
310.72	92.81
310.949	108.81
311.179	94.81
311.409	100.81
311.639	106.81
311.868	88.81
312.098	90.81
312.328	93.81
312.557	107.81
312.787	110.81
313.017	110.81
313.246	107.81
313.476	105.81
313.706	94.81
313.935	107.81
314.165	95.81
314.394	113.81
314.624	93.81
314.853	93.81
315.083	87.81
315.312	96.81
315.542	90.81
315.771	88.81
316.001	107.81
316.23	92.81
316.46	92.81
316.689	76.81
316.919	93.81
317.148	96.81
317.377	91.81
317.607	87.81
317.836	94.81
318.065	96.81
318.295	87.81
318.524	90.81
318.753	87.81
318.983	107.81
319.212	100.81
319.441	118.81
319.67	104.81
319.9	85.81
320.129	88.81
320.358	89.81
320.587	91.81
320.816	88.81
321.046	103.81
321.275	92.81
321.504	96.81
321.733	88.81
321.962	96.81
322.191	89.81
322.42	95.81
322.649	109.81
322.878	116.81
323.108	115.81
323.337	139.81
323.566	152.81
323.795	171.81
324.024	228.81
324.253	456.81
324.482	995.81
324.71	2122.81
324.939	2887.81
325.168	1021.81
325.397	284.81
325.626	158.81
325.855	137.81
326.084	129.81
326.313	137.81
326.542	151.81
326.77	270.81
326.999	500.81
327.228	1107.81
327.457	2104.81
327.686	1727.81
327.914	427.81
328.143	210.81
328.372	167.81
328.6	128.81
328.829	115.81
329.058	142.81
329.287	140.81
329.515	121.81
329.744	105.81
329.972	95.81
330.201	93.81
330.43	118.81
330.658	132.81
330.887	169.81
331.115	137.81
331.344	99.81
331.572	98.81
331.801	114.81
332.03	100.81
332.258	96.81
332.486	93.81
332.715	96.81
332.943	93.81
333.172	95.81
333.4	88.81
333.629	100.81
333.857	113.81
334.085	103.81
334.314	95.81
334.542	107.81
334.771	77.81
334.999	95.81
335.227	96.81
335.455	92.81
335.684	89.81
335.912	104.81
336.14	98.81
336.369	99.81
336.597	101.81
336.825	95.81
337.053	105.81
337.281	87.81
337.51	90.81
337.738	98.81
337.966	92.81
338.194	83.81
338.422	100.81
338.65	96.81
338.878	89.81
339.106	99.81
339.334	89.81
339.562	106.81
339.79	92.81
340.018	79.81
340.246	87.81
340.474	105.81
340.702	93.81
340.93	89.81
341.158	93.81
341.386	98.81
341.614	89.81
341.842	85.81
342.07	92.81
342.298	85.81
342.526	88.81
342.754	79.81
342.981	79.81
343.209	85.81
343.437	93.81
343.665	87.81
343.893	95.81
344.12	78.81
344.348	84.81
344.576	85.81
344.804	78.81
345.031	106.81
345.259	109.81
345.487	107.81
345.714	93.81
345.942	85.81
346.17	96.81
346.397	90.81
346.625	99.81
346.853	90.81
347.08	84.81
347.308	100.81
347.535	94.81
347.763	100.81
347.99	88.81
348.218	107.81
348.445	99.81
348.673	107.81
348.9	102.81
349.128	102.81
349.355	96.81
349.583	98.81
349.81	88.81
350.037	98.81
350.265	90.81
350.492	108.81
350.72	90.81
350.947	90.81
351.174	113.81
351.402	116.81
351.629	95.81
351.856	113.81
352.083	104.81
352.311	114.81
352.538	106.81
352.765	107.81
352.992	125.81
353.22	103.81
353.447	93.81
353.674	90.81
353.901	112.81
354.128	104.81
354.355	87.81
354.583	120.81
354.81	102.81
355.037	106.81
355.264	99.81
355.491	88.81
355.718	69.81
355.945	108.81
356.172	90.81
356.399	96.81
356.626	87.81
356.853	84.81
357.08	90.81
357.307	87.81
357.534	81.81
357.761	95.81
357.988	93.81
358.215	87.81
358.441	100.81
358.668	105.81
358.895	89.81
359.122	87.81
359.349	88.81
359.576	94.81
359.802	108.81
360.029	118.81
360.256	104.81
360.483	116.81
360.709	84.81
360.936	98.81
361.163	100.81
361.39	88.81
361.616	82.81
361.843	83.81
362.07	80.81
362.296	94.81
362.523	97.81
362.749	84.81
362.976	97.81
363.203	85.81
363.429	89.81
363.656	75.81
363.882	100.81
364.109	83.81
364.335	103.81
364.562	102.81
364.788	104.81
365.015	87.81
365.241	103.81
365.468	108.81
365.694	111.81
365.92	83.81
366.147	103.81
366.373	105.81
366.599	87.81
366.826	88.81
367.052	100.81
367.278	89.81
367.505	95.81
367.731	88.81
367.957	76.81
368.184	95.81
368.41	113.81
368.636	113.81
368.862	131.81
369.089	112.81
369.315	85.81
369.541	65.81
369.767	91.81
369.993	95.81
370.219	79.81
370.445	80.81
370.672	107.81
370.898	79.81
371.124	68.81
371.35	96.81
371.576	77.81
371.802	67.81
372.028	84.81
372.254	83.81
372.48	76.81
372.706	91.81
372.932	81.81
373.158	75.81
373.384	85.81
373.61	84.81
373.835	87.81
374.061	84.81
374.287	89.81
374.513	93.81
374.739	95.81
374.965	83.81
375.191	93.81
375.416	90.81
375.642	88.81
375.868	106.81
376.094	83.81
376.319	89.81
376.545	97.81
376.771	97.81
376.997	91.81
377.222	75.81
377.448	93.81
377.674	86.81
377.899	76.81
378.125	87.81
378.35	83.81
378.576	85.81
378.802	87.81
379.027	94.81
379.253	90.81
379.478	80.81
379.704	96.81
379.929	89.81
380.155	88.81
380.38	75.81
380.606	98.81
380.831	97.81
381.057	82.81
381.282	83.81
381.507	89.81
381.733	87.81
381.958	99.81
382.184	100.81
382.409	110.81
382.634	111.81
382.86	98.81
383.085	86.81
383.31	100.81
383.535	97.81
383.761	94.81
383.986	82.81
384.211	91.81
384.436	109.81
384.662	88.81
384.887	83.81
385.112	102.81
385.337	87.81
385.562	103.81
385.787	98.81
386.013	103.81
386.238	103.81
386.463	92.81
386.688	105.81
386.913	90.81
387.138	101.81
387.363	94.81
387.588	94.81
387.813	103.81
388.038	98.81
388.263	87.81
388.488	84.81
388.713	94.81
388.938	83.81
389.163	90.81
389.387	85.81
389.612	88.81
389.837	93.81
390.062	93.81
390.287	80.81
390.512	82.81
390.736	84.81
390.961	97.81
391.186	93.81
391.411	88.81
391.636	81.81
391.86	87.81
392.085	78.81
392.31	79.81
392.534	90.81
392.759	99.81
392.984	88.81
393.208	80.81
393.433	87.81
393.658	70.81
393.882	81.81
394.107	93.81
394.331	79.81
394.556	80.81
394.78	84.81
395.005	75.81
395.229	84.81
395.454	89.81
395.678	81.81
395.903	73.81
396.127	96.81
396.352	83.81
396.576	86.81
396.801	91.81
397.025	96.81
397.249	78.81
397.474	78.81
397.698	87.81
397.922	95.81
398.147	95.81
398.371	93.81
398.595	89.81
398.82	81.81
399.044	69.81
399.268	86.81
399.492	93.81
399.717	96.81
399.941	94.81
400.165	104.81
400.389	89.81
400.613	81.81
400.837	83.81
401.062	75.81
401.286	85.81
401.51	90.81
401.734	88.81
401.958	99.81
402.182	135.81
402.406	175.81
402.63	121.81
402.854	103.81
403.078	92.81
403.302	91.81
403.526	76.81
403.75	81.81
403.974	96.81
404.198	87.81
404.422	88.81
404.645	79.81
404.869	83.81
405.093	100.81
405.317	111.81
405.541	93.81
405.765	106.81
405.988	127.81
406.212	185.81
406.436	254.81
406.66	155.81
406.883	104.81
407.107	91.81
407.331	89.81
407.555	93.81
407.778	101.81
408.002	102.81
408.226	105.81
408.449	97.81
408.673	83.81
408.896	89.81
409.12	93.81
409.344	81.81
409.567	84.81
409.791	78.81
410.014	95.81
410.238	87.81
410.461	106.81
410.685	84.81
410.908	99.81
411.132	104.81
411.355	97.81
411.578	91.81
411.802	97.81
412.025	88.81
412.249	93.81
412.472	86.81
412.695	79.81
412.919	87.81
413.142	84.81
413.365	87.81
413.589	85.81
413.812	83.81
414.035	88.81
414.258	96.81
414.482	83.81
414.705	78.81
414.928	77.81
415.151	79.81
415.374	90.81
415.597	96.81
415.821	97.81
416.044	103.81
416.267	89.81
416.49	92.81
416.713	79.81
416.936	89.81
417.159	83.81
417.382	84.81
417.605	80.81
417.828	87.81
418.051	71.81
418.274	91.81
418.497	74.81
418.72	93.81
418.943	79.81
419.166	89.81
419.389	97.81
419.611	100.81
419.834	104.81
420.057	83.81
420.28	71.81
420.503	76.81
420.726	66.81
420.948	92.81
421.171	92.81
421.394	90.81
421.617	93.81
421.839	91.81
422.062	94.81
422.285	91.81
422.507	100.81
422.73	96.81
422.953	95.81
423.175	93.81
423.398	95.81
423.621	79.81
423.843	78.81
424.066	96.81
424.288	89.81
424.511	79.81
424.733	90.81
424.956	110.81
425.178	107.81
425.401	110.81
425.623	101.81
425.846	87.81
426.068	76.81
426.291	94.81
426.513	87.81
426.735	91.81
426.958	86.81
427.18	116.81
427.402	151.81
427.625	178.81
427.847	138.81
428.069	108.81
428.292	91.81
428.514	88.81
428.736	88.81
428.958	88.81
429.181	85.81
429.403	73.81
429.625	100.81
429.847	93.81
430.069	94.81
430.292	98.81
430.514	91.81
430.736	84.81
430.958	75.81
431.18	76.81
431.402	90.81
431.624	73.81
431.846	85.81
432.068	81.81
432.29	78.81
432.512	99.81
432.734	81.81
432.956	86.81
433.178	98.81
433.4	99.81
433.622	87.81
433.844	82.81
434.066	97.81
434.287	101.81
434.509	81.81
434.731	85.81
434.953	89.81
435.175	95.81
435.397	102.81
435.618	98.81
435.84	96.81
436.062	136.81
436.284	114.81
436.505	99.81
436.727	88.81
436.949	92.81
437.17	89.81
437.392	89.81
437.614	79.81
437.835	113.81
438.057	130.81
438.278	102.81
438.5	104.81
438.721	123.81
438.943	97.81
439.165	86.81
439.386	86.81
439.608	89.81
439.829	115.81
440.05	144.81
440.272	142.81
440.493	111.81
440.715	89.81
440.936	99.81
441.158	102.81
441.379	102.81
441.6	95.81
441.822	100.81
442.043	106.81
442.264	102.81
442.486	99.81
442.707	89.81
442.928	108.81
443.149	139.81
443.371	138.81
443.592	108.81
443.813	111.81
444.034	117.81
444.255	89.81
444.476	90.81
444.698	75.81
444.919	75.81
445.14	125.81
445.361	144.81
445.582	131.81
445.803	157.81
446.024	159.81
446.245	141.81
446.466	119.81
446.687	90.81
446.908	78.81
447.129	81.81
447.35	93.81
447.571	91.81
447.792	87.81
448.013	103.81
448.234	108.81
448.455	96.81
448.675	121.81
448.896	127.81
449.117	101.81
449.338	105.81
449.559	145.81
449.779	144.81
450	99.81
450.221	89.81
450.442	97.81
450.662	96.81
450.883	97.81
451.104	123.81
451.324	81.81
451.545	78.81
451.766	83.81
451.986	100.81
452.207	86.81
452.428	96.81
452.648	100.81
452.869	107.81
453.089	111.81
453.31	124.81
453.53	91.81
453.751	85.81
453.971	110.81
454.192	132.81
454.412	92.81
454.633	92.81
454.853	92.81
455.073	88.81
455.294	105.81
455.514	102.81
455.734	73.81
455.955	89.81
456.175	79.81
456.395	83.81
456.616	87.81
456.836	87.81
457.056	80.81
457.276	101.81
457.497	84.81
457.717	81.81
457.937	57.81
458.157	88.81
458.377	103.81
458.598	116.81
458.818	158.81
459.038	192.81
459.258	128.81
459.478	79.81
459.698	75.81
459.918	97.81
460.138	88.81
460.358	90.81
460.578	91.81
460.798	102.81
461.018	81.81
461.238	91.81
461.458	90.81
461.678	82.81
461.898	89.81
462.118	87.81
462.338	92.81
462.558	82.81
462.777	88.81
462.997	96.81
463.217	93.81
463.437	67.81
463.657	80.81
463.876	81.81
464.096	80.81
464.316	83.81
464.536	97.81
464.755	105.81
464.975	99.81
465.195	206.81
465.414	185.81
465.634	84.81
465.854	95.81
466.073	87.81
466.293	82.81
466.512	85.81
466.732	85.81
466.951	90.81
467.171	94.81
467.391	83.81
467.61	90.81
467.829	90.81
468.049	81.81
468.268	75.81
468.488	76.81
468.707	91.81
468.927	78.81
469.146	93.81
469.365	84.81
469.585	87.81
469.804	90.81
470.023	90.81
470.243	83.81
470.462	90.81
470.681	121.81
470.901	93.81
471.12	97.81
471.339	88.81
471.558	90.81
471.777	74.81
471.997	93.81
472.216	94.81
472.435	97.81
472.654	95.81
472.873	90.81
473.092	81.81
473.311	85.81
473.53	95.81
473.749	78.81
473.968	115.81
474.187	107.81
474.406	114.81
474.625	84.81
474.844	87.81
475.063	77.81
475.282	88.81
475.501	73.81
475.72	93.81
475.939	82.81
476.158	77.81
476.377	81.81
476.596	91.81
476.814	95.81
477.033	81.81
477.252	92.81
477.471	93.81
477.69	87.81
477.908	85.81
478.127	87.81
478.346	91.81
478.564	98.81
478.783	78.81
479.002	95.81
479.22	86.81
479.439	105.81
479.658	96.81
479.876	92.81
480.095	93.81
480.313	99.81
480.532	96.81
480.751	86.81
480.969	86.81
481.188	87.81
481.406	97.81
481.624	82.81
481.843	83.81
482.061	80.81
482.28	74.81
482.498	82.81
482.717	74.81
482.935	72.81
483.153	67.81
483.372	76.81
483.59	77.81
483.808	95.81
484.027	88.81
484.245	92.81
484.463	88.81
484.681	87.81
484.9	84.81
485.118	100.81
485.336	86.81
485.554	92.81
485.772	110.81
485.99	99.81
486.209	86.81
486.427	100.81
486.645	110.81
486.863	112.81
487.081	113.81
487.299	99.81
487.517	100.81
487.735	89.81
487.953	79.81
488.171	79.81
488.389	87.81
488.607	87.81
488.825	73.81
489.043	98.81
489.261	97.81
489.479	90.81
489.696	88.81
489.914	89.81
490.132	76.81
490.35	82.81
490.568	82.81
490.786	87.81
491.003	84.81
491.221	91.81
491.439	107.81
491.657	89.81
491.874	91.81
492.092	84.81
492.31	88.81
492.527	84.81
492.745	79.81
492.963	90.81
493.18	81.81
493.398	89.81
493.615	102.81
493.833	106.81
494.05	78.81
494.268	85.81
494.485	76.81
494.703	95.81
494.92	77.81
495.138	90.81
495.355	89.81
495.573	87.81
495.79	101.81
496.008	96.81
496.225	95.81
496.442	83.81
496.66	87.81
496.877	82.81
497.094	97.81
497.312	90.81
497.529	85.81
497.746	95.81
497.963	86.81
498.181	96.81
498.398	107.81
498.615	117.81
498.832	93.81
499.049	95.81
499.267	103.81
499.484	87.81
499.701	87.81
499.918	75.81
500.135	82.81
500.352	107.81
500.569	80.81
500.786	91.81
501.003	85.81
501.22	104.81
501.437	95.81
501.654	87.81
501.871	108.81
502.088	89.81
502.305	82.81
502.522	87.81
502.739	81.81
502.956	92.81
503.172	85.81
503.389	82.81
503.606	107.81
503.823	78.81
504.04	81.81
504.256	96.81
504.473	87.81
504.69	100.81
504.907	101.81
505.123	88.81
505.34	89.81
505.557	83.81
505.773	94.81
505.99	89.81
506.207	82.81
506.423	90.81
506.64	82.81
506.856	88.81
507.073	96.81
507.289	106.81
507.506	101.81
507.722	102.81
507.939	115.81
508.155	95.81
508.372	106.81
508.588	79.81
508.805	106.81
509.021	101.81
509.238	82.81
509.454	85.81
509.67	89.81
509.887	110.81
510.103	123.81
510.319	227.81
510.536	844.81
510.752	2707.81
510.968	760.81
511.184	185.81
511.401	121.81
511.617	94.81
511.833	99.81
512.049	88.81
512.265	85.81
512.481	94.81
512.698	100.81
512.914	90.81
513.13	77.81
513.346	84.81
513.562	97.81
513.778	98.81
513.994	105.81
514.21	99.81
514.426	123.81
514.642	135.81
514.858	121.81
515.074	167.81
515.29	548.81
515.506	1890.81
515.721	670.81
515.937	167.81
