Data from Uncirc_1991_H10_HRD10591_00034.txt Node
Date: Wed Jan 03 11:50:45 EST 2024
User: Yrep
Spectrometer: HR+D1059
Trigger mode: 1
Integration Time (sec): 1.000000E-1
Scans to average: 1
Electric dark correction enabled: true
Nonlinearity correction enabled: false
Boxcar width: 0
XAxis mode: Wavelengths
Number of Pixels in Spectrum: 2048
>>>>>Begin Spectral Data<<<<<
223.165	-14.31
223.4	-14.31
223.635	-14.31
223.869	-18.31
224.104	-27.31
224.338	-9.31
224.573	-20.31
224.808	-25.31
225.042	-6.31
225.277	-9.31
225.511	-2.31
225.746	5.69
225.98	5.69
226.215	12.69
226.449	33.69
226.683	13.69
226.918	22.69
227.152	38.69
227.387	37.69
227.621	48.69
227.856	55.69
228.09	41.69
228.324	47.69
228.559	53.69
228.793	72.69
229.027	67.69
229.262	80.69
229.496	63.69
229.73	68.69
229.964	85.69
230.199	67.69
230.433	73.69
230.667	82.69
230.901	82.69
231.136	76.69
231.37	87.69
231.604	80.69
231.838	70.69
232.072	89.69
232.306	83.69
232.541	85.69
232.775	87.69
233.009	70.69
233.243	70.69
233.477	86.69
233.711	96.69
233.945	82.69
234.179	77.69
234.413	91.69
234.647	84.69
234.881	86.69
235.115	86.69
235.349	79.69
235.583	76.69
235.817	81.69
236.051	75.69
236.285	71.69
236.519	57.69
236.753	92.69
236.987	79.69
237.221	92.69
237.455	85.69
237.689	74.69
237.922	79.69
238.156	73.69
238.39	61.69
238.624	75.69
238.858	85.69
239.091	76.69
239.325	65.69
239.559	64.69
239.793	86.69
240.027	67.69
240.26	71.69
240.494	90.69
240.728	58.69
240.961	76.69
241.195	69.69
241.429	70.69
241.662	81.69
241.896	85.69
242.13	73.69
242.363	72.69
242.597	77.69
242.83	77.69
243.064	76.69
243.298	64.69
243.531	61.69
243.765	90.69
243.998	86.69
244.232	82.69
244.465	86.69
244.699	70.69
244.932	74.69
245.166	75.69
245.399	77.69
245.633	87.69
245.866	85.69
246.099	74.69
246.333	84.69
246.566	68.69
246.8	79.69
247.033	83.69
247.266	87.69
247.5	70.69
247.733	85.69
247.966	65.69
248.2	98.69
248.433	82.69
248.666	82.69
248.899	79.69
249.133	85.69
249.366	82.69
249.599	101.69
249.832	86.69
250.066	83.69
250.299	87.69
250.532	81.69
250.765	78.69
250.998	90.69
251.231	81.69
251.465	94.69
251.698	85.69
251.931	81.69
252.164	74.69
252.397	88.69
252.63	77.69
252.863	80.69
253.096	84.69
253.329	94.69
253.562	73.69
253.795	74.69
254.028	65.69
254.261	70.69
254.494	80.69
254.727	71.69
254.96	86.69
255.193	73.69
255.426	66.69
255.659	82.69
255.892	70.69
256.124	77.69
256.357	97.69
256.59	91.69
256.823	78.69
257.056	90.69
257.289	78.69
257.521	82.69
257.754	87.69
257.987	85.69
258.22	107.69
258.452	68.69
258.685	81.69
258.918	79.69
259.151	75.69
259.383	94.69
259.616	74.69
259.849	93.69
260.081	81.69
260.314	75.69
260.547	81.69
260.779	89.69
261.012	86.69
261.244	85.69
261.477	98.69
261.71	91.69
261.942	96.69
262.175	123.69
262.407	90.69
262.64	85.69
262.872	99.69
263.105	92.69
263.337	91.69
263.57	77.69
263.802	79.69
264.035	85.69
264.267	82.69
264.499	99.69
264.732	83.69
264.964	84.69
265.197	82.69
265.429	85.69
265.661	93.69
265.894	88.69
266.126	83.69
266.358	83.69
266.591	85.69
266.823	86.69
267.055	78.69
267.287	90.69
267.52	83.69
267.752	68.69
267.984	90.69
268.216	89.69
268.448	97.69
268.681	84.69
268.913	68.69
269.145	83.69
269.377	89.69
269.609	77.69
269.841	82.69
270.073	75.69
270.306	90.69
270.538	80.69
270.77	92.69
271.002	98.69
271.234	96.69
271.466	85.69
271.698	85.69
271.93	93.69
272.162	86.69
272.394	99.69
272.626	101.69
272.858	93.69
273.09	78.69
273.322	73.69
273.553	79.69
273.785	81.69
274.017	72.69
274.249	94.69
274.481	94.69
274.713	88.69
274.945	89.69
275.176	96.69
275.408	90.69
275.64	98.69
275.872	96.69
276.104	86.69
276.335	77.69
276.567	104.69
276.799	103.69
277.031	93.69
277.262	91.69
277.494	80.69
277.726	89.69
277.957	77.69
278.189	75.69
278.421	81.69
278.652	89.69
278.884	88.69
279.115	87.69
279.347	95.69
279.579	78.69
279.81	89.69
280.042	88.69
280.273	102.69
280.505	94.69
280.736	91.69
280.968	102.69
281.199	91.69
281.431	93.69
281.662	84.69
281.894	98.69
282.125	107.69
282.356	99.69
282.588	132.69
282.819	103.69
283.051	97.69
283.282	89.69
283.513	89.69
283.745	89.69
283.976	86.69
284.207	104.69
284.439	92.69
284.67	86.69
284.901	86.69
285.132	86.69
285.364	85.69
285.595	103.69
285.826	92.69
286.057	104.69
286.288	87.69
286.52	103.69
286.751	85.69
286.982	99.69
287.213	92.69
287.444	98.69
287.675	82.69
287.906	99.69
288.138	90.69
288.369	82.69
288.6	85.69
288.831	75.69
289.062	98.69
289.293	102.69
289.524	86.69
289.755	87.69
289.986	84.69
290.217	97.69
290.448	87.69
290.679	99.69
290.91	98.69
291.141	84.69
291.371	87.69
291.602	78.69
291.833	83.69
292.064	92.69
292.295	96.69
292.526	89.69
292.757	93.69
292.987	89.69
293.218	100.69
293.449	76.69
293.68	87.69
293.91	90.69
294.141	95.69
294.372	91.69
294.603	85.69
294.833	93.69
295.064	91.69
295.295	90.69
295.525	80.69
295.756	97.69
295.987	109.69
296.217	130.69
296.448	118.69
296.679	93.69
296.909	83.69
297.14	93.69
297.37	90.69
297.601	91.69
297.831	80.69
298.062	90.69
298.292	84.69
298.523	96.69
298.753	99.69
298.984	95.69
299.214	93.69
299.445	92.69
299.675	87.69
299.905	93.69
300.136	91.69
300.366	96.69
300.597	98.69
300.827	93.69
301.057	112.69
301.288	93.69
301.518	81.69
301.748	81.69
301.979	92.69
302.209	79.69
302.439	109.69
302.669	98.69
302.9	100.69
303.13	92.69
303.36	103.69
303.59	101.69
303.82	109.69
304.051	95.69
304.281	94.69
304.511	102.69
304.741	103.69
304.971	94.69
305.201	65.69
305.431	77.69
305.661	94.69
305.891	90.69
306.121	89.69
306.352	96.69
306.582	105.69
306.812	95.69
307.042	98.69
307.272	91.69
307.502	91.69
307.731	84.69
307.961	102.69
308.191	103.69
308.421	102.69
308.651	98.69
308.881	95.69
309.111	101.69
309.341	96.69
309.571	101.69
309.8	95.69
310.03	103.69
310.26	99.69
310.49	99.69
310.72	85.69
310.949	87.69
311.179	85.69
311.409	78.69
311.639	90.69
311.868	83.69
312.098	85.69
312.328	95.69
312.557	93.69
312.787	97.69
313.017	90.69
313.246	98.69
313.476	85.69
313.706	92.69
313.935	94.69
314.165	101.69
314.394	91.69
314.624	89.69
314.853	101.69
315.083	86.69
315.312	93.69
315.542	85.69
315.771	99.69
316.001	94.69
316.23	95.69
316.46	86.69
316.689	102.69
316.919	93.69
317.148	99.69
317.377	93.69
317.607	89.69
317.836	86.69
318.065	106.69
318.295	111.69
318.524	83.69
318.753	100.69
318.983	88.69
319.212	106.69
319.441	109.69
319.67	107.69
319.9	99.69
320.129	97.69
320.358	83.69
320.587	93.69
320.816	94.69
321.046	98.69
321.275	101.69
321.504	110.69
321.733	97.69
321.962	84.69
322.191	98.69
322.42	103.69
322.649	121.69
322.878	123.69
323.108	112.69
323.337	114.69
323.566	120.69
323.795	141.69
324.024	189.69
324.253	374.69
324.482	805.69
324.71	1689.69
324.939	2284.69
325.168	821.69
325.397	248.69
325.626	147.69
325.855	111.69
326.084	108.69
326.313	124.69
326.542	145.69
326.77	239.69
326.999	464.69
327.228	947.69
327.457	1762.69
327.686	1398.69
327.914	363.69
328.143	174.69
328.372	133.69
328.6	121.69
328.829	115.69
329.058	145.69
329.287	131.69
329.515	105.69
329.744	101.69
329.972	96.69
330.201	99.69
330.43	105.69
330.658	112.69
330.887	117.69
331.115	115.69
331.344	103.69
331.572	101.69
331.801	117.69
332.03	87.69
332.258	97.69
332.486	86.69
332.715	90.69
332.943	87.69
333.172	102.69
333.4	105.69
333.629	111.69
333.857	92.69
334.085	96.69
334.314	87.69
334.542	103.69
334.771	86.69
334.999	95.69
335.227	102.69
335.455	88.69
335.684	81.69
335.912	89.69
336.14	93.69
336.369	99.69
336.597	81.69
336.825	106.69
337.053	99.69
337.281	89.69
337.51	97.69
337.738	87.69
337.966	97.69
338.194	102.69
338.422	103.69
338.65	99.69
338.878	81.69
339.106	88.69
339.334	94.69
339.562	100.69
339.79	88.69
340.018	77.69
340.246	85.69
340.474	97.69
340.702	104.69
340.93	96.69
341.158	86.69
341.386	91.69
341.614	89.69
341.842	91.69
342.07	89.69
342.298	71.69
342.526	86.69
342.754	73.69
342.981	86.69
343.209	84.69
343.437	126.69
343.665	109.69
343.893	84.69
344.12	97.69
344.348	107.69
344.576	86.69
344.804	83.69
345.031	107.69
345.259	107.69
345.487	99.69
345.714	103.69
345.942	85.69
346.17	111.69
346.397	86.69
346.625	100.69
346.853	89.69
347.08	100.69
347.308	103.69
347.535	94.69
347.763	96.69
347.99	93.69
348.218	106.69
348.445	100.69
348.673	100.69
348.9	92.69
349.128	95.69
349.355	108.69
349.583	86.69
349.81	92.69
350.037	89.69
350.265	95.69
350.492	84.69
350.72	97.69
350.947	92.69
351.174	116.69
351.402	95.69
351.629	109.69
351.856	97.69
352.083	95.69
352.311	98.69
352.538	108.69
352.765	94.69
352.992	108.69
353.22	97.69
353.447	103.69
353.674	96.69
353.901	91.69
354.128	99.69
354.355	96.69
354.583	93.69
354.81	85.69
355.037	87.69
355.264	91.69
355.491	77.69
355.718	84.69
355.945	84.69
356.172	101.69
356.399	84.69
356.626	97.69
356.853	87.69
357.08	75.69
357.307	106.69
357.534	99.69
357.761	90.69
357.988	99.69
358.215	103.69
358.441	98.69
358.668	113.69
358.895	83.69
359.122	89.69
359.349	97.69
359.576	91.69
359.802	93.69
360.029	109.69
360.256	102.69
360.483	87.69
360.709	90.69
360.936	86.69
361.163	82.69
361.39	90.69
361.616	98.69
361.843	87.69
362.07	97.69
362.296	99.69
362.523	95.69
362.749	92.69
362.976	94.69
363.203	97.69
363.429	90.69
363.656	82.69
363.882	93.69
364.109	85.69
364.335	95.69
364.562	99.69
364.788	81.69
365.015	89.69
365.241	98.69
365.468	108.69
365.694	89.69
365.92	96.69
366.147	94.69
366.373	81.69
366.599	82.69
366.826	83.69
367.052	98.69
367.278	87.69
367.505	91.69
367.731	93.69
367.957	86.69
368.184	97.69
368.41	90.69
368.636	109.69
368.862	118.69
369.089	102.69
369.315	95.69
369.541	88.69
369.767	94.69
369.993	90.69
370.219	97.69
370.445	89.69
370.672	95.69
370.898	103.69
371.124	107.69
371.35	90.69
371.576	88.69
371.802	103.69
372.028	109.69
372.254	83.69
372.48	76.69
372.706	91.69
372.932	85.69
373.158	82.69
373.384	88.69
373.61	81.69
373.835	85.69
374.061	89.69
374.287	85.69
374.513	80.69
374.739	87.69
374.965	91.69
375.191	92.69
375.416	97.69
375.642	99.69
375.868	78.69
376.094	102.69
376.319	81.69
376.545	85.69
376.771	83.69
376.997	86.69
377.222	93.69
377.448	95.69
377.674	95.69
377.899	89.69
378.125	89.69
378.35	90.69
378.576	75.69
378.802	89.69
379.027	99.69
379.253	86.69
379.478	101.69
379.704	89.69
379.929	94.69
380.155	85.69
380.38	100.69
380.606	106.69
380.831	97.69
381.057	94.69
381.282	102.69
381.507	95.69
381.733	89.69
381.958	90.69
382.184	94.69
382.409	93.69
382.634	76.69
382.86	85.69
383.085	92.69
383.31	99.69
383.535	98.69
383.761	103.69
383.986	98.69
384.211	88.69
384.436	98.69
384.662	91.69
384.887	108.69
385.112	97.69
385.337	96.69
385.562	97.69
385.787	74.69
386.013	99.69
386.238	90.69
386.463	107.69
386.688	105.69
386.913	103.69
387.138	96.69
387.363	107.69
387.588	105.69
387.813	89.69
388.038	98.69
388.263	97.69
388.488	94.69
388.713	94.69
388.938	100.69
389.163	94.69
389.387	97.69
389.612	95.69
389.837	95.69
390.062	92.69
390.287	95.69
390.512	101.69
390.736	98.69
390.961	101.69
391.186	82.69
391.411	84.69
391.636	80.69
391.86	75.69
392.085	89.69
392.31	77.69
392.534	78.69
392.759	89.69
392.984	74.69
393.208	85.69
393.433	76.69
393.658	88.69
393.882	78.69
394.107	89.69
394.331	77.69
394.556	98.69
394.78	94.69
395.005	87.69
395.229	88.69
395.454	83.69
395.678	80.69
395.903	84.69
396.127	89.69
396.352	74.69
396.576	92.69
396.801	76.69
397.025	79.69
397.249	95.69
397.474	105.69
397.698	102.69
397.922	93.69
398.147	87.69
398.371	92.69
398.595	78.69
398.82	84.69
399.044	84.69
399.268	71.69
399.492	78.69
399.717	91.69
399.941	90.69
400.165	93.69
400.389	102.69
400.613	89.69
400.837	86.69
401.062	105.69
401.286	84.69
401.51	91.69
401.734	109.69
401.958	97.69
402.182	129.69
402.406	141.69
402.63	104.69
402.854	107.69
403.078	85.69
403.302	92.69
403.526	74.69
403.75	85.69
403.974	93.69
404.198	90.69
404.422	91.69
404.645	96.69
404.869	92.69
405.093	97.69
405.317	98.69
405.541	98.69
405.765	86.69
405.988	104.69
406.212	171.69
406.436	203.69
406.66	146.69
406.883	104.69
407.107	97.69
407.331	106.69
407.555	98.69
407.778	118.69
408.002	89.69
408.226	89.69
408.449	95.69
408.673	102.69
408.896	94.69
409.12	102.69
409.344	96.69
409.567	92.69
409.791	101.69
410.014	101.69
410.238	105.69
410.461	73.69
410.685	88.69
410.908	107.69
411.132	109.69
411.355	121.69
411.578	105.69
411.802	91.69
412.025	89.69
412.249	91.69
412.472	94.69
412.695	99.69
412.919	83.69
413.142	80.69
413.365	81.69
413.589	88.69
413.812	82.69
414.035	89.69
414.258	79.69
414.482	85.69
414.705	89.69
414.928	97.69
415.151	81.69
415.374	94.69
415.597	89.69
415.821	90.69
416.044	87.69
416.267	84.69
416.49	91.69
416.713	92.69
416.936	95.69
417.159	93.69
417.382	80.69
417.605	79.69
417.828	94.69
418.051	107.69
418.274	83.69
418.497	82.69
418.72	69.69
418.943	82.69
419.166	95.69
419.389	81.69
419.611	95.69
419.834	78.69
420.057	86.69
420.28	92.69
420.503	94.69
420.726	77.69
420.948	77.69
421.171	92.69
421.394	93.69
421.617	87.69
421.839	85.69
422.062	92.69
422.285	95.69
422.507	90.69
422.73	99.69
422.953	93.69
423.175	81.69
423.398	93.69
423.621	83.69
423.843	76.69
424.066	85.69
424.288	84.69
424.511	84.69
424.733	104.69
424.956	96.69
425.178	91.69
425.401	103.69
425.623	94.69
425.846	103.69
426.068	100.69
426.291	106.69
426.513	101.69
426.735	79.69
426.958	102.69
427.18	98.69
427.402	145.69
427.625	158.69
427.847	122.69
428.069	103.69
428.292	94.69
428.514	78.69
428.736	93.69
428.958	75.69
429.181	89.69
429.403	84.69
429.625	90.69
429.847	87.69
430.069	97.69
430.292	97.69
430.514	101.69
430.736	90.69
430.958	85.69
431.18	75.69
431.402	86.69
431.624	91.69
431.846	85.69
432.068	83.69
432.29	73.69
432.512	90.69
432.734	87.69
432.956	96.69
433.178	115.69
433.4	99.69
433.622	114.69
433.844	91.69
434.066	94.69
434.287	94.69
434.509	86.69
434.731	84.69
434.953	82.69
435.175	74.69
435.397	83.69
435.618	92.69
435.84	108.69
436.062	119.69
436.284	127.69
436.505	93.69
436.727	92.69
436.949	96.69
437.17	91.69
437.392	87.69
437.614	98.69
437.835	97.69
438.057	118.69
438.278	112.69
438.5	119.69
438.721	114.69
438.943	106.69
439.165	88.69
439.386	87.69
439.608	93.69
439.829	102.69
440.05	118.69
440.272	137.69
440.493	115.69
440.715	92.69
440.936	98.69
441.158	97.69
441.379	93.69
441.6	94.69
441.822	100.69
442.043	93.69
442.264	111.69
442.486	106.69
442.707	99.69
442.928	94.69
443.149	114.69
443.371	117.69
443.592	102.69
443.813	124.69
444.034	111.69
444.255	90.69
444.476	81.69
444.698	105.69
444.919	93.69
445.14	141.69
445.361	123.69
445.582	104.69
445.803	130.69
446.024	144.69
446.245	145.69
446.466	98.69
446.687	87.69
446.908	78.69
447.129	84.69
447.35	97.69
447.571	99.69
447.792	92.69
448.013	93.69
448.234	96.69
448.455	109.69
448.675	109.69
448.896	119.69
449.117	99.69
449.338	108.69
449.559	123.69
449.779	155.69
450	84.69
450.221	83.69
450.442	84.69
450.662	110.69
450.883	116.69
451.104	101.69
451.324	93.69
451.545	93.69
451.766	90.69
451.986	85.69
452.207	77.69
452.428	95.69
452.648	100.69
452.869	117.69
453.089	105.69
453.31	101.69
453.53	91.69
453.751	91.69
453.971	101.69
454.192	98.69
454.412	79.69
454.633	82.69
454.853	91.69
455.073	90.69
455.294	98.69
455.514	100.69
455.734	98.69
455.955	76.69
456.175	79.69
456.395	72.69
456.616	74.69
456.836	86.69
457.056	80.69
457.276	78.69
457.497	71.69
457.717	84.69
457.937	95.69
458.157	81.69
458.377	92.69
458.598	100.69
458.818	140.69
459.038	158.69
459.258	114.69
459.478	89.69
459.698	92.69
459.918	86.69
460.138	97.69
460.358	90.69
460.578	94.69
460.798	94.69
461.018	100.69
461.238	90.69
461.458	87.69
461.678	86.69
461.898	94.69
462.118	101.69
462.338	86.69
462.558	69.69
462.777	81.69
462.997	95.69
463.217	83.69
463.437	87.69
463.657	82.69
463.876	93.69
464.096	84.69
464.316	92.69
464.536	106.69
464.755	90.69
464.975	108.69
465.195	154.69
465.414	149.69
465.634	108.69
465.854	91.69
466.073	81.69
466.293	78.69
466.512	83.69
466.732	98.69
466.951	73.69
467.171	98.69
467.391	83.69
467.61	94.69
467.829	98.69
468.049	78.69
468.268	88.69
468.488	95.69
468.707	87.69
468.927	85.69
469.146	94.69
469.365	82.69
469.585	77.69
469.804	98.69
470.023	95.69
470.243	95.69
470.462	106.69
470.681	100.69
470.901	92.69
471.12	86.69
471.339	81.69
471.558	81.69
471.777	85.69
471.997	91.69
472.216	94.69
472.435	92.69
472.654	93.69
472.873	98.69
473.092	93.69
473.311	86.69
473.53	60.69
473.749	85.69
473.968	98.69
474.187	111.69
474.406	105.69
474.625	100.69
474.844	91.69
475.063	94.69
475.282	88.69
475.501	86.69
475.72	98.69
475.939	79.69
476.158	87.69
476.377	87.69
476.596	92.69
476.814	80.69
477.033	95.69
477.252	81.69
477.471	100.69
477.69	81.69
477.908	81.69
478.127	88.69
478.346	99.69
478.564	88.69
478.783	99.69
479.002	100.69
479.22	95.69
479.439	101.69
479.658	101.69
479.876	98.69
480.095	84.69
480.313	83.69
480.532	98.69
480.751	90.69
480.969	86.69
481.188	107.69
481.406	94.69
481.624	82.69
481.843	98.69
482.061	93.69
482.28	96.69
482.498	87.69
482.717	83.69
482.935	75.69
483.153	87.69
483.372	81.69
483.59	94.69
483.808	85.69
484.027	94.69
484.245	79.69
484.463	83.69
484.681	102.69
484.9	93.69
485.118	106.69
485.336	89.69
485.554	84.69
485.772	99.69
485.99	104.69
486.209	95.69
486.427	106.69
486.645	108.69
486.863	102.69
487.081	101.69
487.299	102.69
487.517	90.69
487.735	91.69
487.953	105.69
488.171	88.69
488.389	85.69
488.607	92.69
488.825	97.69
489.043	102.69
489.261	92.69
489.479	90.69
489.696	88.69
489.914	86.69
490.132	106.69
490.35	101.69
490.568	95.69
490.786	92.69
491.003	90.69
491.221	93.69
491.439	90.69
491.657	91.69
491.874	96.69
492.092	82.69
492.31	90.69
492.527	96.69
492.745	91.69
492.963	109.69
493.18	81.69
493.398	92.69
493.615	91.69
493.833	91.69
494.05	91.69
494.268	89.69
494.485	76.69
494.703	93.69
494.92	93.69
495.138	73.69
495.355	92.69
495.573	85.69
495.79	80.69
496.008	86.69
496.225	88.69
496.442	99.69
496.66	91.69
496.877	86.69
497.094	97.69
497.312	85.69
497.529	82.69
497.746	83.69
497.963	94.69
498.181	88.69
498.398	92.69
498.615	105.69
498.832	88.69
499.049	89.69
499.267	98.69
499.484	103.69
499.701	86.69
499.918	90.69
500.135	93.69
500.352	81.69
500.569	86.69
500.786	100.69
501.003	101.69
501.22	97.69
501.437	98.69
501.654	84.69
501.871	97.69
502.088	84.69
502.305	98.69
502.522	108.69
502.739	92.69
502.956	111.69
503.172	101.69
503.389	104.69
503.606	98.69
503.823	102.69
504.04	101.69
504.256	95.69
504.473	92.69
504.69	76.69
504.907	87.69
505.123	86.69
505.34	80.69
505.557	103.69
505.773	87.69
505.99	75.69
506.207	96.69
506.423	101.69
506.64	90.69
506.856	84.69
507.073	90.69
507.289	94.69
507.506	94.69
507.722	110.69
507.939	107.69
508.155	83.69
508.372	98.69
508.588	100.69
508.805	104.69
509.021	97.69
509.238	101.69
509.454	105.69
509.67	107.69
509.887	110.69
510.103	137.69
510.319	209.69
510.536	645.69
510.752	2036.69
510.968	561.69
511.184	141.69
511.401	113.69
511.617	100.69
511.833	84.69
512.049	79.69
512.265	86.69
512.481	87.69
512.698	92.69
512.914	100.69
513.13	90.69
513.346	82.69
513.562	98.69
513.778	102.69
513.994	101.69
514.21	99.69
514.426	112.69
514.642	126.69
514.858	131.69
515.074	163.69
515.29	401.69
515.506	1266.69
515.721	455.69
