Data from Uncirc_1991_H10_HRD10591_00091.txt Node
Date: Wed Jan 03 11:50:56 EST 2024
User: Yrep
Spectrometer: HR+D1059
Trigger mode: 1
Integration Time (sec): 1.000000E-1
Scans to average: 1
Electric dark correction enabled: true
Nonlinearity correction enabled: false
Boxcar width: 0
XAxis mode: Wavelengths
Number of Pixels in Spectrum: 2048
>>>>>Begin Spectral Data<<<<<
223.165	-12.88
223.4	-12.88
223.635	-12.88
223.869	-22.88
224.104	-16.88
224.338	-0.88
224.573	-13.88
224.808	-6.88
225.042	-16.88
225.277	-11.88
225.511	-6.88
225.746	3.12
225.98	-1.88
226.215	12.12
226.449	17.12
226.683	21.12
226.918	32.12
227.152	26.12
227.387	22.12
227.621	23.12
227.856	45.12
228.09	51.12
228.324	56.12
228.559	59.12
228.793	63.12
229.027	71.12
229.262	54.12
229.496	70.12
229.73	92.12
229.964	69.12
230.199	76.12
230.433	81.12
230.667	76.12
230.901	75.12
231.136	63.12
231.37	63.12
231.604	86.12
231.838	84.12
232.072	74.12
232.306	71.12
232.541	76.12
232.775	79.12
233.009	75.12
233.243	87.12
233.477	76.12
233.711	88.12
233.945	81.12
234.179	76.12
234.413	80.12
234.647	74.12
234.881	86.12
235.115	83.12
235.349	91.12
235.583	80.12
235.817	65.12
236.051	70.12
236.285	79.12
236.519	72.12
236.753	65.12
236.987	84.12
237.221	74.12
237.455	74.12
237.689	75.12
237.922	76.12
238.156	74.12
238.39	73.12
238.624	78.12
238.858	60.12
239.091	49.12
239.325	80.12
239.559	80.12
239.793	68.12
240.027	69.12
240.26	78.12
240.494	81.12
240.728	70.12
240.961	74.12
241.195	64.12
241.429	64.12
241.662	79.12
241.896	70.12
242.13	74.12
242.363	80.12
242.597	67.12
242.83	85.12
243.064	59.12
243.298	59.12
243.531	68.12
243.765	59.12
243.998	88.12
244.232	74.12
244.465	74.12
244.699	74.12
244.932	99.12
245.166	77.12
245.399	65.12
245.633	65.12
245.866	82.12
246.099	70.12
246.333	77.12
246.566	80.12
246.8	78.12
247.033	66.12
247.266	67.12
247.5	76.12
247.733	76.12
247.966	77.12
248.2	88.12
248.433	87.12
248.666	71.12
248.899	83.12
249.133	86.12
249.366	84.12
249.599	95.12
249.832	82.12
250.066	90.12
250.299	75.12
250.532	91.12
250.765	83.12
250.998	78.12
251.231	91.12
251.465	81.12
251.698	79.12
251.931	78.12
252.164	90.12
252.397	84.12
252.63	74.12
252.863	80.12
253.096	83.12
253.329	79.12
253.562	75.12
253.795	71.12
254.028	86.12
254.261	82.12
254.494	75.12
254.727	83.12
254.96	72.12
255.193	66.12
255.426	86.12
255.659	82.12
255.892	76.12
256.124	73.12
256.357	66.12
256.59	80.12
256.823	67.12
257.056	78.12
257.289	61.12
257.521	73.12
257.754	78.12
257.987	82.12
258.22	92.12
258.452	73.12
258.685	70.12
258.918	75.12
259.151	67.12
259.383	95.12
259.616	79.12
259.849	84.12
260.081	87.12
260.314	77.12
260.547	82.12
260.779	85.12
261.012	73.12
261.244	90.12
261.477	73.12
261.71	83.12
261.942	109.12
262.175	108.12
262.407	76.12
262.64	64.12
262.872	74.12
263.105	97.12
263.337	81.12
263.57	84.12
263.802	74.12
264.035	77.12
264.267	87.12
264.499	92.12
264.732	77.12
264.964	92.12
265.197	80.12
265.429	73.12
265.661	70.12
265.894	75.12
266.126	90.12
266.358	91.12
266.591	75.12
266.823	85.12
267.055	76.12
267.287	79.12
267.52	83.12
267.752	86.12
267.984	87.12
268.216	92.12
268.448	83.12
268.681	64.12
268.913	73.12
269.145	90.12
269.377	94.12
269.609	68.12
269.841	84.12
270.073	84.12
270.306	74.12
270.538	89.12
270.77	89.12
271.002	83.12
271.234	77.12
271.466	65.12
271.698	84.12
271.93	70.12
272.162	80.12
272.394	87.12
272.626	90.12
272.858	71.12
273.09	80.12
273.322	83.12
273.553	79.12
273.785	91.12
274.017	79.12
274.249	92.12
274.481	90.12
274.713	84.12
274.945	85.12
275.176	72.12
275.408	86.12
275.64	75.12
275.872	79.12
276.104	86.12
276.335	90.12
276.567	87.12
276.799	107.12
277.031	98.12
277.262	88.12
277.494	77.12
277.726	79.12
277.957	86.12
278.189	86.12
278.421	96.12
278.652	87.12
278.884	96.12
279.115	59.12
279.347	86.12
279.579	79.12
279.81	80.12
280.042	74.12
280.273	94.12
280.505	91.12
280.736	99.12
280.968	80.12
281.199	81.12
281.431	80.12
281.662	89.12
281.894	83.12
282.125	92.12
282.356	107.12
282.588	123.12
282.819	103.12
283.051	95.12
283.282	91.12
283.513	92.12
283.745	80.12
283.976	95.12
284.207	81.12
284.439	88.12
284.67	87.12
284.901	87.12
285.132	79.12
285.364	78.12
285.595	96.12
285.826	91.12
286.057	70.12
286.288	86.12
286.52	84.12
286.751	90.12
286.982	88.12
287.213	92.12
287.444	84.12
287.675	87.12
287.906	79.12
288.138	81.12
288.369	86.12
288.6	87.12
288.831	82.12
289.062	88.12
289.293	75.12
289.524	85.12
289.755	73.12
289.986	71.12
290.217	70.12
290.448	77.12
290.679	80.12
290.91	74.12
291.141	91.12
291.371	91.12
291.602	75.12
291.833	87.12
292.064	78.12
292.295	86.12
292.526	92.12
292.757	82.12
292.987	84.12
293.218	83.12
293.449	89.12
293.68	82.12
293.91	80.12
294.141	92.12
294.372	88.12
294.603	91.12
294.833	89.12
295.064	92.12
295.295	69.12
295.525	85.12
295.756	106.12
295.987	110.12
296.217	137.12
296.448	110.12
296.679	99.12
296.909	86.12
297.14	89.12
297.37	86.12
297.601	79.12
297.831	75.12
298.062	80.12
298.292	84.12
298.523	87.12
298.753	89.12
298.984	92.12
299.214	83.12
299.445	80.12
299.675	84.12
299.905	96.12
300.136	78.12
300.366	91.12
300.597	91.12
300.827	85.12
301.057	81.12
301.288	96.12
301.518	93.12
301.748	90.12
301.979	91.12
302.209	97.12
302.439	79.12
302.669	94.12
302.9	83.12
303.13	88.12
303.36	98.12
303.59	95.12
303.82	102.12
304.051	97.12
304.281	82.12
304.511	82.12
304.741	86.12
304.971	82.12
305.201	93.12
305.431	96.12
305.661	80.12
305.891	80.12
306.121	98.12
306.352	100.12
306.582	99.12
306.812	80.12
307.042	92.12
307.272	86.12
307.502	92.12
307.731	84.12
307.961	83.12
308.191	93.12
308.421	82.12
308.651	90.12
308.881	92.12
309.111	80.12
309.341	86.12
309.571	80.12
309.8	89.12
310.03	88.12
310.26	80.12
310.49	91.12
310.72	90.12
310.949	100.12
311.179	90.12
311.409	88.12
311.639	95.12
311.868	102.12
312.098	85.12
312.328	91.12
312.557	98.12
312.787	102.12
313.017	97.12
313.246	82.12
313.476	84.12
313.706	93.12
313.935	103.12
314.165	94.12
314.394	92.12
314.624	104.12
314.853	92.12
315.083	78.12
315.312	95.12
315.542	102.12
315.771	104.12
316.001	97.12
316.23	93.12
316.46	78.12
316.689	93.12
316.919	92.12
317.148	93.12
317.377	92.12
317.607	97.12
317.836	82.12
318.065	71.12
318.295	91.12
318.524	77.12
318.753	89.12
318.983	95.12
319.212	99.12
319.441	96.12
319.67	96.12
319.9	103.12
320.129	92.12
320.358	101.12
320.587	103.12
320.816	92.12
321.046	97.12
321.275	99.12
321.504	108.12
321.733	92.12
321.962	88.12
322.191	98.12
322.42	98.12
322.649	111.12
322.878	108.12
323.108	107.12
323.337	116.12
323.566	130.12
323.795	146.12
324.024	215.12
324.253	431.12
324.482	950.12
324.71	2013.12
324.939	2814.12
325.168	963.12
325.397	272.12
325.626	156.12
325.855	126.12
326.084	119.12
326.313	138.12
326.542	151.12
326.77	245.12
326.999	508.12
327.228	1077.12
327.457	2100.12
327.686	1664.12
327.914	396.12
328.143	194.12
328.372	146.12
328.6	135.12
328.829	125.12
329.058	119.12
329.287	121.12
329.515	112.12
329.744	96.12
329.972	91.12
330.201	100.12
330.43	94.12
330.658	110.12
330.887	134.12
331.115	112.12
331.344	92.12
331.572	97.12
331.801	103.12
332.03	98.12
332.258	80.12
332.486	109.12
332.715	84.12
332.943	83.12
333.172	88.12
333.4	91.12
333.629	104.12
333.857	90.12
334.085	97.12
334.314	76.12
334.542	90.12
334.771	93.12
334.999	78.12
335.227	95.12
335.455	91.12
335.684	84.12
335.912	100.12
336.14	100.12
336.369	96.12
336.597	103.12
336.825	94.12
337.053	87.12
337.281	87.12
337.51	87.12
337.738	89.12
337.966	90.12
338.194	91.12
338.422	86.12
338.65	85.12
338.878	94.12
339.106	85.12
339.334	94.12
339.562	97.12
339.79	93.12
340.018	88.12
340.246	90.12
340.474	90.12
340.702	108.12
340.93	97.12
341.158	89.12
341.386	93.12
341.614	100.12
341.842	93.12
342.07	93.12
342.298	89.12
342.526	86.12
342.754	78.12
342.981	89.12
343.209	78.12
343.437	111.12
343.665	87.12
343.893	82.12
344.12	84.12
344.348	78.12
344.576	91.12
344.804	97.12
345.031	83.12
345.259	96.12
345.487	65.12
345.714	88.12
345.942	72.12
346.17	94.12
346.397	74.12
346.625	74.12
346.853	89.12
347.08	88.12
347.308	78.12
347.535	90.12
347.763	99.12
347.99	90.12
348.218	108.12
348.445	106.12
348.673	96.12
348.9	84.12
349.128	98.12
349.355	103.12
349.583	82.12
349.81	94.12
350.037	83.12
350.265	87.12
350.492	101.12
350.72	98.12
350.947	90.12
351.174	105.12
351.402	110.12
351.629	90.12
351.856	98.12
352.083	97.12
352.311	94.12
352.538	110.12
352.765	104.12
352.992	108.12
353.22	109.12
353.447	105.12
353.674	90.12
353.901	85.12
354.128	102.12
354.355	86.12
354.583	105.12
354.81	94.12
355.037	95.12
355.264	99.12
355.491	89.12
355.718	109.12
355.945	88.12
356.172	86.12
356.399	86.12
356.626	88.12
356.853	86.12
357.08	107.12
357.307	96.12
357.534	86.12
357.761	90.12
357.988	72.12
358.215	81.12
358.441	95.12
358.668	76.12
358.895	91.12
359.122	83.12
359.349	77.12
359.576	73.12
359.802	95.12
360.029	114.12
360.256	114.12
360.483	91.12
360.709	78.12
360.936	97.12
361.163	99.12
361.39	84.12
361.616	87.12
361.843	81.12
362.07	89.12
362.296	107.12
362.523	89.12
362.749	75.12
362.976	109.12
363.203	91.12
363.429	90.12
363.656	88.12
363.882	80.12
364.109	92.12
364.335	110.12
364.562	112.12
364.788	89.12
365.015	88.12
365.241	106.12
365.468	97.12
365.694	91.12
365.92	82.12
366.147	71.12
366.373	79.12
366.599	80.12
366.826	91.12
367.052	81.12
367.278	90.12
367.505	75.12
367.731	89.12
367.957	98.12
368.184	83.12
368.41	91.12
368.636	99.12
368.862	109.12
369.089	108.12
369.315	91.12
369.541	89.12
369.767	100.12
369.993	87.12
370.219	80.12
370.445	92.12
370.672	87.12
370.898	89.12
371.124	86.12
371.35	88.12
371.576	92.12
371.802	76.12
372.028	91.12
372.254	78.12
372.48	69.12
372.706	84.12
372.932	81.12
373.158	98.12
373.384	80.12
373.61	93.12
373.835	84.12
374.061	87.12
374.287	84.12
374.513	74.12
374.739	89.12
374.965	85.12
375.191	79.12
375.416	96.12
375.642	101.12
375.868	82.12
376.094	79.12
376.319	71.12
376.545	83.12
376.771	84.12
376.997	86.12
377.222	98.12
377.448	91.12
377.674	94.12
377.899	95.12
378.125	86.12
378.35	76.12
378.576	84.12
378.802	96.12
379.027	86.12
379.253	91.12
379.478	89.12
379.704	87.12
379.929	70.12
380.155	82.12
380.38	83.12
380.606	83.12
380.831	91.12
381.057	99.12
381.282	89.12
381.507	80.12
381.733	72.12
381.958	80.12
382.184	100.12
382.409	113.12
382.634	83.12
382.86	85.12
383.085	97.12
383.31	90.12
383.535	96.12
383.761	78.12
383.986	81.12
384.211	94.12
384.436	85.12
384.662	87.12
384.887	86.12
385.112	99.12
385.337	90.12
385.562	89.12
385.787	91.12
386.013	107.12
386.238	97.12
386.463	95.12
386.688	87.12
386.913	82.12
387.138	96.12
387.363	94.12
387.588	94.12
387.813	110.12
388.038	92.12
388.263	91.12
388.488	99.12
388.713	93.12
388.938	83.12
389.163	83.12
389.387	67.12
389.612	95.12
389.837	91.12
390.062	87.12
390.287	99.12
390.512	84.12
390.736	83.12
390.961	93.12
391.186	85.12
391.411	82.12
391.636	86.12
391.86	88.12
392.085	81.12
392.31	82.12
392.534	74.12
392.759	82.12
392.984	75.12
393.208	85.12
393.433	81.12
393.658	71.12
393.882	78.12
394.107	84.12
394.331	86.12
394.556	66.12
394.78	78.12
395.005	82.12
395.229	59.12
395.454	99.12
395.678	69.12
395.903	91.12
396.127	87.12
396.352	82.12
396.576	84.12
396.801	79.12
397.025	73.12
397.249	81.12
397.474	85.12
397.698	84.12
397.922	87.12
398.147	89.12
398.371	88.12
398.595	78.12
398.82	88.12
399.044	82.12
399.268	92.12
399.492	86.12
399.717	76.12
399.941	89.12
400.165	95.12
400.389	104.12
400.613	91.12
400.837	89.12
401.062	80.12
401.286	76.12
401.51	78.12
401.734	72.12
401.958	98.12
402.182	104.12
402.406	146.12
402.63	124.12
402.854	94.12
403.078	70.12
403.302	82.12
403.526	80.12
403.75	72.12
403.974	81.12
404.198	86.12
404.422	88.12
404.645	73.12
404.869	88.12
405.093	82.12
405.317	83.12
405.541	90.12
405.765	92.12
405.988	104.12
406.212	163.12
406.436	234.12
406.66	154.12
406.883	97.12
407.107	91.12
407.331	84.12
407.555	102.12
407.778	95.12
408.002	90.12
408.226	86.12
408.449	74.12
408.673	76.12
408.896	77.12
409.12	104.12
409.344	78.12
409.567	95.12
409.791	95.12
410.014	96.12
410.238	104.12
410.461	83.12
410.685	83.12
410.908	90.12
411.132	87.12
411.355	109.12
411.578	87.12
411.802	82.12
412.025	88.12
412.249	99.12
412.472	83.12
412.695	98.12
412.919	83.12
413.142	93.12
413.365	80.12
413.589	84.12
413.812	81.12
414.035	86.12
414.258	87.12
414.482	90.12
414.705	88.12
414.928	79.12
415.151	90.12
415.374	81.12
415.597	100.12
415.821	87.12
416.044	91.12
416.267	81.12
416.49	73.12
416.713	82.12
416.936	87.12
417.159	86.12
417.382	75.12
417.605	81.12
417.828	84.12
418.051	73.12
418.274	99.12
418.497	99.12
418.72	83.12
418.943	81.12
419.166	82.12
419.389	83.12
419.611	90.12
419.834	76.12
420.057	91.12
420.28	76.12
420.503	77.12
420.726	81.12
420.948	86.12
421.171	80.12
421.394	82.12
421.617	89.12
421.839	82.12
422.062	90.12
422.285	102.12
422.507	101.12
422.73	97.12
422.953	96.12
423.175	81.12
423.398	63.12
423.621	77.12
423.843	74.12
424.066	81.12
424.288	88.12
424.511	103.12
424.733	105.12
424.956	111.12
425.178	110.12
425.401	110.12
425.623	106.12
425.846	100.12
426.068	94.12
426.291	88.12
426.513	87.12
426.735	90.12
426.958	96.12
427.18	106.12
427.402	140.12
427.625	159.12
427.847	118.12
428.069	100.12
428.292	104.12
428.514	86.12
428.736	83.12
428.958	81.12
429.181	79.12
429.403	79.12
429.625	72.12
429.847	108.12
430.069	103.12
430.292	95.12
430.514	80.12
430.736	75.12
430.958	94.12
431.18	94.12
431.402	94.12
431.624	90.12
431.846	67.12
432.068	98.12
432.29	82.12
432.512	85.12
432.734	80.12
432.956	88.12
433.178	85.12
433.4	101.12
433.622	105.12
433.844	95.12
434.066	80.12
434.287	86.12
434.509	75.12
434.731	88.12
434.953	86.12
435.175	86.12
435.397	79.12
435.618	87.12
435.84	106.12
436.062	157.12
436.284	117.12
436.505	93.12
436.727	98.12
436.949	75.12
437.17	89.12
437.392	72.12
437.614	87.12
437.835	114.12
438.057	128.12
438.278	126.12
438.5	96.12
438.721	129.12
438.943	104.12
439.165	88.12
439.386	79.12
439.608	94.12
439.829	96.12
440.05	120.12
440.272	154.12
440.493	105.12
440.715	88.12
440.936	78.12
441.158	84.12
441.379	84.12
441.6	85.12
441.822	80.12
442.043	89.12
442.264	95.12
442.486	94.12
442.707	90.12
442.928	96.12
443.149	108.12
443.371	122.12
443.592	110.12
443.813	113.12
444.034	117.12
444.255	105.12
444.476	79.12
444.698	87.12
444.919	77.12
445.14	131.12
445.361	123.12
445.582	115.12
445.803	139.12
446.024	146.12
446.245	146.12
446.466	109.12
446.687	89.12
446.908	86.12
447.129	88.12
447.35	83.12
447.571	91.12
447.792	83.12
448.013	105.12
448.234	105.12
448.455	98.12
448.675	131.12
448.896	127.12
449.117	103.12
449.338	106.12
449.559	136.12
449.779	153.12
450	103.12
450.221	74.12
450.442	84.12
450.662	92.12
450.883	93.12
451.104	100.12
451.324	95.12
451.545	88.12
451.766	86.12
451.986	74.12
452.207	76.12
452.428	91.12
452.648	102.12
452.869	108.12
453.089	123.12
453.31	122.12
453.53	80.12
453.751	95.12
453.971	104.12
454.192	121.12
454.412	95.12
454.633	78.12
454.853	95.12
455.073	78.12
455.294	89.12
455.514	94.12
455.734	96.12
455.955	76.12
456.175	87.12
456.395	94.12
456.616	94.12
456.836	75.12
457.056	83.12
457.276	82.12
457.497	78.12
457.717	82.12
457.937	78.12
458.157	95.12
458.377	93.12
458.598	100.12
458.818	139.12
459.038	168.12
459.258	110.12
459.478	89.12
459.698	77.12
459.918	100.12
460.138	77.12
460.358	86.12
460.578	95.12
460.798	94.12
461.018	86.12
461.238	92.12
461.458	90.12
461.678	86.12
461.898	87.12
462.118	87.12
462.338	80.12
462.558	82.12
462.777	83.12
462.997	105.12
463.217	85.12
463.437	93.12
463.657	84.12
463.876	76.12
464.096	91.12
464.316	97.12
464.536	89.12
464.755	83.12
464.975	100.12
465.195	162.12
465.414	165.12
465.634	101.12
465.854	94.12
466.073	81.12
466.293	98.12
466.512	88.12
466.732	74.12
466.951	77.12
467.171	101.12
467.391	92.12
467.61	93.12
467.829	100.12
468.049	83.12
468.268	68.12
468.488	91.12
468.707	70.12
468.927	88.12
469.146	94.12
469.365	98.12
469.585	76.12
469.804	77.12
470.023	97.12
470.243	89.12
470.462	111.12
470.681	112.12
470.901	74.12
471.12	84.12
471.339	82.12
471.558	96.12
471.777	78.12
471.997	97.12
472.216	93.12
472.435	82.12
472.654	79.12
472.873	95.12
473.092	87.12
473.311	94.12
473.53	78.12
473.749	72.12
473.968	89.12
474.187	102.12
474.406	92.12
474.625	86.12
474.844	76.12
475.063	70.12
475.282	75.12
475.501	101.12
475.72	75.12
475.939	101.12
476.158	81.12
476.377	86.12
476.596	85.12
476.814	80.12
477.033	90.12
477.252	84.12
477.471	89.12
477.69	97.12
477.908	80.12
478.127	82.12
478.346	80.12
478.564	88.12
478.783	100.12
479.002	88.12
479.22	93.12
479.439	92.12
479.658	93.12
479.876	90.12
480.095	81.12
480.313	78.12
480.532	86.12
480.751	89.12
480.969	96.12
481.188	90.12
481.406	82.12
481.624	75.12
481.843	81.12
482.061	83.12
482.28	85.12
482.498	80.12
482.717	79.12
482.935	82.12
483.153	97.12
483.372	79.12
483.59	96.12
483.808	91.12
484.027	88.12
484.245	96.12
484.463	79.12
484.681	98.12
484.9	90.12
485.118	103.12
485.336	109.12
485.554	95.12
485.772	75.12
485.99	100.12
486.209	104.12
486.427	85.12
486.645	103.12
486.863	115.12
487.081	105.12
487.299	106.12
487.517	89.12
487.735	88.12
487.953	86.12
488.171	94.12
488.389	99.12
488.607	115.12
488.825	102.12
489.043	82.12
489.261	72.12
489.479	81.12
489.696	79.12
489.914	90.12
490.132	84.12
490.35	87.12
490.568	83.12
490.786	89.12
491.003	96.12
491.221	89.12
491.439	98.12
491.657	88.12
491.874	88.12
492.092	88.12
492.31	84.12
492.527	83.12
492.745	77.12
492.963	81.12
493.18	81.12
493.398	88.12
493.615	95.12
493.833	83.12
494.05	94.12
494.268	82.12
494.485	91.12
494.703	78.12
494.92	90.12
495.138	92.12
495.355	79.12
495.573	84.12
495.79	80.12
496.008	90.12
496.225	80.12
496.442	84.12
496.66	83.12
496.877	88.12
497.094	98.12
497.312	88.12
497.529	84.12
497.746	83.12
497.963	95.12
498.181	95.12
498.398	89.12
498.615	111.12
498.832	96.12
499.049	89.12
499.267	90.12
499.484	96.12
499.701	90.12
499.918	89.12
500.135	93.12
500.352	91.12
500.569	83.12
500.786	105.12
501.003	88.12
501.22	92.12
501.437	94.12
501.654	98.12
501.871	103.12
502.088	74.12
502.305	84.12
502.522	87.12
502.739	90.12
502.956	94.12
503.172	102.12
503.389	84.12
503.606	97.12
503.823	106.12
504.04	94.12
504.256	88.12
504.473	78.12
504.69	95.12
504.907	94.12
505.123	100.12
505.34	95.12
505.557	86.12
505.773	75.12
505.99	77.12
506.207	71.12
506.423	84.12
506.64	81.12
506.856	96.12
507.073	99.12
507.289	84.12
507.506	96.12
507.722	105.12
507.939	89.12
508.155	86.12
508.372	93.12
508.588	93.12
508.805	86.12
509.021	100.12
509.238	102.12
509.454	84.12
509.67	107.12
509.887	118.12
510.103	114.12
510.319	198.12
510.536	754.12
510.752	2400.12
510.968	634.12
511.184	142.12
511.401	102.12
511.617	86.12
511.833	86.12
512.049	96.12
512.265	85.12
512.481	78.12
512.698	91.12
512.914	78.12
513.13	85.12
513.346	84.12
513.562	82.12
513.778	105.12
513.994	90.12
514.21	82.12
514.426	119.12
514.642	144.12
514.858	114.12
515.074	169.12
515.29	465.12
515.506	1602.12
515.721	558.12
515.937	150.12
516.153	114.12
516.369	107.12
516.585	101.12
516.801	104.12
