Data from Uncirc_1991_H10_HRD10591_00080.txt Node
Date: Wed Jan 03 11:50:54 EST 2024
User: Yrep
Spectrometer: HR+D1059
Trigger mode: 1
Integration Time (sec): 1.000000E-1
Scans to average: 1
Electric dark correction enabled: true
Nonlinearity correction enabled: false
Boxcar width: 0
XAxis mode: Wavelengths
Number of Pixels in Spectrum: 2048
>>>>>Begin Spectral Data<<<<<
223.165	-2.88
223.4	-2.88
223.635	-2.88
223.869	-11.88
224.104	-13.88
224.338	-13.88
224.573	-7.88
224.808	-27.88
225.042	-13.88
225.277	-9.88
225.511	-12.88
225.746	-3.88
225.98	18.12
226.215	5.12
226.449	18.12
226.683	28.12
226.918	25.12
227.152	24.12
227.387	30.12
227.621	36.12
227.856	38.12
228.09	36.12
228.324	56.12
228.559	52.12
228.793	66.12
229.027	67.12
229.262	60.12
229.496	77.12
229.73	83.12
229.964	78.12
230.199	88.12
230.433	77.12
230.667	92.12
230.901	67.12
231.136	79.12
231.37	75.12
231.604	72.12
231.838	82.12
232.072	81.12
232.306	81.12
232.541	78.12
232.775	88.12
233.009	76.12
233.243	92.12
233.477	88.12
233.711	78.12
233.945	82.12
234.179	68.12
234.413	82.12
234.647	82.12
234.881	85.12
235.115	65.12
235.349	66.12
235.583	70.12
235.817	79.12
236.051	80.12
236.285	69.12
236.519	82.12
236.753	80.12
236.987	72.12
237.221	87.12
237.455	85.12
237.689	88.12
237.922	76.12
238.156	104.12
238.39	74.12
238.624	78.12
238.858	80.12
239.091	73.12
239.325	87.12
239.559	77.12
239.793	65.12
240.027	81.12
240.26	84.12
240.494	78.12
240.728	66.12
240.961	78.12
241.195	79.12
241.429	75.12
241.662	71.12
241.896	81.12
242.13	72.12
242.363	70.12
242.597	64.12
242.83	84.12
243.064	69.12
243.298	62.12
243.531	75.12
243.765	66.12
243.998	72.12
244.232	85.12
244.465	94.12
244.699	84.12
244.932	75.12
245.166	78.12
245.399	84.12
245.633	79.12
245.866	66.12
246.099	77.12
246.333	70.12
246.566	84.12
246.8	58.12
247.033	78.12
247.266	75.12
247.5	73.12
247.733	89.12
247.966	93.12
248.2	81.12
248.433	80.12
248.666	68.12
248.899	76.12
249.133	90.12
249.366	105.12
249.599	86.12
249.832	72.12
250.066	86.12
250.299	69.12
250.532	74.12
250.765	85.12
250.998	67.12
251.231	78.12
251.465	79.12
251.698	82.12
251.931	88.12
252.164	69.12
252.397	87.12
252.63	82.12
252.863	81.12
253.096	92.12
253.329	74.12
253.562	88.12
253.795	60.12
254.028	77.12
254.261	78.12
254.494	89.12
254.727	87.12
254.96	75.12
255.193	92.12
255.426	81.12
255.659	75.12
255.892	74.12
256.124	86.12
256.357	82.12
256.59	79.12
256.823	90.12
257.056	66.12
257.289	92.12
257.521	75.12
257.754	77.12
257.987	78.12
258.22	85.12
258.452	68.12
258.685	90.12
258.918	79.12
259.151	85.12
259.383	77.12
259.616	80.12
259.849	90.12
260.081	82.12
260.314	80.12
260.547	75.12
260.779	76.12
261.012	76.12
261.244	81.12
261.477	72.12
261.71	93.12
261.942	88.12
262.175	108.12
262.407	95.12
262.64	83.12
262.872	85.12
263.105	82.12
263.337	64.12
263.57	88.12
263.802	76.12
264.035	84.12
264.267	69.12
264.499	77.12
264.732	88.12
264.964	80.12
265.197	87.12
265.429	78.12
265.661	76.12
265.894	83.12
266.126	88.12
266.358	87.12
266.591	84.12
266.823	99.12
267.055	89.12
267.287	89.12
267.52	79.12
267.752	88.12
267.984	76.12
268.216	84.12
268.448	82.12
268.681	92.12
268.913	76.12
269.145	84.12
269.377	84.12
269.609	89.12
269.841	80.12
270.073	89.12
270.306	92.12
270.538	102.12
270.77	58.12
271.002	78.12
271.234	90.12
271.466	94.12
271.698	72.12
271.93	85.12
272.162	89.12
272.394	90.12
272.626	84.12
272.858	93.12
273.09	83.12
273.322	83.12
273.553	87.12
273.785	92.12
274.017	89.12
274.249	86.12
274.481	93.12
274.713	80.12
274.945	91.12
275.176	77.12
275.408	87.12
275.64	80.12
275.872	86.12
276.104	94.12
276.335	102.12
276.567	73.12
276.799	111.12
277.031	101.12
277.262	84.12
277.494	81.12
277.726	92.12
277.957	88.12
278.189	91.12
278.421	78.12
278.652	81.12
278.884	85.12
279.115	82.12
279.347	76.12
279.579	81.12
279.81	88.12
280.042	97.12
280.273	88.12
280.505	76.12
280.736	90.12
280.968	87.12
281.199	88.12
281.431	76.12
281.662	89.12
281.894	98.12
282.125	102.12
282.356	116.12
282.588	119.12
282.819	116.12
283.051	97.12
283.282	92.12
283.513	96.12
283.745	89.12
283.976	70.12
284.207	73.12
284.439	85.12
284.67	81.12
284.901	91.12
285.132	81.12
285.364	92.12
285.595	88.12
285.826	79.12
286.057	74.12
286.288	81.12
286.52	84.12
286.751	88.12
286.982	66.12
287.213	68.12
287.444	82.12
287.675	96.12
287.906	103.12
288.138	98.12
288.369	88.12
288.6	95.12
288.831	81.12
289.062	93.12
289.293	83.12
289.524	93.12
289.755	81.12
289.986	81.12
290.217	79.12
290.448	84.12
290.679	80.12
290.91	84.12
291.141	83.12
291.371	83.12
291.602	84.12
291.833	86.12
292.064	76.12
292.295	95.12
292.526	86.12
292.757	91.12
292.987	92.12
293.218	92.12
293.449	109.12
293.68	74.12
293.91	97.12
294.141	89.12
294.372	76.12
294.603	79.12
294.833	74.12
295.064	93.12
295.295	85.12
295.525	82.12
295.756	97.12
295.987	104.12
296.217	133.12
296.448	136.12
296.679	100.12
296.909	96.12
297.14	79.12
297.37	90.12
297.601	92.12
297.831	87.12
298.062	84.12
298.292	100.12
298.523	97.12
298.753	82.12
298.984	73.12
299.214	83.12
299.445	100.12
299.675	97.12
299.905	98.12
300.136	89.12
300.366	97.12
300.597	90.12
300.827	86.12
301.057	102.12
301.288	109.12
301.518	93.12
301.748	85.12
301.979	97.12
302.209	81.12
302.439	82.12
302.669	94.12
302.9	95.12
303.13	90.12
303.36	93.12
303.59	101.12
303.82	113.12
304.051	94.12
304.281	89.12
304.511	108.12
304.741	82.12
304.971	90.12
305.201	88.12
305.431	99.12
305.661	93.12
305.891	97.12
306.121	94.12
306.352	106.12
306.582	113.12
306.812	99.12
307.042	96.12
307.272	101.12
307.502	93.12
307.731	92.12
307.961	91.12
308.191	72.12
308.421	90.12
308.651	82.12
308.881	98.12
309.111	101.12
309.341	87.12
309.571	95.12
309.8	101.12
310.03	108.12
310.26	98.12
310.49	96.12
310.72	98.12
310.949	108.12
311.179	105.12
311.409	92.12
311.639	97.12
311.868	96.12
312.098	81.12
312.328	81.12
312.557	84.12
312.787	96.12
313.017	87.12
313.246	106.12
313.476	102.12
313.706	93.12
313.935	98.12
314.165	101.12
314.394	101.12
314.624	87.12
314.853	110.12
315.083	88.12
315.312	84.12
315.542	86.12
315.771	91.12
316.001	98.12
316.23	90.12
316.46	83.12
316.689	78.12
316.919	93.12
317.148	93.12
317.377	96.12
317.607	103.12
317.836	92.12
318.065	92.12
318.295	93.12
318.524	100.12
318.753	94.12
318.983	100.12
319.212	98.12
319.441	108.12
319.67	93.12
319.9	94.12
320.129	89.12
320.358	97.12
320.587	99.12
320.816	100.12
321.046	89.12
321.275	83.12
321.504	94.12
321.733	96.12
321.962	100.12
322.191	98.12
322.42	107.12
322.649	106.12
322.878	116.12
323.108	109.12
323.337	112.12
323.566	130.12
323.795	139.12
324.024	217.12
324.253	411.12
324.482	878.12
324.71	1857.12
324.939	2476.12
325.168	881.12
325.397	267.12
325.626	162.12
325.855	140.12
326.084	144.12
326.313	142.12
326.542	159.12
326.77	233.12
326.999	476.12
327.228	1025.12
327.457	1857.12
327.686	1491.12
327.914	398.12
328.143	204.12
328.372	138.12
328.6	108.12
328.829	105.12
329.058	139.12
329.287	138.12
329.515	111.12
329.744	94.12
329.972	94.12
330.201	99.12
330.43	103.12
330.658	108.12
330.887	130.12
331.115	108.12
331.344	102.12
331.572	86.12
331.801	104.12
332.03	90.12
332.258	107.12
332.486	88.12
332.715	89.12
332.943	96.12
333.172	109.12
333.4	104.12
333.629	96.12
333.857	106.12
334.085	96.12
334.314	96.12
334.542	112.12
334.771	73.12
334.999	83.12
335.227	97.12
335.455	84.12
335.684	98.12
335.912	94.12
336.14	98.12
336.369	94.12
336.597	90.12
336.825	101.12
337.053	101.12
337.281	102.12
337.51	92.12
337.738	90.12
337.966	83.12
338.194	78.12
338.422	84.12
338.65	98.12
338.878	83.12
339.106	86.12
339.334	84.12
339.562	93.12
339.79	92.12
340.018	88.12
340.246	91.12
340.474	92.12
340.702	86.12
340.93	79.12
341.158	88.12
341.386	108.12
341.614	100.12
341.842	94.12
342.07	99.12
342.298	80.12
342.526	84.12
342.754	78.12
342.981	68.12
343.209	90.12
343.437	108.12
343.665	80.12
343.893	98.12
344.12	88.12
344.348	97.12
344.576	92.12
344.804	91.12
345.031	101.12
345.259	105.12
345.487	91.12
345.714	87.12
345.942	93.12
346.17	86.12
346.397	83.12
346.625	77.12
346.853	94.12
347.08	94.12
347.308	91.12
347.535	97.12
347.763	104.12
347.99	78.12
348.218	92.12
348.445	92.12
348.673	80.12
348.9	95.12
349.128	89.12
349.355	85.12
349.583	97.12
349.81	92.12
350.037	93.12
350.265	100.12
350.492	98.12
350.72	82.12
350.947	103.12
351.174	110.12
351.402	89.12
351.629	91.12
351.856	99.12
352.083	97.12
352.311	94.12
352.538	120.12
352.765	110.12
352.992	108.12
353.22	100.12
353.447	93.12
353.674	102.12
353.901	103.12
354.128	97.12
354.355	110.12
354.583	88.12
354.81	84.12
355.037	91.12
355.264	90.12
355.491	97.12
355.718	82.12
355.945	90.12
356.172	93.12
356.399	93.12
356.626	95.12
356.853	94.12
357.08	89.12
357.307	92.12
357.534	84.12
357.761	92.12
357.988	101.12
358.215	108.12
358.441	96.12
358.668	97.12
358.895	90.12
359.122	90.12
359.349	97.12
359.576	88.12
359.802	88.12
360.029	112.12
360.256	109.12
360.483	97.12
360.709	88.12
360.936	92.12
361.163	86.12
361.39	98.12
361.616	101.12
361.843	93.12
362.07	93.12
362.296	101.12
362.523	79.12
362.749	91.12
362.976	98.12
363.203	93.12
363.429	81.12
363.656	89.12
363.882	86.12
364.109	101.12
364.335	89.12
364.562	93.12
364.788	93.12
365.015	97.12
365.241	91.12
365.468	93.12
365.694	108.12
365.92	93.12
366.147	80.12
366.373	93.12
366.599	83.12
366.826	87.12
367.052	94.12
367.278	79.12
367.505	88.12
367.731	99.12
367.957	89.12
368.184	93.12
368.41	96.12
368.636	118.12
368.862	116.12
369.089	97.12
369.315	91.12
369.541	98.12
369.767	86.12
369.993	87.12
370.219	96.12
370.445	91.12
370.672	91.12
370.898	97.12
371.124	83.12
371.35	87.12
371.576	83.12
371.802	98.12
372.028	82.12
372.254	86.12
372.48	88.12
372.706	88.12
372.932	89.12
373.158	89.12
373.384	99.12
373.61	89.12
373.835	92.12
374.061	82.12
374.287	100.12
374.513	86.12
374.739	81.12
374.965	83.12
375.191	90.12
375.416	74.12
375.642	95.12
375.868	82.12
376.094	83.12
376.319	88.12
376.545	94.12
376.771	90.12
376.997	92.12
377.222	91.12
377.448	98.12
377.674	88.12
377.899	88.12
378.125	86.12
378.35	82.12
378.576	104.12
378.802	86.12
379.027	96.12
379.253	102.12
379.478	93.12
379.704	84.12
379.929	98.12
380.155	94.12
380.38	84.12
380.606	93.12
380.831	70.12
381.057	101.12
381.282	99.12
381.507	86.12
381.733	88.12
381.958	100.12
382.184	83.12
382.409	88.12
382.634	92.12
382.86	93.12
383.085	113.12
383.31	114.12
383.535	94.12
383.761	97.12
383.986	103.12
384.211	98.12
384.436	100.12
384.662	91.12
384.887	106.12
385.112	98.12
385.337	101.12
385.562	97.12
385.787	92.12
386.013	95.12
386.238	104.12
386.463	92.12
386.688	106.12
386.913	100.12
387.138	94.12
387.363	111.12
387.588	92.12
387.813	94.12
388.038	100.12
388.263	108.12
388.488	91.12
388.713	97.12
388.938	98.12
389.163	100.12
389.387	102.12
389.612	86.12
389.837	92.12
390.062	90.12
390.287	95.12
390.512	74.12
390.736	102.12
390.961	93.12
391.186	83.12
391.411	82.12
391.636	87.12
391.86	88.12
392.085	77.12
392.31	99.12
392.534	76.12
392.759	80.12
392.984	66.12
393.208	84.12
393.433	79.12
393.658	90.12
393.882	85.12
394.107	86.12
394.331	77.12
394.556	76.12
394.78	80.12
395.005	75.12
395.229	64.12
395.454	76.12
395.678	80.12
395.903	82.12
396.127	79.12
396.352	80.12
396.576	80.12
396.801	85.12
397.025	75.12
397.249	76.12
397.474	78.12
397.698	82.12
397.922	77.12
398.147	89.12
398.371	100.12
398.595	87.12
398.82	101.12
399.044	85.12
399.268	84.12
399.492	89.12
399.717	84.12
399.941	88.12
400.165	90.12
400.389	82.12
400.613	80.12
400.837	88.12
401.062	81.12
401.286	86.12
401.51	89.12
401.734	91.12
401.958	99.12
402.182	108.12
402.406	149.12
402.63	110.12
402.854	84.12
403.078	75.12
403.302	76.12
403.526	85.12
403.75	96.12
403.974	88.12
404.198	88.12
404.422	94.12
404.645	76.12
404.869	89.12
405.093	98.12
405.317	93.12
405.541	101.12
405.765	107.12
405.988	115.12
406.212	154.12
406.436	228.12
406.66	142.12
406.883	101.12
407.107	91.12
407.331	93.12
407.555	95.12
407.778	97.12
408.002	77.12
408.226	96.12
408.449	81.12
408.673	86.12
408.896	89.12
409.12	84.12
409.344	93.12
409.567	79.12
409.791	88.12
410.014	94.12
410.238	87.12
410.461	83.12
410.685	74.12
410.908	104.12
411.132	110.12
411.355	102.12
411.578	80.12
411.802	95.12
412.025	97.12
412.249	81.12
412.472	82.12
412.695	92.12
412.919	91.12
413.142	84.12
413.365	88.12
413.589	90.12
413.812	76.12
414.035	90.12
414.258	85.12
414.482	78.12
414.705	92.12
414.928	79.12
415.151	84.12
415.374	83.12
415.597	99.12
415.821	101.12
416.044	92.12
416.267	104.12
416.49	88.12
416.713	81.12
416.936	76.12
417.159	87.12
417.382	80.12
417.605	81.12
417.828	98.12
418.051	84.12
418.274	92.12
418.497	88.12
418.72	89.12
418.943	100.12
419.166	88.12
419.389	76.12
419.611	100.12
419.834	95.12
420.057	92.12
420.28	76.12
420.503	85.12
420.726	76.12
420.948	82.12
421.171	83.12
421.394	83.12
421.617	77.12
421.839	96.12
422.062	85.12
422.285	88.12
422.507	110.12
422.73	104.12
422.953	88.12
423.175	84.12
423.398	74.12
423.621	95.12
423.843	72.12
424.066	75.12
424.288	78.12
424.511	83.12
424.733	109.12
424.956	91.12
425.178	105.12
425.401	99.12
425.623	99.12
425.846	92.12
426.068	93.12
426.291	89.12
426.513	90.12
426.735	94.12
426.958	101.12
427.18	102.12
427.402	143.12
427.625	163.12
427.847	117.12
428.069	91.12
428.292	77.12
428.514	84.12
428.736	99.12
428.958	76.12
429.181	83.12
429.403	80.12
429.625	77.12
429.847	85.12
430.069	90.12
430.292	81.12
430.514	75.12
430.736	88.12
430.958	81.12
431.18	81.12
431.402	75.12
431.624	71.12
431.846	83.12
432.068	85.12
432.29	78.12
432.512	92.12
432.734	84.12
432.956	85.12
433.178	90.12
433.4	101.12
433.622	105.12
433.844	93.12
434.066	88.12
434.287	92.12
434.509	63.12
434.731	89.12
434.953	96.12
435.175	76.12
435.397	86.12
435.618	93.12
435.84	107.12
436.062	122.12
436.284	101.12
436.505	102.12
436.727	102.12
436.949	86.12
437.17	76.12
437.392	81.12
437.614	83.12
437.835	111.12
438.057	122.12
438.278	120.12
438.5	100.12
438.721	106.12
438.943	93.12
439.165	94.12
439.386	86.12
439.608	89.12
439.829	90.12
440.05	107.12
440.272	133.12
440.493	100.12
440.715	88.12
440.936	101.12
441.158	71.12
441.379	80.12
441.6	98.12
441.822	88.12
442.043	97.12
442.264	98.12
442.486	96.12
442.707	88.12
442.928	103.12
443.149	131.12
443.371	128.12
443.592	115.12
443.813	121.12
444.034	102.12
444.255	98.12
444.476	87.12
444.698	85.12
444.919	96.12
445.14	143.12
445.361	106.12
445.582	114.12
445.803	129.12
446.024	146.12
446.245	150.12
446.466	117.12
446.687	96.12
446.908	91.12
447.129	89.12
447.35	86.12
447.571	91.12
447.792	99.12
448.013	88.12
448.234	104.12
448.455	82.12
448.675	108.12
448.896	117.12
449.117	109.12
449.338	106.12
449.559	125.12
449.779	152.12
450	104.12
450.221	107.12
450.442	87.12
450.662	88.12
450.883	84.12
451.104	100.12
451.324	93.12
451.545	83.12
451.766	85.12
451.986	70.12
452.207	93.12
452.428	95.12
452.648	90.12
452.869	104.12
453.089	107.12
453.31	127.12
453.53	102.12
453.751	93.12
453.971	109.12
454.192	101.12
454.412	93.12
454.633	83.12
454.853	76.12
455.073	84.12
455.294	86.12
455.514	98.12
455.734	87.12
455.955	67.12
456.175	74.12
456.395	84.12
456.616	68.12
456.836	95.12
457.056	97.12
457.276	89.12
457.497	77.12
457.717	58.12
457.937	80.12
458.157	92.12
458.377	90.12
458.598	105.12
458.818	126.12
459.038	157.12
459.258	124.12
459.478	99.12
459.698	93.12
459.918	77.12
460.138	82.12
460.358	91.12
460.578	80.12
460.798	89.12
461.018	85.12
461.238	78.12
461.458	85.12
461.678	90.12
461.898	84.12
462.118	95.12
462.338	85.12
462.558	100.12
462.777	78.12
462.997	68.12
463.217	79.12
463.437	79.12
463.657	97.12
463.876	89.12
464.096	93.12
464.316	91.12
464.536	99.12
464.755	87.12
464.975	92.12
465.195	166.12
465.414	150.12
465.634	92.12
465.854	82.12
466.073	101.12
466.293	81.12
466.512	95.12
466.732	85.12
466.951	86.12
467.171	76.12
467.391	103.12
467.61	104.12
467.829	91.12
468.049	88.12
468.268	90.12
468.488	84.12
468.707	64.12
468.927	82.12
469.146	93.12
469.365	82.12
469.585	82.12
469.804	92.12
470.023	100.12
470.243	84.12
470.462	100.12
470.681	99.12
470.901	83.12
471.12	95.12
471.339	85.12
471.558	86.12
471.777	65.12
471.997	106.12
472.216	70.12
472.435	85.12
472.654	76.12
472.873	75.12
473.092	84.12
473.311	79.12
473.53	87.12
473.749	82.12
473.968	95.12
474.187	114.12
474.406	101.12
474.625	81.12
474.844	82.12
475.063	94.12
475.282	84.12
475.501	94.12
475.72	84.12
475.939	82.12
476.158	77.12
476.377	77.12
476.596	86.12
476.814	86.12
477.033	85.12
477.252	85.12
477.471	83.12
477.69	84.12
477.908	72.12
478.127	76.12
478.346	87.12
478.564	96.12
478.783	87.12
479.002	91.12
479.22	94.12
479.439	101.12
479.658	81.12
479.876	97.12
480.095	95.12
480.313	89.12
480.532	100.12
480.751	88.12
480.969	84.12
481.188	88.12
481.406	82.12
481.624	81.12
481.843	86.12
482.061	86.12
482.28	91.12
482.498	90.12
482.717	101.12
482.935	90.12
483.153	89.12
483.372	92.12
483.59	82.12
483.808	76.12
484.027	87.12
484.245	90.12
484.463	93.12
484.681	102.12
484.9	96.12
485.118	80.12
485.336	83.12
485.554	82.12
485.772	110.12
485.99	108.12
486.209	114.12
486.427	105.12
486.645	101.12
486.863	105.12
487.081	91.12
487.299	88.12
487.517	95.12
487.735	92.12
487.953	105.12
488.171	86.12
488.389	106.12
488.607	100.12
488.825	85.12
489.043	88.12
489.261	84.12
489.479	66.12
489.696	84.12
489.914	86.12
490.132	86.12
490.35	89.12
490.568	98.12
490.786	83.12
491.003	90.12
491.221	80.12
491.439	84.12
491.657	82.12
491.874	76.12
492.092	72.12
492.31	82.12
492.527	85.12
492.745	82.12
492.963	77.12
493.18	95.12
493.398	72.12
493.615	92.12
493.833	78.12
494.05	76.12
494.268	85.12
494.485	83.12
494.703	78.12
494.92	85.12
495.138	76.12
495.355	93.12
495.573	96.12
495.79	95.12
496.008	87.12
496.225	99.12
496.442	95.12
496.66	98.12
496.877	82.12
497.094	84.12
497.312	93.12
497.529	72.12
497.746	93.12
497.963	86.12
498.181	105.12
498.398	88.12
498.615	98.12
498.832	101.12
499.049	84.12
499.267	87.12
499.484	108.12
499.701	84.12
499.918	96.12
500.135	95.12
500.352	90.12
500.569	87.12
500.786	94.12
501.003	102.12
501.22	82.12
501.437	90.12
501.654	89.12
501.871	97.12
502.088	90.12
502.305	97.12
502.522	103.12
502.739	76.12
502.956	88.12
503.172	81.12
503.389	79.12
503.606	92.12
503.823	94.12
504.04	88.12
504.256	83.12
504.473	90.12
504.69	92.12
504.907	84.12
505.123	89.12
505.34	95.12
505.557	106.12
505.773	92.12
505.99	88.12
506.207	88.12
506.423	96.12
506.64	90.12
506.856	84.12
507.073	80.12
507.289	90.12
507.506	90.12
507.722	100.12
507.939	111.12
508.155	101.12
508.372	96.12
508.588	77.12
508.805	104.12
509.021	100.12
509.238	100.12
509.454	104.12
509.67	92.12
509.887	109.12
510.103	138.12
510.319	210.12
510.536	760.12
510.752	2248.12
510.968	635.12
511.184	154.12
511.401	114.12
511.617	99.12
511.833	98.12
512.049	91.12
512.265	99.12
512.481	80.12
512.698	97.12
512.914	107.12
513.13	88.12
513.346	96.12
513.562	99.12
513.778	101.12
513.994	82.12
514.21	95.12
514.426	125.12
514.642	140.12
514.858	110.12
515.074	162.12
515.29	464.12
515.506	1475.12
515.721	530.12
515.937	158.12
516.153	109.12
