Data from Uncirc_1991_H10_HRD10591_00020.txt Node
Date: Wed Jan 03 11:50:42 EST 2024
User: Yrep
Spectrometer: HR+D1059
Trigger mode: 1
Integration Time (sec): 1.000000E-1
Scans to average: 1
Electric dark correction enabled: true
Nonlinearity correction enabled: false
Boxcar width: 0
XAxis mode: Wavelengths
Number of Pixels in Spectrum: 2048
>>>>>Begin Spectral Data<<<<<
223.165	-6.38
223.4	-6.38
223.635	-6.38
223.869	-18.38
224.104	-18.38
224.338	-23.38
224.573	-18.38
224.808	-14.38
225.042	13.62
225.277	-14.38
225.511	-0.38
225.746	1.62
225.98	12.62
226.215	-1.38
226.449	9.62
226.683	19.62
226.918	26.62
227.152	31.62
227.387	28.62
227.621	40.62
227.856	39.62
228.09	41.62
228.324	58.62
228.559	53.62
228.793	45.62
229.027	73.62
229.262	65.62
229.496	71.62
229.73	73.62
229.964	95.62
230.199	78.62
230.433	80.62
230.667	70.62
230.901	80.62
231.136	75.62
231.37	81.62
231.604	77.62
231.838	83.62
232.072	89.62
232.306	81.62
232.541	83.62
232.775	93.62
233.009	79.62
233.243	89.62
233.477	70.62
233.711	83.62
233.945	78.62
234.179	79.62
234.413	91.62
234.647	90.62
234.881	71.62
235.115	81.62
235.349	80.62
235.583	69.62
235.817	85.62
236.051	81.62
236.285	66.62
236.519	76.62
236.753	88.62
236.987	82.62
237.221	66.62
237.455	77.62
237.689	88.62
237.922	70.62
238.156	75.62
238.39	78.62
238.624	81.62
238.858	89.62
239.091	84.62
239.325	91.62
239.559	73.62
239.793	74.62
240.027	82.62
240.26	81.62
240.494	86.62
240.728	65.62
240.961	82.62
241.195	73.62
241.429	75.62
241.662	64.62
241.896	65.62
242.13	74.62
242.363	78.62
242.597	73.62
242.83	65.62
243.064	73.62
243.298	70.62
243.531	80.62
243.765	86.62
243.998	87.62
244.232	85.62
244.465	84.62
244.699	79.62
244.932	71.62
245.166	62.62
245.399	71.62
245.633	90.62
245.866	92.62
246.099	82.62
246.333	87.62
246.566	67.62
246.8	78.62
247.033	75.62
247.266	80.62
247.5	77.62
247.733	73.62
247.966	86.62
248.2	88.62
248.433	90.62
248.666	76.62
248.899	86.62
249.133	89.62
249.366	89.62
249.599	82.62
249.832	81.62
250.066	79.62
250.299	82.62
250.532	82.62
250.765	84.62
250.998	86.62
251.231	69.62
251.465	85.62
251.698	83.62
251.931	65.62
252.164	85.62
252.397	76.62
252.63	80.62
252.863	81.62
253.096	80.62
253.329	89.62
253.562	79.62
253.795	74.62
254.028	81.62
254.261	77.62
254.494	79.62
254.727	91.62
254.96	83.62
255.193	98.62
255.426	82.62
255.659	91.62
255.892	83.62
256.124	82.62
256.357	75.62
256.59	91.62
256.823	77.62
257.056	82.62
257.289	77.62
257.521	82.62
257.754	95.62
257.987	83.62
258.22	81.62
258.452	83.62
258.685	62.62
258.918	83.62
259.151	84.62
259.383	76.62
259.616	92.62
259.849	84.62
260.081	86.62
260.314	78.62
260.547	98.62
260.779	81.62
261.012	71.62
261.244	94.62
261.477	86.62
261.71	100.62
261.942	85.62
262.175	107.62
262.407	97.62
262.64	87.62
262.872	82.62
263.105	83.62
263.337	88.62
263.57	78.62
263.802	78.62
264.035	77.62
264.267	70.62
264.499	79.62
264.732	95.62
264.964	91.62
265.197	85.62
265.429	90.62
265.661	78.62
265.894	76.62
266.126	82.62
266.358	59.62
266.591	80.62
266.823	84.62
267.055	76.62
267.287	84.62
267.52	70.62
267.752	75.62
267.984	88.62
268.216	78.62
268.448	73.62
268.681	76.62
268.913	86.62
269.145	77.62
269.377	79.62
269.609	87.62
269.841	85.62
270.073	99.62
270.306	97.62
270.538	83.62
270.77	84.62
271.002	80.62
271.234	81.62
271.466	86.62
271.698	92.62
271.93	71.62
272.162	101.62
272.394	94.62
272.626	81.62
272.858	89.62
273.09	92.62
273.322	82.62
273.553	77.62
273.785	89.62
274.017	90.62
274.249	82.62
274.481	86.62
274.713	90.62
274.945	87.62
275.176	89.62
275.408	73.62
275.64	85.62
275.872	89.62
276.104	81.62
276.335	92.62
276.567	94.62
276.799	100.62
277.031	86.62
277.262	81.62
277.494	77.62
277.726	77.62
277.957	91.62
278.189	82.62
278.421	91.62
278.652	86.62
278.884	78.62
279.115	71.62
279.347	84.62
279.579	76.62
279.81	85.62
280.042	93.62
280.273	80.62
280.505	91.62
280.736	91.62
280.968	92.62
281.199	79.62
281.431	85.62
281.662	71.62
281.894	97.62
282.125	84.62
282.356	103.62
282.588	127.62
282.819	96.62
283.051	80.62
283.282	78.62
283.513	98.62
283.745	94.62
283.976	84.62
284.207	78.62
284.439	86.62
284.67	81.62
284.901	91.62
285.132	95.62
285.364	83.62
285.595	96.62
285.826	82.62
286.057	76.62
286.288	93.62
286.52	83.62
286.751	89.62
286.982	89.62
287.213	112.62
287.444	89.62
287.675	86.62
287.906	89.62
288.138	71.62
288.369	93.62
288.6	96.62
288.831	104.62
289.062	97.62
289.293	87.62
289.524	97.62
289.755	82.62
289.986	86.62
290.217	90.62
290.448	88.62
290.679	79.62
290.91	91.62
291.141	81.62
291.371	67.62
291.602	88.62
291.833	86.62
292.064	83.62
292.295	75.62
292.526	88.62
292.757	79.62
292.987	76.62
293.218	87.62
293.449	86.62
293.68	61.62
293.91	85.62
294.141	90.62
294.372	94.62
294.603	89.62
294.833	90.62
295.064	69.62
295.295	87.62
295.525	97.62
295.756	97.62
295.987	107.62
296.217	124.62
296.448	129.62
296.679	88.62
296.909	107.62
297.14	98.62
297.37	85.62
297.601	103.62
297.831	90.62
298.062	82.62
298.292	87.62
298.523	95.62
298.753	75.62
298.984	73.62
299.214	97.62
299.445	87.62
299.675	82.62
299.905	85.62
300.136	82.62
300.366	86.62
300.597	83.62
300.827	94.62
301.057	105.62
301.288	98.62
301.518	78.62
301.748	87.62
301.979	94.62
302.209	103.62
302.439	85.62
302.669	88.62
302.9	89.62
303.13	87.62
303.36	85.62
303.59	93.62
303.82	86.62
304.051	101.62
304.281	86.62
304.511	90.62
304.741	83.62
304.971	86.62
305.201	98.62
305.431	85.62
305.661	100.62
305.891	79.62
306.121	93.62
306.352	92.62
306.582	105.62
306.812	103.62
307.042	85.62
307.272	86.62
307.502	102.62
307.731	85.62
307.961	108.62
308.191	72.62
308.421	96.62
308.651	82.62
308.881	81.62
309.111	87.62
309.341	90.62
309.571	90.62
309.8	89.62
310.03	95.62
310.26	90.62
310.49	97.62
310.72	86.62
310.949	89.62
311.179	86.62
311.409	79.62
311.639	105.62
311.868	90.62
312.098	97.62
312.328	89.62
312.557	89.62
312.787	99.62
313.017	96.62
313.246	84.62
313.476	93.62
313.706	68.62
313.935	88.62
314.165	97.62
314.394	112.62
314.624	93.62
314.853	83.62
315.083	87.62
315.312	99.62
315.542	84.62
315.771	87.62
316.001	90.62
316.23	86.62
316.46	81.62
316.689	96.62
316.919	87.62
317.148	102.62
317.377	93.62
317.607	88.62
317.836	95.62
318.065	89.62
318.295	84.62
318.524	94.62
318.753	89.62
318.983	85.62
319.212	101.62
319.441	117.62
319.67	103.62
319.9	104.62
320.129	90.62
320.358	79.62
320.587	100.62
320.816	99.62
321.046	93.62
321.275	88.62
321.504	87.62
321.733	107.62
321.962	106.62
322.191	101.62
322.42	110.62
322.649	120.62
322.878	105.62
323.108	118.62
323.337	123.62
323.566	139.62
323.795	132.62
324.024	203.62
324.253	383.62
324.482	765.62
324.71	1617.62
324.939	2157.62
325.168	778.62
325.397	214.62
325.626	160.62
325.855	141.62
326.084	130.62
326.313	114.62
326.542	140.62
326.77	223.62
326.999	427.62
327.228	898.62
327.457	1639.62
327.686	1314.62
327.914	353.62
328.143	184.62
328.372	133.62
328.6	129.62
328.829	112.62
329.058	114.62
329.287	108.62
329.515	109.62
329.744	108.62
329.972	89.62
330.201	94.62
330.43	109.62
330.658	107.62
330.887	135.62
331.115	117.62
331.344	98.62
331.572	86.62
331.801	99.62
332.03	106.62
332.258	91.62
332.486	78.62
332.715	77.62
332.943	92.62
333.172	93.62
333.4	93.62
333.629	108.62
333.857	102.62
334.085	101.62
334.314	90.62
334.542	101.62
334.771	90.62
334.999	81.62
335.227	99.62
335.455	93.62
335.684	107.62
335.912	100.62
336.14	93.62
336.369	94.62
336.597	101.62
336.825	103.62
337.053	99.62
337.281	96.62
337.51	96.62
337.738	102.62
337.966	83.62
338.194	89.62
338.422	102.62
338.65	99.62
338.878	92.62
339.106	86.62
339.334	78.62
339.562	91.62
339.79	89.62
340.018	96.62
340.246	92.62
340.474	98.62
340.702	87.62
340.93	91.62
341.158	107.62
341.386	94.62
341.614	101.62
341.842	93.62
342.07	84.62
342.298	75.62
342.526	104.62
342.754	82.62
342.981	102.62
343.209	77.62
343.437	108.62
343.665	83.62
343.893	90.62
344.12	94.62
344.348	101.62
344.576	86.62
344.804	99.62
345.031	86.62
345.259	87.62
345.487	100.62
345.714	94.62
345.942	96.62
346.17	114.62
346.397	73.62
346.625	98.62
346.853	93.62
347.08	93.62
347.308	97.62
347.535	94.62
347.763	90.62
347.99	87.62
348.218	100.62
348.445	84.62
348.673	94.62
348.9	100.62
349.128	100.62
349.355	89.62
349.583	111.62
349.81	95.62
350.037	90.62
350.265	97.62
350.492	94.62
350.72	98.62
350.947	90.62
351.174	103.62
351.402	113.62
351.629	94.62
351.856	99.62
352.083	103.62
352.311	109.62
352.538	100.62
352.765	113.62
352.992	117.62
353.22	113.62
353.447	108.62
353.674	112.62
353.901	106.62
354.128	102.62
354.355	90.62
354.583	98.62
354.81	89.62
355.037	93.62
355.264	92.62
355.491	81.62
355.718	107.62
355.945	109.62
356.172	90.62
356.399	98.62
356.626	96.62
356.853	86.62
357.08	106.62
357.307	85.62
357.534	101.62
357.761	103.62
357.988	95.62
358.215	87.62
358.441	83.62
358.668	83.62
358.895	81.62
359.122	100.62
359.349	100.62
359.576	86.62
359.802	107.62
360.029	107.62
360.256	105.62
360.483	92.62
360.709	92.62
360.936	92.62
361.163	104.62
361.39	94.62
361.616	93.62
361.843	70.62
362.07	92.62
362.296	95.62
362.523	80.62
362.749	95.62
362.976	100.62
363.203	84.62
363.429	78.62
363.656	104.62
363.882	92.62
364.109	89.62
364.335	91.62
364.562	84.62
364.788	83.62
365.015	89.62
365.241	78.62
365.468	93.62
365.694	91.62
365.92	94.62
366.147	88.62
366.373	90.62
366.599	89.62
366.826	74.62
367.052	92.62
367.278	96.62
367.505	77.62
367.731	93.62
367.957	92.62
368.184	82.62
368.41	96.62
368.636	97.62
368.862	109.62
369.089	98.62
369.315	91.62
369.541	81.62
369.767	95.62
369.993	90.62
370.219	83.62
370.445	86.62
370.672	86.62
370.898	85.62
371.124	76.62
371.35	88.62
371.576	84.62
371.802	91.62
372.028	85.62
372.254	80.62
372.48	86.62
372.706	77.62
372.932	86.62
373.158	89.62
373.384	82.62
373.61	92.62
373.835	89.62
374.061	95.62
374.287	85.62
374.513	95.62
374.739	94.62
374.965	85.62
375.191	95.62
375.416	93.62
375.642	97.62
375.868	83.62
376.094	83.62
376.319	87.62
376.545	89.62
376.771	95.62
376.997	94.62
377.222	86.62
377.448	93.62
377.674	87.62
377.899	93.62
378.125	93.62
378.35	91.62
378.576	91.62
378.802	85.62
379.027	82.62
379.253	97.62
379.478	99.62
379.704	107.62
379.929	102.62
380.155	91.62
380.38	87.62
380.606	90.62
380.831	92.62
381.057	96.62
381.282	87.62
381.507	107.62
381.733	107.62
381.958	94.62
382.184	113.62
382.409	103.62
382.634	101.62
382.86	91.62
383.085	98.62
383.31	104.62
383.535	100.62
383.761	89.62
383.986	87.62
384.211	86.62
384.436	98.62
384.662	101.62
384.887	97.62
385.112	105.62
385.337	107.62
385.562	93.62
385.787	97.62
386.013	98.62
386.238	113.62
386.463	82.62
386.688	100.62
386.913	107.62
387.138	102.62
387.363	103.62
387.588	95.62
387.813	107.62
388.038	117.62
388.263	111.62
388.488	111.62
388.713	99.62
388.938	104.62
389.163	91.62
389.387	99.62
389.612	95.62
389.837	97.62
390.062	91.62
390.287	88.62
390.512	81.62
390.736	84.62
390.961	96.62
391.186	79.62
391.411	87.62
391.636	93.62
391.86	77.62
392.085	80.62
392.31	94.62
392.534	95.62
392.759	100.62
392.984	84.62
393.208	85.62
393.433	94.62
393.658	83.62
393.882	81.62
394.107	78.62
394.331	83.62
394.556	78.62
394.78	89.62
395.005	71.62
395.229	75.62
395.454	89.62
395.678	93.62
395.903	86.62
396.127	96.62
396.352	93.62
396.576	99.62
396.801	70.62
397.025	74.62
397.249	92.62
397.474	93.62
397.698	80.62
397.922	93.62
398.147	83.62
398.371	100.62
398.595	87.62
398.82	89.62
399.044	86.62
399.268	78.62
399.492	93.62
399.717	89.62
399.941	88.62
400.165	97.62
400.389	93.62
400.613	84.62
400.837	90.62
401.062	90.62
401.286	76.62
401.51	84.62
401.734	96.62
401.958	99.62
402.182	122.62
402.406	142.62
402.63	115.62
402.854	89.62
403.078	80.62
403.302	94.62
403.526	103.62
403.75	94.62
403.974	90.62
404.198	73.62
404.422	69.62
404.645	85.62
404.869	106.62
405.093	96.62
405.317	92.62
405.541	83.62
405.765	102.62
405.988	114.62
406.212	149.62
406.436	186.62
406.66	140.62
406.883	97.62
407.107	87.62
407.331	92.62
407.555	92.62
407.778	103.62
408.002	95.62
408.226	99.62
408.449	86.62
408.673	82.62
408.896	90.62
409.12	83.62
409.344	91.62
409.567	91.62
409.791	81.62
410.014	94.62
410.238	97.62
410.461	105.62
410.685	101.62
410.908	88.62
411.132	94.62
411.355	96.62
411.578	90.62
411.802	81.62
412.025	83.62
412.249	75.62
412.472	89.62
412.695	106.62
412.919	82.62
413.142	90.62
413.365	83.62
413.589	90.62
413.812	104.62
414.035	89.62
414.258	100.62
414.482	91.62
414.705	82.62
414.928	95.62
415.151	81.62
415.374	81.62
415.597	90.62
415.821	89.62
416.044	97.62
416.267	103.62
416.49	84.62
416.713	88.62
416.936	96.62
417.159	95.62
417.382	100.62
417.605	90.62
417.828	98.62
418.051	86.62
418.274	102.62
418.497	92.62
418.72	91.62
418.943	84.62
419.166	79.62
419.389	93.62
419.611	85.62
419.834	98.62
420.057	90.62
420.28	93.62
420.503	73.62
420.726	81.62
420.948	79.62
421.171	93.62
421.394	87.62
421.617	95.62
421.839	86.62
422.062	93.62
422.285	95.62
422.507	96.62
422.73	91.62
422.953	101.62
423.175	74.62
423.398	90.62
423.621	68.62
423.843	80.62
424.066	83.62
424.288	85.62
424.511	80.62
424.733	93.62
424.956	112.62
425.178	100.62
425.401	92.62
425.623	96.62
425.846	86.62
426.068	95.62
426.291	96.62
426.513	93.62
426.735	93.62
426.958	92.62
427.18	101.62
427.402	122.62
427.625	139.62
427.847	118.62
428.069	99.62
428.292	84.62
428.514	87.62
428.736	87.62
428.958	83.62
429.181	87.62
429.403	83.62
429.625	91.62
429.847	95.62
430.069	85.62
430.292	91.62
430.514	89.62
430.736	93.62
430.958	87.62
431.18	86.62
431.402	77.62
431.624	89.62
431.846	84.62
432.068	82.62
432.29	84.62
432.512	96.62
432.734	93.62
432.956	102.62
433.178	106.62
433.4	94.62
433.622	82.62
433.844	99.62
434.066	93.62
434.287	84.62
434.509	85.62
434.731	86.62
434.953	84.62
435.175	103.62
435.397	89.62
435.618	82.62
435.84	93.62
436.062	127.62
436.284	115.62
436.505	89.62
436.727	86.62
436.949	83.62
437.17	83.62
437.392	88.62
437.614	87.62
437.835	106.62
438.057	107.62
438.278	96.62
438.5	88.62
438.721	118.62
438.943	102.62
439.165	86.62
439.386	82.62
439.608	84.62
439.829	106.62
440.05	102.62
440.272	125.62
440.493	87.62
440.715	86.62
440.936	82.62
441.158	93.62
441.379	86.62
441.6	76.62
441.822	96.62
442.043	100.62
442.264	103.62
442.486	99.62
442.707	105.62
442.928	109.62
443.149	106.62
443.371	103.62
443.592	97.62
443.813	112.62
444.034	104.62
444.255	83.62
444.476	92.62
444.698	91.62
444.919	103.62
445.14	138.62
445.361	122.62
445.582	114.62
445.803	121.62
446.024	121.62
446.245	125.62
446.466	115.62
446.687	87.62
446.908	83.62
447.129	84.62
447.35	92.62
447.571	85.62
447.792	99.62
448.013	98.62
448.234	98.62
448.455	96.62
448.675	113.62
448.896	112.62
449.117	100.62
449.338	106.62
449.559	127.62
449.779	142.62
450	97.62
450.221	78.62
450.442	79.62
450.662	86.62
450.883	90.62
451.104	108.62
451.324	87.62
451.545	98.62
451.766	97.62
451.986	84.62
452.207	81.62
452.428	87.62
452.648	103.62
452.869	106.62
453.089	101.62
453.31	91.62
453.53	90.62
453.751	95.62
453.971	101.62
454.192	86.62
454.412	89.62
454.633	92.62
454.853	81.62
455.073	76.62
455.294	95.62
455.514	91.62
455.734	82.62
455.955	92.62
456.175	74.62
456.395	58.62
456.616	91.62
456.836	95.62
457.056	83.62
457.276	77.62
457.497	90.62
457.717	81.62
457.937	86.62
458.157	92.62
458.377	85.62
458.598	101.62
458.818	131.62
459.038	147.62
459.258	93.62
459.478	79.62
459.698	79.62
459.918	90.62
460.138	91.62
460.358	95.62
460.578	78.62
460.798	86.62
461.018	94.62
461.238	86.62
461.458	98.62
461.678	92.62
461.898	86.62
462.118	83.62
462.338	95.62
462.558	88.62
462.777	95.62
462.997	74.62
463.217	95.62
463.437	92.62
463.657	77.62
463.876	80.62
464.096	81.62
464.316	89.62
464.536	85.62
464.755	82.62
464.975	100.62
465.195	138.62
465.414	131.62
465.634	94.62
465.854	96.62
466.073	101.62
466.293	89.62
466.512	75.62
466.732	94.62
466.951	103.62
467.171	101.62
467.391	91.62
467.61	83.62
467.829	95.62
468.049	93.62
468.268	83.62
468.488	93.62
468.707	91.62
468.927	79.62
469.146	78.62
469.365	94.62
469.585	85.62
469.804	105.62
470.023	103.62
470.243	89.62
470.462	104.62
470.681	108.62
470.901	90.62
471.12	87.62
471.339	96.62
471.558	78.62
471.777	91.62
471.997	93.62
472.216	94.62
472.435	82.62
472.654	87.62
472.873	92.62
473.092	82.62
473.311	79.62
473.53	76.62
473.749	98.62
473.968	81.62
474.187	96.62
474.406	89.62
474.625	96.62
474.844	93.62
475.063	91.62
475.282	108.62
475.501	90.62
475.72	94.62
475.939	86.62
476.158	83.62
476.377	87.62
476.596	95.62
476.814	102.62
477.033	101.62
477.252	81.62
477.471	75.62
477.69	94.62
477.908	88.62
478.127	81.62
478.346	91.62
478.564	76.62
478.783	91.62
479.002	81.62
479.22	91.62
479.439	103.62
479.658	90.62
479.876	97.62
480.095	108.62
480.313	100.62
480.532	92.62
480.751	83.62
480.969	93.62
481.188	109.62
481.406	106.62
481.624	85.62
481.843	88.62
482.061	89.62
482.28	106.62
482.498	100.62
482.717	102.62
482.935	93.62
483.153	92.62
483.372	98.62
483.59	85.62
483.808	83.62
484.027	88.62
484.245	96.62
484.463	102.62
484.681	96.62
484.9	89.62
485.118	104.62
485.336	87.62
485.554	86.62
485.772	98.62
485.99	106.62
486.209	96.62
486.427	107.62
486.645	109.62
486.863	122.62
487.081	87.62
487.299	97.62
487.517	98.62
487.735	93.62
487.953	95.62
488.171	98.62
488.389	107.62
488.607	108.62
488.825	87.62
489.043	107.62
489.261	103.62
489.479	94.62
489.696	94.62
489.914	82.62
490.132	77.62
490.35	96.62
490.568	102.62
490.786	89.62
491.003	96.62
491.221	82.62
491.439	85.62
491.657	81.62
491.874	101.62
492.092	95.62
492.31	84.62
492.527	95.62
492.745	89.62
492.963	88.62
493.18	86.62
493.398	85.62
493.615	102.62
493.833	97.62
494.05	94.62
494.268	86.62
494.485	96.62
494.703	91.62
494.92	100.62
495.138	94.62
495.355	84.62
495.573	95.62
495.79	83.62
496.008	94.62
496.225	77.62
496.442	88.62
496.66	94.62
496.877	101.62
497.094	111.62
497.312	78.62
497.529	87.62
497.746	104.62
497.963	89.62
498.181	95.62
498.398	94.62
498.615	94.62
498.832	96.62
499.049	100.62
499.267	96.62
499.484	100.62
499.701	99.62
499.918	79.62
500.135	93.62
500.352	92.62
500.569	85.62
500.786	88.62
501.003	97.62
501.22	93.62
501.437	69.62
501.654	108.62
501.871	103.62
502.088	91.62
502.305	74.62
502.522	97.62
502.739	85.62
502.956	99.62
503.172	91.62
503.389	88.62
503.606	89.62
503.823	95.62
504.04	83.62
504.256	96.62
504.473	93.62
504.69	89.62
504.907	96.62
505.123	95.62
505.34	108.62
505.557	91.62
505.773	100.62
505.99	74.62
506.207	91.62
506.423	87.62
506.64	90.62
506.856	81.62
507.073	90.62
507.289	93.62
507.506	96.62
507.722	117.62
507.939	98.62
508.155	89.62
508.372	97.62
508.588	99.62
508.805	96.62
509.021	91.62
509.238	91.62
509.454	92.62
509.67	106.62
509.887	103.62
510.103	129.62
510.319	187.62
510.536	575.62
510.752	1739.62
510.968	529.62
511.184	146.62
511.401	110.62
511.617	98.62
511.833	96.62
512.049	100.62
512.265	91.62
512.481	87.62
512.698	102.62
512.914	95.62
513.13	103.62
513.346	95.62
513.562	78.62
513.778	109.62
513.994	103.62
514.21	91.62
514.426	117.62
514.642	134.62
514.858	118.62
515.074	150.62
515.29	361.62
515.506	1102.62
515.721	432.62
515.937	125.62
516.153	109.62
