Data from Uncirc_1991_H10_HRD10591_00038.txt Node
Date: Wed Jan 03 11:50:45 EST 2024
User: Yrep
Spectrometer: HR+D1059
Trigger mode: 1
Integration Time (sec): 1.000000E-1
Scans to average: 1
Electric dark correction enabled: true
Nonlinearity correction enabled: false
Boxcar width: 0
XAxis mode: Wavelengths
Number of Pixels in Spectrum: 2048
>>>>>Begin Spectral Data<<<<<
223.165	-21.75
223.4	-21.75
223.635	-21.75
223.869	-10.75
224.104	-26.75
224.338	-15.75
224.573	-5.75
224.808	-15.75
225.042	-9.75
225.277	-3.75
225.511	-6.75
225.746	14.25
225.98	0.25
226.215	7.25
226.449	8.25
226.683	26.25
226.918	28.25
227.152	32.25
227.387	17.25
227.621	27.25
227.856	42.25
228.09	46.25
228.324	48.25
228.559	52.25
228.793	59.25
229.027	61.25
229.262	61.25
229.496	69.25
229.73	73.25
229.964	76.25
230.199	74.25
230.433	81.25
230.667	76.25
230.901	85.25
231.136	78.25
231.37	64.25
231.604	84.25
231.838	91.25
232.072	69.25
232.306	81.25
232.541	69.25
232.775	63.25
233.009	91.25
233.243	80.25
233.477	69.25
233.711	91.25
233.945	72.25
234.179	82.25
234.413	91.25
234.647	87.25
234.881	83.25
235.115	74.25
235.349	85.25
235.583	90.25
235.817	80.25
236.051	67.25
236.285	74.25
236.519	68.25
236.753	72.25
236.987	84.25
237.221	85.25
237.455	104.25
237.689	74.25
237.922	82.25
238.156	78.25
238.39	81.25
238.624	76.25
238.858	92.25
239.091	72.25
239.325	85.25
239.559	82.25
239.793	79.25
240.027	75.25
240.26	76.25
240.494	82.25
240.728	82.25
240.961	77.25
241.195	98.25
241.429	77.25
241.662	58.25
241.896	84.25
242.13	84.25
242.363	63.25
242.597	72.25
242.83	74.25
243.064	80.25
243.298	84.25
243.531	84.25
243.765	81.25
243.998	84.25
244.232	80.25
244.465	84.25
244.699	90.25
244.932	81.25
245.166	84.25
245.399	79.25
245.633	73.25
245.866	98.25
246.099	66.25
246.333	72.25
246.566	76.25
246.8	70.25
247.033	84.25
247.266	72.25
247.5	65.25
247.733	62.25
247.966	80.25
248.2	74.25
248.433	82.25
248.666	82.25
248.899	75.25
249.133	86.25
249.366	97.25
249.599	90.25
249.832	65.25
250.066	91.25
250.299	92.25
250.532	85.25
250.765	85.25
250.998	72.25
251.231	81.25
251.465	80.25
251.698	70.25
251.931	63.25
252.164	74.25
252.397	85.25
252.63	86.25
252.863	69.25
253.096	78.25
253.329	84.25
253.562	56.25
253.795	83.25
254.028	77.25
254.261	80.25
254.494	88.25
254.727	91.25
254.96	88.25
255.193	76.25
255.426	86.25
255.659	83.25
255.892	91.25
256.124	59.25
256.357	72.25
256.59	76.25
256.823	96.25
257.056	79.25
257.289	86.25
257.521	76.25
257.754	67.25
257.987	77.25
258.22	85.25
258.452	95.25
258.685	91.25
258.918	66.25
259.151	80.25
259.383	67.25
259.616	68.25
259.849	70.25
260.081	94.25
260.314	77.25
260.547	91.25
260.779	89.25
261.012	80.25
261.244	82.25
261.477	97.25
261.71	82.25
261.942	102.25
262.175	114.25
262.407	84.25
262.64	83.25
262.872	80.25
263.105	79.25
263.337	93.25
263.57	78.25
263.802	84.25
264.035	81.25
264.267	73.25
264.499	81.25
264.732	77.25
264.964	84.25
265.197	77.25
265.429	92.25
265.661	85.25
265.894	84.25
266.126	79.25
266.358	86.25
266.591	75.25
266.823	88.25
267.055	91.25
267.287	81.25
267.52	78.25
267.752	79.25
267.984	69.25
268.216	89.25
268.448	84.25
268.681	81.25
268.913	85.25
269.145	79.25
269.377	95.25
269.609	86.25
269.841	85.25
270.073	85.25
270.306	70.25
270.538	82.25
270.77	67.25
271.002	88.25
271.234	77.25
271.466	92.25
271.698	90.25
271.93	93.25
272.162	83.25
272.394	98.25
272.626	78.25
272.858	91.25
273.09	93.25
273.322	91.25
273.553	82.25
273.785	87.25
274.017	87.25
274.249	87.25
274.481	87.25
274.713	75.25
274.945	84.25
275.176	83.25
275.408	93.25
275.64	76.25
275.872	84.25
276.104	85.25
276.335	83.25
276.567	70.25
276.799	101.25
277.031	92.25
277.262	90.25
277.494	83.25
277.726	83.25
277.957	84.25
278.189	96.25
278.421	79.25
278.652	79.25
278.884	85.25
279.115	85.25
279.347	84.25
279.579	80.25
279.81	86.25
280.042	85.25
280.273	78.25
280.505	70.25
280.736	78.25
280.968	99.25
281.199	94.25
281.431	71.25
281.662	76.25
281.894	79.25
282.125	78.25
282.356	117.25
282.588	140.25
282.819	105.25
283.051	95.25
283.282	86.25
283.513	93.25
283.745	96.25
283.976	80.25
284.207	85.25
284.439	82.25
284.67	77.25
284.901	82.25
285.132	88.25
285.364	74.25
285.595	88.25
285.826	77.25
286.057	94.25
286.288	89.25
286.52	95.25
286.751	89.25
286.982	90.25
287.213	82.25
287.444	96.25
287.675	86.25
287.906	77.25
288.138	78.25
288.369	107.25
288.6	88.25
288.831	94.25
289.062	92.25
289.293	85.25
289.524	90.25
289.755	89.25
289.986	89.25
290.217	94.25
290.448	100.25
290.679	72.25
290.91	81.25
291.141	86.25
291.371	80.25
291.602	90.25
291.833	85.25
292.064	100.25
292.295	75.25
292.526	97.25
292.757	78.25
292.987	82.25
293.218	92.25
293.449	83.25
293.68	93.25
293.91	88.25
294.141	88.25
294.372	83.25
294.603	96.25
294.833	76.25
295.064	91.25
295.295	92.25
295.525	83.25
295.756	91.25
295.987	113.25
296.217	131.25
296.448	116.25
296.679	93.25
296.909	84.25
297.14	80.25
297.37	66.25
297.601	84.25
297.831	92.25
298.062	77.25
298.292	83.25
298.523	77.25
298.753	92.25
298.984	87.25
299.214	83.25
299.445	80.25
299.675	88.25
299.905	88.25
300.136	75.25
300.366	73.25
300.597	76.25
300.827	100.25
301.057	101.25
301.288	96.25
301.518	96.25
301.748	83.25
301.979	84.25
302.209	90.25
302.439	88.25
302.669	88.25
302.9	83.25
303.13	83.25
303.36	89.25
303.59	76.25
303.82	89.25
304.051	106.25
304.281	94.25
304.511	80.25
304.741	96.25
304.971	94.25
305.201	102.25
305.431	84.25
305.661	88.25
305.891	81.25
306.121	109.25
306.352	101.25
306.582	108.25
306.812	76.25
307.042	81.25
307.272	100.25
307.502	82.25
307.731	81.25
307.961	82.25
308.191	94.25
308.421	93.25
308.651	93.25
308.881	84.25
309.111	85.25
309.341	92.25
309.571	97.25
309.8	88.25
310.03	92.25
310.26	83.25
310.49	91.25
310.72	92.25
310.949	98.25
311.179	100.25
311.409	90.25
311.639	85.25
311.868	86.25
312.098	93.25
312.328	87.25
312.557	91.25
312.787	102.25
313.017	101.25
313.246	85.25
313.476	91.25
313.706	99.25
313.935	98.25
314.165	99.25
314.394	112.25
314.624	92.25
314.853	97.25
315.083	96.25
315.312	90.25
315.542	96.25
315.771	97.25
316.001	91.25
316.23	97.25
316.46	88.25
316.689	79.25
316.919	90.25
317.148	88.25
317.377	96.25
317.607	89.25
317.836	94.25
318.065	92.25
318.295	94.25
318.524	84.25
318.753	79.25
318.983	100.25
319.212	96.25
319.441	99.25
319.67	106.25
319.9	89.25
320.129	96.25
320.358	85.25
320.587	93.25
320.816	99.25
321.046	97.25
321.275	90.25
321.504	94.25
321.733	89.25
321.962	102.25
322.191	98.25
322.42	99.25
322.649	105.25
322.878	104.25
323.108	115.25
323.337	127.25
323.566	136.25
323.795	149.25
324.024	208.25
324.253	405.25
324.482	850.25
324.71	1765.25
324.939	2395.25
325.168	860.25
325.397	239.25
325.626	148.25
325.855	129.25
326.084	125.25
326.313	129.25
326.542	158.25
326.77	245.25
326.999	483.25
327.228	976.25
327.457	1837.25
327.686	1508.25
327.914	380.25
328.143	179.25
328.372	142.25
328.6	126.25
328.829	115.25
329.058	112.25
329.287	120.25
329.515	107.25
329.744	101.25
329.972	101.25
330.201	100.25
330.43	100.25
330.658	112.25
330.887	136.25
331.115	109.25
331.344	82.25
331.572	95.25
331.801	100.25
332.03	115.25
332.258	98.25
332.486	106.25
332.715	94.25
332.943	91.25
333.172	77.25
333.4	86.25
333.629	90.25
333.857	102.25
334.085	110.25
334.314	96.25
334.542	93.25
334.771	99.25
334.999	105.25
335.227	96.25
335.455	84.25
335.684	97.25
335.912	96.25
336.14	99.25
336.369	105.25
336.597	94.25
336.825	96.25
337.053	74.25
337.281	102.25
337.51	97.25
337.738	84.25
337.966	85.25
338.194	96.25
338.422	106.25
338.65	98.25
338.878	102.25
339.106	95.25
339.334	95.25
339.562	92.25
339.79	84.25
340.018	92.25
340.246	96.25
340.474	92.25
340.702	78.25
340.93	89.25
341.158	90.25
341.386	97.25
341.614	99.25
341.842	84.25
342.07	94.25
342.298	91.25
342.526	87.25
342.754	93.25
342.981	90.25
343.209	91.25
343.437	91.25
343.665	88.25
343.893	81.25
344.12	103.25
344.348	89.25
344.576	100.25
344.804	98.25
345.031	84.25
345.259	110.25
345.487	110.25
345.714	95.25
345.942	93.25
346.17	86.25
346.397	89.25
346.625	92.25
346.853	77.25
347.08	94.25
347.308	101.25
347.535	107.25
347.763	97.25
347.99	92.25
348.218	105.25
348.445	110.25
348.673	105.25
348.9	104.25
349.128	95.25
349.355	91.25
349.583	83.25
349.81	97.25
350.037	92.25
350.265	99.25
350.492	110.25
350.72	95.25
350.947	113.25
351.174	108.25
351.402	100.25
351.629	101.25
351.856	94.25
352.083	103.25
352.311	114.25
352.538	101.25
352.765	115.25
352.992	130.25
353.22	99.25
353.447	86.25
353.674	104.25
353.901	88.25
354.128	90.25
354.355	98.25
354.583	88.25
354.81	109.25
355.037	91.25
355.264	98.25
355.491	98.25
355.718	80.25
355.945	101.25
356.172	86.25
356.399	90.25
356.626	99.25
356.853	84.25
357.08	103.25
357.307	84.25
357.534	99.25
357.761	66.25
357.988	96.25
358.215	89.25
358.441	85.25
358.668	97.25
358.895	97.25
359.122	102.25
359.349	102.25
359.576	92.25
359.802	105.25
360.029	113.25
360.256	96.25
360.483	107.25
360.709	102.25
360.936	87.25
361.163	102.25
361.39	100.25
361.616	94.25
361.843	93.25
362.07	87.25
362.296	91.25
362.523	89.25
362.749	98.25
362.976	92.25
363.203	90.25
363.429	88.25
363.656	76.25
363.882	82.25
364.109	92.25
364.335	91.25
364.562	98.25
364.788	90.25
365.015	100.25
365.241	95.25
365.468	112.25
365.694	122.25
365.92	107.25
366.147	92.25
366.373	95.25
366.599	91.25
366.826	95.25
367.052	93.25
367.278	92.25
367.505	92.25
367.731	105.25
367.957	88.25
368.184	101.25
368.41	105.25
368.636	111.25
368.862	115.25
369.089	102.25
369.315	101.25
369.541	83.25
369.767	93.25
369.993	95.25
370.219	108.25
370.445	74.25
370.672	90.25
370.898	98.25
371.124	76.25
371.35	88.25
371.576	90.25
371.802	93.25
372.028	90.25
372.254	102.25
372.48	87.25
372.706	84.25
372.932	103.25
373.158	90.25
373.384	88.25
373.61	94.25
373.835	97.25
374.061	99.25
374.287	99.25
374.513	99.25
374.739	92.25
374.965	74.25
375.191	74.25
375.416	88.25
375.642	91.25
375.868	84.25
376.094	89.25
376.319	88.25
376.545	90.25
376.771	96.25
376.997	94.25
377.222	101.25
377.448	95.25
377.674	96.25
377.899	90.25
378.125	88.25
378.35	90.25
378.576	78.25
378.802	65.25
379.027	84.25
379.253	107.25
379.478	99.25
379.704	89.25
379.929	83.25
380.155	94.25
380.38	96.25
380.606	91.25
380.831	77.25
381.057	85.25
381.282	94.25
381.507	88.25
381.733	107.25
381.958	90.25
382.184	106.25
382.409	107.25
382.634	80.25
382.86	108.25
383.085	102.25
383.31	100.25
383.535	110.25
383.761	102.25
383.986	106.25
384.211	95.25
384.436	83.25
384.662	98.25
384.887	85.25
385.112	101.25
385.337	101.25
385.562	95.25
385.787	88.25
386.013	96.25
386.238	112.25
386.463	96.25
386.688	100.25
386.913	106.25
387.138	102.25
387.363	102.25
387.588	92.25
387.813	105.25
388.038	104.25
388.263	111.25
388.488	100.25
388.713	90.25
388.938	94.25
389.163	82.25
389.387	95.25
389.612	84.25
389.837	84.25
390.062	81.25
390.287	96.25
390.512	88.25
390.736	83.25
390.961	87.25
391.186	98.25
391.411	90.25
391.636	95.25
391.86	76.25
392.085	85.25
392.31	72.25
392.534	91.25
392.759	89.25
392.984	83.25
393.208	95.25
393.433	90.25
393.658	91.25
393.882	85.25
394.107	80.25
394.331	77.25
394.556	78.25
394.78	86.25
395.005	100.25
395.229	84.25
395.454	83.25
395.678	77.25
395.903	91.25
396.127	91.25
396.352	84.25
396.576	85.25
396.801	100.25
397.025	80.25
397.249	72.25
397.474	81.25
397.698	88.25
397.922	80.25
398.147	91.25
398.371	88.25
398.595	98.25
398.82	92.25
399.044	91.25
399.268	92.25
399.492	91.25
399.717	94.25
399.941	100.25
400.165	97.25
400.389	78.25
400.613	76.25
400.837	73.25
401.062	92.25
401.286	101.25
401.51	76.25
401.734	93.25
401.958	92.25
402.182	117.25
402.406	140.25
402.63	118.25
402.854	92.25
403.078	97.25
403.302	93.25
403.526	97.25
403.75	94.25
403.974	85.25
404.198	85.25
404.422	85.25
404.645	87.25
404.869	100.25
405.093	92.25
405.317	93.25
405.541	91.25
405.765	96.25
405.988	113.25
406.212	143.25
406.436	213.25
406.66	137.25
406.883	108.25
407.107	100.25
407.331	94.25
407.555	115.25
407.778	113.25
408.002	84.25
408.226	96.25
408.449	83.25
408.673	90.25
408.896	92.25
409.12	95.25
409.344	80.25
409.567	81.25
409.791	100.25
410.014	87.25
410.238	81.25
410.461	89.25
410.685	97.25
410.908	105.25
411.132	113.25
411.355	98.25
411.578	101.25
411.802	76.25
412.025	90.25
412.249	86.25
412.472	83.25
412.695	90.25
412.919	67.25
413.142	97.25
413.365	92.25
413.589	96.25
413.812	83.25
414.035	100.25
414.258	84.25
414.482	99.25
414.705	85.25
414.928	84.25
415.151	96.25
415.374	91.25
415.597	93.25
415.821	97.25
416.044	93.25
416.267	85.25
416.49	83.25
416.713	85.25
416.936	93.25
417.159	84.25
417.382	79.25
417.605	92.25
417.828	86.25
418.051	97.25
418.274	72.25
418.497	93.25
418.72	80.25
418.943	84.25
419.166	84.25
419.389	89.25
419.611	92.25
419.834	83.25
420.057	97.25
420.28	81.25
420.503	82.25
420.726	76.25
420.948	99.25
421.171	84.25
421.394	106.25
421.617	87.25
421.839	90.25
422.062	99.25
422.285	78.25
422.507	97.25
422.73	99.25
422.953	86.25
423.175	81.25
423.398	99.25
423.621	93.25
423.843	84.25
424.066	92.25
424.288	93.25
424.511	84.25
424.733	99.25
424.956	117.25
425.178	97.25
425.401	102.25
425.623	104.25
425.846	95.25
426.068	96.25
426.291	91.25
426.513	85.25
426.735	86.25
426.958	103.25
427.18	111.25
427.402	152.25
427.625	169.25
427.847	132.25
428.069	104.25
428.292	78.25
428.514	78.25
428.736	82.25
428.958	83.25
429.181	82.25
429.403	90.25
429.625	99.25
429.847	93.25
430.069	108.25
430.292	102.25
430.514	79.25
430.736	94.25
430.958	92.25
431.18	98.25
431.402	68.25
431.624	74.25
431.846	96.25
432.068	80.25
432.29	100.25
432.512	85.25
432.734	79.25
432.956	82.25
433.178	97.25
433.4	105.25
433.622	84.25
433.844	99.25
434.066	88.25
434.287	92.25
434.509	77.25
434.731	105.25
434.953	92.25
435.175	90.25
435.397	99.25
435.618	91.25
435.84	85.25
436.062	120.25
436.284	121.25
436.505	110.25
436.727	84.25
436.949	85.25
437.17	100.25
437.392	91.25
437.614	88.25
437.835	101.25
438.057	110.25
438.278	124.25
438.5	129.25
438.721	130.25
438.943	105.25
439.165	76.25
439.386	81.25
439.608	81.25
439.829	101.25
440.05	113.25
440.272	160.25
440.493	104.25
440.715	78.25
440.936	94.25
441.158	85.25
441.379	94.25
441.6	81.25
441.822	85.25
442.043	89.25
442.264	121.25
442.486	113.25
442.707	99.25
442.928	103.25
443.149	120.25
443.371	128.25
443.592	101.25
443.813	115.25
444.034	117.25
444.255	88.25
444.476	97.25
444.698	94.25
444.919	93.25
445.14	143.25
445.361	115.25
445.582	118.25
445.803	134.25
446.024	138.25
446.245	150.25
446.466	123.25
446.687	86.25
446.908	90.25
447.129	98.25
447.35	77.25
447.571	87.25
447.792	91.25
448.013	103.25
448.234	107.25
448.455	113.25
448.675	127.25
448.896	129.25
449.117	106.25
449.338	112.25
449.559	140.25
449.779	156.25
450	96.25
450.221	84.25
450.442	78.25
450.662	90.25
450.883	96.25
451.104	109.25
451.324	106.25
451.545	85.25
451.766	82.25
451.986	97.25
452.207	105.25
452.428	91.25
452.648	93.25
452.869	104.25
453.089	111.25
453.31	107.25
453.53	87.25
453.751	84.25
453.971	106.25
454.192	114.25
454.412	89.25
454.633	65.25
454.853	82.25
455.073	95.25
455.294	89.25
455.514	100.25
455.734	94.25
455.955	90.25
456.175	98.25
456.395	84.25
456.616	83.25
456.836	93.25
457.056	74.25
457.276	72.25
457.497	73.25
457.717	93.25
457.937	73.25
458.157	78.25
458.377	92.25
458.598	117.25
458.818	148.25
459.038	169.25
459.258	102.25
459.478	88.25
459.698	79.25
459.918	79.25
460.138	86.25
460.358	97.25
460.578	84.25
460.798	90.25
461.018	85.25
461.238	76.25
461.458	82.25
461.678	85.25
461.898	90.25
462.118	87.25
462.338	94.25
462.558	99.25
462.777	82.25
462.997	93.25
463.217	85.25
463.437	69.25
463.657	81.25
463.876	95.25
464.096	91.25
464.316	84.25
464.536	93.25
464.755	103.25
464.975	101.25
465.195	166.25
465.414	157.25
465.634	101.25
465.854	91.25
466.073	94.25
466.293	85.25
466.512	78.25
466.732	73.25
466.951	76.25
467.171	81.25
467.391	91.25
467.61	95.25
467.829	92.25
468.049	76.25
468.268	103.25
468.488	94.25
468.707	93.25
468.927	92.25
469.146	92.25
469.365	93.25
469.585	69.25
469.804	98.25
470.023	94.25
470.243	88.25
470.462	94.25
470.681	94.25
470.901	87.25
471.12	100.25
471.339	88.25
471.558	89.25
471.777	84.25
471.997	84.25
472.216	79.25
472.435	87.25
472.654	86.25
472.873	82.25
473.092	95.25
473.311	86.25
473.53	87.25
473.749	95.25
473.968	111.25
474.187	100.25
474.406	117.25
474.625	90.25
474.844	93.25
475.063	88.25
475.282	83.25
475.501	94.25
475.72	99.25
475.939	86.25
476.158	76.25
476.377	84.25
476.596	85.25
476.814	89.25
477.033	91.25
477.252	83.25
477.471	73.25
477.69	79.25
477.908	68.25
478.127	99.25
478.346	85.25
478.564	83.25
478.783	87.25
479.002	91.25
479.22	79.25
479.439	98.25
479.658	101.25
479.876	102.25
480.095	92.25
480.313	94.25
480.532	88.25
480.751	85.25
480.969	79.25
481.188	95.25
481.406	91.25
481.624	87.25
481.843	84.25
482.061	82.25
482.28	86.25
482.498	82.25
482.717	88.25
482.935	81.25
483.153	81.25
483.372	83.25
483.59	83.25
483.808	91.25
484.027	87.25
484.245	88.25
484.463	86.25
484.681	84.25
484.9	97.25
485.118	93.25
485.336	79.25
485.554	79.25
485.772	94.25
485.99	122.25
486.209	99.25
486.427	92.25
486.645	96.25
486.863	113.25
487.081	109.25
487.299	92.25
487.517	85.25
487.735	94.25
487.953	76.25
488.171	94.25
488.389	98.25
488.607	87.25
488.825	78.25
489.043	90.25
489.261	108.25
489.479	101.25
489.696	94.25
489.914	93.25
490.132	94.25
490.35	108.25
490.568	102.25
490.786	83.25
491.003	92.25
491.221	88.25
491.439	82.25
491.657	87.25
491.874	86.25
492.092	84.25
492.31	89.25
492.527	101.25
492.745	95.25
492.963	91.25
493.18	89.25
493.398	90.25
493.615	86.25
493.833	96.25
494.05	100.25
494.268	96.25
494.485	97.25
494.703	81.25
494.92	98.25
495.138	97.25
495.355	91.25
495.573	99.25
495.79	91.25
496.008	96.25
496.225	82.25
496.442	89.25
496.66	99.25
496.877	95.25
497.094	77.25
497.312	84.25
497.529	87.25
497.746	84.25
497.963	95.25
498.181	102.25
498.398	97.25
498.615	111.25
498.832	107.25
499.049	88.25
499.267	81.25
499.484	97.25
499.701	89.25
499.918	82.25
500.135	86.25
500.352	92.25
500.569	87.25
500.786	97.25
501.003	80.25
501.22	90.25
501.437	91.25
501.654	97.25
501.871	115.25
502.088	87.25
502.305	95.25
502.522	75.25
502.739	97.25
502.956	92.25
503.172	89.25
503.389	89.25
503.606	114.25
503.823	92.25
504.04	106.25
504.256	93.25
504.473	82.25
504.69	95.25
504.907	92.25
505.123	86.25
505.34	93.25
505.557	82.25
505.773	102.25
505.99	91.25
506.207	99.25
506.423	96.25
506.64	94.25
506.856	88.25
507.073	74.25
507.289	96.25
507.506	100.25
507.722	108.25
507.939	100.25
508.155	89.25
508.372	97.25
508.588	101.25
508.805	100.25
509.021	102.25
509.238	99.25
509.454	99.25
509.67	114.25
509.887	110.25
510.103	115.25
510.319	216.25
510.536	699.25
510.752	2131.25
510.968	592.25
511.184	137.25
511.401	121.25
511.617	97.25
511.833	103.25
512.049	99.25
512.265	92.25
512.481	81.25
512.698	88.25
512.914	82.25
513.13	82.25
513.346	82.25
513.562	103.25
513.778	80.25
513.994	97.25
514.21	93.25
514.426	122.25
514.642	142.25
514.858	127.25
515.074	162.25
515.29	427.25
515.506	1390.25
515.721	524.25
515.937	151.25
