Data from Uncirc_1991_H10_HRD10591_00009.txt Node
Date: Wed Jan 03 11:50:40 EST 2024
User: Yrep
Spectrometer: HR+D1059
Trigger mode: 1
Integration Time (sec): 1.000000E-1
Scans to average: 1
Electric dark correction enabled: true
Nonlinearity correction enabled: false
Boxcar width: 0
XAxis mode: Wavelengths
Number of Pixels in Spectrum: 2048
>>>>>Begin Spectral Data<<<<<
223.165	-8.25
223.4	-8.25
223.635	-8.25
223.869	-18.25
224.104	-29.25
224.338	-10.25
224.573	-8.25
224.808	-14.25
225.042	-7.25
225.277	-22.25
225.511	-0.25
225.746	7.75
225.98	6.75
226.215	1.75
226.449	30.75
226.683	17.75
226.918	23.75
227.152	29.75
227.387	24.75
227.621	38.75
227.856	48.75
228.09	44.75
228.324	50.75
228.559	60.75
228.793	52.75
229.027	46.75
229.262	66.75
229.496	63.75
229.73	68.75
229.964	61.75
230.199	74.75
230.433	61.75
230.667	54.75
230.901	79.75
231.136	60.75
231.37	77.75
231.604	84.75
231.838	69.75
232.072	70.75
232.306	68.75
232.541	81.75
232.775	85.75
233.009	93.75
233.243	60.75
233.477	82.75
233.711	60.75
233.945	77.75
234.179	78.75
234.413	83.75
234.647	82.75
234.881	69.75
235.115	62.75
235.349	67.75
235.583	63.75
235.817	86.75
236.051	72.75
236.285	73.75
236.519	67.75
236.753	75.75
236.987	77.75
237.221	83.75
237.455	77.75
237.689	72.75
237.922	59.75
238.156	83.75
238.39	76.75
238.624	66.75
238.858	74.75
239.091	71.75
239.325	84.75
239.559	86.75
239.793	73.75
240.027	72.75
240.26	75.75
240.494	62.75
240.728	66.75
240.961	80.75
241.195	66.75
241.429	71.75
241.662	72.75
241.896	73.75
242.13	82.75
242.363	85.75
242.597	84.75
242.83	74.75
243.064	68.75
243.298	84.75
243.531	80.75
243.765	72.75
243.998	79.75
244.232	75.75
244.465	78.75
244.699	91.75
244.932	82.75
245.166	67.75
245.399	94.75
245.633	79.75
245.866	77.75
246.099	75.75
246.333	88.75
246.566	81.75
246.8	89.75
247.033	77.75
247.266	71.75
247.5	61.75
247.733	62.75
247.966	86.75
248.2	76.75
248.433	81.75
248.666	66.75
248.899	80.75
249.133	81.75
249.366	94.75
249.599	80.75
249.832	76.75
250.066	85.75
250.299	80.75
250.532	59.75
250.765	87.75
250.998	60.75
251.231	91.75
251.465	87.75
251.698	67.75
251.931	88.75
252.164	79.75
252.397	74.75
252.63	85.75
252.863	72.75
253.096	56.75
253.329	80.75
253.562	63.75
253.795	76.75
254.028	80.75
254.261	89.75
254.494	76.75
254.727	74.75
254.96	89.75
255.193	77.75
255.426	88.75
255.659	82.75
255.892	70.75
256.124	83.75
256.357	74.75
256.59	74.75
256.823	75.75
257.056	80.75
257.289	73.75
257.521	79.75
257.754	91.75
257.987	96.75
258.22	80.75
258.452	76.75
258.685	74.75
258.918	79.75
259.151	84.75
259.383	76.75
259.616	81.75
259.849	67.75
260.081	68.75
260.314	80.75
260.547	92.75
260.779	73.75
261.012	83.75
261.244	78.75
261.477	88.75
261.71	70.75
261.942	89.75
262.175	102.75
262.407	78.75
262.64	72.75
262.872	72.75
263.105	79.75
263.337	83.75
263.57	74.75
263.802	80.75
264.035	91.75
264.267	75.75
264.499	85.75
264.732	70.75
264.964	80.75
265.197	84.75
265.429	79.75
265.661	75.75
265.894	72.75
266.126	86.75
266.358	78.75
266.591	80.75
266.823	74.75
267.055	80.75
267.287	72.75
267.52	76.75
267.752	82.75
267.984	75.75
268.216	82.75
268.448	81.75
268.681	63.75
268.913	72.75
269.145	74.75
269.377	91.75
269.609	71.75
269.841	76.75
270.073	96.75
270.306	88.75
270.538	89.75
270.77	77.75
271.002	79.75
271.234	90.75
271.466	63.75
271.698	84.75
271.93	79.75
272.162	87.75
272.394	79.75
272.626	91.75
272.858	88.75
273.09	89.75
273.322	83.75
273.553	86.75
273.785	88.75
274.017	85.75
274.249	89.75
274.481	75.75
274.713	72.75
274.945	100.75
275.176	76.75
275.408	84.75
275.64	78.75
275.872	78.75
276.104	80.75
276.335	70.75
276.567	90.75
276.799	96.75
277.031	72.75
277.262	81.75
277.494	83.75
277.726	78.75
277.957	92.75
278.189	75.75
278.421	101.75
278.652	86.75
278.884	96.75
279.115	89.75
279.347	86.75
279.579	85.75
279.81	74.75
280.042	79.75
280.273	89.75
280.505	79.75
280.736	96.75
280.968	86.75
281.199	82.75
281.431	83.75
281.662	78.75
281.894	85.75
282.125	89.75
282.356	82.75
282.588	107.75
282.819	107.75
283.051	78.75
283.282	88.75
283.513	83.75
283.745	80.75
283.976	80.75
284.207	72.75
284.439	86.75
284.67	83.75
284.901	76.75
285.132	83.75
285.364	96.75
285.595	90.75
285.826	75.75
286.057	95.75
286.288	90.75
286.52	84.75
286.751	83.75
286.982	87.75
287.213	84.75
287.444	91.75
287.675	88.75
287.906	88.75
288.138	76.75
288.369	83.75
288.6	89.75
288.831	82.75
289.062	87.75
289.293	74.75
289.524	89.75
289.755	83.75
289.986	77.75
290.217	82.75
290.448	71.75
290.679	73.75
290.91	90.75
291.141	82.75
291.371	96.75
291.602	74.75
291.833	86.75
292.064	89.75
292.295	89.75
292.526	75.75
292.757	78.75
292.987	85.75
293.218	82.75
293.449	83.75
293.68	85.75
293.91	80.75
294.141	83.75
294.372	79.75
294.603	78.75
294.833	87.75
295.064	93.75
295.295	74.75
295.525	83.75
295.756	110.75
295.987	95.75
296.217	110.75
296.448	100.75
296.679	88.75
296.909	88.75
297.14	94.75
297.37	76.75
297.601	87.75
297.831	82.75
298.062	82.75
298.292	79.75
298.523	82.75
298.753	88.75
298.984	88.75
299.214	85.75
299.445	80.75
299.675	84.75
299.905	98.75
300.136	91.75
300.366	104.75
300.597	84.75
300.827	88.75
301.057	82.75
301.288	86.75
301.518	80.75
301.748	92.75
301.979	96.75
302.209	92.75
302.439	65.75
302.669	92.75
302.9	91.75
303.13	78.75
303.36	88.75
303.59	83.75
303.82	102.75
304.051	97.75
304.281	90.75
304.511	91.75
304.741	78.75
304.971	88.75
305.201	91.75
305.431	93.75
305.661	90.75
305.891	79.75
306.121	83.75
306.352	94.75
306.582	91.75
306.812	99.75
307.042	100.75
307.272	86.75
307.502	83.75
307.731	93.75
307.961	78.75
308.191	84.75
308.421	94.75
308.651	86.75
308.881	86.75
309.111	79.75
309.341	90.75
309.571	87.75
309.8	91.75
310.03	84.75
310.26	77.75
310.49	86.75
310.72	91.75
310.949	99.75
311.179	89.75
311.409	90.75
311.639	90.75
311.868	99.75
312.098	106.75
312.328	87.75
312.557	91.75
312.787	101.75
313.017	106.75
313.246	96.75
313.476	87.75
313.706	91.75
313.935	94.75
314.165	95.75
314.394	94.75
314.624	99.75
314.853	94.75
315.083	106.75
315.312	86.75
315.542	84.75
315.771	91.75
316.001	111.75
316.23	73.75
316.46	96.75
316.689	100.75
316.919	95.75
317.148	96.75
317.377	74.75
317.607	79.75
317.836	81.75
318.065	79.75
318.295	89.75
318.524	72.75
318.753	97.75
318.983	98.75
319.212	89.75
319.441	113.75
319.67	100.75
319.9	100.75
320.129	84.75
320.358	89.75
320.587	92.75
320.816	86.75
321.046	108.75
321.275	100.75
321.504	91.75
321.733	98.75
321.962	95.75
322.191	93.75
322.42	98.75
322.649	105.75
322.878	107.75
323.108	89.75
323.337	112.75
323.566	132.75
323.795	137.75
324.024	199.75
324.253	352.75
324.482	767.75
324.71	1527.75
324.939	2082.75
325.168	739.75
325.397	223.75
325.626	141.75
325.855	130.75
326.084	110.75
326.313	119.75
326.542	124.75
326.77	199.75
326.999	443.75
327.228	872.75
327.457	1602.75
327.686	1265.75
327.914	350.75
328.143	162.75
328.372	131.75
328.6	115.75
328.829	107.75
329.058	110.75
329.287	113.75
329.515	96.75
329.744	103.75
329.972	102.75
330.201	93.75
330.43	100.75
330.658	98.75
330.887	106.75
331.115	109.75
331.344	99.75
331.572	96.75
331.801	94.75
332.03	88.75
332.258	94.75
332.486	75.75
332.715	80.75
332.943	88.75
333.172	88.75
333.4	92.75
333.629	109.75
333.857	95.75
334.085	97.75
334.314	91.75
334.542	83.75
334.771	87.75
334.999	92.75
335.227	89.75
335.455	89.75
335.684	93.75
335.912	102.75
336.14	82.75
336.369	90.75
336.597	91.75
336.825	80.75
337.053	88.75
337.281	91.75
337.51	95.75
337.738	85.75
337.966	89.75
338.194	97.75
338.422	88.75
338.65	87.75
338.878	74.75
339.106	90.75
339.334	102.75
339.562	84.75
339.79	86.75
340.018	90.75
340.246	90.75
340.474	91.75
340.702	98.75
340.93	76.75
341.158	96.75
341.386	93.75
341.614	99.75
341.842	83.75
342.07	85.75
342.298	83.75
342.526	81.75
342.754	87.75
342.981	94.75
343.209	88.75
343.437	87.75
343.665	76.75
343.893	93.75
344.12	79.75
344.348	88.75
344.576	88.75
344.804	89.75
345.031	72.75
345.259	89.75
345.487	83.75
345.714	84.75
345.942	81.75
346.17	91.75
346.397	82.75
346.625	81.75
346.853	83.75
347.08	92.75
347.308	94.75
347.535	88.75
347.763	87.75
347.99	97.75
348.218	100.75
348.445	89.75
348.673	69.75
348.9	93.75
349.128	86.75
349.355	89.75
349.583	66.75
349.81	82.75
350.037	88.75
350.265	85.75
350.492	87.75
350.72	81.75
350.947	94.75
351.174	111.75
351.402	109.75
351.629	112.75
351.856	105.75
352.083	99.75
352.311	97.75
352.538	92.75
352.765	92.75
352.992	110.75
353.22	102.75
353.447	111.75
353.674	98.75
353.901	96.75
354.128	91.75
354.355	99.75
354.583	94.75
354.81	92.75
355.037	106.75
355.264	89.75
355.491	89.75
355.718	79.75
355.945	100.75
356.172	83.75
356.399	84.75
356.626	91.75
356.853	80.75
357.08	90.75
357.307	94.75
357.534	83.75
357.761	72.75
357.988	87.75
358.215	90.75
358.441	97.75
358.668	87.75
358.895	95.75
359.122	82.75
359.349	95.75
359.576	95.75
359.802	95.75
360.029	100.75
360.256	99.75
360.483	96.75
360.709	95.75
360.936	90.75
361.163	84.75
361.39	84.75
361.616	81.75
361.843	77.75
362.07	91.75
362.296	75.75
362.523	80.75
362.749	82.75
362.976	85.75
363.203	70.75
363.429	89.75
363.656	76.75
363.882	84.75
364.109	86.75
364.335	90.75
364.562	85.75
364.788	95.75
365.015	99.75
365.241	83.75
365.468	100.75
365.694	104.75
365.92	92.75
366.147	92.75
366.373	86.75
366.599	80.75
366.826	77.75
367.052	83.75
367.278	94.75
367.505	105.75
367.731	86.75
367.957	94.75
368.184	89.75
368.41	89.75
368.636	111.75
368.862	109.75
369.089	74.75
369.315	96.75
369.541	79.75
369.767	79.75
369.993	88.75
370.219	91.75
370.445	90.75
370.672	65.75
370.898	87.75
371.124	85.75
371.35	87.75
371.576	76.75
371.802	82.75
372.028	73.75
372.254	81.75
372.48	70.75
372.706	88.75
372.932	79.75
373.158	84.75
373.384	91.75
373.61	96.75
373.835	101.75
374.061	80.75
374.287	94.75
374.513	68.75
374.739	88.75
374.965	86.75
375.191	84.75
375.416	86.75
375.642	87.75
375.868	88.75
376.094	89.75
376.319	80.75
376.545	80.75
376.771	95.75
376.997	93.75
377.222	96.75
377.448	93.75
377.674	81.75
377.899	88.75
378.125	97.75
378.35	81.75
378.576	81.75
378.802	83.75
379.027	79.75
379.253	79.75
379.478	91.75
379.704	80.75
379.929	80.75
380.155	84.75
380.38	85.75
380.606	74.75
380.831	86.75
381.057	96.75
381.282	92.75
381.507	95.75
381.733	93.75
381.958	90.75
382.184	91.75
382.409	93.75
382.634	98.75
382.86	78.75
383.085	87.75
383.31	101.75
383.535	110.75
383.761	88.75
383.986	94.75
384.211	82.75
384.436	95.75
384.662	107.75
384.887	97.75
385.112	89.75
385.337	81.75
385.562	98.75
385.787	100.75
386.013	97.75
386.238	106.75
386.463	100.75
386.688	103.75
386.913	107.75
387.138	99.75
387.363	102.75
387.588	93.75
387.813	79.75
388.038	97.75
388.263	97.75
388.488	99.75
388.713	88.75
388.938	106.75
389.163	95.75
389.387	84.75
389.612	88.75
389.837	94.75
390.062	94.75
390.287	88.75
390.512	93.75
390.736	85.75
390.961	94.75
391.186	88.75
391.411	99.75
391.636	101.75
391.86	83.75
392.085	81.75
392.31	80.75
392.534	91.75
392.759	73.75
392.984	90.75
393.208	86.75
393.433	77.75
393.658	92.75
393.882	90.75
394.107	91.75
394.331	79.75
394.556	74.75
394.78	74.75
395.005	97.75
395.229	98.75
395.454	82.75
395.678	83.75
395.903	78.75
396.127	91.75
396.352	75.75
396.576	89.75
396.801	81.75
397.025	80.75
397.249	84.75
397.474	75.75
397.698	91.75
397.922	91.75
398.147	71.75
398.371	93.75
398.595	70.75
398.82	75.75
399.044	81.75
399.268	84.75
399.492	89.75
399.717	93.75
399.941	88.75
400.165	95.75
400.389	79.75
400.613	83.75
400.837	79.75
401.062	89.75
401.286	87.75
401.51	82.75
401.734	97.75
401.958	78.75
402.182	115.75
402.406	128.75
402.63	105.75
402.854	90.75
403.078	91.75
403.302	90.75
403.526	85.75
403.75	98.75
403.974	80.75
404.198	78.75
404.422	82.75
404.645	88.75
404.869	95.75
405.093	67.75
405.317	100.75
405.541	88.75
405.765	106.75
405.988	96.75
406.212	141.75
406.436	183.75
406.66	99.75
406.883	79.75
407.107	93.75
407.331	79.75
407.555	98.75
407.778	94.75
408.002	85.75
408.226	86.75
408.449	89.75
408.673	100.75
408.896	86.75
409.12	86.75
409.344	91.75
409.567	86.75
409.791	88.75
410.014	91.75
410.238	103.75
410.461	86.75
410.685	100.75
410.908	92.75
411.132	97.75
411.355	90.75
411.578	92.75
411.802	76.75
412.025	84.75
412.249	82.75
412.472	78.75
412.695	88.75
412.919	91.75
413.142	84.75
413.365	73.75
413.589	91.75
413.812	94.75
414.035	82.75
414.258	85.75
414.482	84.75
414.705	94.75
414.928	82.75
415.151	91.75
415.374	102.75
415.597	81.75
415.821	82.75
416.044	72.75
416.267	72.75
416.49	81.75
416.713	84.75
416.936	80.75
417.159	95.75
417.382	86.75
417.605	84.75
417.828	99.75
418.051	90.75
418.274	79.75
418.497	61.75
418.72	89.75
418.943	98.75
419.166	93.75
419.389	79.75
419.611	77.75
419.834	92.75
420.057	75.75
420.28	78.75
420.503	90.75
420.726	84.75
420.948	92.75
421.171	85.75
421.394	68.75
421.617	86.75
421.839	74.75
422.062	83.75
422.285	90.75
422.507	94.75
422.73	98.75
422.953	77.75
423.175	83.75
423.398	88.75
423.621	79.75
423.843	98.75
424.066	80.75
424.288	91.75
424.511	82.75
424.733	93.75
424.956	89.75
425.178	92.75
425.401	91.75
425.623	95.75
425.846	90.75
426.068	90.75
426.291	81.75
426.513	90.75
426.735	85.75
426.958	88.75
427.18	93.75
427.402	129.75
427.625	144.75
427.847	124.75
428.069	91.75
428.292	83.75
428.514	85.75
428.736	75.75
428.958	74.75
429.181	84.75
429.403	80.75
429.625	76.75
429.847	80.75
430.069	96.75
430.292	99.75
430.514	80.75
430.736	81.75
430.958	77.75
431.18	74.75
431.402	85.75
431.624	92.75
431.846	96.75
432.068	81.75
432.29	84.75
432.512	79.75
432.734	93.75
432.956	95.75
433.178	91.75
433.4	100.75
433.622	93.75
433.844	79.75
434.066	84.75
434.287	95.75
434.509	90.75
434.731	98.75
434.953	78.75
435.175	82.75
435.397	91.75
435.618	70.75
435.84	99.75
436.062	116.75
436.284	105.75
436.505	103.75
436.727	80.75
436.949	80.75
437.17	93.75
437.392	78.75
437.614	83.75
437.835	94.75
438.057	106.75
438.278	107.75
438.5	99.75
438.721	123.75
438.943	91.75
439.165	97.75
439.386	86.75
439.608	71.75
439.829	82.75
440.05	112.75
440.272	118.75
440.493	91.75
440.715	78.75
440.936	99.75
441.158	84.75
441.379	82.75
441.6	77.75
441.822	97.75
442.043	90.75
442.264	96.75
442.486	85.75
442.707	81.75
442.928	96.75
443.149	107.75
443.371	112.75
443.592	95.75
443.813	104.75
444.034	110.75
444.255	89.75
444.476	93.75
444.698	82.75
444.919	81.75
445.14	118.75
445.361	104.75
445.582	101.75
445.803	121.75
446.024	118.75
446.245	135.75
446.466	102.75
446.687	79.75
446.908	92.75
447.129	85.75
447.35	92.75
447.571	86.75
447.792	74.75
448.013	85.75
448.234	90.75
448.455	108.75
448.675	107.75
448.896	119.75
449.117	81.75
449.338	96.75
449.559	129.75
449.779	130.75
450	82.75
450.221	85.75
450.442	92.75
450.662	86.75
450.883	93.75
451.104	94.75
451.324	87.75
451.545	92.75
451.766	78.75
451.986	87.75
452.207	86.75
452.428	100.75
452.648	82.75
452.869	109.75
453.089	92.75
453.31	102.75
453.53	92.75
453.751	89.75
453.971	104.75
454.192	95.75
454.412	82.75
454.633	83.75
454.853	77.75
455.073	77.75
455.294	92.75
455.514	86.75
455.734	85.75
455.955	83.75
456.175	90.75
456.395	89.75
456.616	75.75
456.836	77.75
457.056	88.75
457.276	76.75
457.497	75.75
457.717	72.75
457.937	73.75
458.157	90.75
458.377	89.75
458.598	91.75
458.818	112.75
459.038	130.75
459.258	97.75
459.478	99.75
459.698	80.75
459.918	92.75
460.138	71.75
460.358	87.75
460.578	76.75
460.798	76.75
461.018	80.75
461.238	72.75
461.458	88.75
461.678	98.75
461.898	87.75
462.118	80.75
462.338	89.75
462.558	84.75
462.777	82.75
462.997	76.75
463.217	75.75
463.437	90.75
463.657	79.75
463.876	88.75
464.096	91.75
464.316	96.75
464.536	90.75
464.755	75.75
464.975	105.75
465.195	119.75
465.414	128.75
465.634	100.75
465.854	78.75
466.073	76.75
466.293	78.75
466.512	82.75
466.732	75.75
466.951	82.75
467.171	75.75
467.391	87.75
467.61	92.75
467.829	92.75
468.049	86.75
468.268	72.75
468.488	88.75
468.707	84.75
468.927	72.75
469.146	79.75
469.365	81.75
469.585	67.75
469.804	83.75
470.023	93.75
470.243	94.75
470.462	91.75
470.681	102.75
470.901	83.75
471.12	73.75
471.339	98.75
471.558	82.75
471.777	79.75
471.997	91.75
472.216	89.75
472.435	98.75
472.654	89.75
472.873	92.75
473.092	93.75
473.311	80.75
473.53	71.75
473.749	88.75
473.968	97.75
474.187	95.75
474.406	84.75
474.625	91.75
474.844	87.75
475.063	82.75
475.282	80.75
475.501	88.75
475.72	64.75
475.939	79.75
476.158	103.75
476.377	90.75
476.596	82.75
476.814	73.75
477.033	88.75
477.252	82.75
477.471	86.75
477.69	93.75
477.908	79.75
478.127	80.75
478.346	89.75
478.564	94.75
478.783	83.75
479.002	84.75
479.22	89.75
479.439	86.75
479.658	105.75
479.876	80.75
480.095	89.75
480.313	78.75
480.532	80.75
480.751	75.75
480.969	76.75
481.188	90.75
481.406	87.75
481.624	97.75
481.843	77.75
482.061	58.75
482.28	83.75
482.498	94.75
482.717	85.75
482.935	90.75
483.153	81.75
483.372	77.75
483.59	67.75
483.808	80.75
484.027	78.75
484.245	73.75
484.463	99.75
484.681	84.75
484.9	92.75
485.118	73.75
485.336	93.75
485.554	98.75
485.772	96.75
485.99	86.75
486.209	106.75
486.427	100.75
486.645	81.75
486.863	105.75
487.081	114.75
487.299	98.75
487.517	96.75
487.735	88.75
487.953	91.75
488.171	88.75
488.389	71.75
488.607	88.75
488.825	96.75
489.043	97.75
489.261	84.75
489.479	103.75
489.696	92.75
489.914	79.75
490.132	88.75
490.35	107.75
490.568	89.75
490.786	100.75
491.003	79.75
491.221	95.75
491.439	83.75
491.657	88.75
491.874	79.75
492.092	101.75
492.31	97.75
492.527	80.75
492.745	90.75
492.963	90.75
493.18	89.75
493.398	88.75
493.615	92.75
493.833	106.75
494.05	97.75
494.268	94.75
494.485	86.75
494.703	84.75
494.92	89.75
495.138	95.75
495.355	78.75
495.573	97.75
495.79	79.75
496.008	88.75
496.225	99.75
496.442	91.75
496.66	96.75
496.877	85.75
497.094	63.75
497.312	74.75
497.529	72.75
497.746	78.75
497.963	83.75
498.181	81.75
498.398	79.75
498.615	112.75
498.832	100.75
499.049	90.75
499.267	95.75
499.484	85.75
499.701	97.75
499.918	88.75
500.135	79.75
500.352	103.75
500.569	86.75
500.786	93.75
501.003	86.75
501.22	82.75
501.437	77.75
501.654	88.75
501.871	102.75
502.088	81.75
502.305	82.75
502.522	80.75
502.739	87.75
502.956	83.75
503.172	84.75
503.389	87.75
503.606	91.75
503.823	95.75
504.04	98.75
504.256	91.75
504.473	84.75
504.69	92.75
504.907	81.75
505.123	80.75
505.34	79.75
505.557	76.75
505.773	88.75
505.99	98.75
506.207	78.75
506.423	87.75
506.64	91.75
506.856	86.75
507.073	94.75
507.289	82.75
507.506	87.75
507.722	97.75
507.939	98.75
508.155	91.75
508.372	90.75
508.588	89.75
508.805	105.75
509.021	101.75
509.238	88.75
509.454	95.75
509.67	93.75
509.887	105.75
510.103	118.75
510.319	170.75
510.536	617.75
510.752	1819.75
510.968	520.75
511.184	138.75
511.401	106.75
511.617	86.75
511.833	89.75
512.049	95.75
512.265	78.75
512.481	97.75
512.698	104.75
512.914	68.75
513.13	84.75
513.346	88.75
513.562	98.75
513.778	98.75
513.994	88.75
514.21	83.75
514.426	100.75
514.642	116.75
514.858	109.75
515.074	138.75
515.29	347.75
515.506	1085.75
515.721	413.75
515.937	115.75
516.153	112.75
516.369	100.75
516.585	79.75
516.801	93.75
517.016	91.75
517.232	95.75
517.448	87.75
517.664	92.75
