Data from Uncirc_1991_H10_HRD10591_00055.txt Node
Date: Wed Jan 03 11:50:49 EST 2024
User: Yrep
Spectrometer: HR+D1059
Trigger mode: 1
Integration Time (sec): 1.000000E-1
Scans to average: 1
Electric dark correction enabled: true
Nonlinearity correction enabled: false
Boxcar width: 0
XAxis mode: Wavelengths
Number of Pixels in Spectrum: 2048
>>>>>Begin Spectral Data<<<<<
223.165	-14.25
223.4	-14.25
223.635	-14.25
223.869	-18.25
224.104	-19.25
224.338	-15.25
224.573	-12.25
224.808	-6.25
225.042	0.75
225.277	-11.25
225.511	-0.25
225.746	2.75
225.98	11.75
226.215	21.75
226.449	6.75
226.683	7.75
226.918	17.75
227.152	27.75
227.387	27.75
227.621	40.75
227.856	50.75
228.09	41.75
228.324	59.75
228.559	60.75
228.793	70.75
229.027	73.75
229.262	70.75
229.496	76.75
229.73	95.75
229.964	92.75
230.199	65.75
230.433	61.75
230.667	69.75
230.901	87.75
231.136	85.75
231.37	77.75
231.604	82.75
231.838	84.75
232.072	84.75
232.306	86.75
232.541	84.75
232.775	91.75
233.009	79.75
233.243	91.75
233.477	77.75
233.711	64.75
233.945	77.75
234.179	72.75
234.413	81.75
234.647	85.75
234.881	85.75
235.115	83.75
235.349	80.75
235.583	81.75
235.817	80.75
236.051	78.75
236.285	94.75
236.519	77.75
236.753	94.75
236.987	77.75
237.221	97.75
237.455	95.75
237.689	85.75
237.922	87.75
238.156	99.75
238.39	85.75
238.624	72.75
238.858	75.75
239.091	77.75
239.325	70.75
239.559	76.75
239.793	89.75
240.027	72.75
240.26	92.75
240.494	86.75
240.728	73.75
240.961	95.75
241.195	79.75
241.429	75.75
241.662	67.75
241.896	78.75
242.13	68.75
242.363	84.75
242.597	73.75
242.83	69.75
243.064	81.75
243.298	81.75
243.531	77.75
243.765	81.75
243.998	79.75
244.232	92.75
244.465	104.75
244.699	87.75
244.932	73.75
245.166	88.75
245.399	72.75
245.633	81.75
245.866	97.75
246.099	91.75
246.333	67.75
246.566	86.75
246.8	79.75
247.033	79.75
247.266	82.75
247.5	74.75
247.733	71.75
247.966	81.75
248.2	79.75
248.433	86.75
248.666	80.75
248.899	76.75
249.133	79.75
249.366	104.75
249.599	98.75
249.832	78.75
250.066	85.75
250.299	96.75
250.532	79.75
250.765	88.75
250.998	83.75
251.231	90.75
251.465	73.75
251.698	88.75
251.931	84.75
252.164	72.75
252.397	84.75
252.63	83.75
252.863	72.75
253.096	96.75
253.329	88.75
253.562	72.75
253.795	72.75
254.028	79.75
254.261	93.75
254.494	92.75
254.727	83.75
254.96	73.75
255.193	85.75
255.426	84.75
255.659	93.75
255.892	75.75
256.124	68.75
256.357	81.75
256.59	78.75
256.823	71.75
257.056	73.75
257.289	88.75
257.521	80.75
257.754	79.75
257.987	91.75
258.22	80.75
258.452	92.75
258.685	84.75
258.918	91.75
259.151	81.75
259.383	78.75
259.616	76.75
259.849	81.75
260.081	85.75
260.314	76.75
260.547	85.75
260.779	91.75
261.012	85.75
261.244	91.75
261.477	92.75
261.71	80.75
261.942	114.75
262.175	131.75
262.407	94.75
262.64	96.75
262.872	96.75
263.105	76.75
263.337	71.75
263.57	87.75
263.802	77.75
264.035	87.75
264.267	76.75
264.499	86.75
264.732	79.75
264.964	85.75
265.197	89.75
265.429	87.75
265.661	84.75
265.894	103.75
266.126	79.75
266.358	85.75
266.591	88.75
266.823	88.75
267.055	87.75
267.287	64.75
267.52	63.75
267.752	91.75
267.984	102.75
268.216	96.75
268.448	85.75
268.681	91.75
268.913	98.75
269.145	82.75
269.377	71.75
269.609	79.75
269.841	89.75
270.073	83.75
270.306	77.75
270.538	89.75
270.77	100.75
271.002	95.75
271.234	97.75
271.466	95.75
271.698	85.75
271.93	94.75
272.162	84.75
272.394	83.75
272.626	100.75
272.858	89.75
273.09	89.75
273.322	91.75
273.553	72.75
273.785	87.75
274.017	78.75
274.249	79.75
274.481	79.75
274.713	83.75
274.945	89.75
275.176	95.75
275.408	83.75
275.64	99.75
275.872	95.75
276.104	89.75
276.335	95.75
276.567	102.75
276.799	127.75
277.031	112.75
277.262	96.75
277.494	91.75
277.726	93.75
277.957	86.75
278.189	81.75
278.421	100.75
278.652	81.75
278.884	88.75
279.115	91.75
279.347	87.75
279.579	83.75
279.81	85.75
280.042	93.75
280.273	85.75
280.505	86.75
280.736	88.75
280.968	79.75
281.199	84.75
281.431	78.75
281.662	91.75
281.894	107.75
282.125	94.75
282.356	133.75
282.588	150.75
282.819	119.75
283.051	85.75
283.282	96.75
283.513	97.75
283.745	82.75
283.976	99.75
284.207	89.75
284.439	83.75
284.67	91.75
284.901	96.75
285.132	91.75
285.364	81.75
285.595	88.75
285.826	93.75
286.057	88.75
286.288	95.75
286.52	85.75
286.751	85.75
286.982	82.75
287.213	86.75
287.444	102.75
287.675	89.75
287.906	76.75
288.138	94.75
288.369	79.75
288.6	84.75
288.831	83.75
289.062	88.75
289.293	102.75
289.524	82.75
289.755	86.75
289.986	86.75
290.217	85.75
290.448	84.75
290.679	95.75
290.91	79.75
291.141	94.75
291.371	76.75
291.602	79.75
291.833	91.75
292.064	84.75
292.295	104.75
292.526	96.75
292.757	88.75
292.987	88.75
293.218	93.75
293.449	70.75
293.68	90.75
293.91	93.75
294.141	106.75
294.372	91.75
294.603	87.75
294.833	85.75
295.064	93.75
295.295	93.75
295.525	98.75
295.756	97.75
295.987	121.75
296.217	158.75
296.448	149.75
296.679	95.75
296.909	88.75
297.14	82.75
297.37	97.75
297.601	102.75
297.831	89.75
298.062	91.75
298.292	102.75
298.523	87.75
298.753	93.75
298.984	86.75
299.214	93.75
299.445	104.75
299.675	96.75
299.905	85.75
300.136	93.75
300.366	91.75
300.597	108.75
300.827	103.75
301.057	104.75
301.288	105.75
301.518	93.75
301.748	88.75
301.979	94.75
302.209	96.75
302.439	96.75
302.669	87.75
302.9	91.75
303.13	92.75
303.36	99.75
303.59	100.75
303.82	116.75
304.051	96.75
304.281	92.75
304.511	83.75
304.741	92.75
304.971	92.75
305.201	101.75
305.431	86.75
305.661	83.75
305.891	96.75
306.121	93.75
306.352	101.75
306.582	107.75
306.812	85.75
307.042	94.75
307.272	93.75
307.502	87.75
307.731	87.75
307.961	99.75
308.191	89.75
308.421	90.75
308.651	97.75
308.881	102.75
309.111	98.75
309.341	109.75
309.571	105.75
309.8	95.75
310.03	112.75
310.26	97.75
310.49	82.75
310.72	100.75
310.949	105.75
311.179	99.75
311.409	80.75
311.639	98.75
311.868	93.75
312.098	100.75
312.328	96.75
312.557	104.75
312.787	125.75
313.017	104.75
313.246	111.75
313.476	109.75
313.706	92.75
313.935	97.75
314.165	90.75
314.394	115.75
314.624	114.75
314.853	109.75
315.083	77.75
315.312	83.75
315.542	83.75
315.771	81.75
316.001	86.75
316.23	103.75
316.46	98.75
316.689	102.75
316.919	87.75
317.148	100.75
317.377	105.75
317.607	84.75
317.836	104.75
318.065	83.75
318.295	91.75
318.524	84.75
318.753	95.75
318.983	112.75
319.212	119.75
319.441	118.75
319.67	108.75
319.9	101.75
320.129	110.75
320.358	101.75
320.587	101.75
320.816	111.75
321.046	108.75
321.275	89.75
321.504	101.75
321.733	98.75
321.962	116.75
322.191	92.75
322.42	104.75
322.649	120.75
322.878	99.75
323.108	134.75
323.337	144.75
323.566	159.75
323.795	183.75
324.024	229.75
324.253	459.75
324.482	1025.75
324.71	2229.75
324.939	3094.75
325.168	1127.75
325.397	294.75
325.626	162.75
325.855	127.75
326.084	125.75
326.313	155.75
326.542	166.75
326.77	255.75
326.999	552.75
327.228	1185.75
327.457	2283.75
327.686	1795.75
327.914	473.75
328.143	241.75
328.372	167.75
328.6	137.75
328.829	124.75
329.058	145.75
329.287	147.75
329.515	115.75
329.744	130.75
329.972	96.75
330.201	102.75
330.43	115.75
330.658	131.75
330.887	166.75
331.115	128.75
331.344	111.75
331.572	97.75
331.801	120.75
332.03	116.75
332.258	105.75
332.486	87.75
332.715	101.75
332.943	104.75
333.172	105.75
333.4	96.75
333.629	108.75
333.857	124.75
334.085	118.75
334.314	112.75
334.542	86.75
334.771	98.75
334.999	108.75
335.227	111.75
335.455	97.75
335.684	95.75
335.912	91.75
336.14	92.75
336.369	103.75
336.597	113.75
336.825	109.75
337.053	102.75
337.281	100.75
337.51	88.75
337.738	100.75
337.966	93.75
338.194	99.75
338.422	109.75
338.65	97.75
338.878	88.75
339.106	90.75
339.334	105.75
339.562	94.75
339.79	91.75
340.018	102.75
340.246	97.75
340.474	99.75
340.702	95.75
340.93	104.75
341.158	98.75
341.386	102.75
341.614	102.75
341.842	107.75
342.07	97.75
342.298	92.75
342.526	87.75
342.754	95.75
342.981	101.75
343.209	98.75
343.437	111.75
343.665	100.75
343.893	87.75
344.12	100.75
344.348	99.75
344.576	82.75
344.804	94.75
345.031	101.75
345.259	114.75
345.487	98.75
345.714	84.75
345.942	102.75
346.17	101.75
346.397	95.75
346.625	102.75
346.853	83.75
347.08	101.75
347.308	91.75
347.535	113.75
347.763	100.75
347.99	96.75
348.218	105.75
348.445	110.75
348.673	105.75
348.9	95.75
349.128	93.75
349.355	113.75
349.583	95.75
349.81	87.75
350.037	82.75
350.265	98.75
350.492	88.75
350.72	100.75
350.947	106.75
351.174	109.75
351.402	120.75
351.629	100.75
351.856	100.75
352.083	100.75
352.311	109.75
352.538	116.75
352.765	117.75
352.992	132.75
353.22	122.75
353.447	116.75
353.674	112.75
353.901	113.75
354.128	95.75
354.355	100.75
354.583	108.75
354.81	98.75
355.037	112.75
355.264	110.75
355.491	94.75
355.718	99.75
355.945	94.75
356.172	101.75
356.399	78.75
356.626	102.75
356.853	101.75
357.08	80.75
357.307	86.75
357.534	94.75
357.761	88.75
357.988	98.75
358.215	99.75
358.441	101.75
358.668	95.75
358.895	85.75
359.122	93.75
359.349	85.75
359.576	92.75
359.802	103.75
360.029	127.75
360.256	115.75
360.483	109.75
360.709	102.75
360.936	107.75
361.163	109.75
361.39	94.75
361.616	86.75
361.843	87.75
362.07	102.75
362.296	99.75
362.523	96.75
362.749	80.75
362.976	92.75
363.203	103.75
363.429	84.75
363.656	104.75
363.882	93.75
364.109	88.75
364.335	88.75
364.562	109.75
364.788	93.75
365.015	108.75
365.241	100.75
365.468	102.75
365.694	105.75
365.92	95.75
366.147	83.75
366.373	82.75
366.599	103.75
366.826	101.75
367.052	96.75
367.278	94.75
367.505	96.75
367.731	100.75
367.957	87.75
368.184	99.75
368.41	113.75
368.636	110.75
368.862	128.75
369.089	131.75
369.315	95.75
369.541	91.75
369.767	97.75
369.993	97.75
370.219	104.75
370.445	91.75
370.672	89.75
370.898	107.75
371.124	96.75
371.35	101.75
371.576	114.75
371.802	89.75
372.028	80.75
372.254	82.75
372.48	85.75
372.706	97.75
372.932	92.75
373.158	81.75
373.384	88.75
373.61	88.75
373.835	96.75
374.061	76.75
374.287	95.75
374.513	92.75
374.739	107.75
374.965	107.75
375.191	90.75
375.416	89.75
375.642	103.75
375.868	103.75
376.094	87.75
376.319	96.75
376.545	88.75
376.771	97.75
376.997	82.75
377.222	83.75
377.448	85.75
377.674	86.75
377.899	89.75
378.125	90.75
378.35	85.75
378.576	87.75
378.802	88.75
379.027	94.75
379.253	95.75
379.478	89.75
379.704	102.75
379.929	96.75
380.155	95.75
380.38	78.75
380.606	85.75
380.831	96.75
381.057	101.75
381.282	101.75
381.507	97.75
381.733	88.75
381.958	100.75
382.184	106.75
382.409	110.75
382.634	105.75
382.86	92.75
383.085	83.75
383.31	98.75
383.535	92.75
383.761	102.75
383.986	88.75
384.211	101.75
384.436	93.75
384.662	89.75
384.887	103.75
385.112	104.75
385.337	100.75
385.562	91.75
385.787	108.75
386.013	111.75
386.238	111.75
386.463	100.75
386.688	109.75
386.913	90.75
387.138	90.75
387.363	116.75
387.588	87.75
387.813	108.75
388.038	101.75
388.263	99.75
388.488	105.75
388.713	104.75
388.938	99.75
389.163	108.75
389.387	88.75
389.612	97.75
389.837	95.75
390.062	91.75
390.287	98.75
390.512	100.75
390.736	104.75
390.961	94.75
391.186	104.75
391.411	91.75
391.636	81.75
391.86	85.75
392.085	92.75
392.31	85.75
392.534	81.75
392.759	84.75
392.984	91.75
393.208	89.75
393.433	79.75
393.658	85.75
393.882	90.75
394.107	101.75
394.331	85.75
394.556	83.75
394.78	87.75
395.005	79.75
395.229	83.75
395.454	81.75
395.678	86.75
395.903	85.75
396.127	87.75
396.352	98.75
396.576	96.75
396.801	83.75
397.025	91.75
397.249	88.75
397.474	98.75
397.698	97.75
397.922	93.75
398.147	101.75
398.371	81.75
398.595	97.75
398.82	91.75
399.044	88.75
399.268	81.75
399.492	96.75
399.717	102.75
399.941	92.75
400.165	90.75
400.389	112.75
400.613	99.75
400.837	92.75
401.062	94.75
401.286	90.75
401.51	89.75
401.734	92.75
401.958	100.75
402.182	135.75
402.406	182.75
402.63	132.75
402.854	89.75
403.078	103.75
403.302	100.75
403.526	84.75
403.75	98.75
403.974	102.75
404.198	96.75
404.422	89.75
404.645	84.75
404.869	94.75
405.093	98.75
405.317	104.75
405.541	95.75
405.765	94.75
405.988	142.75
406.212	188.75
406.436	280.75
406.66	169.75
406.883	109.75
407.107	112.75
407.331	110.75
407.555	97.75
407.778	115.75
408.002	99.75
408.226	79.75
408.449	90.75
408.673	114.75
408.896	99.75
409.12	103.75
409.344	88.75
409.567	93.75
409.791	95.75
410.014	87.75
410.238	96.75
410.461	101.75
410.685	81.75
410.908	91.75
411.132	99.75
411.355	122.75
411.578	100.75
411.802	96.75
412.025	92.75
412.249	80.75
412.472	89.75
412.695	101.75
412.919	88.75
413.142	89.75
413.365	86.75
413.589	79.75
413.812	83.75
414.035	87.75
414.258	97.75
414.482	94.75
414.705	97.75
414.928	98.75
415.151	93.75
415.374	101.75
415.597	93.75
415.821	97.75
416.044	99.75
416.267	72.75
416.49	96.75
416.713	94.75
416.936	79.75
417.159	88.75
417.382	76.75
417.605	92.75
417.828	95.75
418.051	92.75
418.274	90.75
418.497	95.75
418.72	84.75
418.943	97.75
419.166	84.75
419.389	87.75
419.611	83.75
419.834	87.75
420.057	93.75
420.28	88.75
420.503	89.75
420.726	81.75
420.948	90.75
421.171	109.75
421.394	100.75
421.617	94.75
421.839	87.75
422.062	89.75
422.285	93.75
422.507	93.75
422.73	114.75
422.953	85.75
423.175	94.75
423.398	86.75
423.621	110.75
423.843	86.75
424.066	83.75
424.288	86.75
424.511	80.75
424.733	108.75
424.956	107.75
425.178	92.75
425.401	125.75
425.623	121.75
425.846	108.75
426.068	99.75
426.291	91.75
426.513	95.75
426.735	89.75
426.958	103.75
427.18	109.75
427.402	175.75
427.625	214.75
427.847	148.75
428.069	106.75
428.292	91.75
428.514	89.75
428.736	86.75
428.958	87.75
429.181	83.75
429.403	91.75
429.625	99.75
429.847	93.75
430.069	122.75
430.292	115.75
430.514	84.75
430.736	92.75
430.958	95.75
431.18	84.75
431.402	95.75
431.624	94.75
431.846	90.75
432.068	84.75
432.29	97.75
432.512	93.75
432.734	86.75
432.956	78.75
433.178	95.75
433.4	93.75
433.622	86.75
433.844	103.75
434.066	98.75
434.287	91.75
434.509	91.75
434.731	86.75
434.953	96.75
435.175	91.75
435.397	87.75
435.618	88.75
435.84	127.75
436.062	146.75
436.284	126.75
436.505	109.75
436.727	104.75
436.949	96.75
437.17	92.75
437.392	96.75
437.614	107.75
437.835	122.75
438.057	139.75
438.278	121.75
438.5	120.75
438.721	148.75
438.943	108.75
439.165	104.75
439.386	105.75
439.608	107.75
439.829	108.75
440.05	139.75
440.272	183.75
440.493	115.75
440.715	83.75
440.936	89.75
441.158	86.75
441.379	88.75
441.6	108.75
441.822	104.75
442.043	98.75
442.264	131.75
442.486	116.75
442.707	88.75
442.928	104.75
443.149	148.75
443.371	143.75
443.592	123.75
443.813	126.75
444.034	129.75
444.255	89.75
444.476	86.75
444.698	72.75
444.919	105.75
445.14	159.75
445.361	147.75
445.582	132.75
445.803	175.75
446.024	163.75
446.245	175.75
446.466	135.75
446.687	81.75
446.908	96.75
447.129	87.75
447.35	71.75
447.571	98.75
447.792	105.75
448.013	104.75
448.234	111.75
448.455	118.75
448.675	115.75
448.896	149.75
449.117	110.75
449.338	112.75
449.559	155.75
449.779	169.75
450	104.75
450.221	103.75
450.442	81.75
450.662	91.75
450.883	103.75
451.104	117.75
451.324	108.75
451.545	93.75
451.766	93.75
451.986	99.75
452.207	98.75
452.428	117.75
452.648	93.75
452.869	125.75
453.089	126.75
453.31	137.75
453.53	99.75
453.751	95.75
453.971	116.75
454.192	117.75
454.412	98.75
454.633	91.75
454.853	83.75
455.073	99.75
455.294	106.75
455.514	108.75
455.734	105.75
455.955	81.75
456.175	62.75
456.395	95.75
456.616	88.75
456.836	88.75
457.056	70.75
457.276	94.75
457.497	75.75
457.717	101.75
457.937	85.75
458.157	95.75
458.377	92.75
458.598	112.75
458.818	167.75
459.038	201.75
459.258	132.75
459.478	87.75
459.698	84.75
459.918	87.75
460.138	86.75
460.358	71.75
460.578	100.75
460.798	95.75
461.018	102.75
461.238	100.75
461.458	92.75
461.678	73.75
461.898	102.75
462.118	93.75
462.338	99.75
462.558	86.75
462.777	78.75
462.997	73.75
463.217	88.75
463.437	85.75
463.657	77.75
463.876	96.75
464.096	85.75
464.316	101.75
464.536	97.75
464.755	91.75
464.975	118.75
465.195	190.75
465.414	185.75
465.634	108.75
465.854	78.75
466.073	97.75
466.293	101.75
466.512	92.75
466.732	76.75
466.951	79.75
467.171	84.75
467.391	91.75
467.61	111.75
467.829	108.75
468.049	91.75
468.268	89.75
468.488	89.75
468.707	80.75
468.927	85.75
469.146	88.75
469.365	77.75
469.585	88.75
469.804	95.75
470.023	105.75
470.243	111.75
470.462	104.75
470.681	119.75
470.901	99.75
471.12	79.75
471.339	91.75
471.558	72.75
471.777	91.75
471.997	88.75
472.216	81.75
472.435	85.75
472.654	87.75
472.873	87.75
473.092	80.75
473.311	77.75
473.53	107.75
473.749	95.75
473.968	105.75
474.187	115.75
474.406	103.75
474.625	84.75
474.844	97.75
475.063	96.75
475.282	93.75
475.501	102.75
475.72	89.75
475.939	80.75
476.158	81.75
476.377	92.75
476.596	81.75
476.814	87.75
477.033	94.75
477.252	73.75
477.471	87.75
477.69	99.75
477.908	85.75
478.127	84.75
478.346	86.75
478.564	107.75
478.783	107.75
479.002	84.75
479.22	101.75
479.439	120.75
479.658	118.75
479.876	101.75
480.095	93.75
480.313	70.75
480.532	91.75
480.751	76.75
480.969	83.75
481.188	105.75
481.406	95.75
481.624	94.75
481.843	96.75
482.061	93.75
482.28	96.75
482.498	97.75
482.717	81.75
482.935	96.75
483.153	75.75
483.372	83.75
483.59	98.75
483.808	92.75
484.027	91.75
484.245	98.75
484.463	95.75
484.681	113.75
484.9	83.75
485.118	100.75
485.336	102.75
485.554	94.75
485.772	99.75
485.99	92.75
486.209	101.75
486.427	107.75
486.645	102.75
486.863	110.75
487.081	111.75
487.299	103.75
487.517	95.75
487.735	93.75
487.953	88.75
488.171	91.75
488.389	87.75
488.607	104.75
488.825	88.75
489.043	101.75
489.261	105.75
489.479	73.75
489.696	88.75
489.914	83.75
490.132	83.75
490.35	101.75
490.568	81.75
490.786	90.75
491.003	102.75
491.221	97.75
491.439	85.75
491.657	95.75
491.874	75.75
492.092	84.75
492.31	99.75
492.527	100.75
492.745	95.75
492.963	94.75
493.18	84.75
493.398	94.75
493.615	97.75
493.833	109.75
494.05	97.75
494.268	90.75
494.485	95.75
494.703	88.75
494.92	100.75
495.138	93.75
495.355	112.75
495.573	87.75
495.79	85.75
496.008	102.75
496.225	92.75
496.442	95.75
496.66	73.75
496.877	90.75
497.094	83.75
497.312	103.75
497.529	87.75
497.746	87.75
497.963	85.75
498.181	90.75
498.398	83.75
498.615	107.75
498.832	96.75
499.049	91.75
499.267	105.75
499.484	85.75
499.701	101.75
499.918	101.75
500.135	85.75
500.352	92.75
500.569	87.75
500.786	95.75
501.003	96.75
501.22	91.75
501.437	99.75
501.654	98.75
501.871	121.75
502.088	104.75
502.305	93.75
502.522	84.75
502.739	93.75
502.956	86.75
503.172	90.75
503.389	100.75
503.606	102.75
503.823	103.75
504.04	100.75
504.256	98.75
504.473	80.75
504.69	97.75
504.907	99.75
505.123	94.75
505.34	84.75
505.557	91.75
505.773	98.75
505.99	91.75
506.207	96.75
506.423	102.75
506.64	91.75
506.856	99.75
507.073	93.75
507.289	95.75
507.506	112.75
507.722	112.75
507.939	116.75
508.155	97.75
508.372	100.75
508.588	95.75
508.805	93.75
509.021	100.75
509.238	99.75
509.454	106.75
509.67	107.75
509.887	112.75
510.103	134.75
510.319	222.75
510.536	832.75
510.752	2653.75
510.968	743.75
511.184	186.75
511.401	113.75
511.617	100.75
511.833	93.75
512.049	90.75
512.265	97.75
512.481	87.75
512.698	98.75
512.914	73.75
513.13	104.75
513.346	107.75
513.562	99.75
513.778	94.75
513.994	109.75
514.21	116.75
