Data from Uncirc_1991_H10_HRD10591_00045.txt Node
Date: Wed Jan 03 11:50:47 EST 2024
User: Yrep
Spectrometer: HR+D1059
Trigger mode: 1
Integration Time (sec): 1.000000E-1
Scans to average: 1
Electric dark correction enabled: true
Nonlinearity correction enabled: false
Boxcar width: 0
XAxis mode: Wavelengths
Number of Pixels in Spectrum: 2048
>>>>>Begin Spectral Data<<<<<
223.165	-26.56
223.4	-26.56
223.635	-26.56
223.869	-24.56
224.104	-16.56
224.338	-20.56
224.573	-20.56
224.808	-7.56
225.042	-2.56
225.277	1.44
225.511	-5.56
225.746	9.44
225.98	26.44
226.215	15.44
226.449	0.44
226.683	3.44
226.918	33.44
227.152	34.44
227.387	30.44
227.621	34.44
227.856	41.44
228.09	41.44
228.324	37.44
228.559	52.44
228.793	57.44
229.027	62.44
229.262	66.44
229.496	66.44
229.73	89.44
229.964	85.44
230.199	73.44
230.433	66.44
230.667	76.44
230.901	78.44
231.136	83.44
231.37	81.44
231.604	82.44
231.838	70.44
232.072	74.44
232.306	68.44
232.541	70.44
232.775	79.44
233.009	76.44
233.243	71.44
233.477	77.44
233.711	81.44
233.945	75.44
234.179	81.44
234.413	88.44
234.647	95.44
234.881	77.44
235.115	70.44
235.349	84.44
235.583	78.44
235.817	94.44
236.051	78.44
236.285	74.44
236.519	67.44
236.753	66.44
236.987	78.44
237.221	80.44
237.455	85.44
237.689	83.44
237.922	74.44
238.156	77.44
238.39	76.44
238.624	81.44
238.858	69.44
239.091	88.44
239.325	66.44
239.559	80.44
239.793	81.44
240.027	71.44
240.26	73.44
240.494	75.44
240.728	80.44
240.961	83.44
241.195	82.44
241.429	76.44
241.662	84.44
241.896	67.44
242.13	80.44
242.363	82.44
242.597	83.44
242.83	62.44
243.064	85.44
243.298	74.44
243.531	75.44
243.765	76.44
243.998	82.44
244.232	90.44
244.465	83.44
244.699	93.44
244.932	76.44
245.166	85.44
245.399	76.44
245.633	81.44
245.866	80.44
246.099	88.44
246.333	59.44
246.566	83.44
246.8	58.44
247.033	73.44
247.266	77.44
247.5	76.44
247.733	90.44
247.966	79.44
248.2	84.44
248.433	69.44
248.666	85.44
248.899	90.44
249.133	80.44
249.366	97.44
249.599	89.44
249.832	88.44
250.066	66.44
250.299	77.44
250.532	70.44
250.765	73.44
250.998	65.44
251.231	79.44
251.465	81.44
251.698	82.44
251.931	74.44
252.164	83.44
252.397	78.44
252.63	82.44
252.863	66.44
253.096	78.44
253.329	86.44
253.562	84.44
253.795	68.44
254.028	79.44
254.261	71.44
254.494	83.44
254.727	91.44
254.96	85.44
255.193	80.44
255.426	65.44
255.659	88.44
255.892	81.44
256.124	87.44
256.357	91.44
256.59	79.44
256.823	81.44
257.056	83.44
257.289	83.44
257.521	73.44
257.754	84.44
257.987	73.44
258.22	88.44
258.452	82.44
258.685	74.44
258.918	74.44
259.151	77.44
259.383	77.44
259.616	70.44
259.849	76.44
260.081	91.44
260.314	79.44
260.547	80.44
260.779	76.44
261.012	84.44
261.244	82.44
261.477	85.44
261.71	92.44
261.942	97.44
262.175	106.44
262.407	86.44
262.64	90.44
262.872	82.44
263.105	75.44
263.337	92.44
263.57	84.44
263.802	90.44
264.035	93.44
264.267	84.44
264.499	82.44
264.732	77.44
264.964	86.44
265.197	78.44
265.429	90.44
265.661	70.44
265.894	76.44
266.126	86.44
266.358	89.44
266.591	82.44
266.823	88.44
267.055	96.44
267.287	69.44
267.52	96.44
267.752	77.44
267.984	85.44
268.216	86.44
268.448	88.44
268.681	77.44
268.913	91.44
269.145	74.44
269.377	81.44
269.609	79.44
269.841	84.44
270.073	97.44
270.306	89.44
270.538	76.44
270.77	82.44
271.002	84.44
271.234	81.44
271.466	79.44
271.698	82.44
271.93	89.44
272.162	80.44
272.394	94.44
272.626	79.44
272.858	81.44
273.09	80.44
273.322	84.44
273.553	74.44
273.785	93.44
274.017	87.44
274.249	78.44
274.481	75.44
274.713	84.44
274.945	90.44
275.176	83.44
275.408	78.44
275.64	86.44
275.872	85.44
276.104	91.44
276.335	108.44
276.567	99.44
276.799	104.44
277.031	103.44
277.262	97.44
277.494	90.44
277.726	76.44
277.957	94.44
278.189	85.44
278.421	89.44
278.652	92.44
278.884	77.44
279.115	82.44
279.347	92.44
279.579	93.44
279.81	76.44
280.042	94.44
280.273	88.44
280.505	88.44
280.736	84.44
280.968	84.44
281.199	77.44
281.431	89.44
281.662	86.44
281.894	87.44
282.125	88.44
282.356	129.44
282.588	123.44
282.819	99.44
283.051	74.44
283.282	90.44
283.513	81.44
283.745	70.44
283.976	76.44
284.207	92.44
284.439	77.44
284.67	81.44
284.901	78.44
285.132	75.44
285.364	81.44
285.595	72.44
285.826	83.44
286.057	80.44
286.288	85.44
286.52	87.44
286.751	81.44
286.982	81.44
287.213	95.44
287.444	76.44
287.675	87.44
287.906	84.44
288.138	93.44
288.369	78.44
288.6	97.44
288.831	91.44
289.062	83.44
289.293	98.44
289.524	84.44
289.755	86.44
289.986	84.44
290.217	85.44
290.448	78.44
290.679	81.44
290.91	100.44
291.141	66.44
291.371	79.44
291.602	90.44
291.833	86.44
292.064	103.44
292.295	74.44
292.526	91.44
292.757	81.44
292.987	85.44
293.218	82.44
293.449	103.44
293.68	90.44
293.91	87.44
294.141	94.44
294.372	108.44
294.603	94.44
294.833	88.44
295.064	82.44
295.295	82.44
295.525	85.44
295.756	98.44
295.987	103.44
296.217	138.44
296.448	127.44
296.679	92.44
296.909	90.44
297.14	94.44
297.37	93.44
297.601	86.44
297.831	81.44
298.062	99.44
298.292	92.44
298.523	80.44
298.753	82.44
298.984	92.44
299.214	85.44
299.445	89.44
299.675	94.44
299.905	96.44
300.136	101.44
300.366	76.44
300.597	80.44
300.827	97.44
301.057	86.44
301.288	100.44
301.518	102.44
301.748	83.44
301.979	96.44
302.209	88.44
302.439	82.44
302.669	79.44
302.9	70.44
303.13	98.44
303.36	94.44
303.59	87.44
303.82	98.44
304.051	99.44
304.281	84.44
304.511	82.44
304.741	103.44
304.971	100.44
305.201	101.44
305.431	93.44
305.661	89.44
305.891	85.44
306.121	106.44
306.352	101.44
306.582	104.44
306.812	85.44
307.042	69.44
307.272	81.44
307.502	93.44
307.731	99.44
307.961	105.44
308.191	88.44
308.421	84.44
308.651	90.44
308.881	92.44
309.111	106.44
309.341	107.44
309.571	106.44
309.8	114.44
310.03	96.44
310.26	88.44
310.49	99.44
310.72	114.44
310.949	106.44
311.179	115.44
311.409	81.44
311.639	95.44
311.868	92.44
312.098	90.44
312.328	91.44
312.557	101.44
312.787	110.44
313.017	94.44
313.246	90.44
313.476	94.44
313.706	92.44
313.935	100.44
314.165	79.44
314.394	95.44
314.624	104.44
314.853	99.44
315.083	83.44
315.312	94.44
315.542	95.44
315.771	81.44
316.001	88.44
316.23	86.44
316.46	80.44
316.689	97.44
316.919	107.44
317.148	101.44
317.377	92.44
317.607	99.44
317.836	91.44
318.065	79.44
318.295	81.44
318.524	81.44
318.753	91.44
318.983	107.44
319.212	93.44
319.441	114.44
319.67	110.44
319.9	94.44
320.129	94.44
320.358	100.44
320.587	83.44
320.816	96.44
321.046	96.44
321.275	97.44
321.504	98.44
321.733	107.44
321.962	97.44
322.191	108.44
322.42	99.44
322.649	110.44
322.878	111.44
323.108	118.44
323.337	129.44
323.566	136.44
323.795	156.44
324.024	219.44
324.253	428.44
324.482	940.44
324.71	1967.44
324.939	2627.44
325.168	954.44
325.397	271.44
325.626	158.44
325.855	132.44
326.084	123.44
326.313	115.44
326.542	142.44
326.77	237.44
326.999	526.44
327.228	1061.44
327.457	1969.44
327.686	1552.44
327.914	409.44
328.143	200.44
328.372	129.44
328.6	119.44
328.829	116.44
329.058	136.44
329.287	139.44
329.515	112.44
329.744	102.44
329.972	96.44
330.201	91.44
330.43	111.44
330.658	123.44
330.887	147.44
331.115	121.44
331.344	94.44
331.572	95.44
331.801	96.44
332.03	82.44
332.258	74.44
332.486	81.44
332.715	93.44
332.943	99.44
333.172	88.44
333.4	90.44
333.629	104.44
333.857	112.44
334.085	93.44
334.314	96.44
334.542	101.44
334.771	81.44
334.999	106.44
335.227	87.44
335.455	94.44
335.684	90.44
335.912	88.44
336.14	93.44
336.369	102.44
336.597	83.44
336.825	82.44
337.053	75.44
337.281	104.44
337.51	93.44
337.738	96.44
337.966	87.44
338.194	93.44
338.422	100.44
338.65	87.44
338.878	87.44
339.106	90.44
339.334	93.44
339.562	89.44
339.79	83.44
340.018	91.44
340.246	88.44
340.474	90.44
340.702	83.44
340.93	92.44
341.158	88.44
341.386	91.44
341.614	104.44
341.842	83.44
342.07	86.44
342.298	104.44
342.526	88.44
342.754	91.44
342.981	94.44
343.209	84.44
343.437	95.44
343.665	116.44
343.893	106.44
344.12	94.44
344.348	95.44
344.576	102.44
344.804	88.44
345.031	99.44
345.259	103.44
345.487	83.44
345.714	98.44
345.942	95.44
346.17	84.44
346.397	100.44
346.625	94.44
346.853	92.44
347.08	93.44
347.308	87.44
347.535	101.44
347.763	102.44
347.99	97.44
348.218	92.44
348.445	101.44
348.673	102.44
348.9	86.44
349.128	96.44
349.355	93.44
349.583	89.44
349.81	88.44
350.037	82.44
350.265	80.44
350.492	88.44
350.72	80.44
350.947	109.44
351.174	107.44
351.402	108.44
351.629	99.44
351.856	106.44
352.083	132.44
352.311	95.44
352.538	100.44
352.765	106.44
352.992	120.44
353.22	104.44
353.447	109.44
353.674	104.44
353.901	103.44
354.128	112.44
354.355	96.44
354.583	90.44
354.81	92.44
355.037	98.44
355.264	98.44
355.491	95.44
355.718	95.44
355.945	92.44
356.172	104.44
356.399	92.44
356.626	88.44
356.853	99.44
357.08	85.44
357.307	88.44
357.534	88.44
357.761	94.44
357.988	88.44
358.215	101.44
358.441	83.44
358.668	98.44
358.895	84.44
359.122	80.44
359.349	81.44
359.576	95.44
359.802	97.44
360.029	106.44
360.256	115.44
360.483	90.44
360.709	94.44
360.936	93.44
361.163	94.44
361.39	96.44
361.616	97.44
361.843	93.44
362.07	86.44
362.296	95.44
362.523	98.44
362.749	82.44
362.976	82.44
363.203	98.44
363.429	93.44
363.656	95.44
363.882	98.44
364.109	65.44
364.335	95.44
364.562	88.44
364.788	94.44
365.015	92.44
365.241	105.44
365.468	106.44
365.694	95.44
365.92	98.44
366.147	100.44
366.373	91.44
366.599	77.44
366.826	98.44
367.052	85.44
367.278	96.44
367.505	93.44
367.731	101.44
367.957	90.44
368.184	95.44
368.41	105.44
368.636	104.44
368.862	118.44
369.089	111.44
369.315	98.44
369.541	93.44
369.767	91.44
369.993	92.44
370.219	88.44
370.445	88.44
370.672	83.44
370.898	89.44
371.124	90.44
371.35	77.44
371.576	89.44
371.802	89.44
372.028	83.44
372.254	86.44
372.48	82.44
372.706	87.44
372.932	96.44
373.158	95.44
373.384	75.44
373.61	94.44
373.835	83.44
374.061	90.44
374.287	85.44
374.513	80.44
374.739	77.44
374.965	78.44
375.191	69.44
375.416	88.44
375.642	89.44
375.868	99.44
376.094	88.44
376.319	88.44
376.545	77.44
376.771	100.44
376.997	77.44
377.222	84.44
377.448	108.44
377.674	90.44
377.899	76.44
378.125	97.44
378.35	87.44
378.576	80.44
378.802	93.44
379.027	91.44
379.253	96.44
379.478	82.44
379.704	97.44
379.929	98.44
380.155	90.44
380.38	88.44
380.606	86.44
380.831	79.44
381.057	86.44
381.282	92.44
381.507	79.44
381.733	86.44
381.958	90.44
382.184	95.44
382.409	89.44
382.634	92.44
382.86	98.44
383.085	104.44
383.31	92.44
383.535	88.44
383.761	105.44
383.986	104.44
384.211	99.44
384.436	92.44
384.662	98.44
384.887	85.44
385.112	89.44
385.337	105.44
385.562	108.44
385.787	106.44
386.013	107.44
386.238	112.44
386.463	96.44
386.688	95.44
386.913	95.44
387.138	101.44
387.363	97.44
387.588	99.44
387.813	98.44
388.038	92.44
388.263	104.44
388.488	100.44
388.713	97.44
388.938	83.44
389.163	91.44
389.387	102.44
389.612	93.44
389.837	88.44
390.062	81.44
390.287	92.44
390.512	86.44
390.736	82.44
390.961	98.44
391.186	96.44
391.411	103.44
391.636	85.44
391.86	84.44
392.085	95.44
392.31	73.44
392.534	88.44
392.759	88.44
392.984	94.44
393.208	88.44
393.433	64.44
393.658	84.44
393.882	71.44
394.107	76.44
394.331	78.44
394.556	92.44
394.78	99.44
395.005	91.44
395.229	102.44
395.454	70.44
395.678	81.44
395.903	100.44
396.127	90.44
396.352	85.44
396.576	94.44
396.801	81.44
397.025	72.44
397.249	84.44
397.474	92.44
397.698	79.44
397.922	83.44
398.147	78.44
398.371	86.44
398.595	80.44
398.82	88.44
399.044	87.44
399.268	94.44
399.492	92.44
399.717	91.44
399.941	91.44
400.165	90.44
400.389	102.44
400.613	89.44
400.837	96.44
401.062	100.44
401.286	93.44
401.51	98.44
401.734	81.44
401.958	91.44
402.182	130.44
402.406	172.44
402.63	98.44
402.854	99.44
403.078	92.44
403.302	81.44
403.526	86.44
403.75	87.44
403.974	98.44
404.198	93.44
404.422	87.44
404.645	97.44
404.869	89.44
405.093	97.44
405.317	104.44
405.541	100.44
405.765	121.44
405.988	118.44
406.212	163.44
406.436	222.44
406.66	150.44
406.883	101.44
407.107	101.44
407.331	99.44
407.555	97.44
407.778	100.44
408.002	92.44
408.226	81.44
408.449	81.44
408.673	88.44
408.896	95.44
409.12	87.44
409.344	92.44
409.567	85.44
409.791	82.44
410.014	105.44
410.238	101.44
410.461	89.44
410.685	104.44
410.908	100.44
411.132	100.44
411.355	100.44
411.578	91.44
411.802	83.44
412.025	79.44
412.249	88.44
412.472	85.44
412.695	89.44
412.919	83.44
413.142	85.44
413.365	71.44
413.589	84.44
413.812	89.44
414.035	93.44
414.258	92.44
414.482	91.44
414.705	99.44
414.928	99.44
415.151	102.44
415.374	88.44
415.597	100.44
415.821	96.44
416.044	83.44
416.267	82.44
416.49	90.44
416.713	84.44
416.936	93.44
417.159	86.44
417.382	90.44
417.605	76.44
417.828	91.44
418.051	76.44
418.274	96.44
418.497	95.44
418.72	72.44
418.943	86.44
419.166	88.44
419.389	73.44
419.611	71.44
419.834	78.44
420.057	90.44
420.28	86.44
420.503	79.44
420.726	80.44
420.948	92.44
421.171	89.44
421.394	79.44
421.617	93.44
421.839	85.44
422.062	94.44
422.285	98.44
422.507	98.44
422.73	107.44
422.953	88.44
423.175	82.44
423.398	82.44
423.621	92.44
423.843	87.44
424.066	78.44
424.288	81.44
424.511	82.44
424.733	100.44
424.956	115.44
425.178	102.44
425.401	112.44
425.623	105.44
425.846	102.44
426.068	100.44
426.291	95.44
426.513	92.44
426.735	104.44
426.958	91.44
427.18	101.44
427.402	139.44
427.625	164.44
427.847	117.44
428.069	104.44
428.292	92.44
428.514	82.44
428.736	85.44
428.958	74.44
429.181	93.44
429.403	86.44
429.625	72.44
429.847	89.44
430.069	104.44
430.292	93.44
430.514	91.44
430.736	89.44
430.958	58.44
431.18	79.44
431.402	92.44
431.624	89.44
431.846	75.44
432.068	85.44
432.29	90.44
432.512	96.44
432.734	86.44
432.956	92.44
433.178	87.44
433.4	93.44
433.622	88.44
433.844	88.44
434.066	89.44
434.287	88.44
434.509	94.44
434.731	94.44
434.953	87.44
435.175	76.44
435.397	84.44
435.618	96.44
435.84	93.44
436.062	120.44
436.284	123.44
436.505	98.44
436.727	97.44
436.949	84.44
437.17	88.44
437.392	91.44
437.614	85.44
437.835	96.44
438.057	122.44
438.278	102.44
438.5	110.44
438.721	138.44
438.943	94.44
439.165	94.44
439.386	95.44
439.608	80.44
439.829	103.44
440.05	133.44
440.272	144.44
440.493	104.44
440.715	91.44
440.936	83.44
441.158	93.44
441.379	94.44
441.6	91.44
441.822	90.44
442.043	108.44
442.264	110.44
442.486	95.44
442.707	99.44
442.928	96.44
443.149	126.44
443.371	111.44
443.592	105.44
443.813	117.44
444.034	100.44
444.255	82.44
444.476	92.44
444.698	89.44
444.919	96.44
445.14	133.44
445.361	136.44
445.582	117.44
445.803	129.44
446.024	141.44
446.245	132.44
446.466	109.44
446.687	90.44
446.908	86.44
447.129	89.44
447.35	94.44
447.571	78.44
447.792	105.44
448.013	93.44
448.234	101.44
448.455	95.44
448.675	107.44
448.896	117.44
449.117	103.44
449.338	88.44
449.559	145.44
449.779	132.44
450	96.44
450.221	83.44
450.442	85.44
450.662	99.44
450.883	102.44
451.104	106.44
451.324	85.44
451.545	88.44
451.766	91.44
451.986	70.44
452.207	105.44
452.428	83.44
452.648	95.44
452.869	102.44
453.089	103.44
453.31	121.44
453.53	98.44
453.751	88.44
453.971	119.44
454.192	117.44
454.412	82.44
454.633	108.44
454.853	94.44
455.073	86.44
455.294	88.44
455.514	99.44
455.734	92.44
455.955	86.44
456.175	89.44
456.395	91.44
456.616	91.44
456.836	91.44
457.056	85.44
457.276	86.44
457.497	86.44
457.717	80.44
457.937	78.44
458.157	76.44
458.377	86.44
458.598	108.44
458.818	170.44
459.038	162.44
459.258	107.44
459.478	91.44
459.698	78.44
459.918	75.44
460.138	83.44
460.358	85.44
460.578	76.44
460.798	90.44
461.018	97.44
461.238	89.44
461.458	84.44
461.678	80.44
461.898	89.44
462.118	88.44
462.338	77.44
462.558	80.44
462.777	83.44
462.997	83.44
463.217	77.44
463.437	79.44
463.657	92.44
463.876	81.44
464.096	91.44
464.316	88.44
464.536	86.44
464.755	111.44
464.975	101.44
465.195	156.44
465.414	162.44
465.634	112.44
465.854	73.44
466.073	80.44
466.293	83.44
466.512	75.44
466.732	74.44
466.951	91.44
467.171	98.44
467.391	93.44
467.61	101.44
467.829	101.44
468.049	97.44
468.268	91.44
468.488	91.44
468.707	91.44
468.927	94.44
469.146	79.44
469.365	82.44
469.585	91.44
469.804	82.44
470.023	98.44
470.243	93.44
470.462	101.44
470.681	117.44
470.901	82.44
471.12	74.44
471.339	87.44
471.558	81.44
471.777	80.44
471.997	83.44
472.216	85.44
472.435	100.44
472.654	79.44
472.873	90.44
473.092	92.44
473.311	89.44
473.53	90.44
473.749	72.44
473.968	92.44
474.187	96.44
474.406	81.44
474.625	85.44
474.844	93.44
475.063	94.44
475.282	93.44
475.501	102.44
475.72	96.44
475.939	80.44
476.158	68.44
476.377	88.44
476.596	89.44
476.814	84.44
477.033	92.44
477.252	99.44
477.471	87.44
477.69	82.44
477.908	79.44
478.127	92.44
478.346	84.44
478.564	105.44
478.783	113.44
479.002	84.44
479.22	84.44
479.439	106.44
479.658	94.44
479.876	86.44
480.095	86.44
480.313	74.44
480.532	92.44
480.751	105.44
480.969	87.44
481.188	90.44
481.406	94.44
481.624	77.44
481.843	92.44
482.061	92.44
482.28	83.44
482.498	91.44
482.717	76.44
482.935	86.44
483.153	75.44
483.372	85.44
483.59	79.44
483.808	80.44
484.027	83.44
484.245	84.44
484.463	92.44
484.681	96.44
484.9	87.44
485.118	109.44
485.336	93.44
485.554	102.44
485.772	100.44
485.99	97.44
486.209	88.44
486.427	101.44
486.645	94.44
486.863	101.44
487.081	98.44
487.299	104.44
487.517	89.44
487.735	96.44
487.953	91.44
488.171	80.44
488.389	101.44
488.607	93.44
488.825	98.44
489.043	94.44
489.261	95.44
489.479	101.44
489.696	87.44
489.914	90.44
490.132	85.44
490.35	77.44
490.568	73.44
490.786	104.44
491.003	94.44
491.221	89.44
491.439	87.44
491.657	98.44
491.874	94.44
492.092	88.44
492.31	99.44
492.527	74.44
492.745	98.44
492.963	89.44
493.18	90.44
493.398	92.44
493.615	80.44
493.833	83.44
494.05	90.44
494.268	99.44
494.485	88.44
494.703	83.44
494.92	102.44
495.138	76.44
495.355	103.44
495.573	91.44
495.79	105.44
496.008	83.44
496.225	88.44
496.442	70.44
496.66	82.44
496.877	78.44
497.094	97.44
497.312	83.44
497.529	85.44
497.746	81.44
497.963	96.44
498.181	79.44
498.398	97.44
498.615	96.44
498.832	103.44
499.049	86.44
499.267	96.44
499.484	96.44
499.701	96.44
499.918	96.44
500.135	85.44
500.352	83.44
500.569	86.44
500.786	92.44
501.003	89.44
501.22	70.44
501.437	81.44
501.654	101.44
501.871	105.44
502.088	92.44
502.305	89.44
502.522	94.44
502.739	102.44
502.956	86.44
503.172	89.44
503.389	95.44
503.606	113.44
503.823	99.44
504.04	95.44
504.256	86.44
504.473	90.44
504.69	85.44
504.907	80.44
505.123	105.44
505.34	85.44
505.557	78.44
505.773	84.44
505.99	78.44
506.207	91.44
506.423	92.44
506.64	98.44
506.856	103.44
507.073	84.44
507.289	81.44
507.506	91.44
507.722	117.44
507.939	123.44
508.155	108.44
508.372	94.44
508.588	85.44
508.805	85.44
509.021	93.44
509.238	101.44
509.454	89.44
509.67	105.44
509.887	102.44
510.103	127.44
510.319	234.44
510.536	779.44
510.752	2487.44
510.968	673.44
511.184	155.44
511.401	102.44
511.617	89.44
511.833	98.44
512.049	101.44
512.265	86.44
512.481	90.44
512.698	79.44
512.914	87.44
513.13	89.44
513.346	87.44
513.562	91.44
513.778	86.44
513.994	84.44
514.21	101.44
514.426	130.44
514.642	138.44
514.858	119.44
515.074	162.44
515.29	485.44
515.506	1600.44
515.721	560.44
515.937	160.44
516.153	101.44
