Data from Uncirc_1991_H10_HRD10591_00014.txt Node
Date: Wed Jan 03 11:50:41 EST 2024
User: Yrep
Spectrometer: HR+D1059
Trigger mode: 1
Integration Time (sec): 1.000000E-1
Scans to average: 1
Electric dark correction enabled: true
Nonlinearity correction enabled: false
Boxcar width: 0
XAxis mode: Wavelengths
Number of Pixels in Spectrum: 2048
>>>>>Begin Spectral Data<<<<<
223.165	-12.88
223.4	-12.88
223.635	-12.88
223.869	-17.88
224.104	-16.88
224.338	-17.88
224.573	-21.88
224.808	-5.88
225.042	-6.88
225.277	1.12
225.511	-0.88
225.746	4.12
225.98	14.12
226.215	6.12
226.449	20.12
226.683	13.12
226.918	19.12
227.152	23.12
227.387	27.12
227.621	43.12
227.856	36.12
228.09	59.12
228.324	37.12
228.559	59.12
228.793	60.12
229.027	55.12
229.262	62.12
229.496	60.12
229.73	76.12
229.964	91.12
230.199	80.12
230.433	79.12
230.667	72.12
230.901	81.12
231.136	85.12
231.37	83.12
231.604	77.12
231.838	79.12
232.072	83.12
232.306	68.12
232.541	83.12
232.775	71.12
233.009	90.12
233.243	74.12
233.477	104.12
233.711	71.12
233.945	88.12
234.179	80.12
234.413	95.12
234.647	84.12
234.881	87.12
235.115	72.12
235.349	85.12
235.583	92.12
235.817	90.12
236.051	76.12
236.285	86.12
236.519	79.12
236.753	76.12
236.987	86.12
237.221	90.12
237.455	87.12
237.689	87.12
237.922	88.12
238.156	87.12
238.39	76.12
238.624	90.12
238.858	67.12
239.091	70.12
239.325	74.12
239.559	99.12
239.793	74.12
240.027	79.12
240.26	78.12
240.494	82.12
240.728	67.12
240.961	72.12
241.195	80.12
241.429	82.12
241.662	79.12
241.896	70.12
242.13	78.12
242.363	81.12
242.597	87.12
242.83	86.12
243.064	82.12
243.298	74.12
243.531	71.12
243.765	74.12
243.998	70.12
244.232	77.12
244.465	94.12
244.699	85.12
244.932	78.12
245.166	67.12
245.399	78.12
245.633	78.12
245.866	96.12
246.099	79.12
246.333	80.12
246.566	78.12
246.8	73.12
247.033	73.12
247.266	75.12
247.5	64.12
247.733	74.12
247.966	76.12
248.2	84.12
248.433	84.12
248.666	71.12
248.899	82.12
249.133	78.12
249.366	78.12
249.599	103.12
249.832	90.12
250.066	89.12
250.299	92.12
250.532	86.12
250.765	75.12
250.998	76.12
251.231	82.12
251.465	72.12
251.698	76.12
251.931	72.12
252.164	77.12
252.397	83.12
252.63	75.12
252.863	80.12
253.096	82.12
253.329	80.12
253.562	82.12
253.795	95.12
254.028	73.12
254.261	95.12
254.494	88.12
254.727	86.12
254.96	79.12
255.193	76.12
255.426	73.12
255.659	78.12
255.892	75.12
256.124	91.12
256.357	79.12
256.59	63.12
256.823	69.12
257.056	96.12
257.289	90.12
257.521	86.12
257.754	78.12
257.987	80.12
258.22	86.12
258.452	99.12
258.685	72.12
258.918	96.12
259.151	87.12
259.383	83.12
259.616	81.12
259.849	68.12
260.081	86.12
260.314	66.12
260.547	80.12
260.779	88.12
261.012	88.12
261.244	86.12
261.477	95.12
261.71	99.12
261.942	99.12
262.175	103.12
262.407	84.12
262.64	87.12
262.872	88.12
263.105	84.12
263.337	72.12
263.57	99.12
263.802	78.12
264.035	82.12
264.267	78.12
264.499	84.12
264.732	85.12
264.964	92.12
265.197	103.12
265.429	80.12
265.661	71.12
265.894	97.12
266.126	88.12
266.358	92.12
266.591	83.12
266.823	76.12
267.055	70.12
267.287	76.12
267.52	84.12
267.752	86.12
267.984	80.12
268.216	90.12
268.448	92.12
268.681	97.12
268.913	81.12
269.145	85.12
269.377	92.12
269.609	93.12
269.841	87.12
270.073	80.12
270.306	99.12
270.538	102.12
270.77	92.12
271.002	86.12
271.234	91.12
271.466	100.12
271.698	81.12
271.93	74.12
272.162	79.12
272.394	81.12
272.626	91.12
272.858	93.12
273.09	98.12
273.322	78.12
273.553	81.12
273.785	81.12
274.017	88.12
274.249	78.12
274.481	86.12
274.713	83.12
274.945	77.12
275.176	91.12
275.408	86.12
275.64	75.12
275.872	87.12
276.104	78.12
276.335	88.12
276.567	97.12
276.799	104.12
277.031	112.12
277.262	90.12
277.494	87.12
277.726	83.12
277.957	70.12
278.189	82.12
278.421	95.12
278.652	80.12
278.884	75.12
279.115	82.12
279.347	94.12
279.579	84.12
279.81	89.12
280.042	95.12
280.273	90.12
280.505	78.12
280.736	78.12
280.968	94.12
281.199	82.12
281.431	84.12
281.662	96.12
281.894	85.12
282.125	89.12
282.356	113.12
282.588	142.12
282.819	117.12
283.051	107.12
283.282	77.12
283.513	92.12
283.745	79.12
283.976	76.12
284.207	94.12
284.439	95.12
284.67	87.12
284.901	87.12
285.132	91.12
285.364	82.12
285.595	87.12
285.826	71.12
286.057	87.12
286.288	92.12
286.52	86.12
286.751	84.12
286.982	91.12
287.213	90.12
287.444	104.12
287.675	86.12
287.906	83.12
288.138	90.12
288.369	96.12
288.6	80.12
288.831	90.12
289.062	90.12
289.293	88.12
289.524	93.12
289.755	82.12
289.986	86.12
290.217	93.12
290.448	98.12
290.679	96.12
290.91	98.12
291.141	86.12
291.371	90.12
291.602	84.12
291.833	87.12
292.064	84.12
292.295	92.12
292.526	97.12
292.757	86.12
292.987	100.12
293.218	81.12
293.449	93.12
293.68	84.12
293.91	95.12
294.141	97.12
294.372	81.12
294.603	80.12
294.833	74.12
295.064	94.12
295.295	91.12
295.525	103.12
295.756	90.12
295.987	100.12
296.217	132.12
296.448	122.12
296.679	89.12
296.909	87.12
297.14	96.12
297.37	92.12
297.601	93.12
297.831	92.12
298.062	96.12
298.292	92.12
298.523	85.12
298.753	91.12
298.984	92.12
299.214	89.12
299.445	91.12
299.675	91.12
299.905	86.12
300.136	76.12
300.366	89.12
300.597	94.12
300.827	83.12
301.057	92.12
301.288	96.12
301.518	82.12
301.748	84.12
301.979	103.12
302.209	83.12
302.439	98.12
302.669	100.12
302.9	91.12
303.13	99.12
303.36	87.12
303.59	98.12
303.82	105.12
304.051	72.12
304.281	96.12
304.511	93.12
304.741	82.12
304.971	91.12
305.201	68.12
305.431	91.12
305.661	92.12
305.891	100.12
306.121	94.12
306.352	94.12
306.582	89.12
306.812	102.12
307.042	109.12
307.272	89.12
307.502	104.12
307.731	90.12
307.961	87.12
308.191	95.12
308.421	94.12
308.651	88.12
308.881	96.12
309.111	79.12
309.341	69.12
309.571	92.12
309.8	98.12
310.03	96.12
310.26	88.12
310.49	95.12
310.72	92.12
310.949	103.12
311.179	99.12
311.409	96.12
311.639	101.12
311.868	84.12
312.098	92.12
312.328	97.12
312.557	78.12
312.787	83.12
313.017	94.12
313.246	101.12
313.476	100.12
313.706	94.12
313.935	79.12
314.165	100.12
314.394	113.12
314.624	98.12
314.853	94.12
315.083	104.12
315.312	98.12
315.542	100.12
315.771	80.12
316.001	87.12
316.23	100.12
316.46	80.12
316.689	90.12
316.919	84.12
317.148	98.12
317.377	94.12
317.607	97.12
317.836	100.12
318.065	98.12
318.295	92.12
318.524	100.12
318.753	87.12
318.983	94.12
319.212	100.12
319.441	103.12
319.67	114.12
319.9	111.12
320.129	94.12
320.358	102.12
320.587	91.12
320.816	103.12
321.046	104.12
321.275	85.12
321.504	96.12
321.733	100.12
321.962	96.12
322.191	102.12
322.42	104.12
322.649	113.12
322.878	119.12
323.108	113.12
323.337	123.12
323.566	135.12
323.795	158.12
324.024	195.12
324.253	382.12
324.482	828.12
324.71	1769.12
324.939	2390.12
325.168	859.12
325.397	257.12
325.626	142.12
325.855	131.12
326.084	139.12
326.313	131.12
326.542	149.12
326.77	235.12
326.999	464.12
327.228	978.12
327.457	1874.12
327.686	1516.12
327.914	390.12
328.143	176.12
328.372	139.12
328.6	122.12
328.829	118.12
329.058	131.12
329.287	125.12
329.515	100.12
329.744	87.12
329.972	104.12
330.201	102.12
330.43	114.12
330.658	104.12
330.887	135.12
331.115	118.12
331.344	95.12
331.572	103.12
331.801	104.12
332.03	106.12
332.258	102.12
332.486	95.12
332.715	100.12
332.943	91.12
333.172	105.12
333.4	114.12
333.629	95.12
333.857	109.12
334.085	98.12
334.314	90.12
334.542	107.12
334.771	97.12
334.999	103.12
335.227	99.12
335.455	102.12
335.684	109.12
335.912	93.12
336.14	99.12
336.369	114.12
336.597	98.12
336.825	97.12
337.053	88.12
337.281	94.12
337.51	84.12
337.738	102.12
337.966	107.12
338.194	100.12
338.422	98.12
338.65	91.12
338.878	97.12
339.106	84.12
339.334	94.12
339.562	86.12
339.79	100.12
340.018	103.12
340.246	103.12
340.474	94.12
340.702	94.12
340.93	96.12
341.158	89.12
341.386	85.12
341.614	104.12
341.842	96.12
342.07	83.12
342.298	87.12
342.526	84.12
342.754	81.12
342.981	90.12
343.209	92.12
343.437	113.12
343.665	98.12
343.893	100.12
344.12	94.12
344.348	93.12
344.576	86.12
344.804	99.12
345.031	95.12
345.259	98.12
345.487	101.12
345.714	106.12
345.942	101.12
346.17	88.12
346.397	90.12
346.625	89.12
346.853	82.12
347.08	85.12
347.308	94.12
347.535	100.12
347.763	98.12
347.99	93.12
348.218	100.12
348.445	106.12
348.673	99.12
348.9	87.12
349.128	88.12
349.355	93.12
349.583	105.12
349.81	94.12
350.037	97.12
350.265	94.12
350.492	89.12
350.72	92.12
350.947	90.12
351.174	102.12
351.402	99.12
351.629	96.12
351.856	98.12
352.083	102.12
352.311	113.12
352.538	105.12
352.765	94.12
352.992	105.12
353.22	95.12
353.447	116.12
353.674	111.12
353.901	103.12
354.128	83.12
354.355	95.12
354.583	123.12
354.81	99.12
355.037	100.12
355.264	110.12
355.491	76.12
355.718	92.12
355.945	103.12
356.172	94.12
356.399	92.12
356.626	113.12
356.853	99.12
357.08	89.12
357.307	93.12
357.534	90.12
357.761	98.12
357.988	89.12
358.215	86.12
358.441	86.12
358.668	82.12
358.895	87.12
359.122	70.12
359.349	82.12
359.576	101.12
359.802	95.12
360.029	100.12
360.256	119.12
360.483	91.12
360.709	79.12
360.936	96.12
361.163	98.12
361.39	100.12
361.616	109.12
361.843	101.12
362.07	97.12
362.296	98.12
362.523	93.12
362.749	94.12
362.976	94.12
363.203	94.12
363.429	93.12
363.656	80.12
363.882	92.12
364.109	105.12
364.335	101.12
364.562	97.12
364.788	80.12
365.015	106.12
365.241	94.12
365.468	94.12
365.694	108.12
365.92	93.12
366.147	89.12
366.373	87.12
366.599	71.12
366.826	95.12
367.052	90.12
367.278	90.12
367.505	103.12
367.731	89.12
367.957	82.12
368.184	97.12
368.41	91.12
368.636	95.12
368.862	117.12
369.089	115.12
369.315	103.12
369.541	85.12
369.767	97.12
369.993	89.12
370.219	104.12
370.445	87.12
370.672	76.12
370.898	91.12
371.124	99.12
371.35	86.12
371.576	78.12
371.802	94.12
372.028	85.12
372.254	100.12
372.48	90.12
372.706	82.12
372.932	86.12
373.158	81.12
373.384	102.12
373.61	96.12
373.835	88.12
374.061	93.12
374.287	85.12
374.513	85.12
374.739	96.12
374.965	91.12
375.191	91.12
375.416	81.12
375.642	82.12
375.868	86.12
376.094	95.12
376.319	85.12
376.545	72.12
376.771	78.12
376.997	98.12
377.222	86.12
377.448	92.12
377.674	97.12
377.899	93.12
378.125	92.12
378.35	85.12
378.576	87.12
378.802	83.12
379.027	98.12
379.253	95.12
379.478	83.12
379.704	90.12
379.929	98.12
380.155	101.12
380.38	85.12
380.606	107.12
380.831	94.12
381.057	90.12
381.282	85.12
381.507	102.12
381.733	91.12
381.958	83.12
382.184	99.12
382.409	92.12
382.634	88.12
382.86	114.12
383.085	94.12
383.31	110.12
383.535	93.12
383.761	94.12
383.986	100.12
384.211	90.12
384.436	80.12
384.662	95.12
384.887	103.12
385.112	96.12
385.337	98.12
385.562	99.12
385.787	98.12
386.013	102.12
386.238	114.12
386.463	101.12
386.688	87.12
386.913	93.12
387.138	99.12
387.363	102.12
387.588	120.12
387.813	88.12
388.038	94.12
388.263	119.12
388.488	101.12
388.713	101.12
388.938	100.12
389.163	100.12
389.387	86.12
389.612	98.12
389.837	84.12
390.062	94.12
390.287	90.12
390.512	89.12
390.736	83.12
390.961	106.12
391.186	108.12
391.411	95.12
391.636	87.12
391.86	87.12
392.085	99.12
392.31	75.12
392.534	79.12
392.759	98.12
392.984	80.12
393.208	84.12
393.433	96.12
393.658	85.12
393.882	80.12
394.107	81.12
394.331	92.12
394.556	78.12
394.78	76.12
395.005	80.12
395.229	91.12
395.454	80.12
395.678	91.12
395.903	94.12
396.127	102.12
396.352	110.12
396.576	88.12
396.801	86.12
397.025	84.12
397.249	87.12
397.474	70.12
397.698	88.12
397.922	97.12
398.147	76.12
398.371	84.12
398.595	72.12
398.82	95.12
399.044	92.12
399.268	93.12
399.492	81.12
399.717	92.12
399.941	96.12
400.165	117.12
400.389	106.12
400.613	103.12
400.837	98.12
401.062	94.12
401.286	75.12
401.51	93.12
401.734	88.12
401.958	99.12
402.182	126.12
402.406	146.12
402.63	110.12
402.854	91.12
403.078	93.12
403.302	89.12
403.526	93.12
403.75	81.12
403.974	74.12
404.198	86.12
404.422	96.12
404.645	99.12
404.869	70.12
405.093	109.12
405.317	90.12
405.541	102.12
405.765	95.12
405.988	116.12
406.212	154.12
406.436	210.12
406.66	135.12
406.883	96.12
407.107	91.12
407.331	107.12
407.555	101.12
407.778	114.12
408.002	99.12
408.226	88.12
408.449	86.12
408.673	76.12
408.896	98.12
409.12	97.12
409.344	88.12
409.567	101.12
409.791	104.12
410.014	99.12
410.238	80.12
410.461	101.12
410.685	90.12
410.908	98.12
411.132	91.12
411.355	111.12
411.578	93.12
411.802	100.12
412.025	85.12
412.249	85.12
412.472	81.12
412.695	87.12
412.919	87.12
413.142	69.12
413.365	85.12
413.589	92.12
413.812	86.12
414.035	94.12
414.258	79.12
414.482	101.12
414.705	88.12
414.928	95.12
415.151	103.12
415.374	100.12
415.597	103.12
415.821	92.12
416.044	85.12
416.267	86.12
416.49	87.12
416.713	79.12
416.936	102.12
417.159	94.12
417.382	84.12
417.605	87.12
417.828	92.12
418.051	100.12
418.274	93.12
418.497	96.12
418.72	87.12
418.943	103.12
419.166	82.12
419.389	91.12
419.611	82.12
419.834	88.12
420.057	86.12
420.28	86.12
420.503	106.12
420.726	97.12
420.948	100.12
421.171	101.12
421.394	92.12
421.617	88.12
421.839	98.12
422.062	87.12
422.285	82.12
422.507	103.12
422.73	95.12
422.953	95.12
423.175	80.12
423.398	77.12
423.621	85.12
423.843	82.12
424.066	74.12
424.288	88.12
424.511	95.12
424.733	84.12
424.956	117.12
425.178	110.12
425.401	99.12
425.623	106.12
425.846	105.12
426.068	84.12
426.291	84.12
426.513	84.12
426.735	86.12
426.958	110.12
427.18	109.12
427.402	139.12
427.625	165.12
427.847	116.12
428.069	98.12
428.292	86.12
428.514	82.12
428.736	82.12
428.958	85.12
429.181	87.12
429.403	94.12
429.625	89.12
429.847	90.12
430.069	101.12
430.292	87.12
430.514	82.12
430.736	83.12
430.958	78.12
431.18	84.12
431.402	78.12
431.624	91.12
431.846	91.12
432.068	78.12
432.29	78.12
432.512	107.12
432.734	86.12
432.956	112.12
433.178	93.12
433.4	99.12
433.622	96.12
433.844	85.12
434.066	90.12
434.287	98.12
434.509	85.12
434.731	86.12
434.953	99.12
435.175	90.12
435.397	96.12
435.618	108.12
435.84	102.12
436.062	152.12
436.284	110.12
436.505	120.12
436.727	108.12
436.949	82.12
437.17	82.12
437.392	81.12
437.614	93.12
437.835	102.12
438.057	130.12
438.278	115.12
438.5	107.12
438.721	141.12
438.943	112.12
439.165	91.12
439.386	97.12
439.608	99.12
439.829	107.12
440.05	142.12
440.272	152.12
440.493	107.12
440.715	96.12
440.936	85.12
441.158	86.12
441.379	86.12
441.6	91.12
441.822	84.12
442.043	103.12
442.264	114.12
442.486	115.12
442.707	91.12
442.928	104.12
443.149	135.12
443.371	144.12
443.592	112.12
443.813	117.12
444.034	131.12
444.255	89.12
444.476	84.12
444.698	90.12
444.919	87.12
445.14	134.12
445.361	115.12
445.582	133.12
445.803	138.12
446.024	154.12
446.245	140.12
446.466	128.12
446.687	100.12
446.908	91.12
447.129	91.12
447.35	93.12
447.571	90.12
447.792	90.12
448.013	105.12
448.234	109.12
448.455	116.12
448.675	127.12
448.896	125.12
449.117	98.12
449.338	111.12
449.559	136.12
449.779	157.12
450	94.12
450.221	82.12
450.442	95.12
450.662	98.12
450.883	104.12
451.104	115.12
451.324	106.12
451.545	102.12
451.766	93.12
451.986	91.12
452.207	83.12
452.428	99.12
452.648	99.12
452.869	113.12
453.089	114.12
453.31	121.12
453.53	107.12
453.751	98.12
453.971	115.12
454.192	100.12
454.412	93.12
454.633	88.12
454.853	79.12
455.073	103.12
455.294	97.12
455.514	118.12
455.734	98.12
455.955	97.12
456.175	81.12
456.395	85.12
456.616	86.12
456.836	105.12
457.056	84.12
457.276	96.12
457.497	63.12
457.717	101.12
457.937	87.12
458.157	92.12
458.377	96.12
458.598	113.12
458.818	141.12
459.038	146.12
459.258	111.12
459.478	90.12
459.698	70.12
459.918	107.12
460.138	90.12
460.358	88.12
460.578	93.12
460.798	102.12
461.018	89.12
461.238	92.12
461.458	86.12
461.678	79.12
461.898	91.12
462.118	89.12
462.338	75.12
462.558	89.12
462.777	89.12
462.997	86.12
463.217	91.12
463.437	87.12
463.657	101.12
463.876	99.12
464.096	79.12
464.316	94.12
464.536	100.12
464.755	91.12
464.975	105.12
465.195	152.12
465.414	156.12
465.634	83.12
465.854	85.12
466.073	86.12
466.293	100.12
466.512	88.12
466.732	85.12
466.951	86.12
467.171	95.12
467.391	98.12
467.61	102.12
467.829	99.12
468.049	91.12
468.268	83.12
468.488	91.12
468.707	83.12
468.927	80.12
469.146	91.12
469.365	90.12
469.585	79.12
469.804	100.12
470.023	105.12
470.243	97.12
470.462	98.12
470.681	101.12
470.901	85.12
471.12	82.12
471.339	90.12
471.558	86.12
471.777	98.12
471.997	83.12
472.216	84.12
472.435	99.12
472.654	87.12
472.873	88.12
473.092	85.12
473.311	92.12
473.53	86.12
473.749	85.12
473.968	93.12
474.187	106.12
474.406	102.12
474.625	94.12
474.844	84.12
475.063	102.12
475.282	86.12
475.501	92.12
475.72	84.12
475.939	87.12
476.158	81.12
476.377	80.12
476.596	97.12
476.814	90.12
477.033	95.12
477.252	93.12
477.471	91.12
477.69	98.12
477.908	79.12
478.127	83.12
478.346	79.12
478.564	87.12
478.783	95.12
479.002	98.12
479.22	87.12
479.439	94.12
479.658	99.12
479.876	91.12
480.095	86.12
480.313	97.12
480.532	108.12
480.751	80.12
480.969	87.12
481.188	100.12
481.406	93.12
481.624	100.12
481.843	77.12
482.061	82.12
482.28	97.12
482.498	92.12
482.717	90.12
482.935	84.12
483.153	89.12
483.372	94.12
483.59	76.12
483.808	95.12
484.027	91.12
484.245	95.12
484.463	100.12
484.681	103.12
484.9	98.12
485.118	92.12
485.336	99.12
485.554	95.12
485.772	91.12
485.99	110.12
486.209	100.12
486.427	108.12
486.645	115.12
486.863	103.12
487.081	90.12
487.299	108.12
487.517	99.12
487.735	103.12
487.953	116.12
488.171	90.12
488.389	98.12
488.607	110.12
488.825	95.12
489.043	84.12
489.261	104.12
489.479	89.12
489.696	88.12
489.914	94.12
490.132	88.12
490.35	87.12
490.568	95.12
490.786	86.12
491.003	90.12
491.221	78.12
491.439	87.12
491.657	95.12
491.874	107.12
492.092	92.12
492.31	69.12
492.527	88.12
492.745	84.12
492.963	84.12
493.18	100.12
493.398	103.12
493.615	110.12
493.833	80.12
494.05	86.12
494.268	93.12
494.485	95.12
494.703	103.12
494.92	82.12
495.138	103.12
495.355	94.12
495.573	104.12
495.79	95.12
496.008	103.12
496.225	94.12
496.442	84.12
496.66	97.12
496.877	90.12
497.094	89.12
497.312	82.12
497.529	82.12
497.746	81.12
497.963	86.12
498.181	89.12
498.398	107.12
498.615	106.12
498.832	107.12
499.049	83.12
499.267	85.12
499.484	86.12
499.701	88.12
499.918	91.12
500.135	82.12
500.352	88.12
500.569	82.12
500.786	90.12
501.003	94.12
501.22	83.12
501.437	83.12
501.654	103.12
501.871	113.12
502.088	103.12
502.305	102.12
502.522	91.12
502.739	69.12
502.956	100.12
503.172	97.12
503.389	80.12
503.606	101.12
503.823	100.12
504.04	94.12
504.256	100.12
504.473	93.12
504.69	98.12
504.907	88.12
505.123	95.12
505.34	111.12
505.557	98.12
505.773	87.12
505.99	84.12
506.207	83.12
506.423	86.12
506.64	78.12
506.856	81.12
507.073	96.12
507.289	91.12
507.506	92.12
507.722	106.12
507.939	120.12
508.155	94.12
508.372	92.12
508.588	85.12
508.805	87.12
509.021	98.12
509.238	93.12
509.454	94.12
509.67	108.12
509.887	104.12
510.103	117.12
510.319	204.12
510.536	656.12
510.752	2074.12
510.968	590.12
511.184	144.12
511.401	106.12
511.617	98.12
511.833	91.12
512.049	88.12
512.265	88.12
512.481	94.12
512.698	99.12
512.914	92.12
513.13	74.12
513.346	99.12
513.562	94.12
513.778	102.12
513.994	103.12
514.21	101.12
514.426	120.12
514.642	144.12
514.858	123.12
515.074	162.12
515.29	438.12
