Data from Uncirc_1991_H10_HRD10591_00049.txt Node
Date: Wed Jan 03 11:50:48 EST 2024
User: Yrep
Spectrometer: HR+D1059
Trigger mode: 1
Integration Time (sec): 1.000000E-1
Scans to average: 1
Electric dark correction enabled: true
Nonlinearity correction enabled: false
Boxcar width: 0
XAxis mode: Wavelengths
Number of Pixels in Spectrum: 2048
>>>>>Begin Spectral Data<<<<<
223.165	-17.75
223.4	-17.75
223.635	-17.75
223.869	-14.75
224.104	-18.75
224.338	-15.75
224.573	-4.75
224.808	-19.75
225.042	-4.75
225.277	-7.75
225.511	-3.75
225.746	7.25
225.98	2.25
226.215	6.25
226.449	21.25
226.683	26.25
226.918	23.25
227.152	21.25
227.387	49.25
227.621	46.25
227.856	40.25
228.09	42.25
228.324	55.25
228.559	60.25
228.793	54.25
229.027	78.25
229.262	68.25
229.496	67.25
229.73	91.25
229.964	89.25
230.199	79.25
230.433	77.25
230.667	82.25
230.901	71.25
231.136	87.25
231.37	75.25
231.604	77.25
231.838	83.25
232.072	85.25
232.306	67.25
232.541	79.25
232.775	72.25
233.009	93.25
233.243	73.25
233.477	84.25
233.711	74.25
233.945	81.25
234.179	77.25
234.413	91.25
234.647	85.25
234.881	68.25
235.115	83.25
235.349	79.25
235.583	69.25
235.817	74.25
236.051	64.25
236.285	68.25
236.519	63.25
236.753	76.25
236.987	75.25
237.221	74.25
237.455	94.25
237.689	77.25
237.922	71.25
238.156	84.25
238.39	77.25
238.624	68.25
238.858	79.25
239.091	79.25
239.325	82.25
239.559	88.25
239.793	76.25
240.027	72.25
240.26	77.25
240.494	85.25
240.728	69.25
240.961	86.25
241.195	79.25
241.429	73.25
241.662	62.25
241.896	65.25
242.13	73.25
242.363	71.25
242.597	73.25
242.83	91.25
243.064	78.25
243.298	78.25
243.531	86.25
243.765	68.25
243.998	75.25
244.232	67.25
244.465	77.25
244.699	73.25
244.932	78.25
245.166	83.25
245.399	86.25
245.633	65.25
245.866	73.25
246.099	70.25
246.333	83.25
246.566	78.25
246.8	65.25
247.033	77.25
247.266	74.25
247.5	82.25
247.733	83.25
247.966	89.25
248.2	91.25
248.433	86.25
248.666	90.25
248.899	81.25
249.133	94.25
249.366	98.25
249.599	99.25
249.832	90.25
250.066	78.25
250.299	72.25
250.532	79.25
250.765	81.25
250.998	86.25
251.231	83.25
251.465	73.25
251.698	91.25
251.931	71.25
252.164	83.25
252.397	81.25
252.63	81.25
252.863	74.25
253.096	77.25
253.329	94.25
253.562	90.25
253.795	74.25
254.028	78.25
254.261	73.25
254.494	85.25
254.727	84.25
254.96	86.25
255.193	93.25
255.426	81.25
255.659	78.25
255.892	84.25
256.124	70.25
256.357	89.25
256.59	101.25
256.823	93.25
257.056	94.25
257.289	95.25
257.521	78.25
257.754	90.25
257.987	76.25
258.22	87.25
258.452	74.25
258.685	81.25
258.918	97.25
259.151	93.25
259.383	81.25
259.616	78.25
259.849	84.25
260.081	76.25
260.314	74.25
260.547	77.25
260.779	70.25
261.012	89.25
261.244	84.25
261.477	98.25
261.71	103.25
261.942	116.25
262.175	127.25
262.407	69.25
262.64	86.25
262.872	88.25
263.105	79.25
263.337	97.25
263.57	87.25
263.802	95.25
264.035	78.25
264.267	69.25
264.499	82.25
264.732	89.25
264.964	76.25
265.197	79.25
265.429	70.25
265.661	89.25
265.894	79.25
266.126	84.25
266.358	91.25
266.591	81.25
266.823	70.25
267.055	81.25
267.287	97.25
267.52	78.25
267.752	92.25
267.984	81.25
268.216	79.25
268.448	94.25
268.681	82.25
268.913	81.25
269.145	79.25
269.377	77.25
269.609	73.25
269.841	92.25
270.073	95.25
270.306	78.25
270.538	98.25
270.77	78.25
271.002	74.25
271.234	80.25
271.466	85.25
271.698	94.25
271.93	78.25
272.162	98.25
272.394	84.25
272.626	91.25
272.858	79.25
273.09	82.25
273.322	86.25
273.553	89.25
273.785	83.25
274.017	78.25
274.249	81.25
274.481	82.25
274.713	89.25
274.945	84.25
275.176	91.25
275.408	100.25
275.64	96.25
275.872	98.25
276.104	79.25
276.335	87.25
276.567	99.25
276.799	102.25
277.031	96.25
277.262	96.25
277.494	102.25
277.726	66.25
277.957	96.25
278.189	85.25
278.421	92.25
278.652	78.25
278.884	77.25
279.115	68.25
279.347	77.25
279.579	89.25
279.81	79.25
280.042	75.25
280.273	87.25
280.505	91.25
280.736	73.25
280.968	84.25
281.199	85.25
281.431	90.25
281.662	88.25
281.894	83.25
282.125	100.25
282.356	110.25
282.588	149.25
282.819	122.25
283.051	99.25
283.282	77.25
283.513	97.25
283.745	71.25
283.976	87.25
284.207	84.25
284.439	84.25
284.67	77.25
284.901	77.25
285.132	93.25
285.364	86.25
285.595	80.25
285.826	85.25
286.057	90.25
286.288	99.25
286.52	93.25
286.751	95.25
286.982	74.25
287.213	92.25
287.444	88.25
287.675	101.25
287.906	97.25
288.138	110.25
288.369	102.25
288.6	86.25
288.831	83.25
289.062	95.25
289.293	90.25
289.524	89.25
289.755	80.25
289.986	79.25
290.217	65.25
290.448	92.25
290.679	72.25
290.91	85.25
291.141	85.25
291.371	92.25
291.602	103.25
291.833	83.25
292.064	87.25
292.295	93.25
292.526	111.25
292.757	88.25
292.987	83.25
293.218	97.25
293.449	91.25
293.68	87.25
293.91	82.25
294.141	86.25
294.372	86.25
294.603	82.25
294.833	92.25
295.064	84.25
295.295	110.25
295.525	87.25
295.756	102.25
295.987	110.25
296.217	137.25
296.448	137.25
296.679	111.25
296.909	86.25
297.14	96.25
297.37	98.25
297.601	97.25
297.831	91.25
298.062	90.25
298.292	99.25
298.523	97.25
298.753	95.25
298.984	78.25
299.214	86.25
299.445	97.25
299.675	105.25
299.905	86.25
300.136	84.25
300.366	93.25
300.597	90.25
300.827	91.25
301.057	89.25
301.288	96.25
301.518	97.25
301.748	84.25
301.979	110.25
302.209	101.25
302.439	109.25
302.669	92.25
302.9	90.25
303.13	95.25
303.36	87.25
303.59	98.25
303.82	103.25
304.051	83.25
304.281	110.25
304.511	95.25
304.741	81.25
304.971	73.25
305.201	98.25
305.431	100.25
305.661	86.25
305.891	101.25
306.121	103.25
306.352	98.25
306.582	107.25
306.812	111.25
307.042	100.25
307.272	88.25
307.502	99.25
307.731	105.25
307.961	82.25
308.191	101.25
308.421	93.25
308.651	97.25
308.881	91.25
309.111	98.25
309.341	97.25
309.571	102.25
309.8	99.25
310.03	89.25
310.26	89.25
310.49	97.25
310.72	107.25
310.949	115.25
311.179	105.25
311.409	97.25
311.639	101.25
311.868	97.25
312.098	105.25
312.328	103.25
312.557	105.25
312.787	117.25
313.017	116.25
313.246	89.25
313.476	99.25
313.706	93.25
313.935	96.25
314.165	106.25
314.394	107.25
314.624	106.25
314.853	94.25
315.083	89.25
315.312	92.25
315.542	84.25
315.771	83.25
316.001	84.25
316.23	98.25
316.46	96.25
316.689	91.25
316.919	101.25
317.148	102.25
317.377	87.25
317.607	99.25
317.836	93.25
318.065	94.25
318.295	98.25
318.524	115.25
318.753	84.25
318.983	93.25
319.212	113.25
319.441	103.25
319.67	101.25
319.9	104.25
320.129	93.25
320.358	90.25
320.587	94.25
320.816	94.25
321.046	118.25
321.275	101.25
321.504	97.25
321.733	102.25
321.962	118.25
322.191	106.25
322.42	113.25
322.649	128.25
322.878	125.25
323.108	121.25
323.337	133.25
323.566	165.25
323.795	166.25
324.024	261.25
324.253	491.25
324.482	1055.25
324.71	2225.25
324.939	3093.25
325.168	1072.25
325.397	285.25
325.626	164.25
325.855	141.25
326.084	133.25
326.313	153.25
326.542	173.25
326.77	277.25
326.999	562.25
327.228	1229.25
327.457	2327.25
327.686	1863.25
327.914	477.25
328.143	231.25
328.372	166.25
328.6	131.25
328.829	131.25
329.058	143.25
329.287	143.25
329.515	108.25
329.744	99.25
329.972	107.25
330.201	119.25
330.43	110.25
330.658	132.25
330.887	180.25
331.115	151.25
331.344	103.25
331.572	108.25
331.801	100.25
332.03	94.25
332.258	97.25
332.486	103.25
332.715	103.25
332.943	79.25
333.172	105.25
333.4	102.25
333.629	116.25
333.857	122.25
334.085	109.25
334.314	97.25
334.542	98.25
334.771	89.25
334.999	105.25
335.227	108.25
335.455	92.25
335.684	94.25
335.912	99.25
336.14	111.25
336.369	103.25
336.597	98.25
336.825	94.25
337.053	95.25
337.281	83.25
337.51	83.25
337.738	102.25
337.966	92.25
338.194	103.25
338.422	96.25
338.65	91.25
338.878	90.25
339.106	88.25
339.334	94.25
339.562	101.25
339.79	90.25
340.018	84.25
340.246	99.25
340.474	86.25
340.702	93.25
340.93	95.25
341.158	101.25
341.386	92.25
341.614	95.25
341.842	86.25
342.07	90.25
342.298	101.25
342.526	87.25
342.754	90.25
342.981	87.25
343.209	94.25
343.437	101.25
343.665	84.25
343.893	83.25
344.12	97.25
344.348	89.25
344.576	99.25
344.804	96.25
345.031	96.25
345.259	100.25
345.487	109.25
345.714	98.25
345.942	87.25
346.17	101.25
346.397	91.25
346.625	94.25
346.853	83.25
347.08	100.25
347.308	97.25
347.535	107.25
347.763	92.25
347.99	109.25
348.218	118.25
348.445	105.25
348.673	117.25
348.9	90.25
349.128	93.25
349.355	91.25
349.583	85.25
349.81	86.25
350.037	98.25
350.265	108.25
350.492	96.25
350.72	85.25
350.947	98.25
351.174	113.25
351.402	107.25
351.629	125.25
351.856	110.25
352.083	115.25
352.311	99.25
352.538	110.25
352.765	110.25
352.992	120.25
353.22	110.25
353.447	109.25
353.674	99.25
353.901	117.25
354.128	109.25
354.355	106.25
354.583	108.25
354.81	103.25
355.037	80.25
355.264	88.25
355.491	82.25
355.718	73.25
355.945	93.25
356.172	98.25
356.399	108.25
356.626	92.25
356.853	101.25
357.08	94.25
357.307	95.25
357.534	78.25
357.761	96.25
357.988	86.25
358.215	87.25
358.441	90.25
358.668	86.25
358.895	85.25
359.122	74.25
359.349	86.25
359.576	91.25
359.802	108.25
360.029	119.25
360.256	123.25
360.483	101.25
360.709	96.25
360.936	104.25
361.163	111.25
361.39	89.25
361.616	94.25
361.843	73.25
362.07	101.25
362.296	97.25
362.523	101.25
362.749	100.25
362.976	82.25
363.203	89.25
363.429	103.25
363.656	89.25
363.882	81.25
364.109	92.25
364.335	85.25
364.562	95.25
364.788	94.25
365.015	92.25
365.241	94.25
365.468	97.25
365.694	104.25
365.92	100.25
366.147	109.25
366.373	90.25
366.599	96.25
366.826	87.25
367.052	93.25
367.278	89.25
367.505	82.25
367.731	86.25
367.957	91.25
368.184	100.25
368.41	109.25
368.636	114.25
368.862	140.25
369.089	109.25
369.315	98.25
369.541	85.25
369.767	79.25
369.993	85.25
370.219	93.25
370.445	93.25
370.672	85.25
370.898	95.25
371.124	75.25
371.35	91.25
371.576	100.25
371.802	83.25
372.028	96.25
372.254	91.25
372.48	87.25
372.706	94.25
372.932	104.25
373.158	95.25
373.384	75.25
373.61	94.25
373.835	102.25
374.061	91.25
374.287	93.25
374.513	92.25
374.739	95.25
374.965	87.25
375.191	87.25
375.416	88.25
375.642	102.25
375.868	90.25
376.094	97.25
376.319	94.25
376.545	88.25
376.771	96.25
376.997	89.25
377.222	85.25
377.448	91.25
377.674	87.25
377.899	79.25
378.125	92.25
378.35	98.25
378.576	95.25
378.802	86.25
379.027	91.25
379.253	93.25
379.478	101.25
379.704	85.25
379.929	89.25
380.155	103.25
380.38	103.25
380.606	102.25
380.831	93.25
381.057	83.25
381.282	94.25
381.507	99.25
381.733	94.25
381.958	93.25
382.184	90.25
382.409	95.25
382.634	104.25
382.86	99.25
383.085	92.25
383.31	104.25
383.535	85.25
383.761	102.25
383.986	86.25
384.211	98.25
384.436	102.25
384.662	101.25
384.887	98.25
385.112	86.25
385.337	90.25
385.562	96.25
385.787	101.25
386.013	107.25
386.238	117.25
386.463	103.25
386.688	104.25
386.913	103.25
387.138	99.25
387.363	97.25
387.588	98.25
387.813	100.25
388.038	95.25
388.263	102.25
388.488	92.25
388.713	100.25
388.938	103.25
389.163	93.25
389.387	98.25
389.612	83.25
389.837	105.25
390.062	92.25
390.287	92.25
390.512	94.25
390.736	97.25
390.961	85.25
391.186	77.25
391.411	74.25
391.636	92.25
391.86	89.25
392.085	84.25
392.31	97.25
392.534	101.25
392.759	89.25
392.984	77.25
393.208	90.25
393.433	92.25
393.658	85.25
393.882	95.25
394.107	89.25
394.331	83.25
394.556	82.25
394.78	83.25
395.005	81.25
395.229	83.25
395.454	89.25
395.678	103.25
395.903	93.25
396.127	82.25
396.352	83.25
396.576	75.25
396.801	95.25
397.025	92.25
397.249	85.25
397.474	96.25
397.698	86.25
397.922	95.25
398.147	82.25
398.371	95.25
398.595	80.25
398.82	84.25
399.044	83.25
399.268	93.25
399.492	84.25
399.717	98.25
399.941	92.25
400.165	89.25
400.389	92.25
400.613	93.25
400.837	84.25
401.062	85.25
401.286	99.25
401.51	85.25
401.734	99.25
401.958	118.25
402.182	149.25
402.406	179.25
402.63	135.25
402.854	85.25
403.078	100.25
403.302	82.25
403.526	92.25
403.75	91.25
403.974	96.25
404.198	87.25
404.422	91.25
404.645	98.25
404.869	109.25
405.093	102.25
405.317	89.25
405.541	101.25
405.765	92.25
405.988	114.25
406.212	179.25
406.436	268.25
406.66	160.25
406.883	102.25
407.107	107.25
407.331	112.25
407.555	89.25
407.778	103.25
408.002	92.25
408.226	81.25
408.449	96.25
408.673	101.25
408.896	103.25
409.12	99.25
409.344	102.25
409.567	94.25
409.791	89.25
410.014	97.25
410.238	75.25
410.461	79.25
410.685	106.25
410.908	95.25
411.132	90.25
411.355	99.25
411.578	86.25
411.802	93.25
412.025	83.25
412.249	92.25
412.472	84.25
412.695	83.25
412.919	81.25
413.142	77.25
413.365	80.25
413.589	79.25
413.812	77.25
414.035	86.25
414.258	97.25
414.482	82.25
414.705	74.25
414.928	64.25
415.151	98.25
415.374	98.25
415.597	86.25
415.821	96.25
416.044	84.25
416.267	86.25
416.49	83.25
416.713	82.25
416.936	89.25
417.159	93.25
417.382	102.25
417.605	92.25
417.828	91.25
418.051	86.25
418.274	102.25
418.497	93.25
418.72	86.25
418.943	87.25
419.166	84.25
419.389	95.25
419.611	100.25
419.834	83.25
420.057	99.25
420.28	78.25
420.503	92.25
420.726	77.25
420.948	85.25
421.171	96.25
421.394	89.25
421.617	87.25
421.839	97.25
422.062	101.25
422.285	90.25
422.507	101.25
422.73	116.25
422.953	97.25
423.175	78.25
423.398	90.25
423.621	102.25
423.843	88.25
424.066	89.25
424.288	82.25
424.511	87.25
424.733	116.25
424.956	113.25
425.178	116.25
425.401	109.25
425.623	116.25
425.846	94.25
426.068	93.25
426.291	89.25
426.513	96.25
426.735	79.25
426.958	111.25
427.18	112.25
427.402	162.25
427.625	217.25
427.847	137.25
428.069	111.25
428.292	92.25
428.514	85.25
428.736	89.25
428.958	79.25
429.181	83.25
429.403	92.25
429.625	81.25
429.847	101.25
430.069	121.25
430.292	109.25
430.514	89.25
430.736	91.25
430.958	86.25
431.18	95.25
431.402	81.25
431.624	82.25
431.846	90.25
432.068	67.25
432.29	86.25
432.512	90.25
432.734	98.25
432.956	95.25
433.178	104.25
433.4	100.25
433.622	98.25
433.844	91.25
434.066	82.25
434.287	87.25
434.509	93.25
434.731	90.25
434.953	87.25
435.175	99.25
435.397	86.25
435.618	105.25
435.84	110.25
436.062	149.25
436.284	127.25
436.505	105.25
436.727	110.25
436.949	104.25
437.17	93.25
437.392	106.25
437.614	106.25
437.835	108.25
438.057	114.25
438.278	115.25
438.5	111.25
438.721	146.25
438.943	103.25
439.165	106.25
439.386	92.25
439.608	85.25
439.829	93.25
440.05	128.25
440.272	179.25
440.493	123.25
440.715	89.25
440.936	82.25
441.158	87.25
441.379	94.25
441.6	102.25
441.822	93.25
442.043	106.25
442.264	122.25
442.486	113.25
442.707	103.25
442.928	103.25
443.149	143.25
443.371	141.25
443.592	128.25
443.813	137.25
444.034	132.25
444.255	109.25
444.476	91.25
444.698	80.25
444.919	94.25
445.14	144.25
445.361	128.25
445.582	133.25
445.803	190.25
446.024	179.25
446.245	174.25
446.466	124.25
446.687	93.25
446.908	104.25
447.129	87.25
447.35	89.25
447.571	104.25
447.792	99.25
448.013	84.25
448.234	113.25
448.455	119.25
448.675	140.25
448.896	138.25
449.117	109.25
449.338	102.25
449.559	177.25
449.779	166.25
450	99.25
450.221	96.25
450.442	102.25
450.662	97.25
450.883	112.25
451.104	141.25
451.324	108.25
451.545	93.25
451.766	80.25
451.986	97.25
452.207	87.25
452.428	91.25
452.648	103.25
452.869	118.25
453.089	127.25
453.31	131.25
453.53	92.25
453.751	99.25
453.971	106.25
454.192	123.25
454.412	114.25
454.633	97.25
454.853	83.25
455.073	91.25
455.294	97.25
455.514	97.25
455.734	102.25
455.955	94.25
456.175	82.25
456.395	93.25
456.616	98.25
456.836	78.25
457.056	75.25
457.276	93.25
457.497	81.25
457.717	77.25
457.937	101.25
458.157	83.25
458.377	98.25
458.598	129.25
458.818	165.25
459.038	187.25
459.258	123.25
459.478	82.25
459.698	89.25
459.918	83.25
460.138	84.25
460.358	93.25
460.578	96.25
460.798	84.25
461.018	69.25
461.238	89.25
461.458	99.25
461.678	87.25
461.898	82.25
462.118	77.25
462.338	88.25
462.558	93.25
462.777	105.25
462.997	83.25
463.217	90.25
463.437	78.25
463.657	80.25
463.876	85.25
464.096	85.25
464.316	94.25
464.536	94.25
464.755	101.25
464.975	117.25
465.195	205.25
465.414	180.25
465.634	98.25
465.854	83.25
466.073	94.25
466.293	90.25
466.512	87.25
466.732	89.25
466.951	83.25
467.171	99.25
467.391	91.25
467.61	95.25
467.829	102.25
468.049	91.25
468.268	93.25
468.488	84.25
468.707	96.25
468.927	62.25
469.146	70.25
469.365	86.25
469.585	83.25
469.804	110.25
470.023	107.25
470.243	98.25
470.462	111.25
470.681	117.25
470.901	94.25
471.12	89.25
471.339	92.25
471.558	93.25
471.777	89.25
471.997	87.25
472.216	96.25
472.435	86.25
472.654	76.25
472.873	79.25
473.092	85.25
473.311	86.25
473.53	86.25
473.749	86.25
473.968	117.25
474.187	118.25
474.406	116.25
474.625	95.25
474.844	85.25
475.063	78.25
475.282	86.25
475.501	77.25
475.72	87.25
475.939	86.25
476.158	91.25
476.377	92.25
476.596	86.25
476.814	100.25
477.033	74.25
477.252	94.25
477.471	84.25
477.69	79.25
477.908	95.25
478.127	91.25
478.346	102.25
478.564	88.25
478.783	84.25
479.002	102.25
479.22	90.25
479.439	107.25
479.658	111.25
479.876	101.25
480.095	106.25
480.313	99.25
480.532	87.25
480.751	80.25
480.969	87.25
481.188	89.25
481.406	113.25
481.624	77.25
481.843	85.25
482.061	84.25
482.28	74.25
482.498	84.25
482.717	108.25
482.935	102.25
483.153	79.25
483.372	86.25
483.59	89.25
483.808	101.25
484.027	87.25
484.245	83.25
484.463	92.25
484.681	107.25
484.9	96.25
485.118	88.25
485.336	83.25
485.554	98.25
485.772	98.25
485.99	100.25
486.209	101.25
486.427	109.25
486.645	107.25
486.863	115.25
487.081	117.25
487.299	85.25
487.517	87.25
487.735	89.25
487.953	97.25
488.171	99.25
488.389	103.25
488.607	89.25
488.825	100.25
489.043	91.25
489.261	89.25
489.479	86.25
489.696	95.25
489.914	100.25
490.132	75.25
490.35	75.25
490.568	67.25
490.786	94.25
491.003	91.25
491.221	89.25
491.439	98.25
491.657	80.25
491.874	99.25
492.092	83.25
492.31	91.25
492.527	92.25
492.745	85.25
492.963	65.25
493.18	86.25
493.398	95.25
493.615	92.25
493.833	80.25
494.05	95.25
494.268	99.25
494.485	97.25
494.703	98.25
494.92	98.25
495.138	81.25
495.355	100.25
495.573	102.25
495.79	80.25
496.008	82.25
496.225	109.25
496.442	85.25
496.66	87.25
496.877	90.25
497.094	92.25
497.312	90.25
497.529	90.25
497.746	91.25
497.963	88.25
498.181	83.25
498.398	87.25
498.615	102.25
498.832	102.25
499.049	98.25
499.267	95.25
499.484	81.25
499.701	96.25
499.918	87.25
500.135	93.25
500.352	86.25
500.569	88.25
500.786	87.25
501.003	91.25
501.22	90.25
501.437	96.25
501.654	95.25
501.871	115.25
502.088	92.25
502.305	87.25
502.522	95.25
502.739	87.25
502.956	86.25
503.172	97.25
503.389	83.25
503.606	121.25
503.823	98.25
504.04	101.25
504.256	91.25
504.473	83.25
504.69	94.25
504.907	94.25
505.123	99.25
505.34	86.25
505.557	98.25
505.773	89.25
505.99	92.25
506.207	93.25
506.423	103.25
506.64	95.25
506.856	89.25
507.073	84.25
507.289	89.25
507.506	104.25
507.722	117.25
507.939	122.25
508.155	105.25
508.372	97.25
508.588	109.25
508.805	113.25
509.021	82.25
509.238	106.25
509.454	98.25
509.67	119.25
509.887	118.25
510.103	138.25
510.319	227.25
510.536	852.25
510.752	2715.25
510.968	725.25
511.184	159.25
511.401	123.25
511.617	105.25
511.833	95.25
512.049	102.25
512.265	100.25
512.481	82.25
512.698	86.25
512.914	94.25
513.13	92.25
513.346	92.25
513.562	94.25
513.778	100.25
513.994	98.25
514.21	123.25
514.426	136.25
514.642	153.25
514.858	146.25
