Data from Uncirc_1991_H10_HRD10591_00019.txt Node
Date: Wed Jan 03 11:50:42 EST 2024
User: Yrep
Spectrometer: HR+D1059
Trigger mode: 1
Integration Time (sec): 1.000000E-1
Scans to average: 1
Electric dark correction enabled: true
Nonlinearity correction enabled: false
Boxcar width: 0
XAxis mode: Wavelengths
Number of Pixels in Spectrum: 2048
>>>>>Begin Spectral Data<<<<<
223.165	-3.5
223.4	-3.5
223.635	-3.5
223.869	-23.5
224.104	-11.5
224.338	-18.5
224.573	-14.5
224.808	-13.5
225.042	-2.5
225.277	-8.5
225.511	-11.5
225.746	1.5
225.98	4.5
226.215	5.5
226.449	15.5
226.683	27.5
226.918	27.5
227.152	25.5
227.387	35.5
227.621	29.5
227.856	60.5
228.09	47.5
228.324	71.5
228.559	59.5
228.793	60.5
229.027	62.5
229.262	61.5
229.496	73.5
229.73	79.5
229.964	64.5
230.199	69.5
230.433	62.5
230.667	74.5
230.901	77.5
231.136	77.5
231.37	88.5
231.604	71.5
231.838	78.5
232.072	77.5
232.306	96.5
232.541	85.5
232.775	81.5
233.009	77.5
233.243	73.5
233.477	78.5
233.711	64.5
233.945	74.5
234.179	70.5
234.413	74.5
234.647	85.5
234.881	85.5
235.115	93.5
235.349	80.5
235.583	83.5
235.817	82.5
236.051	84.5
236.285	66.5
236.519	89.5
236.753	78.5
236.987	73.5
237.221	72.5
237.455	69.5
237.689	77.5
237.922	67.5
238.156	77.5
238.39	81.5
238.624	79.5
238.858	76.5
239.091	81.5
239.325	74.5
239.559	90.5
239.793	74.5
240.027	79.5
240.26	91.5
240.494	79.5
240.728	77.5
240.961	85.5
241.195	83.5
241.429	63.5
241.662	70.5
241.896	82.5
242.13	78.5
242.363	82.5
242.597	83.5
242.83	74.5
243.064	70.5
243.298	84.5
243.531	68.5
243.765	68.5
243.998	78.5
244.232	66.5
244.465	80.5
244.699	67.5
244.932	81.5
245.166	85.5
245.399	70.5
245.633	80.5
245.866	70.5
246.099	84.5
246.333	84.5
246.566	65.5
246.8	65.5
247.033	101.5
247.266	79.5
247.5	87.5
247.733	74.5
247.966	75.5
248.2	89.5
248.433	80.5
248.666	78.5
248.899	90.5
249.133	83.5
249.366	86.5
249.599	86.5
249.832	82.5
250.066	77.5
250.299	67.5
250.532	82.5
250.765	93.5
250.998	81.5
251.231	85.5
251.465	76.5
251.698	78.5
251.931	65.5
252.164	70.5
252.397	78.5
252.63	94.5
252.863	89.5
253.096	73.5
253.329	73.5
253.562	74.5
253.795	88.5
254.028	70.5
254.261	71.5
254.494	80.5
254.727	87.5
254.96	97.5
255.193	81.5
255.426	77.5
255.659	84.5
255.892	84.5
256.124	82.5
256.357	80.5
256.59	86.5
256.823	91.5
257.056	85.5
257.289	80.5
257.521	88.5
257.754	74.5
257.987	73.5
258.22	70.5
258.452	79.5
258.685	85.5
258.918	93.5
259.151	77.5
259.383	83.5
259.616	73.5
259.849	84.5
260.081	77.5
260.314	77.5
260.547	75.5
260.779	81.5
261.012	92.5
261.244	91.5
261.477	86.5
261.71	83.5
261.942	105.5
262.175	106.5
262.407	93.5
262.64	85.5
262.872	81.5
263.105	77.5
263.337	90.5
263.57	74.5
263.802	81.5
264.035	79.5
264.267	75.5
264.499	74.5
264.732	86.5
264.964	93.5
265.197	79.5
265.429	85.5
265.661	84.5
265.894	89.5
266.126	73.5
266.358	76.5
266.591	87.5
266.823	77.5
267.055	79.5
267.287	87.5
267.52	84.5
267.752	73.5
267.984	68.5
268.216	79.5
268.448	91.5
268.681	87.5
268.913	86.5
269.145	78.5
269.377	83.5
269.609	77.5
269.841	85.5
270.073	66.5
270.306	84.5
270.538	87.5
270.77	84.5
271.002	78.5
271.234	84.5
271.466	79.5
271.698	75.5
271.93	67.5
272.162	79.5
272.394	93.5
272.626	88.5
272.858	80.5
273.09	95.5
273.322	83.5
273.553	82.5
273.785	95.5
274.017	96.5
274.249	81.5
274.481	86.5
274.713	87.5
274.945	93.5
275.176	75.5
275.408	96.5
275.64	86.5
275.872	92.5
276.104	96.5
276.335	94.5
276.567	89.5
276.799	98.5
277.031	81.5
277.262	75.5
277.494	98.5
277.726	78.5
277.957	86.5
278.189	68.5
278.421	83.5
278.652	86.5
278.884	81.5
279.115	87.5
279.347	84.5
279.579	95.5
279.81	75.5
280.042	89.5
280.273	81.5
280.505	91.5
280.736	69.5
280.968	77.5
281.199	85.5
281.431	98.5
281.662	92.5
281.894	85.5
282.125	91.5
282.356	111.5
282.588	119.5
282.819	112.5
283.051	81.5
283.282	75.5
283.513	94.5
283.745	95.5
283.976	82.5
284.207	95.5
284.439	92.5
284.67	86.5
284.901	89.5
285.132	80.5
285.364	71.5
285.595	73.5
285.826	102.5
286.057	87.5
286.288	85.5
286.52	90.5
286.751	77.5
286.982	73.5
287.213	79.5
287.444	83.5
287.675	86.5
287.906	81.5
288.138	93.5
288.369	78.5
288.6	86.5
288.831	74.5
289.062	93.5
289.293	86.5
289.524	81.5
289.755	69.5
289.986	81.5
290.217	59.5
290.448	90.5
290.679	74.5
290.91	91.5
291.141	91.5
291.371	88.5
291.602	85.5
291.833	81.5
292.064	84.5
292.295	80.5
292.526	84.5
292.757	75.5
292.987	75.5
293.218	84.5
293.449	74.5
293.68	88.5
293.91	79.5
294.141	91.5
294.372	79.5
294.603	79.5
294.833	82.5
295.064	84.5
295.295	75.5
295.525	81.5
295.756	84.5
295.987	94.5
296.217	121.5
296.448	118.5
296.679	73.5
296.909	99.5
297.14	79.5
297.37	98.5
297.601	82.5
297.831	82.5
298.062	93.5
298.292	82.5
298.523	67.5
298.753	84.5
298.984	96.5
299.214	69.5
299.445	97.5
299.675	97.5
299.905	101.5
300.136	95.5
300.366	70.5
300.597	87.5
300.827	85.5
301.057	107.5
301.288	106.5
301.518	91.5
301.748	81.5
301.979	94.5
302.209	84.5
302.439	93.5
302.669	87.5
302.9	89.5
303.13	99.5
303.36	91.5
303.59	88.5
303.82	96.5
304.051	108.5
304.281	97.5
304.511	92.5
304.741	96.5
304.971	70.5
305.201	93.5
305.431	85.5
305.661	81.5
305.891	79.5
306.121	98.5
306.352	106.5
306.582	98.5
306.812	89.5
307.042	95.5
307.272	95.5
307.502	93.5
307.731	71.5
307.961	99.5
308.191	90.5
308.421	101.5
308.651	91.5
308.881	77.5
309.111	92.5
309.341	91.5
309.571	107.5
309.8	83.5
310.03	84.5
310.26	86.5
310.49	77.5
310.72	77.5
310.949	95.5
311.179	100.5
311.409	93.5
311.639	76.5
311.868	92.5
312.098	85.5
312.328	88.5
312.557	96.5
312.787	98.5
313.017	89.5
313.246	91.5
313.476	89.5
313.706	93.5
313.935	84.5
314.165	84.5
314.394	89.5
314.624	95.5
314.853	99.5
315.083	81.5
315.312	100.5
315.542	83.5
315.771	86.5
316.001	82.5
316.23	99.5
316.46	80.5
316.689	91.5
316.919	80.5
317.148	85.5
317.377	97.5
317.607	85.5
317.836	88.5
318.065	84.5
318.295	90.5
318.524	87.5
318.753	84.5
318.983	86.5
319.212	92.5
319.441	103.5
319.67	112.5
319.9	95.5
320.129	91.5
320.358	101.5
320.587	90.5
320.816	93.5
321.046	88.5
321.275	93.5
321.504	92.5
321.733	83.5
321.962	102.5
322.191	103.5
322.42	96.5
322.649	95.5
322.878	98.5
323.108	99.5
323.337	100.5
323.566	109.5
323.795	125.5
324.024	134.5
324.253	221.5
324.482	420.5
324.71	799.5
324.939	1088.5
325.168	442.5
325.397	161.5
325.626	116.5
325.855	87.5
326.084	112.5
326.313	109.5
326.542	108.5
326.77	139.5
326.999	239.5
327.228	445.5
327.457	791.5
327.686	672.5
327.914	221.5
328.143	152.5
328.372	106.5
328.6	115.5
328.829	93.5
329.058	112.5
329.287	110.5
329.515	109.5
329.744	106.5
329.972	96.5
330.201	87.5
330.43	96.5
330.658	109.5
330.887	124.5
331.115	118.5
331.344	106.5
331.572	96.5
331.801	94.5
332.03	83.5
332.258	90.5
332.486	82.5
332.715	75.5
332.943	95.5
333.172	92.5
333.4	89.5
333.629	94.5
333.857	96.5
334.085	92.5
334.314	70.5
334.542	89.5
334.771	91.5
334.999	103.5
335.227	89.5
335.455	85.5
335.684	99.5
335.912	90.5
336.14	91.5
336.369	89.5
336.597	99.5
336.825	89.5
337.053	91.5
337.281	86.5
337.51	90.5
337.738	100.5
337.966	83.5
338.194	88.5
338.422	94.5
338.65	95.5
338.878	88.5
339.106	82.5
339.334	81.5
339.562	99.5
339.79	95.5
340.018	99.5
340.246	84.5
340.474	88.5
340.702	84.5
340.93	86.5
341.158	82.5
341.386	101.5
341.614	85.5
341.842	90.5
342.07	87.5
342.298	95.5
342.526	89.5
342.754	73.5
342.981	77.5
343.209	79.5
343.437	95.5
343.665	86.5
343.893	83.5
344.12	91.5
344.348	65.5
344.576	95.5
344.804	78.5
345.031	97.5
345.259	102.5
345.487	97.5
345.714	97.5
345.942	89.5
346.17	87.5
346.397	88.5
346.625	83.5
346.853	79.5
347.08	84.5
347.308	97.5
347.535	90.5
347.763	93.5
347.99	95.5
348.218	82.5
348.445	97.5
348.673	87.5
348.9	96.5
349.128	79.5
349.355	85.5
349.583	86.5
349.81	90.5
350.037	88.5
350.265	90.5
350.492	98.5
350.72	99.5
350.947	78.5
351.174	83.5
351.402	85.5
351.629	90.5
351.856	105.5
352.083	87.5
352.311	81.5
352.538	82.5
352.765	91.5
352.992	96.5
353.22	94.5
353.447	75.5
353.674	87.5
353.901	82.5
354.128	97.5
354.355	96.5
354.583	82.5
354.81	94.5
355.037	84.5
355.264	101.5
355.491	79.5
355.718	83.5
355.945	92.5
356.172	83.5
356.399	92.5
356.626	86.5
356.853	78.5
357.08	86.5
357.307	81.5
357.534	88.5
357.761	89.5
357.988	98.5
358.215	93.5
358.441	85.5
358.668	107.5
358.895	83.5
359.122	88.5
359.349	75.5
359.576	76.5
359.802	91.5
360.029	89.5
360.256	106.5
360.483	93.5
360.709	73.5
360.936	86.5
361.163	78.5
361.39	73.5
361.616	86.5
361.843	90.5
362.07	89.5
362.296	93.5
362.523	98.5
362.749	88.5
362.976	84.5
363.203	97.5
363.429	83.5
363.656	89.5
363.882	83.5
364.109	94.5
364.335	82.5
364.562	87.5
364.788	86.5
365.015	78.5
365.241	97.5
365.468	93.5
365.694	108.5
365.92	86.5
366.147	78.5
366.373	99.5
366.599	86.5
366.826	77.5
367.052	78.5
367.278	95.5
367.505	87.5
367.731	98.5
367.957	79.5
368.184	87.5
368.41	84.5
368.636	91.5
368.862	101.5
369.089	106.5
369.315	77.5
369.541	83.5
369.767	88.5
369.993	96.5
370.219	81.5
370.445	90.5
370.672	99.5
370.898	86.5
371.124	83.5
371.35	89.5
371.576	69.5
371.802	86.5
372.028	83.5
372.254	81.5
372.48	89.5
372.706	85.5
372.932	77.5
373.158	88.5
373.384	83.5
373.61	103.5
373.835	88.5
374.061	73.5
374.287	79.5
374.513	77.5
374.739	77.5
374.965	79.5
375.191	85.5
375.416	90.5
375.642	79.5
375.868	77.5
376.094	75.5
376.319	71.5
376.545	88.5
376.771	87.5
376.997	75.5
377.222	95.5
377.448	78.5
377.674	76.5
377.899	90.5
378.125	85.5
378.35	81.5
378.576	81.5
378.802	80.5
379.027	74.5
379.253	80.5
379.478	75.5
379.704	80.5
379.929	86.5
380.155	101.5
380.38	76.5
380.606	86.5
380.831	81.5
381.057	83.5
381.282	81.5
381.507	100.5
381.733	92.5
381.958	99.5
382.184	92.5
382.409	84.5
382.634	97.5
382.86	81.5
383.085	81.5
383.31	86.5
383.535	92.5
383.761	77.5
383.986	88.5
384.211	93.5
384.436	82.5
384.662	81.5
384.887	77.5
385.112	77.5
385.337	92.5
385.562	67.5
385.787	73.5
386.013	94.5
386.238	106.5
386.463	94.5
386.688	109.5
386.913	91.5
387.138	100.5
387.363	81.5
387.588	90.5
387.813	73.5
388.038	84.5
388.263	93.5
388.488	94.5
388.713	74.5
388.938	68.5
389.163	82.5
389.387	77.5
389.612	86.5
389.837	89.5
390.062	91.5
390.287	78.5
390.512	89.5
390.736	87.5
390.961	93.5
391.186	83.5
391.411	75.5
391.636	77.5
391.86	83.5
392.085	77.5
392.31	65.5
392.534	94.5
392.759	75.5
392.984	88.5
393.208	70.5
393.433	90.5
393.658	91.5
393.882	86.5
394.107	81.5
394.331	88.5
394.556	84.5
394.78	79.5
395.005	76.5
395.229	73.5
395.454	94.5
395.678	91.5
395.903	87.5
396.127	84.5
396.352	86.5
396.576	75.5
396.801	89.5
397.025	80.5
397.249	85.5
397.474	85.5
397.698	82.5
397.922	86.5
398.147	77.5
398.371	77.5
398.595	82.5
398.82	85.5
399.044	78.5
399.268	95.5
399.492	82.5
399.717	87.5
399.941	77.5
400.165	83.5
400.389	75.5
400.613	82.5
400.837	92.5
401.062	89.5
401.286	74.5
401.51	95.5
401.734	95.5
401.958	89.5
402.182	111.5
402.406	138.5
402.63	119.5
402.854	91.5
403.078	78.5
403.302	79.5
403.526	85.5
403.75	95.5
403.974	83.5
404.198	86.5
404.422	75.5
404.645	89.5
404.869	91.5
405.093	74.5
405.317	92.5
405.541	98.5
405.765	90.5
405.988	101.5
406.212	127.5
406.436	189.5
406.66	128.5
406.883	103.5
407.107	83.5
407.331	88.5
407.555	79.5
407.778	75.5
408.002	71.5
408.226	85.5
408.449	76.5
408.673	90.5
408.896	94.5
409.12	87.5
409.344	68.5
409.567	82.5
409.791	96.5
410.014	77.5
410.238	81.5
410.461	82.5
410.685	82.5
410.908	86.5
411.132	89.5
411.355	100.5
411.578	84.5
411.802	78.5
412.025	81.5
412.249	75.5
412.472	100.5
412.695	82.5
412.919	95.5
413.142	87.5
413.365	82.5
413.589	76.5
413.812	94.5
414.035	91.5
414.258	89.5
414.482	107.5
414.705	83.5
414.928	96.5
415.151	85.5
415.374	85.5
415.597	86.5
415.821	75.5
416.044	86.5
416.267	88.5
416.49	94.5
416.713	78.5
416.936	83.5
417.159	85.5
417.382	88.5
417.605	83.5
417.828	82.5
418.051	69.5
418.274	90.5
418.497	76.5
418.72	90.5
418.943	95.5
419.166	82.5
419.389	79.5
419.611	80.5
419.834	79.5
420.057	83.5
420.28	88.5
420.503	87.5
420.726	99.5
420.948	86.5
421.171	85.5
421.394	85.5
421.617	76.5
421.839	87.5
422.062	79.5
422.285	83.5
422.507	76.5
422.73	78.5
422.953	74.5
423.175	82.5
423.398	78.5
423.621	71.5
423.843	69.5
424.066	85.5
424.288	94.5
424.511	93.5
424.733	88.5
424.956	79.5
425.178	95.5
425.401	91.5
425.623	81.5
425.846	86.5
426.068	77.5
426.291	90.5
426.513	93.5
426.735	84.5
426.958	76.5
427.18	90.5
427.402	101.5
427.625	112.5
427.847	106.5
428.069	93.5
428.292	79.5
428.514	81.5
428.736	94.5
428.958	73.5
429.181	86.5
429.403	86.5
429.625	85.5
429.847	97.5
430.069	81.5
430.292	81.5
430.514	82.5
430.736	89.5
430.958	71.5
431.18	88.5
431.402	83.5
431.624	92.5
431.846	81.5
432.068	87.5
432.29	78.5
432.512	89.5
432.734	96.5
432.956	86.5
433.178	90.5
433.4	77.5
433.622	87.5
433.844	87.5
434.066	90.5
434.287	90.5
434.509	76.5
434.731	98.5
434.953	100.5
435.175	95.5
435.397	80.5
435.618	81.5
435.84	98.5
436.062	111.5
436.284	103.5
436.505	111.5
436.727	92.5
436.949	95.5
437.17	79.5
437.392	83.5
437.614	96.5
437.835	102.5
438.057	107.5
438.278	89.5
438.5	92.5
438.721	108.5
438.943	94.5
439.165	98.5
439.386	89.5
439.608	93.5
439.829	94.5
440.05	104.5
440.272	127.5
440.493	90.5
440.715	85.5
440.936	68.5
441.158	87.5
441.379	77.5
441.6	85.5
441.822	95.5
442.043	88.5
442.264	77.5
442.486	86.5
442.707	85.5
442.928	109.5
443.149	124.5
443.371	120.5
443.592	111.5
443.813	94.5
444.034	97.5
444.255	84.5
444.476	79.5
444.698	93.5
444.919	104.5
445.14	130.5
445.361	102.5
445.582	100.5
445.803	99.5
446.024	112.5
446.245	102.5
446.466	93.5
446.687	83.5
446.908	87.5
447.129	92.5
447.35	87.5
447.571	85.5
447.792	90.5
448.013	103.5
448.234	85.5
448.455	91.5
448.675	101.5
448.896	91.5
449.117	70.5
449.338	70.5
449.559	107.5
449.779	110.5
450	93.5
450.221	81.5
450.442	70.5
450.662	96.5
450.883	99.5
451.104	113.5
451.324	97.5
451.545	102.5
451.766	88.5
451.986	92.5
452.207	93.5
452.428	90.5
452.648	99.5
452.869	99.5
453.089	100.5
453.31	108.5
453.53	84.5
453.751	89.5
453.971	96.5
454.192	101.5
454.412	84.5
454.633	71.5
454.853	84.5
455.073	65.5
455.294	85.5
455.514	92.5
455.734	103.5
455.955	83.5
456.175	88.5
456.395	97.5
456.616	80.5
456.836	77.5
457.056	95.5
457.276	80.5
457.497	82.5
457.717	80.5
457.937	91.5
458.157	95.5
458.377	99.5
458.598	86.5
458.818	121.5
459.038	141.5
459.258	97.5
459.478	92.5
459.698	87.5
459.918	82.5
460.138	84.5
460.358	79.5
460.578	76.5
460.798	90.5
461.018	82.5
461.238	87.5
461.458	84.5
461.678	82.5
461.898	81.5
462.118	79.5
462.338	84.5
462.558	90.5
462.777	85.5
462.997	79.5
463.217	76.5
463.437	79.5
463.657	86.5
463.876	81.5
464.096	81.5
464.316	87.5
464.536	88.5
464.755	83.5
464.975	96.5
465.195	125.5
465.414	121.5
465.634	94.5
465.854	94.5
466.073	81.5
466.293	81.5
466.512	66.5
466.732	77.5
466.951	69.5
467.171	83.5
467.391	74.5
467.61	100.5
467.829	83.5
468.049	98.5
468.268	85.5
468.488	79.5
468.707	89.5
468.927	81.5
469.146	61.5
469.365	84.5
469.585	90.5
469.804	90.5
470.023	90.5
470.243	89.5
470.462	91.5
470.681	102.5
470.901	92.5
471.12	87.5
471.339	77.5
471.558	84.5
471.777	70.5
471.997	75.5
472.216	73.5
472.435	82.5
472.654	66.5
472.873	93.5
473.092	95.5
473.311	90.5
473.53	91.5
473.749	76.5
473.968	75.5
474.187	89.5
474.406	93.5
474.625	74.5
474.844	67.5
475.063	77.5
475.282	82.5
475.501	99.5
475.72	101.5
475.939	76.5
476.158	73.5
476.377	84.5
476.596	89.5
476.814	74.5
477.033	93.5
477.252	97.5
477.471	98.5
477.69	102.5
477.908	77.5
478.127	82.5
478.346	81.5
478.564	86.5
478.783	91.5
479.002	91.5
479.22	91.5
479.439	102.5
479.658	80.5
479.876	87.5
480.095	88.5
480.313	84.5
480.532	75.5
480.751	82.5
480.969	79.5
481.188	78.5
481.406	89.5
481.624	81.5
481.843	87.5
482.061	87.5
482.28	83.5
482.498	89.5
482.717	81.5
482.935	79.5
483.153	94.5
483.372	90.5
483.59	88.5
483.808	79.5
484.027	87.5
484.245	82.5
484.463	70.5
484.681	86.5
484.9	71.5
485.118	66.5
485.336	87.5
485.554	71.5
485.772	70.5
485.99	92.5
486.209	92.5
486.427	92.5
486.645	83.5
486.863	101.5
487.081	93.5
487.299	86.5
487.517	93.5
487.735	77.5
487.953	79.5
488.171	94.5
488.389	113.5
488.607	95.5
488.825	81.5
489.043	75.5
489.261	75.5
489.479	79.5
489.696	93.5
489.914	81.5
490.132	83.5
490.35	90.5
490.568	90.5
490.786	85.5
491.003	87.5
491.221	94.5
491.439	86.5
491.657	83.5
491.874	90.5
492.092	93.5
492.31	89.5
492.527	96.5
492.745	92.5
492.963	94.5
493.18	88.5
493.398	90.5
493.615	75.5
493.833	78.5
494.05	73.5
494.268	83.5
494.485	77.5
494.703	89.5
494.92	80.5
495.138	89.5
495.355	82.5
495.573	93.5
495.79	89.5
496.008	86.5
496.225	84.5
496.442	78.5
496.66	100.5
496.877	90.5
497.094	84.5
497.312	82.5
497.529	93.5
497.746	83.5
497.963	92.5
498.181	89.5
498.398	88.5
498.615	90.5
498.832	106.5
499.049	85.5
499.267	110.5
499.484	70.5
499.701	74.5
499.918	93.5
500.135	85.5
500.352	116.5
500.569	81.5
500.786	93.5
501.003	77.5
501.22	84.5
501.437	75.5
501.654	79.5
501.871	93.5
502.088	86.5
502.305	86.5
502.522	92.5
502.739	83.5
502.956	95.5
503.172	98.5
503.389	89.5
503.606	98.5
503.823	84.5
504.04	69.5
504.256	73.5
504.473	84.5
504.69	86.5
504.907	87.5
505.123	80.5
505.34	76.5
505.557	90.5
505.773	73.5
505.99	89.5
506.207	80.5
506.423	82.5
506.64	94.5
506.856	104.5
507.073	92.5
507.289	88.5
507.506	94.5
507.722	95.5
507.939	115.5
508.155	86.5
508.372	79.5
508.588	94.5
508.805	83.5
509.021	91.5
509.238	87.5
509.454	89.5
509.67	90.5
509.887	98.5
510.103	119.5
510.319	164.5
510.536	486.5
510.752	1515.5
510.968	449.5
511.184	122.5
511.401	101.5
511.617	86.5
511.833	87.5
512.049	82.5
512.265	84.5
512.481	89.5
512.698	89.5
512.914	91.5
513.13	99.5
513.346	101.5
513.562	104.5
513.778	93.5
513.994	94.5
514.21	89.5
514.426	102.5
514.642	116.5
514.858	118.5
515.074	145.5
515.29	349.5
515.506	1055.5
515.721	437.5
515.937	139.5
516.153	107.5
516.369	103.5
516.585	85.5
516.801	89.5
517.016	75.5
517.232	84.5
517.448	83.5
517.664	91.5
517.879	80.5
518.095	69.5
518.311	77.5
518.527	91.5
518.742	92.5
518.958	98.5
519.173	102.5
519.389	89.5
519.605	89.5
519.82	79.5
520.036	80.5
520.251	111.5
520.467	100.5
520.682	91.5
520.898	99.5
521.113	123.5
521.329	117.5
521.544	169.5
521.76	414.5
521.975	1725.5
522.19	1084.5
522.406	267.5
522.621	107.5
522.836	91.5
523.052	102.5
523.267	95.5
523.482	94.5
523.698	96.5
523.913	117.5
524.128	93.5
524.343	97.5
524.559	95.5
524.774	104.5
524.989	99.5
525.204	87.5
525.419	86.5
525.634	89.5
525.849	83.5
526.064	79.5
526.28	85.5
526.495	86.5
526.71	86.5
526.925	93.5
527.14	78.5
527.355	85.5
527.57	83.5
527.785	87.5
527.999	82.5
528.214	80.5
528.429	93.5
528.644	86.5
528.859	85.5
529.074	91.5
529.289	106.5
529.503	153.5
529.718	94.5
529.933	80.5
530.148	93.5
530.363	97.5
530.577	81.5
530.792	86.5
531.007	82.5
531.221	78.5
531.436	75.5
531.651	84.5
531.865	103.5
532.08	90.5
532.295	79.5
532.509	84.5
532.724	89.5
532.938	91.5
533.153	84.5
533.367	68.5
533.582	91.5
533.796	87.5
534.011	86.5
534.225	80.5
534.44	85.5
534.654	94.5
534.868	82.5
535.083	71.5
535.297	84.5
535.511	103.5
535.726	91.5
535.94	87.5
536.154	100.5
536.369	78.5
536.583	90.5
536.797	86.5
537.011	84.5
537.225	76.5
537.44	85.5
537.654	98.5
537.868	84.5
