Data from Uncirc_1991_H10_HRD10591_00012.txt Node
Date: Wed Jan 03 11:50:40 EST 2024
User: Yrep
Spectrometer: HR+D1059
Trigger mode: 1
Integration Time (sec): 1.000000E-1
Scans to average: 1
Electric dark correction enabled: true
Nonlinearity correction enabled: false
Boxcar width: 0
XAxis mode: Wavelengths
Number of Pixels in Spectrum: 2048
>>>>>Begin Spectral Data<<<<<
223.165	-18.69
223.4	-18.69
223.635	-18.69
223.869	-16.69
224.104	-26.69
224.338	-12.69
224.573	-10.69
224.808	-14.69
225.042	-9.69
225.277	0.31
225.511	-1.69
225.746	-9.69
225.98	14.31
226.215	1.31
226.449	26.31
226.683	20.31
226.918	24.31
227.152	34.31
227.387	44.31
227.621	52.31
227.856	34.31
228.09	43.31
228.324	46.31
228.559	73.31
228.793	49.31
229.027	62.31
229.262	68.31
229.496	83.31
229.73	76.31
229.964	85.31
230.199	74.31
230.433	82.31
230.667	68.31
230.901	72.31
231.136	76.31
231.37	80.31
231.604	76.31
231.838	77.31
232.072	83.31
232.306	100.31
232.541	90.31
232.775	67.31
233.009	87.31
233.243	93.31
233.477	83.31
233.711	96.31
233.945	87.31
234.179	94.31
234.413	84.31
234.647	76.31
234.881	80.31
235.115	83.31
235.349	89.31
235.583	76.31
235.817	76.31
236.051	85.31
236.285	88.31
236.519	94.31
236.753	71.31
236.987	90.31
237.221	94.31
237.455	101.31
237.689	93.31
237.922	77.31
238.156	86.31
238.39	85.31
238.624	84.31
238.858	68.31
239.091	80.31
239.325	72.31
239.559	69.31
239.793	79.31
240.027	85.31
240.26	86.31
240.494	94.31
240.728	70.31
240.961	82.31
241.195	82.31
241.429	82.31
241.662	76.31
241.896	82.31
242.13	93.31
242.363	80.31
242.597	76.31
242.83	64.31
243.064	76.31
243.298	63.31
243.531	68.31
243.765	97.31
243.998	81.31
244.232	88.31
244.465	80.31
244.699	79.31
244.932	70.31
245.166	66.31
245.399	68.31
245.633	89.31
245.866	81.31
246.099	66.31
246.333	83.31
246.566	89.31
246.8	90.31
247.033	91.31
247.266	92.31
247.5	66.31
247.733	84.31
247.966	92.31
248.2	71.31
248.433	82.31
248.666	72.31
248.899	95.31
249.133	100.31
249.366	99.31
249.599	93.31
249.832	93.31
250.066	73.31
250.299	65.31
250.532	81.31
250.765	81.31
250.998	72.31
251.231	87.31
251.465	96.31
251.698	81.31
251.931	80.31
252.164	85.31
252.397	83.31
252.63	91.31
252.863	91.31
253.096	101.31
253.329	84.31
253.562	86.31
253.795	83.31
254.028	96.31
254.261	95.31
254.494	84.31
254.727	79.31
254.96	79.31
255.193	81.31
255.426	72.31
255.659	78.31
255.892	70.31
256.124	85.31
256.357	89.31
256.59	92.31
256.823	77.31
257.056	95.31
257.289	89.31
257.521	74.31
257.754	77.31
257.987	99.31
258.22	70.31
258.452	96.31
258.685	74.31
258.918	89.31
259.151	85.31
259.383	87.31
259.616	81.31
259.849	81.31
260.081	98.31
260.314	81.31
260.547	83.31
260.779	85.31
261.012	70.31
261.244	82.31
261.477	100.31
261.71	91.31
261.942	114.31
262.175	122.31
262.407	90.31
262.64	104.31
262.872	81.31
263.105	86.31
263.337	94.31
263.57	86.31
263.802	62.31
264.035	74.31
264.267	80.31
264.499	82.31
264.732	89.31
264.964	84.31
265.197	72.31
265.429	70.31
265.661	72.31
265.894	83.31
266.126	81.31
266.358	86.31
266.591	72.31
266.823	89.31
267.055	101.31
267.287	88.31
267.52	89.31
267.752	82.31
267.984	89.31
268.216	84.31
268.448	92.31
268.681	81.31
268.913	74.31
269.145	79.31
269.377	79.31
269.609	76.31
269.841	88.31
270.073	71.31
270.306	89.31
270.538	76.31
270.77	100.31
271.002	81.31
271.234	89.31
271.466	89.31
271.698	85.31
271.93	92.31
272.162	96.31
272.394	90.31
272.626	90.31
272.858	89.31
273.09	83.31
273.322	93.31
273.553	98.31
273.785	97.31
274.017	98.31
274.249	85.31
274.481	97.31
274.713	98.31
274.945	90.31
275.176	93.31
275.408	102.31
275.64	82.31
275.872	92.31
276.104	94.31
276.335	84.31
276.567	92.31
276.799	113.31
277.031	102.31
277.262	105.31
277.494	86.31
277.726	90.31
277.957	78.31
278.189	89.31
278.421	71.31
278.652	78.31
278.884	92.31
279.115	105.31
279.347	73.31
279.579	85.31
279.81	89.31
280.042	85.31
280.273	88.31
280.505	80.31
280.736	80.31
280.968	95.31
281.199	86.31
281.431	82.31
281.662	80.31
281.894	96.31
282.125	88.31
282.356	121.31
282.588	131.31
282.819	131.31
283.051	82.31
283.282	94.31
283.513	87.31
283.745	96.31
283.976	84.31
284.207	78.31
284.439	86.31
284.67	103.31
284.901	94.31
285.132	92.31
285.364	87.31
285.595	98.31
285.826	94.31
286.057	95.31
286.288	88.31
286.52	86.31
286.751	70.31
286.982	73.31
287.213	104.31
287.444	94.31
287.675	76.31
287.906	85.31
288.138	90.31
288.369	83.31
288.6	94.31
288.831	95.31
289.062	80.31
289.293	85.31
289.524	92.31
289.755	84.31
289.986	84.31
290.217	102.31
290.448	101.31
290.679	95.31
290.91	94.31
291.141	97.31
291.371	89.31
291.602	102.31
291.833	96.31
292.064	102.31
292.295	92.31
292.526	89.31
292.757	68.31
292.987	76.31
293.218	96.31
293.449	102.31
293.68	102.31
293.91	88.31
294.141	92.31
294.372	92.31
294.603	106.31
294.833	82.31
295.064	95.31
295.295	77.31
295.525	96.31
295.756	114.31
295.987	104.31
296.217	134.31
296.448	140.31
296.679	100.31
296.909	86.31
297.14	97.31
297.37	94.31
297.601	97.31
297.831	90.31
298.062	105.31
298.292	94.31
298.523	88.31
298.753	81.31
298.984	82.31
299.214	91.31
299.445	92.31
299.675	100.31
299.905	93.31
300.136	94.31
300.366	93.31
300.597	92.31
300.827	90.31
301.057	107.31
301.288	102.31
301.518	94.31
301.748	95.31
301.979	106.31
302.209	96.31
302.439	78.31
302.669	105.31
302.9	93.31
303.13	90.31
303.36	97.31
303.59	87.31
303.82	109.31
304.051	86.31
304.281	92.31
304.511	82.31
304.741	86.31
304.971	91.31
305.201	93.31
305.431	74.31
305.661	93.31
305.891	86.31
306.121	104.31
306.352	102.31
306.582	111.31
306.812	109.31
307.042	92.31
307.272	84.31
307.502	85.31
307.731	86.31
307.961	88.31
308.191	89.31
308.421	98.31
308.651	101.31
308.881	94.31
309.111	94.31
309.341	105.31
309.571	104.31
309.8	92.31
310.03	98.31
310.26	114.31
310.49	105.31
310.72	100.31
310.949	105.31
311.179	105.31
311.409	97.31
311.639	86.31
311.868	94.31
312.098	105.31
312.328	114.31
312.557	101.31
312.787	112.31
313.017	98.31
313.246	101.31
313.476	101.31
313.706	100.31
313.935	98.31
314.165	104.31
314.394	101.31
314.624	97.31
314.853	90.31
315.083	87.31
315.312	98.31
315.542	94.31
315.771	102.31
316.001	84.31
316.23	91.31
316.46	98.31
316.689	110.31
316.919	102.31
317.148	96.31
317.377	89.31
317.607	88.31
317.836	96.31
318.065	94.31
318.295	91.31
318.524	82.31
318.753	94.31
318.983	103.31
319.212	112.31
319.441	108.31
319.67	114.31
319.9	98.31
320.129	102.31
320.358	95.31
320.587	99.31
320.816	96.31
321.046	96.31
321.275	84.31
321.504	82.31
321.733	101.31
321.962	112.31
322.191	100.31
322.42	111.31
322.649	105.31
322.878	122.31
323.108	124.31
323.337	135.31
323.566	148.31
323.795	155.31
324.024	218.31
324.253	421.31
324.482	922.31
324.71	1891.31
324.939	2576.31
325.168	927.31
325.397	282.31
325.626	147.31
325.855	130.31
326.084	127.31
326.313	146.31
326.542	178.31
326.77	246.31
326.999	486.31
327.228	1017.31
327.457	1914.31
327.686	1541.31
327.914	405.31
328.143	214.31
328.372	149.31
328.6	121.31
328.829	128.31
329.058	132.31
329.287	147.31
329.515	109.31
329.744	97.31
329.972	85.31
330.201	116.31
330.43	87.31
330.658	141.31
330.887	146.31
331.115	125.31
331.344	96.31
331.572	100.31
331.801	113.31
332.03	112.31
332.258	111.31
332.486	98.31
332.715	90.31
332.943	96.31
333.172	96.31
333.4	101.31
333.629	118.31
333.857	106.31
334.085	106.31
334.314	98.31
334.542	88.31
334.771	102.31
334.999	100.31
335.227	102.31
335.455	89.31
335.684	117.31
335.912	102.31
336.14	107.31
336.369	96.31
336.597	104.31
336.825	97.31
337.053	109.31
337.281	87.31
337.51	94.31
337.738	93.31
337.966	90.31
338.194	105.31
338.422	105.31
338.65	86.31
338.878	98.31
339.106	102.31
339.334	91.31
339.562	85.31
339.79	95.31
340.018	90.31
340.246	95.31
340.474	97.31
340.702	88.31
340.93	80.31
341.158	83.31
341.386	104.31
341.614	111.31
341.842	100.31
342.07	84.31
342.298	97.31
342.526	100.31
342.754	103.31
342.981	92.31
343.209	95.31
343.437	100.31
343.665	97.31
343.893	88.31
344.12	98.31
344.348	105.31
344.576	93.31
344.804	97.31
345.031	105.31
345.259	105.31
345.487	97.31
345.714	101.31
345.942	101.31
346.17	88.31
346.397	96.31
346.625	95.31
346.853	81.31
347.08	96.31
347.308	98.31
347.535	100.31
347.763	113.31
347.99	101.31
348.218	113.31
348.445	101.31
348.673	100.31
348.9	99.31
349.128	110.31
349.355	94.31
349.583	96.31
349.81	100.31
350.037	96.31
350.265	103.31
350.492	87.31
350.72	117.31
350.947	89.31
351.174	124.31
351.402	133.31
351.629	102.31
351.856	119.31
352.083	110.31
352.311	107.31
352.538	102.31
352.765	124.31
352.992	129.31
353.22	130.31
353.447	105.31
353.674	101.31
353.901	81.31
354.128	96.31
354.355	104.31
354.583	115.31
354.81	103.31
355.037	102.31
355.264	110.31
355.491	104.31
355.718	92.31
355.945	79.31
356.172	94.31
356.399	99.31
356.626	95.31
356.853	99.31
357.08	103.31
357.307	96.31
357.534	97.31
357.761	94.31
357.988	93.31
358.215	92.31
358.441	90.31
358.668	88.31
358.895	91.31
359.122	96.31
359.349	93.31
359.576	117.31
359.802	102.31
360.029	121.31
360.256	118.31
360.483	97.31
360.709	94.31
360.936	94.31
361.163	99.31
361.39	100.31
361.616	92.31
361.843	100.31
362.07	86.31
362.296	99.31
362.523	103.31
362.749	90.31
362.976	93.31
363.203	96.31
363.429	90.31
363.656	103.31
363.882	97.31
364.109	92.31
364.335	103.31
364.562	99.31
364.788	105.31
365.015	93.31
365.241	108.31
365.468	122.31
365.694	113.31
365.92	98.31
366.147	104.31
366.373	99.31
366.599	87.31
366.826	88.31
367.052	97.31
367.278	88.31
367.505	90.31
367.731	98.31
367.957	89.31
368.184	86.31
368.41	92.31
368.636	114.31
368.862	119.31
369.089	120.31
369.315	85.31
369.541	98.31
369.767	91.31
369.993	88.31
370.219	96.31
370.445	103.31
370.672	88.31
370.898	93.31
371.124	96.31
371.35	81.31
371.576	85.31
371.802	98.31
372.028	88.31
372.254	92.31
372.48	65.31
372.706	78.31
372.932	84.31
373.158	96.31
373.384	105.31
373.61	102.31
373.835	98.31
374.061	86.31
374.287	93.31
374.513	96.31
374.739	88.31
374.965	88.31
375.191	105.31
375.416	93.31
375.642	93.31
375.868	92.31
376.094	82.31
376.319	87.31
376.545	82.31
376.771	79.31
376.997	90.31
377.222	82.31
377.448	87.31
377.674	93.31
377.899	73.31
378.125	93.31
378.35	103.31
378.576	88.31
378.802	81.31
379.027	97.31
379.253	102.31
379.478	86.31
379.704	97.31
379.929	82.31
380.155	86.31
380.38	99.31
380.606	99.31
380.831	104.31
381.057	106.31
381.282	100.31
381.507	80.31
381.733	88.31
381.958	92.31
382.184	82.31
382.409	108.31
382.634	100.31
382.86	108.31
383.085	100.31
383.31	105.31
383.535	95.31
383.761	96.31
383.986	109.31
384.211	99.31
384.436	110.31
384.662	112.31
384.887	120.31
385.112	98.31
385.337	110.31
385.562	114.31
385.787	112.31
386.013	119.31
386.238	110.31
386.463	114.31
386.688	125.31
386.913	100.31
387.138	92.31
387.363	112.31
387.588	93.31
387.813	103.31
388.038	107.31
388.263	119.31
388.488	106.31
388.713	93.31
388.938	85.31
389.163	103.31
389.387	96.31
389.612	94.31
389.837	97.31
390.062	89.31
390.287	95.31
390.512	92.31
390.736	97.31
390.961	87.31
391.186	98.31
391.411	93.31
391.636	94.31
391.86	85.31
392.085	83.31
392.31	88.31
392.534	92.31
392.759	80.31
392.984	85.31
393.208	96.31
393.433	88.31
393.658	91.31
393.882	90.31
394.107	92.31
394.331	92.31
394.556	84.31
394.78	91.31
395.005	84.31
395.229	80.31
395.454	96.31
395.678	84.31
395.903	98.31
396.127	86.31
396.352	98.31
396.576	96.31
396.801	96.31
397.025	84.31
397.249	84.31
397.474	89.31
397.698	80.31
397.922	84.31
398.147	101.31
398.371	92.31
398.595	90.31
398.82	97.31
399.044	82.31
399.268	87.31
399.492	94.31
399.717	89.31
399.941	75.31
400.165	102.31
400.389	100.31
400.613	94.31
400.837	93.31
401.062	100.31
401.286	97.31
401.51	97.31
401.734	94.31
401.958	103.31
402.182	128.31
402.406	163.31
402.63	141.31
402.854	87.31
403.078	84.31
403.302	101.31
403.526	70.31
403.75	89.31
403.974	79.31
404.198	106.31
404.422	91.31
404.645	84.31
404.869	98.31
405.093	93.31
405.317	98.31
405.541	109.31
405.765	101.31
405.988	113.31
406.212	178.31
406.436	249.31
406.66	160.31
406.883	102.31
407.107	118.31
407.331	119.31
407.555	114.31
407.778	105.31
408.002	108.31
408.226	87.31
408.449	81.31
408.673	104.31
408.896	102.31
409.12	89.31
409.344	103.31
409.567	98.31
409.791	99.31
410.014	106.31
410.238	97.31
410.461	88.31
410.685	92.31
410.908	107.31
411.132	112.31
411.355	98.31
411.578	96.31
411.802	97.31
412.025	88.31
412.249	99.31
412.472	87.31
412.695	88.31
412.919	91.31
413.142	103.31
413.365	84.31
413.589	105.31
413.812	88.31
414.035	87.31
414.258	100.31
414.482	93.31
414.705	97.31
414.928	95.31
415.151	96.31
415.374	105.31
415.597	80.31
415.821	97.31
416.044	96.31
416.267	69.31
416.49	95.31
416.713	83.31
416.936	94.31
417.159	116.31
417.382	78.31
417.605	94.31
417.828	92.31
418.051	98.31
418.274	82.31
418.497	81.31
418.72	79.31
418.943	97.31
419.166	81.31
419.389	94.31
419.611	85.31
419.834	105.31
420.057	101.31
420.28	90.31
420.503	95.31
420.726	91.31
420.948	81.31
421.171	116.31
421.394	99.31
421.617	74.31
421.839	91.31
422.062	87.31
422.285	109.31
422.507	117.31
422.73	111.31
422.953	113.31
423.175	98.31
423.398	101.31
423.621	87.31
423.843	88.31
424.066	87.31
424.288	101.31
424.511	101.31
424.733	108.31
424.956	123.31
425.178	110.31
425.401	114.31
425.623	116.31
425.846	98.31
426.068	98.31
426.291	104.31
426.513	96.31
426.735	103.31
426.958	103.31
427.18	102.31
427.402	154.31
427.625	192.31
427.847	138.31
428.069	113.31
428.292	93.31
428.514	93.31
428.736	84.31
428.958	96.31
429.181	89.31
429.403	89.31
429.625	99.31
429.847	104.31
430.069	89.31
430.292	94.31
430.514	84.31
430.736	102.31
430.958	96.31
431.18	85.31
431.402	79.31
431.624	85.31
431.846	96.31
432.068	88.31
432.29	96.31
432.512	93.31
432.734	93.31
432.956	102.31
433.178	107.31
433.4	104.31
433.622	101.31
433.844	106.31
434.066	98.31
434.287	92.31
434.509	102.31
434.731	97.31
434.953	85.31
435.175	79.31
435.397	95.31
435.618	101.31
435.84	103.31
436.062	125.31
436.284	142.31
436.505	107.31
436.727	116.31
436.949	112.31
437.17	88.31
437.392	90.31
437.614	104.31
437.835	115.31
438.057	136.31
438.278	121.31
438.5	114.31
438.721	147.31
438.943	114.31
439.165	87.31
439.386	97.31
439.608	94.31
439.829	105.31
440.05	132.31
440.272	160.31
440.493	112.31
440.715	95.31
440.936	82.31
441.158	99.31
441.379	88.31
441.6	98.31
441.822	105.31
442.043	94.31
442.264	125.31
442.486	109.31
442.707	112.31
442.928	109.31
443.149	154.31
443.371	148.31
443.592	121.31
443.813	114.31
444.034	114.31
444.255	115.31
444.476	96.31
444.698	100.31
444.919	96.31
445.14	137.31
445.361	134.31
445.582	136.31
445.803	170.31
446.024	150.31
446.245	160.31
446.466	133.31
446.687	97.31
446.908	92.31
447.129	92.31
447.35	86.31
447.571	99.31
447.792	101.31
448.013	108.31
448.234	114.31
448.455	123.31
448.675	118.31
448.896	146.31
449.117	110.31
449.338	123.31
449.559	144.31
449.779	153.31
450	120.31
450.221	104.31
450.442	93.31
450.662	110.31
450.883	120.31
451.104	130.31
451.324	100.31
451.545	100.31
451.766	98.31
451.986	94.31
452.207	104.31
452.428	87.31
452.648	102.31
452.869	107.31
453.089	123.31
453.31	118.31
453.53	101.31
453.751	96.31
453.971	99.31
454.192	109.31
454.412	94.31
454.633	94.31
454.853	95.31
455.073	105.31
455.294	96.31
455.514	108.31
455.734	104.31
455.955	102.31
456.175	96.31
456.395	100.31
456.616	82.31
456.836	88.31
457.056	79.31
457.276	80.31
457.497	95.31
457.717	82.31
457.937	97.31
458.157	89.31
458.377	96.31
458.598	119.31
458.818	153.31
459.038	175.31
459.258	129.31
459.478	86.31
459.698	80.31
459.918	98.31
460.138	98.31
460.358	73.31
460.578	87.31
460.798	85.31
461.018	90.31
461.238	106.31
461.458	79.31
461.678	86.31
461.898	90.31
462.118	87.31
462.338	93.31
462.558	94.31
462.777	100.31
462.997	78.31
463.217	106.31
463.437	79.31
463.657	88.31
463.876	88.31
464.096	97.31
464.316	88.31
464.536	104.31
464.755	90.31
464.975	110.31
465.195	174.31
465.414	179.31
465.634	104.31
465.854	95.31
466.073	81.31
466.293	87.31
466.512	105.31
466.732	88.31
466.951	98.31
467.171	115.31
467.391	80.31
467.61	110.31
467.829	97.31
468.049	92.31
468.268	95.31
468.488	84.31
468.707	86.31
468.927	91.31
469.146	82.31
469.365	87.31
469.585	82.31
469.804	98.31
470.023	97.31
470.243	103.31
470.462	92.31
470.681	129.31
470.901	100.31
471.12	102.31
471.339	87.31
471.558	108.31
471.777	91.31
471.997	93.31
472.216	89.31
472.435	110.31
472.654	88.31
472.873	95.31
473.092	95.31
473.311	98.31
473.53	107.31
473.749	102.31
473.968	96.31
474.187	113.31
474.406	93.31
474.625	97.31
474.844	106.31
475.063	101.31
475.282	92.31
475.501	94.31
475.72	92.31
475.939	90.31
476.158	96.31
476.377	102.31
476.596	97.31
476.814	93.31
477.033	98.31
477.252	77.31
477.471	97.31
477.69	85.31
477.908	94.31
478.127	105.31
478.346	89.31
478.564	96.31
478.783	100.31
479.002	110.31
479.22	96.31
479.439	107.31
479.658	108.31
479.876	103.31
480.095	86.31
480.313	96.31
480.532	86.31
480.751	88.31
480.969	95.31
481.188	103.31
481.406	110.31
481.624	102.31
481.843	94.31
482.061	88.31
482.28	92.31
482.498	91.31
482.717	83.31
482.935	92.31
483.153	97.31
483.372	83.31
483.59	96.31
483.808	93.31
484.027	97.31
484.245	109.31
484.463	96.31
484.681	100.31
484.9	96.31
485.118	85.31
485.336	91.31
485.554	107.31
485.772	112.31
485.99	102.31
486.209	103.31
486.427	118.31
486.645	116.31
486.863	123.31
487.081	95.31
487.299	87.31
487.517	97.31
487.735	88.31
487.953	102.31
488.171	103.31
488.389	105.31
488.607	97.31
488.825	102.31
489.043	96.31
489.261	89.31
489.479	88.31
489.696	85.31
489.914	90.31
490.132	97.31
490.35	100.31
490.568	90.31
490.786	97.31
491.003	91.31
491.221	93.31
491.439	114.31
491.657	90.31
491.874	111.31
492.092	109.31
492.31	95.31
492.527	92.31
492.745	90.31
492.963	92.31
493.18	85.31
493.398	100.31
493.615	108.31
493.833	84.31
494.05	112.31
494.268	99.31
494.485	104.31
494.703	87.31
494.92	110.31
495.138	97.31
495.355	97.31
495.573	97.31
495.79	77.31
496.008	99.31
496.225	95.31
496.442	103.31
496.66	95.31
496.877	94.31
497.094	87.31
497.312	105.31
497.529	96.31
497.746	88.31
497.963	101.31
498.181	98.31
498.398	114.31
498.615	115.31
498.832	97.31
499.049	94.31
499.267	91.31
499.484	92.31
499.701	93.31
499.918	99.31
500.135	91.31
500.352	95.31
500.569	88.31
500.786	93.31
501.003	91.31
501.22	90.31
501.437	92.31
501.654	98.31
501.871	120.31
502.088	90.31
502.305	96.31
502.522	96.31
502.739	100.31
502.956	97.31
503.172	106.31
503.389	107.31
503.606	111.31
503.823	88.31
504.04	84.31
504.256	94.31
504.473	85.31
504.69	87.31
504.907	98.31
505.123	95.31
505.34	80.31
505.557	97.31
505.773	93.31
505.99	74.31
506.207	106.31
506.423	99.31
506.64	108.31
506.856	96.31
507.073	91.31
507.289	86.31
507.506	96.31
507.722	129.31
507.939	131.31
508.155	107.31
508.372	101.31
508.588	109.31
508.805	109.31
509.021	94.31
509.238	101.31
509.454	118.31
509.67	106.31
509.887	117.31
510.103	127.31
510.319	227.31
510.536	788.31
510.752	2476.31
510.968	672.31
511.184	156.31
511.401	124.31
511.617	98.31
511.833	86.31
512.049	95.31
512.265	97.31
512.481	100.31
512.698	101.31
512.914	95.31
513.13	107.31
513.346	91.31
513.562	94.31
513.778	85.31
