Data from Uncirc_1991_H10_HRD10591_00023.txt Node
Date: Wed Jan 03 11:50:42 EST 2024
User: Yrep
Spectrometer: HR+D1059
Trigger mode: 1
Integration Time (sec): 1.000000E-1
Scans to average: 1
Electric dark correction enabled: true
Nonlinearity correction enabled: false
Boxcar width: 0
XAxis mode: Wavelengths
Number of Pixels in Spectrum: 2048
>>>>>Begin Spectral Data<<<<<
223.165	-24.94
223.4	-24.94
223.635	-24.94
223.869	-13.94
224.104	-30.94
224.338	-4.94
224.573	-7.94
224.808	-21.94
225.042	-2.94
225.277	-5.94
225.511	-4.94
225.746	5.06
225.98	10.06
226.215	1.06
226.449	17.06
226.683	28.06
226.918	33.06
227.152	24.06
227.387	36.06
227.621	36.06
227.856	44.06
228.09	37.06
228.324	46.06
228.559	55.06
228.793	61.06
229.027	61.06
229.262	64.06
229.496	72.06
229.73	90.06
229.964	84.06
230.199	71.06
230.433	68.06
230.667	76.06
230.901	73.06
231.136	81.06
231.37	83.06
231.604	77.06
231.838	67.06
232.072	67.06
232.306	73.06
232.541	76.06
232.775	83.06
233.009	71.06
233.243	92.06
233.477	68.06
233.711	77.06
233.945	76.06
234.179	72.06
234.413	69.06
234.647	92.06
234.881	66.06
235.115	65.06
235.349	72.06
235.583	98.06
235.817	78.06
236.051	58.06
236.285	79.06
236.519	84.06
236.753	75.06
236.987	85.06
237.221	82.06
237.455	90.06
237.689	65.06
237.922	80.06
238.156	82.06
238.39	65.06
238.624	65.06
238.858	73.06
239.091	76.06
239.325	73.06
239.559	86.06
239.793	89.06
240.027	83.06
240.26	94.06
240.494	76.06
240.728	76.06
240.961	72.06
241.195	72.06
241.429	74.06
241.662	58.06
241.896	72.06
242.13	77.06
242.363	62.06
242.597	64.06
242.83	72.06
243.064	76.06
243.298	75.06
243.531	79.06
243.765	71.06
243.998	91.06
244.232	82.06
244.465	68.06
244.699	66.06
244.932	72.06
245.166	70.06
245.399	74.06
245.633	71.06
245.866	70.06
246.099	80.06
246.333	73.06
246.566	72.06
246.8	81.06
247.033	75.06
247.266	71.06
247.5	83.06
247.733	73.06
247.966	73.06
248.2	89.06
248.433	82.06
248.666	66.06
248.899	83.06
249.133	84.06
249.366	93.06
249.599	89.06
249.832	81.06
250.066	79.06
250.299	68.06
250.532	78.06
250.765	82.06
250.998	76.06
251.231	68.06
251.465	64.06
251.698	67.06
251.931	84.06
252.164	83.06
252.397	100.06
252.63	68.06
252.863	83.06
253.096	72.06
253.329	89.06
253.562	80.06
253.795	81.06
254.028	80.06
254.261	78.06
254.494	71.06
254.727	80.06
254.96	70.06
255.193	82.06
255.426	83.06
255.659	87.06
255.892	77.06
256.124	68.06
256.357	78.06
256.59	61.06
256.823	66.06
257.056	83.06
257.289	72.06
257.521	71.06
257.754	75.06
257.987	78.06
258.22	69.06
258.452	78.06
258.685	82.06
258.918	71.06
259.151	66.06
259.383	80.06
259.616	96.06
259.849	68.06
260.081	75.06
260.314	69.06
260.547	91.06
260.779	82.06
261.012	79.06
261.244	75.06
261.477	91.06
261.71	75.06
261.942	114.06
262.175	97.06
262.407	90.06
262.64	81.06
262.872	76.06
263.105	75.06
263.337	72.06
263.57	92.06
263.802	86.06
264.035	88.06
264.267	73.06
264.499	108.06
264.732	75.06
264.964	77.06
265.197	99.06
265.429	73.06
265.661	79.06
265.894	73.06
266.126	90.06
266.358	86.06
266.591	76.06
266.823	89.06
267.055	80.06
267.287	95.06
267.52	90.06
267.752	80.06
267.984	82.06
268.216	85.06
268.448	84.06
268.681	72.06
268.913	92.06
269.145	85.06
269.377	80.06
269.609	76.06
269.841	81.06
270.073	93.06
270.306	78.06
270.538	96.06
270.77	81.06
271.002	75.06
271.234	82.06
271.466	89.06
271.698	74.06
271.93	74.06
272.162	93.06
272.394	90.06
272.626	67.06
272.858	58.06
273.09	78.06
273.322	72.06
273.553	71.06
273.785	70.06
274.017	84.06
274.249	87.06
274.481	89.06
274.713	80.06
274.945	88.06
275.176	80.06
275.408	93.06
275.64	79.06
275.872	71.06
276.104	79.06
276.335	96.06
276.567	99.06
276.799	82.06
277.031	88.06
277.262	84.06
277.494	75.06
277.726	94.06
277.957	81.06
278.189	70.06
278.421	78.06
278.652	84.06
278.884	87.06
279.115	92.06
279.347	76.06
279.579	74.06
279.81	81.06
280.042	78.06
280.273	74.06
280.505	82.06
280.736	75.06
280.968	96.06
281.199	81.06
281.431	90.06
281.662	86.06
281.894	95.06
282.125	97.06
282.356	107.06
282.588	130.06
282.819	102.06
283.051	82.06
283.282	89.06
283.513	86.06
283.745	78.06
283.976	91.06
284.207	66.06
284.439	75.06
284.67	82.06
284.901	82.06
285.132	82.06
285.364	98.06
285.595	82.06
285.826	93.06
286.057	94.06
286.288	95.06
286.52	79.06
286.751	80.06
286.982	91.06
287.213	87.06
287.444	85.06
287.675	84.06
287.906	88.06
288.138	85.06
288.369	87.06
288.6	106.06
288.831	80.06
289.062	94.06
289.293	89.06
289.524	83.06
289.755	83.06
289.986	91.06
290.217	79.06
290.448	90.06
290.679	72.06
290.91	90.06
291.141	71.06
291.371	84.06
291.602	88.06
291.833	75.06
292.064	78.06
292.295	76.06
292.526	74.06
292.757	93.06
292.987	69.06
293.218	91.06
293.449	90.06
293.68	82.06
293.91	76.06
294.141	93.06
294.372	93.06
294.603	82.06
294.833	91.06
295.064	72.06
295.295	87.06
295.525	80.06
295.756	94.06
295.987	96.06
296.217	124.06
296.448	104.06
296.679	98.06
296.909	89.06
297.14	77.06
297.37	94.06
297.601	82.06
297.831	78.06
298.062	84.06
298.292	69.06
298.523	90.06
298.753	93.06
298.984	90.06
299.214	78.06
299.445	97.06
299.675	84.06
299.905	98.06
300.136	72.06
300.366	75.06
300.597	93.06
300.827	91.06
301.057	90.06
301.288	93.06
301.518	95.06
301.748	93.06
301.979	97.06
302.209	88.06
302.439	74.06
302.669	90.06
302.9	96.06
303.13	87.06
303.36	106.06
303.59	92.06
303.82	120.06
304.051	87.06
304.281	102.06
304.511	95.06
304.741	110.06
304.971	106.06
305.201	64.06
305.431	89.06
305.661	82.06
305.891	74.06
306.121	91.06
306.352	107.06
306.582	99.06
306.812	75.06
307.042	86.06
307.272	94.06
307.502	103.06
307.731	86.06
307.961	99.06
308.191	89.06
308.421	86.06
308.651	93.06
308.881	98.06
309.111	101.06
309.341	85.06
309.571	93.06
309.8	91.06
310.03	95.06
310.26	94.06
310.49	93.06
310.72	87.06
310.949	96.06
311.179	89.06
311.409	84.06
311.639	96.06
311.868	87.06
312.098	106.06
312.328	83.06
312.557	98.06
312.787	95.06
313.017	91.06
313.246	87.06
313.476	82.06
313.706	91.06
313.935	98.06
314.165	75.06
314.394	105.06
314.624	89.06
314.853	95.06
315.083	92.06
315.312	78.06
315.542	84.06
315.771	85.06
316.001	92.06
316.23	88.06
316.46	78.06
316.689	102.06
316.919	91.06
317.148	91.06
317.377	97.06
317.607	107.06
317.836	82.06
318.065	94.06
318.295	90.06
318.524	93.06
318.753	89.06
318.983	83.06
319.212	95.06
319.441	120.06
319.67	90.06
319.9	94.06
320.129	86.06
320.358	88.06
320.587	80.06
320.816	91.06
321.046	103.06
321.275	91.06
321.504	95.06
321.733	90.06
321.962	99.06
322.191	92.06
322.42	99.06
322.649	108.06
322.878	112.06
323.108	119.06
323.337	127.06
323.566	125.06
323.795	132.06
324.024	180.06
324.253	406.06
324.482	834.06
324.71	1759.06
324.939	2275.06
325.168	823.06
325.397	245.06
325.626	150.06
325.855	136.06
326.084	118.06
326.313	140.06
326.542	158.06
326.77	245.06
326.999	459.06
327.228	972.06
327.457	1793.06
327.686	1420.06
327.914	365.06
328.143	183.06
328.372	143.06
328.6	118.06
328.829	107.06
329.058	113.06
329.287	116.06
329.515	120.06
329.744	103.06
329.972	111.06
330.201	108.06
330.43	100.06
330.658	117.06
330.887	146.06
331.115	126.06
331.344	89.06
331.572	103.06
331.801	99.06
332.03	102.06
332.258	96.06
332.486	87.06
332.715	87.06
332.943	78.06
333.172	84.06
333.4	98.06
333.629	110.06
333.857	119.06
334.085	102.06
334.314	100.06
334.542	78.06
334.771	94.06
334.999	65.06
335.227	87.06
335.455	97.06
335.684	96.06
335.912	91.06
336.14	87.06
336.369	90.06
336.597	82.06
336.825	92.06
337.053	91.06
337.281	88.06
337.51	91.06
337.738	84.06
337.966	76.06
338.194	88.06
338.422	87.06
338.65	98.06
338.878	74.06
339.106	82.06
339.334	83.06
339.562	101.06
339.79	86.06
340.018	85.06
340.246	93.06
340.474	88.06
340.702	84.06
340.93	97.06
341.158	72.06
341.386	86.06
341.614	81.06
341.842	86.06
342.07	104.06
342.298	105.06
342.526	83.06
342.754	84.06
342.981	91.06
343.209	93.06
343.437	94.06
343.665	77.06
343.893	100.06
344.12	93.06
344.348	86.06
344.576	80.06
344.804	94.06
345.031	99.06
345.259	103.06
345.487	72.06
345.714	87.06
345.942	93.06
346.17	82.06
346.397	95.06
346.625	83.06
346.853	110.06
347.08	93.06
347.308	85.06
347.535	97.06
347.763	99.06
347.99	98.06
348.218	101.06
348.445	95.06
348.673	110.06
348.9	99.06
349.128	94.06
349.355	95.06
349.583	85.06
349.81	93.06
350.037	87.06
350.265	105.06
350.492	88.06
350.72	100.06
350.947	108.06
351.174	112.06
351.402	109.06
351.629	100.06
351.856	99.06
352.083	94.06
352.311	105.06
352.538	100.06
352.765	126.06
352.992	108.06
353.22	91.06
353.447	92.06
353.674	97.06
353.901	77.06
354.128	90.06
354.355	94.06
354.583	87.06
354.81	96.06
355.037	92.06
355.264	94.06
355.491	96.06
355.718	91.06
355.945	97.06
356.172	89.06
356.399	86.06
356.626	78.06
356.853	87.06
357.08	87.06
357.307	96.06
357.534	83.06
357.761	86.06
357.988	96.06
358.215	92.06
358.441	84.06
358.668	93.06
358.895	97.06
359.122	92.06
359.349	96.06
359.576	89.06
359.802	94.06
360.029	107.06
360.256	109.06
360.483	98.06
360.709	83.06
360.936	90.06
361.163	104.06
361.39	73.06
361.616	98.06
361.843	86.06
362.07	91.06
362.296	95.06
362.523	100.06
362.749	97.06
362.976	83.06
363.203	104.06
363.429	67.06
363.656	81.06
363.882	98.06
364.109	87.06
364.335	88.06
364.562	97.06
364.788	97.06
365.015	93.06
365.241	79.06
365.468	103.06
365.694	107.06
365.92	98.06
366.147	83.06
366.373	90.06
366.599	94.06
366.826	94.06
367.052	98.06
367.278	89.06
367.505	103.06
367.731	93.06
367.957	95.06
368.184	92.06
368.41	104.06
368.636	103.06
368.862	111.06
369.089	88.06
369.315	90.06
369.541	89.06
369.767	85.06
369.993	92.06
370.219	75.06
370.445	78.06
370.672	82.06
370.898	94.06
371.124	88.06
371.35	82.06
371.576	86.06
371.802	83.06
372.028	70.06
372.254	99.06
372.48	92.06
372.706	82.06
372.932	91.06
373.158	92.06
373.384	89.06
373.61	76.06
373.835	97.06
374.061	98.06
374.287	89.06
374.513	78.06
374.739	98.06
374.965	73.06
375.191	79.06
375.416	94.06
375.642	75.06
375.868	87.06
376.094	81.06
376.319	97.06
376.545	81.06
376.771	96.06
376.997	84.06
377.222	73.06
377.448	86.06
377.674	96.06
377.899	78.06
378.125	75.06
378.35	83.06
378.576	86.06
378.802	87.06
379.027	86.06
379.253	86.06
379.478	95.06
379.704	98.06
379.929	90.06
380.155	86.06
380.38	100.06
380.606	109.06
380.831	91.06
381.057	84.06
381.282	82.06
381.507	95.06
381.733	78.06
381.958	86.06
382.184	90.06
382.409	94.06
382.634	100.06
382.86	82.06
383.085	90.06
383.31	96.06
383.535	88.06
383.761	101.06
383.986	75.06
384.211	86.06
384.436	101.06
384.662	97.06
384.887	92.06
385.112	106.06
385.337	98.06
385.562	89.06
385.787	103.06
386.013	95.06
386.238	116.06
386.463	105.06
386.688	93.06
386.913	98.06
387.138	98.06
387.363	100.06
387.588	100.06
387.813	105.06
388.038	94.06
388.263	108.06
388.488	100.06
388.713	94.06
388.938	97.06
389.163	86.06
389.387	95.06
389.612	84.06
389.837	98.06
390.062	83.06
390.287	90.06
390.512	79.06
390.736	88.06
390.961	96.06
391.186	86.06
391.411	90.06
391.636	101.06
391.86	78.06
392.085	73.06
392.31	84.06
392.534	88.06
392.759	81.06
392.984	90.06
393.208	94.06
393.433	84.06
393.658	82.06
393.882	90.06
394.107	94.06
394.331	95.06
394.556	93.06
394.78	87.06
395.005	94.06
395.229	96.06
395.454	79.06
395.678	72.06
395.903	85.06
396.127	83.06
396.352	92.06
396.576	89.06
396.801	100.06
397.025	72.06
397.249	87.06
397.474	91.06
397.698	87.06
397.922	83.06
398.147	94.06
398.371	82.06
398.595	90.06
398.82	79.06
399.044	68.06
399.268	96.06
399.492	76.06
399.717	90.06
399.941	92.06
400.165	108.06
400.389	96.06
400.613	96.06
400.837	77.06
401.062	85.06
401.286	103.06
401.51	96.06
401.734	90.06
401.958	95.06
402.182	135.06
402.406	128.06
402.63	111.06
402.854	83.06
403.078	73.06
403.302	81.06
403.526	93.06
403.75	87.06
403.974	92.06
404.198	90.06
404.422	96.06
404.645	81.06
404.869	94.06
405.093	90.06
405.317	93.06
405.541	94.06
405.765	89.06
405.988	99.06
406.212	147.06
406.436	193.06
406.66	136.06
406.883	88.06
407.107	93.06
407.331	96.06
407.555	100.06
407.778	84.06
408.002	84.06
408.226	92.06
408.449	83.06
408.673	81.06
408.896	82.06
409.12	99.06
409.344	94.06
409.567	87.06
409.791	99.06
410.014	75.06
410.238	95.06
410.461	89.06
410.685	100.06
410.908	96.06
411.132	92.06
411.355	101.06
411.578	86.06
411.802	84.06
412.025	91.06
412.249	87.06
412.472	88.06
412.695	85.06
412.919	96.06
413.142	97.06
413.365	74.06
413.589	89.06
413.812	89.06
414.035	84.06
414.258	66.06
414.482	90.06
414.705	87.06
414.928	87.06
415.151	90.06
415.374	98.06
415.597	82.06
415.821	74.06
416.044	90.06
416.267	98.06
416.49	98.06
416.713	86.06
416.936	97.06
417.159	86.06
417.382	95.06
417.605	85.06
417.828	88.06
418.051	79.06
418.274	88.06
418.497	86.06
418.72	76.06
418.943	91.06
419.166	80.06
419.389	86.06
419.611	82.06
419.834	80.06
420.057	103.06
420.28	94.06
420.503	83.06
420.726	69.06
420.948	79.06
421.171	80.06
421.394	95.06
421.617	97.06
421.839	84.06
422.062	93.06
422.285	89.06
422.507	98.06
422.73	104.06
422.953	89.06
423.175	92.06
423.398	78.06
423.621	91.06
423.843	87.06
424.066	88.06
424.288	98.06
424.511	97.06
424.733	120.06
424.956	104.06
425.178	96.06
425.401	97.06
425.623	87.06
425.846	91.06
426.068	87.06
426.291	80.06
426.513	87.06
426.735	82.06
426.958	99.06
427.18	102.06
427.402	128.06
427.625	170.06
427.847	127.06
428.069	109.06
428.292	86.06
428.514	84.06
428.736	98.06
428.958	88.06
429.181	91.06
429.403	93.06
429.625	96.06
429.847	101.06
430.069	106.06
430.292	86.06
430.514	71.06
430.736	80.06
430.958	81.06
431.18	87.06
431.402	92.06
431.624	80.06
431.846	85.06
432.068	96.06
432.29	77.06
432.512	82.06
432.734	90.06
432.956	89.06
433.178	106.06
433.4	97.06
433.622	93.06
433.844	91.06
434.066	82.06
434.287	78.06
434.509	94.06
434.731	75.06
434.953	94.06
435.175	94.06
435.397	91.06
435.618	78.06
435.84	92.06
436.062	127.06
436.284	109.06
436.505	105.06
436.727	90.06
436.949	84.06
437.17	78.06
437.392	90.06
437.614	90.06
437.835	103.06
438.057	128.06
438.278	118.06
438.5	118.06
438.721	134.06
438.943	102.06
439.165	82.06
439.386	94.06
439.608	82.06
439.829	100.06
440.05	118.06
440.272	139.06
440.493	94.06
440.715	86.06
440.936	87.06
441.158	89.06
441.379	89.06
441.6	91.06
441.822	87.06
442.043	87.06
442.264	102.06
442.486	92.06
442.707	94.06
442.928	102.06
443.149	129.06
443.371	125.06
443.592	105.06
443.813	116.06
444.034	114.06
444.255	87.06
444.476	93.06
444.698	94.06
444.919	91.06
445.14	128.06
445.361	113.06
445.582	107.06
445.803	141.06
446.024	151.06
446.245	137.06
446.466	111.06
446.687	89.06
446.908	75.06
447.129	94.06
447.35	84.06
447.571	110.06
447.792	83.06
448.013	96.06
448.234	108.06
448.455	89.06
448.675	102.06
448.896	140.06
449.117	82.06
449.338	99.06
449.559	136.06
449.779	145.06
450	100.06
450.221	90.06
450.442	100.06
450.662	99.06
450.883	106.06
451.104	110.06
451.324	91.06
451.545	88.06
451.766	78.06
451.986	92.06
452.207	71.06
452.428	89.06
452.648	99.06
452.869	108.06
453.089	119.06
453.31	106.06
453.53	105.06
453.751	89.06
453.971	96.06
454.192	97.06
454.412	82.06
454.633	86.06
454.853	65.06
455.073	78.06
455.294	81.06
455.514	89.06
455.734	75.06
455.955	107.06
456.175	89.06
456.395	106.06
456.616	75.06
456.836	97.06
457.056	94.06
457.276	86.06
457.497	74.06
457.717	101.06
457.937	93.06
458.157	81.06
458.377	94.06
458.598	114.06
458.818	144.06
459.038	158.06
459.258	127.06
459.478	89.06
459.698	84.06
459.918	86.06
460.138	96.06
460.358	83.06
460.578	89.06
460.798	74.06
461.018	84.06
461.238	82.06
461.458	91.06
461.678	91.06
461.898	93.06
462.118	75.06
462.338	67.06
462.558	64.06
462.777	92.06
462.997	71.06
463.217	87.06
463.437	91.06
463.657	82.06
463.876	71.06
464.096	88.06
464.316	81.06
464.536	82.06
464.755	99.06
464.975	109.06
465.195	141.06
465.414	164.06
465.634	85.06
465.854	86.06
466.073	96.06
466.293	82.06
466.512	75.06
466.732	85.06
466.951	77.06
467.171	84.06
467.391	102.06
467.61	100.06
467.829	97.06
468.049	103.06
468.268	79.06
468.488	88.06
468.707	83.06
468.927	89.06
469.146	91.06
469.365	79.06
469.585	90.06
469.804	84.06
470.023	98.06
470.243	91.06
470.462	99.06
470.681	103.06
470.901	95.06
471.12	89.06
471.339	91.06
471.558	98.06
471.777	76.06
471.997	88.06
472.216	96.06
472.435	79.06
472.654	86.06
472.873	91.06
473.092	86.06
473.311	99.06
473.53	97.06
473.749	87.06
473.968	106.06
474.187	118.06
474.406	98.06
474.625	82.06
474.844	89.06
475.063	74.06
475.282	77.06
475.501	88.06
475.72	83.06
475.939	76.06
476.158	83.06
476.377	85.06
476.596	86.06
476.814	92.06
477.033	100.06
477.252	89.06
477.471	81.06
477.69	92.06
477.908	100.06
478.127	95.06
478.346	86.06
478.564	91.06
478.783	100.06
479.002	90.06
479.22	82.06
479.439	104.06
479.658	96.06
479.876	90.06
480.095	79.06
480.313	91.06
480.532	80.06
480.751	89.06
480.969	85.06
481.188	83.06
481.406	86.06
481.624	86.06
481.843	71.06
482.061	93.06
482.28	84.06
482.498	85.06
482.717	76.06
482.935	82.06
483.153	73.06
483.372	83.06
483.59	90.06
483.808	86.06
484.027	111.06
484.245	98.06
484.463	97.06
484.681	99.06
484.9	93.06
485.118	106.06
485.336	92.06
485.554	97.06
485.772	100.06
485.99	93.06
486.209	88.06
486.427	120.06
486.645	116.06
486.863	116.06
487.081	94.06
487.299	95.06
487.517	106.06
487.735	95.06
487.953	98.06
488.171	90.06
488.389	94.06
488.607	99.06
488.825	89.06
489.043	74.06
489.261	101.06
489.479	91.06
489.696	85.06
489.914	94.06
490.132	84.06
490.35	82.06
490.568	87.06
490.786	74.06
491.003	79.06
491.221	91.06
491.439	106.06
491.657	82.06
491.874	86.06
492.092	93.06
492.31	86.06
492.527	106.06
492.745	94.06
492.963	91.06
493.18	87.06
493.398	97.06
493.615	91.06
493.833	96.06
494.05	96.06
494.268	75.06
494.485	94.06
494.703	94.06
494.92	83.06
495.138	98.06
495.355	100.06
495.573	87.06
495.79	80.06
496.008	99.06
496.225	88.06
496.442	82.06
496.66	93.06
496.877	84.06
497.094	88.06
497.312	78.06
497.529	83.06
497.746	84.06
497.963	82.06
498.181	88.06
498.398	77.06
498.615	103.06
498.832	90.06
499.049	96.06
499.267	98.06
499.484	92.06
499.701	89.06
499.918	82.06
500.135	97.06
500.352	83.06
500.569	87.06
500.786	88.06
501.003	80.06
501.22	91.06
501.437	105.06
501.654	87.06
501.871	95.06
502.088	91.06
502.305	83.06
502.522	86.06
502.739	90.06
502.956	84.06
503.172	105.06
503.389	86.06
503.606	93.06
503.823	91.06
504.04	96.06
504.256	70.06
504.473	79.06
504.69	90.06
504.907	99.06
505.123	71.06
505.34	87.06
505.557	88.06
505.773	81.06
505.99	92.06
506.207	90.06
506.423	89.06
506.64	87.06
506.856	95.06
507.073	82.06
507.289	85.06
507.506	102.06
507.722	113.06
507.939	99.06
508.155	86.06
508.372	87.06
508.588	93.06
508.805	84.06
509.021	89.06
509.238	88.06
509.454	90.06
509.67	100.06
509.887	106.06
510.103	121.06
510.319	203.06
510.536	718.06
510.752	2143.06
510.968	610.06
511.184	150.06
511.401	110.06
511.617	98.06
511.833	92.06
512.049	86.06
512.265	98.06
512.481	79.06
512.698	87.06
512.914	86.06
513.13	102.06
513.346	83.06
513.562	89.06
513.778	98.06
513.994	81.06
514.21	77.06
514.426	112.06
514.642	128.06
514.858	110.06
515.074	155.06
515.29	437.06
515.506	1395.06
515.721	515.06
515.937	151.06
516.153	109.06
516.369	87.06
516.585	90.06
516.801	80.06
