Data from Uncirc_1991_H10_HRD10591_00026.txt Node
Date: Wed Jan 03 11:50:43 EST 2024
User: Yrep
Spectrometer: HR+D1059
Trigger mode: 1
Integration Time (sec): 1.000000E-1
Scans to average: 1
Electric dark correction enabled: true
Nonlinearity correction enabled: false
Boxcar width: 0
XAxis mode: Wavelengths
Number of Pixels in Spectrum: 2048
>>>>>Begin Spectral Data<<<<<
223.165	-14.75
223.4	-14.75
223.635	-14.75
223.869	-7.75
224.104	-15.75
224.338	-5.75
224.573	-17.75
224.808	-2.75
225.042	-3.75
225.277	-9.75
225.511	8.25
225.746	1.25
225.98	5.25
226.215	7.25
226.449	7.25
226.683	12.25
226.918	12.25
227.152	24.25
227.387	23.25
227.621	33.25
227.856	43.25
228.09	52.25
228.324	40.25
228.559	52.25
228.793	71.25
229.027	64.25
229.262	49.25
229.496	77.25
229.73	87.25
229.964	75.25
230.199	51.25
230.433	76.25
230.667	68.25
230.901	81.25
231.136	64.25
231.37	58.25
231.604	75.25
231.838	74.25
232.072	76.25
232.306	80.25
232.541	82.25
232.775	78.25
233.009	74.25
233.243	74.25
233.477	80.25
233.711	68.25
233.945	86.25
234.179	87.25
234.413	80.25
234.647	72.25
234.881	71.25
235.115	89.25
235.349	69.25
235.583	74.25
235.817	70.25
236.051	71.25
236.285	65.25
236.519	73.25
236.753	78.25
236.987	67.25
237.221	61.25
237.455	88.25
237.689	91.25
237.922	67.25
238.156	79.25
238.39	70.25
238.624	76.25
238.858	75.25
239.091	82.25
239.325	73.25
239.559	106.25
239.793	71.25
240.027	69.25
240.26	89.25
240.494	66.25
240.728	66.25
240.961	80.25
241.195	81.25
241.429	73.25
241.662	71.25
241.896	83.25
242.13	84.25
242.363	86.25
242.597	60.25
242.83	58.25
243.064	71.25
243.298	86.25
243.531	64.25
243.765	70.25
243.998	76.25
244.232	79.25
244.465	87.25
244.699	76.25
244.932	72.25
245.166	89.25
245.399	80.25
245.633	80.25
245.866	78.25
246.099	71.25
246.333	86.25
246.566	78.25
246.8	87.25
247.033	67.25
247.266	70.25
247.5	69.25
247.733	79.25
247.966	87.25
248.2	71.25
248.433	67.25
248.666	88.25
248.899	84.25
249.133	83.25
249.366	82.25
249.599	98.25
249.832	73.25
250.066	72.25
250.299	78.25
250.532	91.25
250.765	66.25
250.998	74.25
251.231	88.25
251.465	74.25
251.698	82.25
251.931	63.25
252.164	75.25
252.397	76.25
252.63	75.25
252.863	82.25
253.096	87.25
253.329	80.25
253.562	76.25
253.795	79.25
254.028	82.25
254.261	80.25
254.494	83.25
254.727	82.25
254.96	71.25
255.193	92.25
255.426	79.25
255.659	80.25
255.892	72.25
256.124	81.25
256.357	82.25
256.59	74.25
256.823	80.25
257.056	81.25
257.289	84.25
257.521	85.25
257.754	76.25
257.987	90.25
258.22	69.25
258.452	84.25
258.685	84.25
258.918	83.25
259.151	77.25
259.383	87.25
259.616	80.25
259.849	87.25
260.081	72.25
260.314	70.25
260.547	56.25
260.779	74.25
261.012	86.25
261.244	77.25
261.477	91.25
261.71	76.25
261.942	106.25
262.175	111.25
262.407	93.25
262.64	87.25
262.872	84.25
263.105	89.25
263.337	66.25
263.57	82.25
263.802	71.25
264.035	78.25
264.267	91.25
264.499	83.25
264.732	80.25
264.964	73.25
265.197	82.25
265.429	71.25
265.661	67.25
265.894	82.25
266.126	64.25
266.358	83.25
266.591	78.25
266.823	88.25
267.055	72.25
267.287	82.25
267.52	67.25
267.752	78.25
267.984	75.25
268.216	88.25
268.448	75.25
268.681	78.25
268.913	85.25
269.145	79.25
269.377	95.25
269.609	63.25
269.841	81.25
270.073	78.25
270.306	82.25
270.538	74.25
270.77	99.25
271.002	88.25
271.234	88.25
271.466	80.25
271.698	72.25
271.93	84.25
272.162	79.25
272.394	77.25
272.626	73.25
272.858	91.25
273.09	85.25
273.322	79.25
273.553	67.25
273.785	80.25
274.017	82.25
274.249	91.25
274.481	90.25
274.713	75.25
274.945	87.25
275.176	86.25
275.408	82.25
275.64	78.25
275.872	90.25
276.104	84.25
276.335	87.25
276.567	79.25
276.799	98.25
277.031	95.25
277.262	82.25
277.494	76.25
277.726	80.25
277.957	92.25
278.189	89.25
278.421	84.25
278.652	91.25
278.884	58.25
279.115	91.25
279.347	88.25
279.579	76.25
279.81	86.25
280.042	82.25
280.273	76.25
280.505	84.25
280.736	91.25
280.968	80.25
281.199	97.25
281.431	81.25
281.662	54.25
281.894	85.25
282.125	79.25
282.356	101.25
282.588	122.25
282.819	112.25
283.051	100.25
283.282	91.25
283.513	93.25
283.745	79.25
283.976	64.25
284.207	83.25
284.439	78.25
284.67	90.25
284.901	91.25
285.132	90.25
285.364	83.25
285.595	91.25
285.826	81.25
286.057	90.25
286.288	83.25
286.52	91.25
286.751	90.25
286.982	80.25
287.213	81.25
287.444	96.25
287.675	96.25
287.906	79.25
288.138	76.25
288.369	93.25
288.6	88.25
288.831	79.25
289.062	86.25
289.293	93.25
289.524	80.25
289.755	82.25
289.986	87.25
290.217	90.25
290.448	80.25
290.679	91.25
290.91	77.25
291.141	93.25
291.371	81.25
291.602	87.25
291.833	79.25
292.064	91.25
292.295	100.25
292.526	88.25
292.757	79.25
292.987	76.25
293.218	79.25
293.449	87.25
293.68	78.25
293.91	91.25
294.141	95.25
294.372	94.25
294.603	94.25
294.833	91.25
295.064	96.25
295.295	89.25
295.525	89.25
295.756	104.25
295.987	108.25
296.217	115.25
296.448	105.25
296.679	89.25
296.909	99.25
297.14	86.25
297.37	88.25
297.601	96.25
297.831	95.25
298.062	88.25
298.292	78.25
298.523	82.25
298.753	99.25
298.984	87.25
299.214	70.25
299.445	84.25
299.675	103.25
299.905	78.25
300.136	85.25
300.366	86.25
300.597	82.25
300.827	99.25
301.057	86.25
301.288	100.25
301.518	101.25
301.748	92.25
301.979	90.25
302.209	89.25
302.439	104.25
302.669	91.25
302.9	82.25
303.13	82.25
303.36	100.25
303.59	98.25
303.82	93.25
304.051	79.25
304.281	107.25
304.511	87.25
304.741	82.25
304.971	86.25
305.201	86.25
305.431	84.25
305.661	86.25
305.891	92.25
306.121	96.25
306.352	84.25
306.582	92.25
306.812	82.25
307.042	95.25
307.272	92.25
307.502	90.25
307.731	96.25
307.961	90.25
308.191	89.25
308.421	83.25
308.651	74.25
308.881	88.25
309.111	97.25
309.341	88.25
309.571	78.25
309.8	87.25
310.03	83.25
310.26	90.25
310.49	72.25
310.72	87.25
310.949	99.25
311.179	94.25
311.409	87.25
311.639	105.25
311.868	95.25
312.098	92.25
312.328	103.25
312.557	99.25
312.787	111.25
313.017	90.25
313.246	88.25
313.476	80.25
313.706	93.25
313.935	98.25
314.165	89.25
314.394	95.25
314.624	86.25
314.853	81.25
315.083	97.25
315.312	88.25
315.542	83.25
315.771	96.25
316.001	96.25
316.23	105.25
316.46	76.25
316.689	98.25
316.919	86.25
317.148	110.25
317.377	93.25
317.607	80.25
317.836	96.25
318.065	81.25
318.295	74.25
318.524	95.25
318.753	83.25
318.983	89.25
319.212	97.25
319.441	91.25
319.67	94.25
319.9	86.25
320.129	89.25
320.358	97.25
320.587	95.25
320.816	94.25
321.046	87.25
321.275	102.25
321.504	114.25
321.733	94.25
321.962	101.25
322.191	102.25
322.42	91.25
322.649	105.25
322.878	112.25
323.108	108.25
323.337	120.25
323.566	134.25
323.795	171.25
324.024	212.25
324.253	406.25
324.482	904.25
324.71	1884.25
324.939	2598.25
325.168	910.25
325.397	273.25
325.626	154.25
325.855	121.25
326.084	139.25
326.313	127.25
326.542	160.25
326.77	236.25
326.999	515.25
327.228	1062.25
327.457	1925.25
327.686	1548.25
327.914	403.25
328.143	193.25
328.372	137.25
328.6	107.25
328.829	111.25
329.058	113.25
329.287	151.25
329.515	104.25
329.744	96.25
329.972	93.25
330.201	100.25
330.43	112.25
330.658	99.25
330.887	137.25
331.115	120.25
331.344	103.25
331.572	91.25
331.801	96.25
332.03	98.25
332.258	95.25
332.486	74.25
332.715	87.25
332.943	89.25
333.172	90.25
333.4	97.25
333.629	99.25
333.857	100.25
334.085	95.25
334.314	97.25
334.542	86.25
334.771	74.25
334.999	90.25
335.227	96.25
335.455	92.25
335.684	89.25
335.912	93.25
336.14	95.25
336.369	106.25
336.597	87.25
336.825	86.25
337.053	98.25
337.281	96.25
337.51	76.25
337.738	88.25
337.966	106.25
338.194	98.25
338.422	96.25
338.65	84.25
338.878	84.25
339.106	102.25
339.334	98.25
339.562	88.25
339.79	75.25
340.018	78.25
340.246	87.25
340.474	106.25
340.702	90.25
340.93	98.25
341.158	101.25
341.386	90.25
341.614	93.25
341.842	89.25
342.07	85.25
342.298	83.25
342.526	83.25
342.754	87.25
342.981	91.25
343.209	86.25
343.437	104.25
343.665	85.25
343.893	72.25
344.12	90.25
344.348	88.25
344.576	91.25
344.804	92.25
345.031	103.25
345.259	92.25
345.487	94.25
345.714	95.25
345.942	98.25
346.17	76.25
346.397	80.25
346.625	87.25
346.853	92.25
347.08	89.25
347.308	92.25
347.535	83.25
347.763	94.25
347.99	96.25
348.218	97.25
348.445	95.25
348.673	95.25
348.9	96.25
349.128	89.25
349.355	93.25
349.583	85.25
349.81	95.25
350.037	78.25
350.265	87.25
350.492	90.25
350.72	77.25
350.947	100.25
351.174	100.25
351.402	106.25
351.629	98.25
351.856	92.25
352.083	104.25
352.311	100.25
352.538	109.25
352.765	98.25
352.992	108.25
353.22	111.25
353.447	93.25
353.674	101.25
353.901	83.25
354.128	86.25
354.355	85.25
354.583	77.25
354.81	92.25
355.037	101.25
355.264	98.25
355.491	91.25
355.718	86.25
355.945	98.25
356.172	86.25
356.399	111.25
356.626	94.25
356.853	82.25
357.08	88.25
357.307	95.25
357.534	78.25
357.761	103.25
357.988	97.25
358.215	79.25
358.441	80.25
358.668	93.25
358.895	99.25
359.122	98.25
359.349	84.25
359.576	95.25
359.802	89.25
360.029	107.25
360.256	104.25
360.483	90.25
360.709	81.25
360.936	83.25
361.163	87.25
361.39	90.25
361.616	95.25
361.843	91.25
362.07	89.25
362.296	82.25
362.523	92.25
362.749	81.25
362.976	96.25
363.203	95.25
363.429	90.25
363.656	90.25
363.882	81.25
364.109	93.25
364.335	90.25
364.562	107.25
364.788	85.25
365.015	87.25
365.241	80.25
365.468	107.25
365.694	97.25
365.92	83.25
366.147	94.25
366.373	83.25
366.599	78.25
366.826	80.25
367.052	83.25
367.278	99.25
367.505	87.25
367.731	87.25
367.957	73.25
368.184	74.25
368.41	94.25
368.636	108.25
368.862	110.25
369.089	96.25
369.315	93.25
369.541	87.25
369.767	81.25
369.993	84.25
370.219	91.25
370.445	93.25
370.672	84.25
370.898	91.25
371.124	80.25
371.35	75.25
371.576	86.25
371.802	79.25
372.028	80.25
372.254	95.25
372.48	86.25
372.706	84.25
372.932	95.25
373.158	94.25
373.384	83.25
373.61	77.25
373.835	87.25
374.061	88.25
374.287	80.25
374.513	92.25
374.739	74.25
374.965	86.25
375.191	81.25
375.416	82.25
375.642	80.25
375.868	100.25
376.094	83.25
376.319	88.25
376.545	73.25
376.771	89.25
376.997	88.25
377.222	82.25
377.448	90.25
377.674	82.25
377.899	83.25
378.125	89.25
378.35	92.25
378.576	77.25
378.802	94.25
379.027	93.25
379.253	100.25
379.478	90.25
379.704	95.25
379.929	99.25
380.155	90.25
380.38	86.25
380.606	72.25
380.831	111.25
381.057	81.25
381.282	84.25
381.507	80.25
381.733	85.25
381.958	96.25
382.184	88.25
382.409	87.25
382.634	100.25
382.86	96.25
383.085	88.25
383.31	100.25
383.535	83.25
383.761	85.25
383.986	101.25
384.211	91.25
384.436	93.25
384.662	97.25
384.887	109.25
385.112	106.25
385.337	98.25
385.562	90.25
385.787	83.25
386.013	86.25
386.238	100.25
386.463	103.25
386.688	103.25
386.913	102.25
387.138	92.25
387.363	91.25
387.588	99.25
387.813	82.25
388.038	102.25
388.263	104.25
388.488	99.25
388.713	99.25
388.938	97.25
389.163	101.25
389.387	84.25
389.612	92.25
389.837	89.25
390.062	95.25
390.287	78.25
390.512	88.25
390.736	90.25
390.961	96.25
391.186	76.25
391.411	98.25
391.636	98.25
391.86	84.25
392.085	73.25
392.31	79.25
392.534	73.25
392.759	91.25
392.984	84.25
393.208	92.25
393.433	74.25
393.658	88.25
393.882	78.25
394.107	76.25
394.331	88.25
394.556	103.25
394.78	77.25
395.005	84.25
395.229	94.25
395.454	83.25
395.678	86.25
395.903	101.25
396.127	108.25
396.352	83.25
396.576	92.25
396.801	76.25
397.025	89.25
397.249	89.25
397.474	97.25
397.698	78.25
397.922	96.25
398.147	91.25
398.371	99.25
398.595	78.25
398.82	95.25
399.044	83.25
399.268	78.25
399.492	74.25
399.717	70.25
399.941	86.25
400.165	95.25
400.389	111.25
400.613	83.25
400.837	98.25
401.062	86.25
401.286	68.25
401.51	82.25
401.734	84.25
401.958	102.25
402.182	116.25
402.406	139.25
402.63	110.25
402.854	91.25
403.078	83.25
403.302	80.25
403.526	85.25
403.75	82.25
403.974	93.25
404.198	88.25
404.422	91.25
404.645	81.25
404.869	93.25
405.093	82.25
405.317	99.25
405.541	95.25
405.765	103.25
405.988	106.25
406.212	154.25
406.436	210.25
406.66	131.25
406.883	98.25
407.107	99.25
407.331	99.25
407.555	99.25
407.778	109.25
408.002	96.25
408.226	91.25
408.449	81.25
408.673	98.25
408.896	99.25
409.12	90.25
409.344	97.25
409.567	91.25
409.791	88.25
410.014	98.25
410.238	93.25
410.461	102.25
410.685	92.25
410.908	97.25
411.132	103.25
411.355	113.25
411.578	91.25
411.802	76.25
412.025	89.25
412.249	78.25
412.472	91.25
412.695	91.25
412.919	85.25
413.142	71.25
413.365	99.25
413.589	95.25
413.812	92.25
414.035	98.25
414.258	90.25
414.482	91.25
414.705	99.25
414.928	93.25
415.151	79.25
415.374	77.25
415.597	87.25
415.821	84.25
416.044	98.25
416.267	79.25
416.49	82.25
416.713	78.25
416.936	91.25
417.159	75.25
417.382	92.25
417.605	89.25
417.828	99.25
418.051	96.25
418.274	91.25
418.497	73.25
418.72	91.25
418.943	80.25
419.166	76.25
419.389	74.25
419.611	93.25
419.834	79.25
420.057	90.25
420.28	62.25
420.503	93.25
420.726	88.25
420.948	80.25
421.171	90.25
421.394	90.25
421.617	91.25
421.839	92.25
422.062	86.25
422.285	87.25
422.507	107.25
422.73	88.25
422.953	72.25
423.175	81.25
423.398	93.25
423.621	83.25
423.843	78.25
424.066	80.25
424.288	73.25
424.511	92.25
424.733	94.25
424.956	113.25
425.178	88.25
425.401	106.25
425.623	106.25
425.846	86.25
426.068	90.25
426.291	83.25
426.513	88.25
426.735	90.25
426.958	99.25
427.18	115.25
427.402	143.25
427.625	164.25
427.847	113.25
428.069	101.25
428.292	103.25
428.514	98.25
428.736	91.25
428.958	92.25
429.181	54.25
429.403	78.25
429.625	91.25
429.847	105.25
430.069	109.25
430.292	96.25
430.514	78.25
430.736	83.25
430.958	91.25
431.18	77.25
431.402	70.25
431.624	85.25
431.846	89.25
432.068	72.25
432.29	73.25
432.512	76.25
432.734	69.25
432.956	88.25
433.178	86.25
433.4	87.25
433.622	97.25
433.844	92.25
434.066	86.25
434.287	91.25
434.509	81.25
434.731	97.25
434.953	92.25
435.175	102.25
435.397	94.25
435.618	103.25
435.84	100.25
436.062	124.25
436.284	135.25
436.505	104.25
436.727	106.25
436.949	81.25
437.17	82.25
437.392	88.25
437.614	83.25
437.835	96.25
438.057	125.25
438.278	114.25
438.5	112.25
438.721	129.25
438.943	97.25
439.165	84.25
439.386	89.25
439.608	84.25
439.829	97.25
440.05	134.25
440.272	152.25
440.493	106.25
440.715	81.25
440.936	85.25
441.158	100.25
441.379	87.25
441.6	101.25
441.822	96.25
442.043	88.25
442.264	111.25
442.486	95.25
442.707	91.25
442.928	100.25
443.149	120.25
443.371	126.25
443.592	118.25
443.813	116.25
444.034	117.25
444.255	88.25
444.476	67.25
444.698	80.25
444.919	94.25
445.14	135.25
445.361	124.25
445.582	118.25
445.803	144.25
446.024	143.25
446.245	153.25
446.466	113.25
446.687	89.25
446.908	89.25
447.129	80.25
447.35	78.25
447.571	91.25
447.792	78.25
448.013	92.25
448.234	103.25
448.455	99.25
448.675	120.25
448.896	119.25
449.117	95.25
449.338	111.25
449.559	150.25
449.779	147.25
450	87.25
450.221	81.25
450.442	96.25
450.662	99.25
450.883	99.25
451.104	108.25
451.324	98.25
451.545	81.25
451.766	85.25
451.986	85.25
452.207	77.25
452.428	90.25
452.648	98.25
452.869	106.25
453.089	112.25
453.31	112.25
453.53	91.25
453.751	92.25
453.971	79.25
454.192	94.25
454.412	84.25
454.633	90.25
454.853	75.25
455.073	81.25
455.294	94.25
455.514	104.25
455.734	87.25
455.955	91.25
456.175	85.25
456.395	82.25
456.616	66.25
456.836	81.25
457.056	94.25
457.276	91.25
457.497	85.25
457.717	81.25
457.937	82.25
458.157	81.25
458.377	80.25
458.598	95.25
458.818	134.25
459.038	140.25
459.258	115.25
459.478	89.25
459.698	78.25
459.918	80.25
460.138	75.25
460.358	82.25
460.578	86.25
460.798	94.25
461.018	94.25
461.238	93.25
461.458	75.25
461.678	77.25
461.898	79.25
462.118	85.25
462.338	82.25
462.558	87.25
462.777	86.25
462.997	80.25
463.217	98.25
463.437	92.25
463.657	84.25
463.876	76.25
464.096	87.25
464.316	92.25
464.536	95.25
464.755	87.25
464.975	96.25
465.195	156.25
465.414	127.25
465.634	90.25
465.854	104.25
466.073	88.25
466.293	89.25
466.512	94.25
466.732	86.25
466.951	77.25
467.171	76.25
467.391	106.25
467.61	98.25
467.829	88.25
468.049	93.25
468.268	86.25
468.488	92.25
468.707	82.25
468.927	88.25
469.146	88.25
469.365	81.25
469.585	90.25
469.804	89.25
470.023	88.25
470.243	99.25
470.462	99.25
470.681	95.25
470.901	90.25
471.12	92.25
471.339	107.25
471.558	103.25
471.777	86.25
471.997	74.25
472.216	103.25
472.435	100.25
472.654	82.25
472.873	97.25
473.092	82.25
473.311	89.25
473.53	81.25
473.749	87.25
473.968	90.25
474.187	98.25
474.406	80.25
474.625	100.25
474.844	78.25
475.063	81.25
475.282	91.25
475.501	71.25
475.72	98.25
475.939	87.25
476.158	88.25
476.377	86.25
476.596	102.25
476.814	79.25
477.033	83.25
477.252	90.25
477.471	79.25
477.69	80.25
477.908	90.25
478.127	81.25
478.346	90.25
478.564	97.25
478.783	100.25
479.002	90.25
479.22	75.25
479.439	89.25
479.658	96.25
479.876	107.25
480.095	83.25
480.313	78.25
480.532	74.25
480.751	83.25
480.969	94.25
481.188	91.25
481.406	90.25
481.624	93.25
481.843	84.25
482.061	93.25
482.28	96.25
482.498	85.25
482.717	87.25
482.935	89.25
483.153	84.25
483.372	82.25
483.59	88.25
483.808	80.25
484.027	81.25
484.245	91.25
484.463	90.25
484.681	95.25
484.9	94.25
485.118	100.25
485.336	93.25
485.554	102.25
485.772	104.25
485.99	92.25
486.209	89.25
486.427	96.25
486.645	111.25
486.863	106.25
487.081	90.25
487.299	89.25
487.517	91.25
487.735	95.25
487.953	96.25
488.171	84.25
488.389	92.25
488.607	96.25
488.825	82.25
489.043	71.25
489.261	83.25
489.479	86.25
489.696	81.25
489.914	84.25
490.132	80.25
490.35	89.25
490.568	100.25
490.786	88.25
491.003	78.25
491.221	84.25
491.439	95.25
491.657	85.25
491.874	79.25
492.092	77.25
492.31	87.25
492.527	68.25
492.745	73.25
492.963	88.25
493.18	94.25
493.398	107.25
493.615	89.25
493.833	94.25
494.05	84.25
494.268	78.25
494.485	92.25
494.703	81.25
494.92	78.25
495.138	74.25
495.355	90.25
495.573	99.25
495.79	95.25
496.008	92.25
496.225	90.25
496.442	89.25
496.66	88.25
496.877	103.25
497.094	102.25
497.312	95.25
497.529	100.25
497.746	82.25
497.963	97.25
498.181	79.25
498.398	89.25
498.615	96.25
498.832	104.25
499.049	90.25
499.267	98.25
499.484	99.25
499.701	71.25
499.918	88.25
500.135	82.25
500.352	89.25
500.569	95.25
500.786	87.25
501.003	96.25
501.22	102.25
501.437	88.25
501.654	88.25
501.871	98.25
502.088	95.25
502.305	89.25
502.522	100.25
502.739	101.25
502.956	81.25
503.172	81.25
503.389	79.25
503.606	91.25
503.823	91.25
504.04	91.25
504.256	82.25
504.473	71.25
504.69	97.25
504.907	84.25
505.123	82.25
505.34	90.25
505.557	87.25
505.773	92.25
505.99	80.25
506.207	86.25
506.423	80.25
506.64	90.25
506.856	93.25
507.073	80.25
507.289	104.25
507.506	85.25
507.722	99.25
507.939	96.25
508.155	96.25
508.372	88.25
508.588	91.25
508.805	97.25
509.021	89.25
509.238	90.25
509.454	93.25
509.67	104.25
509.887	107.25
510.103	119.25
510.319	194.25
510.536	668.25
510.752	2064.25
510.968	582.25
511.184	144.25
511.401	106.25
511.617	98.25
511.833	96.25
512.049	86.25
512.265	78.25
512.481	92.25
512.698	90.25
512.914	83.25
513.13	86.25
513.346	96.25
513.562	81.25
513.778	82.25
513.994	76.25
514.21	105.25
514.426	117.25
514.642	138.25
514.858	113.25
515.074	160.25
515.29	408.25
515.506	1273.25
515.721	461.25
515.937	141.25
516.153	120.25
516.369	102.25
516.585	84.25
516.801	75.25
517.016	82.25
