Data from Uncirc_1991_H10_HRD10591_00029.txt Node
Date: Wed Jan 03 11:50:44 EST 2024
User: Yrep
Spectrometer: HR+D1059
Trigger mode: 1
Integration Time (sec): 1.000000E-1
Scans to average: 1
Electric dark correction enabled: true
Nonlinearity correction enabled: false
Boxcar width: 0
XAxis mode: Wavelengths
Number of Pixels in Spectrum: 2048
>>>>>Begin Spectral Data<<<<<
223.165	-24.06
223.4	-24.06
223.635	-24.06
223.869	-22.06
224.104	-22.06
224.338	-8.06
224.573	-19.06
224.808	-9.06
225.042	-14.06
225.277	-5.06
225.511	-4.06
225.746	-0.06
225.98	8.94
226.215	4.94
226.449	15.94
226.683	21.94
226.918	31.94
227.152	43.94
227.387	30.94
227.621	39.94
227.856	62.94
228.09	55.94
228.324	63.94
228.559	55.94
228.793	54.94
229.027	53.94
229.262	51.94
229.496	80.94
229.73	79.94
229.964	88.94
230.199	77.94
230.433	81.94
230.667	80.94
230.901	86.94
231.136	76.94
231.37	64.94
231.604	78.94
231.838	84.94
232.072	95.94
232.306	79.94
232.541	69.94
232.775	81.94
233.009	85.94
233.243	68.94
233.477	80.94
233.711	80.94
233.945	95.94
234.179	73.94
234.413	72.94
234.647	77.94
234.881	64.94
235.115	83.94
235.349	77.94
235.583	80.94
235.817	76.94
236.051	82.94
236.285	74.94
236.519	89.94
236.753	76.94
236.987	81.94
237.221	74.94
237.455	86.94
237.689	90.94
237.922	64.94
238.156	83.94
238.39	92.94
238.624	85.94
238.858	81.94
239.091	74.94
239.325	67.94
239.559	87.94
239.793	84.94
240.027	84.94
240.26	64.94
240.494	73.94
240.728	89.94
240.961	95.94
241.195	75.94
241.429	65.94
241.662	78.94
241.896	84.94
242.13	69.94
242.363	80.94
242.597	74.94
242.83	83.94
243.064	69.94
243.298	61.94
243.531	81.94
243.765	74.94
243.998	84.94
244.232	85.94
244.465	74.94
244.699	85.94
244.932	84.94
245.166	92.94
245.399	79.94
245.633	81.94
245.866	76.94
246.099	61.94
246.333	55.94
246.566	87.94
246.8	79.94
247.033	88.94
247.266	89.94
247.5	64.94
247.733	99.94
247.966	74.94
248.2	79.94
248.433	88.94
248.666	87.94
248.899	89.94
249.133	82.94
249.366	96.94
249.599	90.94
249.832	92.94
250.066	84.94
250.299	69.94
250.532	86.94
250.765	91.94
250.998	79.94
251.231	73.94
251.465	70.94
251.698	81.94
251.931	86.94
252.164	76.94
252.397	81.94
252.63	80.94
252.863	80.94
253.096	67.94
253.329	103.94
253.562	88.94
253.795	84.94
254.028	79.94
254.261	77.94
254.494	85.94
254.727	74.94
254.96	80.94
255.193	81.94
255.426	83.94
255.659	90.94
255.892	76.94
256.124	74.94
256.357	84.94
256.59	82.94
256.823	77.94
257.056	92.94
257.289	81.94
257.521	74.94
257.754	93.94
257.987	92.94
258.22	86.94
258.452	82.94
258.685	88.94
258.918	94.94
259.151	76.94
259.383	87.94
259.616	83.94
259.849	82.94
260.081	75.94
260.314	77.94
260.547	81.94
260.779	83.94
261.012	90.94
261.244	88.94
261.477	82.94
261.71	95.94
261.942	116.94
262.175	127.94
262.407	95.94
262.64	92.94
262.872	95.94
263.105	87.94
263.337	88.94
263.57	85.94
263.802	77.94
264.035	77.94
264.267	89.94
264.499	77.94
264.732	92.94
264.964	96.94
265.197	86.94
265.429	81.94
265.661	82.94
265.894	84.94
266.126	81.94
266.358	77.94
266.591	89.94
266.823	76.94
267.055	94.94
267.287	82.94
267.52	80.94
267.752	84.94
267.984	97.94
268.216	84.94
268.448	70.94
268.681	76.94
268.913	118.94
269.145	86.94
269.377	88.94
269.609	93.94
269.841	85.94
270.073	88.94
270.306	79.94
270.538	76.94
270.77	88.94
271.002	93.94
271.234	90.94
271.466	88.94
271.698	91.94
271.93	86.94
272.162	89.94
272.394	88.94
272.626	90.94
272.858	81.94
273.09	91.94
273.322	82.94
273.553	93.94
273.785	86.94
274.017	87.94
274.249	79.94
274.481	76.94
274.713	78.94
274.945	87.94
275.176	62.94
275.408	101.94
275.64	82.94
275.872	97.94
276.104	101.94
276.335	92.94
276.567	108.94
276.799	104.94
277.031	105.94
277.262	95.94
277.494	82.94
277.726	77.94
277.957	102.94
278.189	90.94
278.421	88.94
278.652	75.94
278.884	87.94
279.115	85.94
279.347	69.94
279.579	86.94
279.81	72.94
280.042	97.94
280.273	93.94
280.505	89.94
280.736	86.94
280.968	99.94
281.199	88.94
281.431	97.94
281.662	84.94
281.894	87.94
282.125	106.94
282.356	123.94
282.588	135.94
282.819	126.94
283.051	98.94
283.282	94.94
283.513	97.94
283.745	92.94
283.976	88.94
284.207	63.94
284.439	85.94
284.67	82.94
284.901	81.94
285.132	84.94
285.364	81.94
285.595	81.94
285.826	86.94
286.057	82.94
286.288	85.94
286.52	98.94
286.751	84.94
286.982	84.94
287.213	108.94
287.444	83.94
287.675	90.94
287.906	86.94
288.138	107.94
288.369	83.94
288.6	93.94
288.831	83.94
289.062	94.94
289.293	95.94
289.524	92.94
289.755	100.94
289.986	66.94
290.217	88.94
290.448	89.94
290.679	92.94
290.91	97.94
291.141	97.94
291.371	87.94
291.602	69.94
291.833	88.94
292.064	88.94
292.295	81.94
292.526	85.94
292.757	85.94
292.987	78.94
293.218	60.94
293.449	97.94
293.68	85.94
293.91	96.94
294.141	101.94
294.372	92.94
294.603	84.94
294.833	89.94
295.064	90.94
295.295	102.94
295.525	85.94
295.756	103.94
295.987	122.94
296.217	150.94
296.448	142.94
296.679	92.94
296.909	95.94
297.14	94.94
297.37	91.94
297.601	83.94
297.831	92.94
298.062	84.94
298.292	88.94
298.523	88.94
298.753	86.94
298.984	82.94
299.214	77.94
299.445	92.94
299.675	88.94
299.905	102.94
300.136	87.94
300.366	90.94
300.597	87.94
300.827	99.94
301.057	98.94
301.288	106.94
301.518	86.94
301.748	99.94
301.979	106.94
302.209	90.94
302.439	78.94
302.669	83.94
302.9	86.94
303.13	78.94
303.36	84.94
303.59	92.94
303.82	94.94
304.051	92.94
304.281	98.94
304.511	91.94
304.741	83.94
304.971	77.94
305.201	102.94
305.431	110.94
305.661	100.94
305.891	85.94
306.121	90.94
306.352	101.94
306.582	94.94
306.812	96.94
307.042	92.94
307.272	95.94
307.502	94.94
307.731	93.94
307.961	87.94
308.191	82.94
308.421	101.94
308.651	75.94
308.881	76.94
309.111	99.94
309.341	105.94
309.571	101.94
309.8	101.94
310.03	107.94
310.26	99.94
310.49	91.94
310.72	85.94
310.949	96.94
311.179	103.94
311.409	97.94
311.639	91.94
311.868	102.94
312.098	97.94
312.328	95.94
312.557	101.94
312.787	102.94
313.017	97.94
313.246	102.94
313.476	93.94
313.706	86.94
313.935	104.94
314.165	100.94
314.394	102.94
314.624	97.94
314.853	107.94
315.083	94.94
315.312	98.94
315.542	92.94
315.771	102.94
316.001	89.94
316.23	85.94
316.46	90.94
316.689	95.94
316.919	84.94
317.148	93.94
317.377	90.94
317.607	107.94
317.836	97.94
318.065	96.94
318.295	90.94
318.524	87.94
318.753	95.94
318.983	93.94
319.212	102.94
319.441	112.94
319.67	121.94
319.9	93.94
320.129	87.94
320.358	91.94
320.587	98.94
320.816	90.94
321.046	109.94
321.275	96.94
321.504	104.94
321.733	98.94
321.962	91.94
322.191	103.94
322.42	120.94
322.649	107.94
322.878	121.94
323.108	117.94
323.337	128.94
323.566	135.94
323.795	164.94
324.024	230.94
324.253	452.94
324.482	953.94
324.71	2050.94
324.939	2796.94
325.168	1002.94
325.397	269.94
325.626	162.94
325.855	146.94
326.084	137.94
326.313	124.94
326.542	157.94
326.77	245.94
326.999	517.94
327.228	1092.94
327.457	2058.94
327.686	1650.94
327.914	436.94
328.143	214.94
328.372	154.94
328.6	126.94
328.829	130.94
329.058	130.94
329.287	144.94
329.515	107.94
329.744	118.94
329.972	108.94
330.201	107.94
330.43	106.94
330.658	123.94
330.887	144.94
331.115	130.94
331.344	107.94
331.572	97.94
331.801	104.94
332.03	107.94
332.258	97.94
332.486	106.94
332.715	93.94
332.943	93.94
333.172	93.94
333.4	104.94
333.629	112.94
333.857	120.94
334.085	106.94
334.314	87.94
334.542	94.94
334.771	91.94
334.999	100.94
335.227	84.94
335.455	89.94
335.684	89.94
335.912	93.94
336.14	85.94
336.369	90.94
336.597	103.94
336.825	101.94
337.053	93.94
337.281	80.94
337.51	89.94
337.738	86.94
337.966	88.94
338.194	99.94
338.422	95.94
338.65	99.94
338.878	85.94
339.106	89.94
339.334	98.94
339.562	100.94
339.79	90.94
340.018	94.94
340.246	101.94
340.474	91.94
340.702	86.94
340.93	94.94
341.158	88.94
341.386	100.94
341.614	97.94
341.842	97.94
342.07	76.94
342.298	84.94
342.526	90.94
342.754	74.94
342.981	97.94
343.209	101.94
343.437	105.94
343.665	98.94
343.893	94.94
344.12	88.94
344.348	85.94
344.576	87.94
344.804	106.94
345.031	108.94
345.259	106.94
345.487	87.94
345.714	107.94
345.942	99.94
346.17	100.94
346.397	107.94
346.625	92.94
346.853	96.94
347.08	90.94
347.308	99.94
347.535	82.94
347.763	121.94
347.99	98.94
348.218	107.94
348.445	110.94
348.673	102.94
348.9	104.94
349.128	96.94
349.355	89.94
349.583	97.94
349.81	98.94
350.037	110.94
350.265	95.94
350.492	104.94
350.72	111.94
350.947	97.94
351.174	110.94
351.402	95.94
351.629	112.94
351.856	93.94
352.083	94.94
352.311	107.94
352.538	109.94
352.765	112.94
352.992	114.94
353.22	122.94
353.447	98.94
353.674	103.94
353.901	96.94
354.128	92.94
354.355	102.94
354.583	95.94
354.81	107.94
355.037	92.94
355.264	85.94
355.491	94.94
355.718	90.94
355.945	83.94
356.172	81.94
356.399	89.94
356.626	95.94
356.853	91.94
357.08	82.94
357.307	99.94
357.534	95.94
357.761	102.94
357.988	90.94
358.215	102.94
358.441	86.94
358.668	91.94
358.895	87.94
359.122	99.94
359.349	88.94
359.576	94.94
359.802	106.94
360.029	105.94
360.256	115.94
360.483	90.94
360.709	98.94
360.936	103.94
361.163	93.94
361.39	101.94
361.616	100.94
361.843	87.94
362.07	106.94
362.296	99.94
362.523	102.94
362.749	89.94
362.976	106.94
363.203	97.94
363.429	89.94
363.656	102.94
363.882	90.94
364.109	75.94
364.335	89.94
364.562	77.94
364.788	90.94
365.015	87.94
365.241	93.94
365.468	118.94
365.694	105.94
365.92	91.94
366.147	94.94
366.373	103.94
366.599	88.94
366.826	90.94
367.052	85.94
367.278	85.94
367.505	94.94
367.731	78.94
367.957	109.94
368.184	91.94
368.41	100.94
368.636	111.94
368.862	114.94
369.089	112.94
369.315	96.94
369.541	91.94
369.767	84.94
369.993	88.94
370.219	106.94
370.445	84.94
370.672	92.94
370.898	69.94
371.124	88.94
371.35	90.94
371.576	90.94
371.802	84.94
372.028	77.94
372.254	93.94
372.48	77.94
372.706	89.94
372.932	84.94
373.158	74.94
373.384	89.94
373.61	104.94
373.835	97.94
374.061	86.94
374.287	89.94
374.513	82.94
374.739	89.94
374.965	88.94
375.191	80.94
375.416	80.94
375.642	77.94
375.868	99.94
376.094	86.94
376.319	83.94
376.545	78.94
376.771	99.94
376.997	98.94
377.222	84.94
377.448	76.94
377.674	92.94
377.899	105.94
378.125	83.94
378.35	87.94
378.576	80.94
378.802	85.94
379.027	89.94
379.253	91.94
379.478	93.94
379.704	90.94
379.929	100.94
380.155	88.94
380.38	105.94
380.606	89.94
380.831	98.94
381.057	84.94
381.282	85.94
381.507	99.94
381.733	86.94
381.958	90.94
382.184	93.94
382.409	87.94
382.634	90.94
382.86	95.94
383.085	102.94
383.31	94.94
383.535	105.94
383.761	90.94
383.986	92.94
384.211	97.94
384.436	97.94
384.662	96.94
384.887	85.94
385.112	99.94
385.337	91.94
385.562	99.94
385.787	93.94
386.013	88.94
386.238	98.94
386.463	94.94
386.688	91.94
386.913	99.94
387.138	102.94
387.363	98.94
387.588	92.94
387.813	69.94
388.038	112.94
388.263	101.94
388.488	96.94
388.713	87.94
388.938	109.94
389.163	97.94
389.387	88.94
389.612	85.94
389.837	91.94
390.062	99.94
390.287	84.94
390.512	77.94
390.736	89.94
390.961	69.94
391.186	72.94
391.411	94.94
391.636	84.94
391.86	82.94
392.085	89.94
392.31	84.94
392.534	84.94
392.759	83.94
392.984	84.94
393.208	98.94
393.433	100.94
393.658	91.94
393.882	84.94
394.107	94.94
394.331	88.94
394.556	83.94
394.78	87.94
395.005	76.94
395.229	76.94
395.454	104.94
395.678	83.94
395.903	93.94
396.127	93.94
396.352	77.94
396.576	95.94
396.801	79.94
397.025	78.94
397.249	86.94
397.474	84.94
397.698	69.94
397.922	88.94
398.147	89.94
398.371	86.94
398.595	91.94
398.82	85.94
399.044	92.94
399.268	78.94
399.492	82.94
399.717	83.94
399.941	94.94
400.165	77.94
400.389	94.94
400.613	91.94
400.837	75.94
401.062	89.94
401.286	98.94
401.51	85.94
401.734	90.94
401.958	94.94
402.182	137.94
402.406	172.94
402.63	131.94
402.854	100.94
403.078	74.94
403.302	98.94
403.526	87.94
403.75	90.94
403.974	90.94
404.198	94.94
404.422	76.94
404.645	74.94
404.869	80.94
405.093	86.94
405.317	97.94
405.541	90.94
405.765	106.94
405.988	126.94
406.212	176.94
406.436	272.94
406.66	163.94
406.883	103.94
407.107	92.94
407.331	94.94
407.555	102.94
407.778	110.94
408.002	101.94
408.226	84.94
408.449	87.94
408.673	80.94
408.896	84.94
409.12	90.94
409.344	95.94
409.567	89.94
409.791	68.94
410.014	83.94
410.238	84.94
410.461	90.94
410.685	100.94
410.908	92.94
411.132	103.94
411.355	99.94
411.578	85.94
411.802	73.94
412.025	83.94
412.249	91.94
412.472	86.94
412.695	80.94
412.919	82.94
413.142	93.94
413.365	106.94
413.589	94.94
413.812	85.94
414.035	86.94
414.258	91.94
414.482	92.94
414.705	89.94
414.928	92.94
415.151	83.94
415.374	93.94
415.597	93.94
415.821	88.94
416.044	83.94
416.267	85.94
416.49	90.94
416.713	91.94
416.936	85.94
417.159	89.94
417.382	82.94
417.605	95.94
417.828	89.94
418.051	90.94
418.274	91.94
418.497	86.94
418.72	75.94
418.943	80.94
419.166	78.94
419.389	91.94
419.611	101.94
419.834	76.94
420.057	94.94
420.28	87.94
420.503	90.94
420.726	87.94
420.948	99.94
421.171	79.94
421.394	95.94
421.617	101.94
421.839	83.94
422.062	83.94
422.285	101.94
422.507	92.94
422.73	91.94
422.953	90.94
423.175	89.94
423.398	80.94
423.621	90.94
423.843	85.94
424.066	77.94
424.288	79.94
424.511	82.94
424.733	95.94
424.956	106.94
425.178	113.94
425.401	117.94
425.623	95.94
425.846	74.94
426.068	99.94
426.291	92.94
426.513	92.94
426.735	89.94
426.958	92.94
427.18	108.94
427.402	136.94
427.625	181.94
427.847	131.94
428.069	101.94
428.292	87.94
428.514	99.94
428.736	81.94
428.958	76.94
429.181	68.94
429.403	57.94
429.625	82.94
429.847	87.94
430.069	94.94
430.292	95.94
430.514	91.94
430.736	87.94
430.958	81.94
431.18	89.94
431.402	86.94
431.624	100.94
431.846	82.94
432.068	81.94
432.29	80.94
432.512	93.94
432.734	84.94
432.956	87.94
433.178	83.94
433.4	92.94
433.622	83.94
433.844	87.94
434.066	81.94
434.287	80.94
434.509	85.94
434.731	84.94
434.953	99.94
435.175	94.94
435.397	88.94
435.618	102.94
435.84	95.94
436.062	130.94
436.284	119.94
436.505	116.94
436.727	104.94
436.949	100.94
437.17	84.94
437.392	85.94
437.614	76.94
437.835	108.94
438.057	127.94
438.278	100.94
438.5	102.94
438.721	122.94
438.943	106.94
439.165	78.94
439.386	93.94
439.608	86.94
439.829	100.94
440.05	118.94
440.272	162.94
440.493	88.94
440.715	85.94
440.936	96.94
441.158	97.94
441.379	97.94
441.6	89.94
441.822	96.94
442.043	94.94
442.264	96.94
442.486	84.94
442.707	100.94
442.928	102.94
443.149	140.94
443.371	137.94
443.592	102.94
443.813	114.94
444.034	118.94
444.255	91.94
444.476	81.94
444.698	93.94
444.919	76.94
445.14	120.94
445.361	123.94
445.582	121.94
445.803	162.94
446.024	133.94
446.245	160.94
446.466	115.94
446.687	85.94
446.908	88.94
447.129	83.94
447.35	84.94
447.571	90.94
447.792	85.94
448.013	104.94
448.234	113.94
448.455	102.94
448.675	123.94
448.896	116.94
449.117	99.94
449.338	97.94
449.559	133.94
449.779	147.94
450	93.94
450.221	108.94
450.442	99.94
450.662	95.94
450.883	100.94
451.104	115.94
451.324	94.94
451.545	79.94
451.766	68.94
451.986	86.94
452.207	92.94
452.428	102.94
452.648	101.94
452.869	117.94
453.089	122.94
453.31	118.94
453.53	95.94
453.751	102.94
453.971	107.94
454.192	108.94
454.412	100.94
454.633	95.94
454.853	83.94
455.073	104.94
455.294	92.94
455.514	92.94
455.734	83.94
455.955	94.94
456.175	94.94
456.395	89.94
456.616	90.94
456.836	87.94
457.056	92.94
457.276	75.94
457.497	70.94
457.717	75.94
457.937	84.94
458.157	101.94
458.377	102.94
458.598	117.94
458.818	152.94
459.038	174.94
459.258	124.94
459.478	97.94
459.698	85.94
459.918	76.94
460.138	88.94
460.358	92.94
460.578	88.94
460.798	97.94
461.018	77.94
461.238	86.94
461.458	96.94
461.678	106.94
461.898	79.94
462.118	82.94
462.338	92.94
462.558	81.94
462.777	72.94
462.997	88.94
463.217	93.94
463.437	79.94
463.657	86.94
463.876	79.94
464.096	96.94
464.316	99.94
464.536	100.94
464.755	93.94
464.975	111.94
465.195	178.94
465.414	176.94
465.634	93.94
465.854	94.94
466.073	97.94
466.293	93.94
466.512	85.94
466.732	82.94
466.951	76.94
467.171	77.94
467.391	98.94
467.61	106.94
467.829	88.94
468.049	98.94
468.268	81.94
468.488	82.94
468.707	83.94
468.927	88.94
469.146	85.94
469.365	76.94
469.585	84.94
469.804	95.94
470.023	93.94
470.243	86.94
470.462	94.94
470.681	118.94
470.901	78.94
471.12	85.94
471.339	93.94
471.558	94.94
471.777	86.94
471.997	94.94
472.216	83.94
472.435	93.94
472.654	96.94
472.873	89.94
473.092	84.94
473.311	87.94
473.53	84.94
473.749	104.94
473.968	97.94
474.187	95.94
474.406	91.94
474.625	92.94
474.844	83.94
475.063	67.94
475.282	73.94
475.501	76.94
475.72	89.94
475.939	80.94
476.158	78.94
476.377	95.94
476.596	76.94
476.814	99.94
477.033	94.94
477.252	86.94
477.471	80.94
477.69	97.94
477.908	89.94
478.127	89.94
478.346	95.94
478.564	88.94
478.783	90.94
479.002	101.94
479.22	95.94
479.439	94.94
479.658	108.94
479.876	103.94
480.095	84.94
480.313	78.94
480.532	78.94
480.751	107.94
480.969	86.94
481.188	102.94
481.406	100.94
481.624	85.94
481.843	81.94
482.061	91.94
482.28	89.94
482.498	93.94
482.717	96.94
482.935	86.94
483.153	93.94
483.372	82.94
483.59	84.94
483.808	94.94
484.027	98.94
484.245	84.94
484.463	93.94
484.681	89.94
484.9	93.94
485.118	91.94
485.336	100.94
485.554	96.94
485.772	101.94
485.99	92.94
486.209	99.94
486.427	109.94
486.645	103.94
486.863	105.94
487.081	106.94
487.299	94.94
487.517	86.94
487.735	83.94
487.953	90.94
488.171	90.94
488.389	95.94
488.607	99.94
488.825	90.94
489.043	78.94
489.261	86.94
489.479	86.94
489.696	83.94
489.914	99.94
490.132	89.94
490.35	86.94
490.568	90.94
490.786	97.94
491.003	106.94
491.221	88.94
491.439	86.94
491.657	82.94
491.874	84.94
492.092	92.94
492.31	89.94
492.527	95.94
492.745	108.94
492.963	81.94
493.18	106.94
493.398	94.94
493.615	90.94
493.833	94.94
494.05	99.94
494.268	91.94
494.485	80.94
494.703	95.94
494.92	88.94
495.138	92.94
495.355	92.94
495.573	84.94
495.79	106.94
496.008	76.94
496.225	79.94
496.442	100.94
496.66	97.94
496.877	101.94
497.094	87.94
497.312	91.94
497.529	94.94
497.746	96.94
497.963	94.94
498.181	97.94
498.398	96.94
498.615	99.94
498.832	106.94
499.049	88.94
499.267	99.94
499.484	72.94
499.701	89.94
499.918	90.94
500.135	85.94
500.352	88.94
500.569	82.94
500.786	91.94
501.003	79.94
501.22	101.94
501.437	87.94
501.654	82.94
501.871	97.94
502.088	92.94
502.305	80.94
502.522	83.94
502.739	86.94
502.956	92.94
503.172	84.94
503.389	100.94
503.606	108.94
503.823	93.94
504.04	86.94
504.256	89.94
504.473	90.94
504.69	96.94
504.907	87.94
505.123	83.94
505.34	98.94
505.557	88.94
505.773	108.94
505.99	90.94
506.207	94.94
506.423	90.94
506.64	93.94
506.856	91.94
507.073	99.94
507.289	79.94
507.506	95.94
507.722	129.94
507.939	115.94
508.155	98.94
508.372	93.94
508.588	92.94
508.805	91.94
509.021	102.94
509.238	108.94
509.454	102.94
509.67	93.94
509.887	111.94
510.103	139.94
510.319	231.94
510.536	835.94
510.752	2687.94
510.968	713.94
511.184	163.94
511.401	124.94
511.617	107.94
511.833	98.94
512.049	92.94
512.265	81.94
512.481	93.94
512.698	74.94
512.914	83.94
513.13	116.94
513.346	96.94
513.562	96.94
513.778	92.94
513.994	89.94
514.21	85.94
514.426	134.94
514.642	120.94
514.858	135.94
515.074	174.94
515.29	511.94
515.506	1834.94
515.721	643.94
