Data from Uncirc_1991_H10_HRD10591_00058.txt Node
Date: Wed Jan 03 11:50:49 EST 2024
User: Yrep
Spectrometer: HR+D1059
Trigger mode: 1
Integration Time (sec): 1.000000E-1
Scans to average: 1
Electric dark correction enabled: true
Nonlinearity correction enabled: false
Boxcar width: 0
XAxis mode: Wavelengths
Number of Pixels in Spectrum: 2048
>>>>>Begin Spectral Data<<<<<
223.165	-6.81
223.4	-6.81
223.635	-6.81
223.869	-27.81
224.104	-23.81
224.338	-8.81
224.573	-20.81
224.808	-12.81
225.042	3.19
225.277	-10.81
225.511	1.19
225.746	-9.81
225.98	-1.81
226.215	16.19
226.449	24.19
226.683	14.19
226.918	26.19
227.152	38.19
227.387	26.19
227.621	31.19
227.856	40.19
228.09	52.19
228.324	45.19
228.559	54.19
228.793	54.19
229.027	50.19
229.262	74.19
229.496	74.19
229.73	84.19
229.964	90.19
230.199	89.19
230.433	77.19
230.667	98.19
230.901	68.19
231.136	94.19
231.37	77.19
231.604	79.19
231.838	93.19
232.072	77.19
232.306	97.19
232.541	86.19
232.775	80.19
233.009	86.19
233.243	62.19
233.477	91.19
233.711	72.19
233.945	98.19
234.179	94.19
234.413	80.19
234.647	92.19
234.881	97.19
235.115	70.19
235.349	71.19
235.583	81.19
235.817	82.19
236.051	82.19
236.285	80.19
236.519	89.19
236.753	78.19
236.987	86.19
237.221	97.19
237.455	82.19
237.689	75.19
237.922	88.19
238.156	76.19
238.39	85.19
238.624	80.19
238.858	78.19
239.091	70.19
239.325	77.19
239.559	71.19
239.793	65.19
240.027	85.19
240.26	88.19
240.494	81.19
240.728	76.19
240.961	79.19
241.195	90.19
241.429	79.19
241.662	89.19
241.896	71.19
242.13	68.19
242.363	83.19
242.597	91.19
242.83	91.19
243.064	74.19
243.298	76.19
243.531	75.19
243.765	72.19
243.998	78.19
244.232	81.19
244.465	88.19
244.699	96.19
244.932	90.19
245.166	81.19
245.399	80.19
245.633	77.19
245.866	77.19
246.099	85.19
246.333	92.19
246.566	74.19
246.8	65.19
247.033	78.19
247.266	74.19
247.5	77.19
247.733	75.19
247.966	94.19
248.2	91.19
248.433	87.19
248.666	80.19
248.899	86.19
249.133	81.19
249.366	94.19
249.599	103.19
249.832	70.19
250.066	80.19
250.299	69.19
250.532	86.19
250.765	80.19
250.998	70.19
251.231	92.19
251.465	82.19
251.698	77.19
251.931	75.19
252.164	84.19
252.397	92.19
252.63	84.19
252.863	84.19
253.096	83.19
253.329	87.19
253.562	87.19
253.795	80.19
254.028	91.19
254.261	77.19
254.494	82.19
254.727	84.19
254.96	79.19
255.193	87.19
255.426	98.19
255.659	77.19
255.892	74.19
256.124	83.19
256.357	82.19
256.59	85.19
256.823	73.19
257.056	86.19
257.289	82.19
257.521	95.19
257.754	84.19
257.987	96.19
258.22	92.19
258.452	76.19
258.685	92.19
258.918	82.19
259.151	84.19
259.383	67.19
259.616	92.19
259.849	74.19
260.081	86.19
260.314	80.19
260.547	84.19
260.779	76.19
261.012	78.19
261.244	97.19
261.477	78.19
261.71	94.19
261.942	112.19
262.175	119.19
262.407	95.19
262.64	83.19
262.872	96.19
263.105	98.19
263.337	101.19
263.57	69.19
263.802	82.19
264.035	90.19
264.267	94.19
264.499	77.19
264.732	78.19
264.964	92.19
265.197	79.19
265.429	84.19
265.661	88.19
265.894	70.19
266.126	87.19
266.358	98.19
266.591	93.19
266.823	89.19
267.055	94.19
267.287	85.19
267.52	77.19
267.752	92.19
267.984	86.19
268.216	78.19
268.448	86.19
268.681	84.19
268.913	96.19
269.145	98.19
269.377	88.19
269.609	82.19
269.841	91.19
270.073	87.19
270.306	90.19
270.538	91.19
270.77	90.19
271.002	93.19
271.234	96.19
271.466	83.19
271.698	80.19
271.93	92.19
272.162	93.19
272.394	85.19
272.626	84.19
272.858	84.19
273.09	91.19
273.322	84.19
273.553	81.19
273.785	90.19
274.017	82.19
274.249	93.19
274.481	81.19
274.713	70.19
274.945	84.19
275.176	74.19
275.408	90.19
275.64	78.19
275.872	84.19
276.104	75.19
276.335	86.19
276.567	99.19
276.799	119.19
277.031	103.19
277.262	91.19
277.494	91.19
277.726	103.19
277.957	93.19
278.189	75.19
278.421	87.19
278.652	80.19
278.884	83.19
279.115	98.19
279.347	91.19
279.579	78.19
279.81	94.19
280.042	93.19
280.273	71.19
280.505	87.19
280.736	85.19
280.968	94.19
281.199	99.19
281.431	81.19
281.662	97.19
281.894	115.19
282.125	89.19
282.356	115.19
282.588	142.19
282.819	126.19
283.051	87.19
283.282	80.19
283.513	103.19
283.745	89.19
283.976	82.19
284.207	90.19
284.439	87.19
284.67	86.19
284.901	72.19
285.132	94.19
285.364	96.19
285.595	87.19
285.826	82.19
286.057	91.19
286.288	85.19
286.52	100.19
286.751	96.19
286.982	80.19
287.213	83.19
287.444	85.19
287.675	97.19
287.906	79.19
288.138	82.19
288.369	93.19
288.6	92.19
288.831	86.19
289.062	91.19
289.293	86.19
289.524	96.19
289.755	85.19
289.986	76.19
290.217	83.19
290.448	83.19
290.679	87.19
290.91	83.19
291.141	87.19
291.371	85.19
291.602	87.19
291.833	83.19
292.064	98.19
292.295	93.19
292.526	96.19
292.757	87.19
292.987	92.19
293.218	92.19
293.449	77.19
293.68	95.19
293.91	83.19
294.141	78.19
294.372	90.19
294.603	82.19
294.833	85.19
295.064	91.19
295.295	95.19
295.525	107.19
295.756	101.19
295.987	112.19
296.217	146.19
296.448	126.19
296.679	102.19
296.909	93.19
297.14	91.19
297.37	97.19
297.601	94.19
297.831	97.19
298.062	74.19
298.292	82.19
298.523	99.19
298.753	83.19
298.984	82.19
299.214	102.19
299.445	99.19
299.675	108.19
299.905	88.19
300.136	102.19
300.366	93.19
300.597	103.19
300.827	101.19
301.057	96.19
301.288	96.19
301.518	97.19
301.748	83.19
301.979	108.19
302.209	97.19
302.439	80.19
302.669	98.19
302.9	98.19
303.13	99.19
303.36	101.19
303.59	104.19
303.82	98.19
304.051	97.19
304.281	85.19
304.511	95.19
304.741	79.19
304.971	82.19
305.201	85.19
305.431	77.19
305.661	84.19
305.891	81.19
306.121	106.19
306.352	108.19
306.582	103.19
306.812	92.19
307.042	87.19
307.272	89.19
307.502	108.19
307.731	93.19
307.961	100.19
308.191	85.19
308.421	92.19
308.651	82.19
308.881	87.19
309.111	99.19
309.341	88.19
309.571	99.19
309.8	102.19
310.03	103.19
310.26	104.19
310.49	102.19
310.72	98.19
310.949	118.19
311.179	96.19
311.409	101.19
311.639	109.19
311.868	95.19
312.098	108.19
312.328	101.19
312.557	108.19
312.787	116.19
313.017	111.19
313.246	109.19
313.476	96.19
313.706	92.19
313.935	87.19
314.165	114.19
314.394	103.19
314.624	92.19
314.853	89.19
315.083	95.19
315.312	103.19
315.542	90.19
315.771	95.19
316.001	101.19
316.23	79.19
316.46	100.19
316.689	94.19
316.919	98.19
317.148	103.19
317.377	107.19
317.607	102.19
317.836	99.19
318.065	94.19
318.295	95.19
318.524	92.19
318.753	78.19
318.983	102.19
319.212	100.19
319.441	119.19
319.67	108.19
319.9	102.19
320.129	89.19
320.358	97.19
320.587	87.19
320.816	107.19
321.046	113.19
321.275	86.19
321.504	88.19
321.733	99.19
321.962	106.19
322.191	88.19
322.42	109.19
322.649	112.19
322.878	107.19
323.108	117.19
323.337	131.19
323.566	127.19
323.795	167.19
324.024	235.19
324.253	480.19
324.482	998.19
324.71	2136.19
324.939	2898.19
325.168	1035.19
325.397	273.19
325.626	178.19
325.855	143.19
326.084	131.19
326.313	121.19
326.542	158.19
326.77	263.19
326.999	537.19
327.228	1123.19
327.457	2152.19
327.686	1722.19
327.914	454.19
328.143	212.19
328.372	146.19
328.6	128.19
328.829	115.19
329.058	134.19
329.287	128.19
329.515	110.19
329.744	91.19
329.972	103.19
330.201	94.19
330.43	96.19
330.658	133.19
330.887	164.19
331.115	144.19
331.344	107.19
331.572	114.19
331.801	95.19
332.03	116.19
332.258	114.19
332.486	91.19
332.715	88.19
332.943	87.19
333.172	101.19
333.4	114.19
333.629	107.19
333.857	120.19
334.085	110.19
334.314	88.19
334.542	91.19
334.771	84.19
334.999	98.19
335.227	86.19
335.455	87.19
335.684	92.19
335.912	89.19
336.14	81.19
336.369	94.19
336.597	107.19
336.825	99.19
337.053	102.19
337.281	80.19
337.51	85.19
337.738	101.19
337.966	88.19
338.194	94.19
338.422	103.19
338.65	93.19
338.878	84.19
339.106	78.19
339.334	107.19
339.562	99.19
339.79	100.19
340.018	97.19
340.246	103.19
340.474	109.19
340.702	94.19
340.93	101.19
341.158	94.19
341.386	105.19
341.614	90.19
341.842	92.19
342.07	98.19
342.298	94.19
342.526	93.19
342.754	92.19
342.981	87.19
343.209	88.19
343.437	105.19
343.665	85.19
343.893	98.19
344.12	92.19
344.348	78.19
344.576	87.19
344.804	92.19
345.031	96.19
345.259	104.19
345.487	90.19
345.714	93.19
345.942	97.19
346.17	93.19
346.397	87.19
346.625	90.19
346.853	89.19
347.08	100.19
347.308	111.19
347.535	114.19
347.763	104.19
347.99	110.19
348.218	103.19
348.445	99.19
348.673	103.19
348.9	99.19
349.128	96.19
349.355	98.19
349.583	86.19
349.81	93.19
350.037	107.19
350.265	88.19
350.492	97.19
350.72	86.19
350.947	102.19
351.174	96.19
351.402	101.19
351.629	118.19
351.856	109.19
352.083	108.19
352.311	92.19
352.538	98.19
352.765	99.19
352.992	113.19
353.22	112.19
353.447	115.19
353.674	112.19
353.901	99.19
354.128	93.19
354.355	109.19
354.583	85.19
354.81	107.19
355.037	91.19
355.264	92.19
355.491	89.19
355.718	90.19
355.945	76.19
356.172	92.19
356.399	114.19
356.626	78.19
356.853	106.19
357.08	80.19
357.307	83.19
357.534	92.19
357.761	88.19
357.988	87.19
358.215	97.19
358.441	78.19
358.668	99.19
358.895	101.19
359.122	96.19
359.349	80.19
359.576	99.19
359.802	93.19
360.029	105.19
360.256	115.19
360.483	105.19
360.709	95.19
360.936	97.19
361.163	102.19
361.39	100.19
361.616	108.19
361.843	92.19
362.07	109.19
362.296	92.19
362.523	96.19
362.749	81.19
362.976	81.19
363.203	95.19
363.429	87.19
363.656	85.19
363.882	91.19
364.109	84.19
364.335	101.19
364.562	94.19
364.788	97.19
365.015	76.19
365.241	113.19
365.468	105.19
365.694	115.19
365.92	111.19
366.147	89.19
366.373	78.19
366.599	95.19
366.826	76.19
367.052	100.19
367.278	86.19
367.505	88.19
367.731	103.19
367.957	77.19
368.184	79.19
368.41	116.19
368.636	121.19
368.862	115.19
369.089	112.19
369.315	112.19
369.541	108.19
369.767	88.19
369.993	92.19
370.219	101.19
370.445	78.19
370.672	96.19
370.898	92.19
371.124	84.19
371.35	94.19
371.576	85.19
371.802	94.19
372.028	84.19
372.254	74.19
372.48	92.19
372.706	75.19
372.932	76.19
373.158	83.19
373.384	98.19
373.61	110.19
373.835	100.19
374.061	74.19
374.287	86.19
374.513	92.19
374.739	86.19
374.965	99.19
375.191	86.19
375.416	110.19
375.642	93.19
375.868	99.19
376.094	99.19
376.319	100.19
376.545	82.19
376.771	99.19
376.997	89.19
377.222	83.19
377.448	91.19
377.674	93.19
377.899	66.19
378.125	99.19
378.35	90.19
378.576	82.19
378.802	96.19
379.027	87.19
379.253	108.19
379.478	90.19
379.704	92.19
379.929	95.19
380.155	79.19
380.38	87.19
380.606	104.19
380.831	85.19
381.057	104.19
381.282	93.19
381.507	99.19
381.733	89.19
381.958	95.19
382.184	103.19
382.409	100.19
382.634	93.19
382.86	102.19
383.085	106.19
383.31	101.19
383.535	98.19
383.761	90.19
383.986	92.19
384.211	100.19
384.436	96.19
384.662	103.19
384.887	87.19
385.112	90.19
385.337	95.19
385.562	107.19
385.787	100.19
386.013	114.19
386.238	118.19
386.463	107.19
386.688	108.19
386.913	93.19
387.138	100.19
387.363	98.19
387.588	95.19
387.813	96.19
388.038	111.19
388.263	101.19
388.488	95.19
388.713	95.19
388.938	83.19
389.163	98.19
389.387	98.19
389.612	90.19
389.837	94.19
390.062	83.19
390.287	73.19
390.512	78.19
390.736	92.19
390.961	81.19
391.186	94.19
391.411	98.19
391.636	89.19
391.86	81.19
392.085	91.19
392.31	83.19
392.534	96.19
392.759	83.19
392.984	89.19
393.208	97.19
393.433	102.19
393.658	87.19
393.882	86.19
394.107	106.19
394.331	95.19
394.556	85.19
394.78	93.19
395.005	84.19
395.229	77.19
395.454	94.19
395.678	84.19
395.903	86.19
396.127	85.19
396.352	83.19
396.576	88.19
396.801	74.19
397.025	96.19
397.249	94.19
397.474	92.19
397.698	91.19
397.922	91.19
398.147	79.19
398.371	96.19
398.595	86.19
398.82	79.19
399.044	78.19
399.268	85.19
399.492	95.19
399.717	98.19
399.941	86.19
400.165	90.19
400.389	97.19
400.613	89.19
400.837	86.19
401.062	95.19
401.286	100.19
401.51	101.19
401.734	79.19
401.958	104.19
402.182	126.19
402.406	158.19
402.63	150.19
402.854	87.19
403.078	100.19
403.302	84.19
403.526	75.19
403.75	88.19
403.974	91.19
404.198	93.19
404.422	96.19
404.645	87.19
404.869	81.19
405.093	85.19
405.317	95.19
405.541	108.19
405.765	98.19
405.988	99.19
406.212	189.19
406.436	247.19
406.66	173.19
406.883	100.19
407.107	100.19
407.331	106.19
407.555	113.19
407.778	112.19
408.002	83.19
408.226	93.19
408.449	82.19
408.673	89.19
408.896	100.19
409.12	95.19
409.344	107.19
409.567	104.19
409.791	96.19
410.014	94.19
410.238	80.19
410.461	103.19
410.685	91.19
410.908	108.19
411.132	112.19
411.355	106.19
411.578	89.19
411.802	78.19
412.025	101.19
412.249	82.19
412.472	87.19
412.695	86.19
412.919	99.19
413.142	78.19
413.365	94.19
413.589	83.19
413.812	78.19
414.035	85.19
414.258	82.19
414.482	88.19
414.705	98.19
414.928	95.19
415.151	94.19
415.374	94.19
415.597	83.19
415.821	92.19
416.044	85.19
416.267	88.19
416.49	92.19
416.713	90.19
416.936	97.19
417.159	106.19
417.382	82.19
417.605	92.19
417.828	104.19
418.051	103.19
418.274	94.19
418.497	83.19
418.72	95.19
418.943	101.19
419.166	75.19
419.389	95.19
419.611	86.19
419.834	96.19
420.057	78.19
420.28	89.19
420.503	83.19
420.726	94.19
420.948	105.19
421.171	94.19
421.394	93.19
421.617	83.19
421.839	82.19
422.062	93.19
422.285	95.19
422.507	105.19
422.73	107.19
422.953	98.19
423.175	84.19
423.398	84.19
423.621	95.19
423.843	95.19
424.066	79.19
424.288	92.19
424.511	101.19
424.733	107.19
424.956	123.19
425.178	119.19
425.401	117.19
425.623	110.19
425.846	93.19
426.068	92.19
426.291	96.19
426.513	91.19
426.735	103.19
426.958	110.19
427.18	117.19
427.402	156.19
427.625	189.19
427.847	143.19
428.069	107.19
428.292	103.19
428.514	84.19
428.736	88.19
428.958	91.19
429.181	80.19
429.403	97.19
429.625	95.19
429.847	103.19
430.069	103.19
430.292	83.19
430.514	100.19
430.736	99.19
430.958	83.19
431.18	82.19
431.402	95.19
431.624	80.19
431.846	86.19
432.068	92.19
432.29	93.19
432.512	87.19
432.734	93.19
432.956	91.19
433.178	99.19
433.4	112.19
433.622	90.19
433.844	98.19
434.066	94.19
434.287	109.19
434.509	84.19
434.731	99.19
434.953	93.19
435.175	82.19
435.397	84.19
435.618	90.19
435.84	109.19
436.062	148.19
436.284	129.19
436.505	110.19
436.727	111.19
436.949	99.19
437.17	83.19
437.392	98.19
437.614	94.19
437.835	113.19
438.057	122.19
438.278	125.19
438.5	112.19
438.721	144.19
438.943	127.19
439.165	99.19
439.386	109.19
439.608	105.19
439.829	110.19
440.05	144.19
440.272	188.19
440.493	90.19
440.715	94.19
440.936	77.19
441.158	77.19
441.379	86.19
441.6	100.19
441.822	93.19
442.043	108.19
442.264	118.19
442.486	101.19
442.707	90.19
442.928	114.19
443.149	147.19
443.371	154.19
443.592	121.19
443.813	130.19
444.034	120.19
444.255	114.19
444.476	87.19
444.698	98.19
444.919	90.19
445.14	126.19
445.361	135.19
445.582	130.19
445.803	171.19
446.024	173.19
446.245	163.19
446.466	123.19
446.687	87.19
446.908	92.19
447.129	86.19
447.35	85.19
447.571	106.19
447.792	96.19
448.013	95.19
448.234	120.19
448.455	105.19
448.675	142.19
448.896	134.19
449.117	111.19
449.338	102.19
449.559	150.19
449.779	156.19
450	86.19
450.221	90.19
450.442	90.19
450.662	94.19
450.883	118.19
451.104	127.19
451.324	109.19
451.545	83.19
451.766	86.19
451.986	84.19
452.207	99.19
452.428	103.19
452.648	93.19
452.869	116.19
453.089	112.19
453.31	119.19
453.53	96.19
453.751	84.19
453.971	107.19
454.192	117.19
454.412	104.19
454.633	82.19
454.853	90.19
455.073	81.19
455.294	98.19
455.514	114.19
455.734	94.19
455.955	84.19
456.175	88.19
456.395	88.19
456.616	74.19
456.836	83.19
457.056	95.19
457.276	90.19
457.497	83.19
457.717	85.19
457.937	95.19
458.157	80.19
458.377	105.19
458.598	97.19
458.818	168.19
459.038	197.19
459.258	122.19
459.478	82.19
459.698	100.19
459.918	91.19
460.138	90.19
460.358	84.19
460.578	94.19
460.798	87.19
461.018	89.19
461.238	80.19
461.458	86.19
461.678	106.19
461.898	83.19
462.118	97.19
462.338	85.19
462.558	96.19
462.777	94.19
462.997	101.19
463.217	97.19
463.437	78.19
463.657	99.19
463.876	91.19
464.096	76.19
464.316	95.19
464.536	94.19
464.755	102.19
464.975	114.19
465.195	185.19
465.414	192.19
465.634	104.19
465.854	86.19
466.073	91.19
466.293	93.19
466.512	83.19
466.732	75.19
466.951	89.19
467.171	90.19
467.391	90.19
467.61	119.19
467.829	99.19
468.049	78.19
468.268	82.19
468.488	85.19
468.707	101.19
468.927	91.19
469.146	95.19
469.365	70.19
469.585	80.19
469.804	98.19
470.023	91.19
470.243	90.19
470.462	103.19
470.681	114.19
470.901	91.19
471.12	80.19
471.339	98.19
471.558	85.19
471.777	90.19
471.997	97.19
472.216	90.19
472.435	92.19
472.654	83.19
472.873	95.19
473.092	106.19
473.311	82.19
473.53	88.19
473.749	94.19
473.968	97.19
474.187	120.19
474.406	111.19
474.625	69.19
474.844	79.19
475.063	83.19
475.282	82.19
475.501	86.19
475.72	84.19
475.939	84.19
476.158	95.19
476.377	99.19
476.596	75.19
476.814	98.19
477.033	99.19
477.252	88.19
477.471	90.19
477.69	106.19
477.908	75.19
478.127	88.19
478.346	86.19
478.564	101.19
478.783	106.19
479.002	90.19
479.22	86.19
479.439	101.19
479.658	109.19
479.876	97.19
480.095	110.19
480.313	103.19
480.532	89.19
480.751	80.19
480.969	107.19
481.188	93.19
481.406	96.19
481.624	103.19
481.843	92.19
482.061	91.19
482.28	85.19
482.498	95.19
482.717	83.19
482.935	91.19
483.153	107.19
483.372	86.19
483.59	90.19
483.808	85.19
484.027	95.19
484.245	86.19
484.463	89.19
484.681	104.19
484.9	104.19
485.118	103.19
485.336	90.19
485.554	89.19
485.772	97.19
485.99	98.19
486.209	108.19
486.427	94.19
486.645	117.19
486.863	113.19
487.081	105.19
487.299	106.19
487.517	97.19
487.735	103.19
487.953	93.19
488.171	98.19
488.389	94.19
488.607	105.19
488.825	92.19
489.043	80.19
489.261	90.19
489.479	92.19
489.696	89.19
489.914	76.19
490.132	94.19
490.35	77.19
490.568	75.19
490.786	77.19
491.003	88.19
491.221	84.19
491.439	102.19
491.657	113.19
491.874	84.19
492.092	80.19
492.31	96.19
492.527	87.19
492.745	91.19
492.963	92.19
493.18	86.19
493.398	97.19
493.615	115.19
493.833	99.19
494.05	82.19
494.268	99.19
494.485	102.19
494.703	87.19
494.92	85.19
495.138	92.19
495.355	114.19
495.573	91.19
495.79	107.19
496.008	97.19
496.225	101.19
496.442	87.19
496.66	98.19
496.877	80.19
497.094	84.19
497.312	93.19
497.529	105.19
497.746	93.19
497.963	99.19
498.181	91.19
498.398	95.19
498.615	115.19
498.832	120.19
499.049	87.19
499.267	90.19
499.484	91.19
499.701	91.19
499.918	87.19
500.135	88.19
500.352	94.19
500.569	88.19
500.786	89.19
501.003	98.19
501.22	91.19
501.437	100.19
501.654	104.19
501.871	109.19
502.088	104.19
502.305	105.19
502.522	96.19
502.739	86.19
502.956	83.19
503.172	92.19
503.389	95.19
503.606	106.19
503.823	98.19
504.04	94.19
504.256	96.19
504.473	96.19
504.69	87.19
504.907	85.19
505.123	83.19
505.34	104.19
505.557	84.19
505.773	86.19
505.99	87.19
506.207	98.19
506.423	92.19
506.64	92.19
506.856	99.19
507.073	82.19
507.289	98.19
507.506	105.19
507.722	118.19
507.939	109.19
508.155	93.19
508.372	94.19
508.588	109.19
508.805	106.19
509.021	100.19
509.238	105.19
509.454	112.19
509.67	114.19
509.887	110.19
510.103	147.19
510.319	224.19
510.536	812.19
510.752	2594.19
510.968	722.19
511.184	166.19
511.401	115.19
511.617	104.19
511.833	107.19
512.049	90.19
512.265	87.19
512.481	103.19
512.698	100.19
512.914	92.19
513.13	93.19
513.346	92.19
513.562	94.19
513.778	96.19
513.994	108.19
514.21	100.19
514.426	124.19
514.642	171.19
514.858	124.19
