Data from Uncirc_1991_H10_HRD10591_00050.txt Node
Date: Wed Jan 03 11:50:48 EST 2024
User: Yrep
Spectrometer: HR+D1059
Trigger mode: 1
Integration Time (sec): 1.000000E-1
Scans to average: 1
Electric dark correction enabled: true
Nonlinearity correction enabled: false
Boxcar width: 0
XAxis mode: Wavelengths
Number of Pixels in Spectrum: 2048
>>>>>Begin Spectral Data<<<<<
223.165	-9.31
223.4	-9.31
223.635	-9.31
223.869	-13.31
224.104	-24.31
224.338	-19.31
224.573	-16.31
224.808	-11.31
225.042	-5.31
225.277	-9.31
225.511	-19.31
225.746	19.69
225.98	5.69
226.215	5.69
226.449	11.69
226.683	28.69
226.918	31.69
227.152	24.69
227.387	30.69
227.621	33.69
227.856	60.69
228.09	34.69
228.324	56.69
228.559	54.69
228.793	65.69
229.027	71.69
229.262	57.69
229.496	75.69
229.73	90.69
229.964	87.69
230.199	72.69
230.433	66.69
230.667	81.69
230.901	88.69
231.136	62.69
231.37	88.69
231.604	84.69
231.838	82.69
232.072	97.69
232.306	88.69
232.541	78.69
232.775	67.69
233.009	81.69
233.243	86.69
233.477	86.69
233.711	87.69
233.945	87.69
234.179	85.69
234.413	80.69
234.647	93.69
234.881	72.69
235.115	76.69
235.349	73.69
235.583	88.69
235.817	87.69
236.051	75.69
236.285	83.69
236.519	74.69
236.753	79.69
236.987	62.69
237.221	88.69
237.455	87.69
237.689	79.69
237.922	75.69
238.156	65.69
238.39	66.69
238.624	85.69
238.858	71.69
239.091	87.69
239.325	93.69
239.559	87.69
239.793	79.69
240.027	85.69
240.26	85.69
240.494	75.69
240.728	86.69
240.961	85.69
241.195	82.69
241.429	68.69
241.662	87.69
241.896	67.69
242.13	77.69
242.363	70.69
242.597	78.69
242.83	79.69
243.064	76.69
243.298	77.69
243.531	81.69
243.765	76.69
243.998	75.69
244.232	78.69
244.465	93.69
244.699	95.69
244.932	66.69
245.166	81.69
245.399	68.69
245.633	87.69
245.866	80.69
246.099	74.69
246.333	66.69
246.566	83.69
246.8	80.69
247.033	83.69
247.266	78.69
247.5	83.69
247.733	78.69
247.966	92.69
248.2	87.69
248.433	86.69
248.666	84.69
248.899	87.69
249.133	70.69
249.366	99.69
249.599	108.69
249.832	86.69
250.066	73.69
250.299	86.69
250.532	76.69
250.765	88.69
250.998	83.69
251.231	74.69
251.465	79.69
251.698	88.69
251.931	77.69
252.164	89.69
252.397	85.69
252.63	74.69
252.863	84.69
253.096	80.69
253.329	92.69
253.562	82.69
253.795	85.69
254.028	74.69
254.261	75.69
254.494	91.69
254.727	80.69
254.96	88.69
255.193	78.69
255.426	71.69
255.659	84.69
255.892	94.69
256.124	80.69
256.357	83.69
256.59	85.69
256.823	95.69
257.056	91.69
257.289	82.69
257.521	76.69
257.754	88.69
257.987	95.69
258.22	86.69
258.452	88.69
258.685	87.69
258.918	67.69
259.151	84.69
259.383	90.69
259.616	84.69
259.849	92.69
260.081	68.69
260.314	85.69
260.547	91.69
260.779	82.69
261.012	78.69
261.244	86.69
261.477	88.69
261.71	108.69
261.942	128.69
262.175	116.69
262.407	83.69
262.64	92.69
262.872	90.69
263.105	81.69
263.337	79.69
263.57	82.69
263.802	84.69
264.035	91.69
264.267	76.69
264.499	80.69
264.732	83.69
264.964	92.69
265.197	82.69
265.429	87.69
265.661	84.69
265.894	101.69
266.126	76.69
266.358	90.69
266.591	83.69
266.823	78.69
267.055	88.69
267.287	91.69
267.52	96.69
267.752	90.69
267.984	83.69
268.216	76.69
268.448	89.69
268.681	96.69
268.913	84.69
269.145	91.69
269.377	86.69
269.609	83.69
269.841	82.69
270.073	93.69
270.306	97.69
270.538	89.69
270.77	80.69
271.002	79.69
271.234	71.69
271.466	87.69
271.698	83.69
271.93	93.69
272.162	82.69
272.394	78.69
272.626	84.69
272.858	91.69
273.09	91.69
273.322	83.69
273.553	75.69
273.785	93.69
274.017	87.69
274.249	87.69
274.481	96.69
274.713	85.69
274.945	92.69
275.176	86.69
275.408	74.69
275.64	86.69
275.872	80.69
276.104	84.69
276.335	92.69
276.567	98.69
276.799	114.69
277.031	110.69
277.262	87.69
277.494	98.69
277.726	83.69
277.957	102.69
278.189	87.69
278.421	83.69
278.652	78.69
278.884	81.69
279.115	83.69
279.347	86.69
279.579	93.69
279.81	91.69
280.042	84.69
280.273	92.69
280.505	83.69
280.736	78.69
280.968	85.69
281.199	92.69
281.431	86.69
281.662	81.69
281.894	88.69
282.125	87.69
282.356	109.69
282.588	140.69
282.819	117.69
283.051	88.69
283.282	84.69
283.513	83.69
283.745	91.69
283.976	83.69
284.207	78.69
284.439	93.69
284.67	97.69
284.901	76.69
285.132	81.69
285.364	91.69
285.595	76.69
285.826	98.69
286.057	77.69
286.288	93.69
286.52	92.69
286.751	90.69
286.982	81.69
287.213	91.69
287.444	87.69
287.675	98.69
287.906	88.69
288.138	102.69
288.369	103.69
288.6	88.69
288.831	73.69
289.062	81.69
289.293	74.69
289.524	86.69
289.755	84.69
289.986	85.69
290.217	100.69
290.448	98.69
290.679	81.69
290.91	93.69
291.141	93.69
291.371	95.69
291.602	95.69
291.833	92.69
292.064	93.69
292.295	98.69
292.526	88.69
292.757	83.69
292.987	90.69
293.218	92.69
293.449	107.69
293.68	95.69
293.91	90.69
294.141	79.69
294.372	101.69
294.603	88.69
294.833	82.69
295.064	87.69
295.295	102.69
295.525	93.69
295.756	103.69
295.987	128.69
296.217	126.69
296.448	138.69
296.679	90.69
296.909	96.69
297.14	80.69
297.37	94.69
297.601	79.69
297.831	93.69
298.062	94.69
298.292	85.69
298.523	101.69
298.753	85.69
298.984	92.69
299.214	84.69
299.445	99.69
299.675	90.69
299.905	103.69
300.136	97.69
300.366	90.69
300.597	94.69
300.827	82.69
301.057	86.69
301.288	110.69
301.518	99.69
301.748	88.69
301.979	101.69
302.209	93.69
302.439	91.69
302.669	92.69
302.9	100.69
303.13	87.69
303.36	98.69
303.59	102.69
303.82	92.69
304.051	108.69
304.281	109.69
304.511	85.69
304.741	91.69
304.971	87.69
305.201	92.69
305.431	92.69
305.661	77.69
305.891	98.69
306.121	101.69
306.352	106.69
306.582	105.69
306.812	105.69
307.042	85.69
307.272	101.69
307.502	79.69
307.731	102.69
307.961	103.69
308.191	95.69
308.421	95.69
308.651	95.69
308.881	102.69
309.111	85.69
309.341	94.69
309.571	98.69
309.8	97.69
310.03	97.69
310.26	103.69
310.49	105.69
310.72	113.69
310.949	103.69
311.179	108.69
311.409	86.69
311.639	100.69
311.868	103.69
312.098	107.69
312.328	103.69
312.557	108.69
312.787	108.69
313.017	103.69
313.246	102.69
313.476	84.69
313.706	86.69
313.935	90.69
314.165	98.69
314.394	108.69
314.624	112.69
314.853	100.69
315.083	95.69
315.312	87.69
315.542	88.69
315.771	86.69
316.001	104.69
316.23	90.69
316.46	91.69
316.689	98.69
316.919	91.69
317.148	85.69
317.377	96.69
317.607	84.69
317.836	95.69
318.065	83.69
318.295	88.69
318.524	92.69
318.753	87.69
318.983	95.69
319.212	108.69
319.441	114.69
319.67	118.69
319.9	85.69
320.129	99.69
320.358	94.69
320.587	98.69
320.816	100.69
321.046	103.69
321.275	97.69
321.504	94.69
321.733	88.69
321.962	100.69
322.191	112.69
322.42	117.69
322.649	117.69
322.878	119.69
323.108	119.69
323.337	127.69
323.566	146.69
323.795	178.69
324.024	225.69
324.253	421.69
324.482	903.69
324.71	1917.69
324.939	2552.69
325.168	913.69
325.397	266.69
325.626	144.69
325.855	127.69
326.084	130.69
326.313	123.69
326.542	158.69
326.77	242.69
326.999	493.69
327.228	994.69
327.457	1901.69
327.686	1524.69
327.914	418.69
328.143	194.69
328.372	154.69
328.6	134.69
328.829	139.69
329.058	145.69
329.287	140.69
329.515	110.69
329.744	110.69
329.972	109.69
330.201	118.69
330.43	115.69
330.658	130.69
330.887	150.69
331.115	136.69
331.344	122.69
331.572	100.69
331.801	110.69
332.03	100.69
332.258	107.69
332.486	86.69
332.715	85.69
332.943	102.69
333.172	87.69
333.4	107.69
333.629	99.69
333.857	99.69
334.085	88.69
334.314	94.69
334.542	96.69
334.771	100.69
334.999	101.69
335.227	98.69
335.455	88.69
335.684	90.69
335.912	99.69
336.14	102.69
336.369	109.69
336.597	109.69
336.825	94.69
337.053	111.69
337.281	92.69
337.51	82.69
337.738	92.69
337.966	103.69
338.194	97.69
338.422	107.69
338.65	90.69
338.878	98.69
339.106	92.69
339.334	92.69
339.562	98.69
339.79	102.69
340.018	84.69
340.246	98.69
340.474	101.69
340.702	92.69
340.93	96.69
341.158	92.69
341.386	98.69
341.614	108.69
341.842	94.69
342.07	90.69
342.298	96.69
342.526	83.69
342.754	85.69
342.981	77.69
343.209	90.69
343.437	92.69
343.665	86.69
343.893	90.69
344.12	91.69
344.348	97.69
344.576	108.69
344.804	109.69
345.031	113.69
345.259	98.69
345.487	101.69
345.714	106.69
345.942	91.69
346.17	96.69
346.397	88.69
346.625	97.69
346.853	96.69
347.08	104.69
347.308	96.69
347.535	97.69
347.763	103.69
347.99	114.69
348.218	90.69
348.445	122.69
348.673	106.69
348.9	104.69
349.128	82.69
349.355	92.69
349.583	84.69
349.81	92.69
350.037	92.69
350.265	91.69
350.492	97.69
350.72	100.69
350.947	102.69
351.174	119.69
351.402	113.69
351.629	99.69
351.856	102.69
352.083	119.69
352.311	105.69
352.538	111.69
352.765	119.69
352.992	117.69
353.22	100.69
353.447	109.69
353.674	101.69
353.901	87.69
354.128	84.69
354.355	94.69
354.583	100.69
354.81	90.69
355.037	102.69
355.264	81.69
355.491	106.69
355.718	93.69
355.945	100.69
356.172	102.69
356.399	93.69
356.626	82.69
356.853	87.69
357.08	85.69
357.307	81.69
357.534	102.69
357.761	95.69
357.988	84.69
358.215	92.69
358.441	100.69
358.668	99.69
358.895	82.69
359.122	98.69
359.349	87.69
359.576	106.69
359.802	103.69
360.029	126.69
360.256	130.69
360.483	114.69
360.709	79.69
360.936	96.69
361.163	107.69
361.39	105.69
361.616	91.69
361.843	90.69
362.07	86.69
362.296	84.69
362.523	100.69
362.749	102.69
362.976	100.69
363.203	89.69
363.429	93.69
363.656	102.69
363.882	93.69
364.109	78.69
364.335	99.69
364.562	98.69
364.788	94.69
365.015	100.69
365.241	104.69
365.468	103.69
365.694	99.69
365.92	94.69
366.147	104.69
366.373	83.69
366.599	94.69
366.826	87.69
367.052	88.69
367.278	91.69
367.505	103.69
367.731	96.69
367.957	109.69
368.184	92.69
368.41	86.69
368.636	112.69
368.862	117.69
369.089	117.69
369.315	98.69
369.541	80.69
369.767	81.69
369.993	90.69
370.219	94.69
370.445	82.69
370.672	87.69
370.898	82.69
371.124	83.69
371.35	87.69
371.576	77.69
371.802	91.69
372.028	106.69
372.254	89.69
372.48	86.69
372.706	93.69
372.932	100.69
373.158	78.69
373.384	95.69
373.61	91.69
373.835	75.69
374.061	88.69
374.287	83.69
374.513	80.69
374.739	93.69
374.965	80.69
375.191	79.69
375.416	88.69
375.642	88.69
375.868	94.69
376.094	97.69
376.319	92.69
376.545	101.69
376.771	63.69
376.997	83.69
377.222	98.69
377.448	101.69
377.674	94.69
377.899	96.69
378.125	86.69
378.35	89.69
378.576	104.69
378.802	87.69
379.027	91.69
379.253	90.69
379.478	87.69
379.704	94.69
379.929	95.69
380.155	90.69
380.38	100.69
380.606	108.69
380.831	86.69
381.057	105.69
381.282	98.69
381.507	105.69
381.733	86.69
381.958	75.69
382.184	103.69
382.409	85.69
382.634	87.69
382.86	85.69
383.085	96.69
383.31	108.69
383.535	104.69
383.761	98.69
383.986	93.69
384.211	91.69
384.436	91.69
384.662	94.69
384.887	105.69
385.112	103.69
385.337	91.69
385.562	100.69
385.787	112.69
386.013	115.69
386.238	112.69
386.463	108.69
386.688	119.69
386.913	100.69
387.138	96.69
387.363	80.69
387.588	86.69
387.813	94.69
388.038	100.69
388.263	104.69
388.488	110.69
388.713	90.69
388.938	84.69
389.163	88.69
389.387	80.69
389.612	106.69
389.837	98.69
390.062	108.69
390.287	102.69
390.512	87.69
390.736	93.69
390.961	95.69
391.186	91.69
391.411	95.69
391.636	94.69
391.86	84.69
392.085	84.69
392.31	72.69
392.534	85.69
392.759	99.69
392.984	95.69
393.208	82.69
393.433	85.69
393.658	83.69
393.882	96.69
394.107	93.69
394.331	85.69
394.556	95.69
394.78	101.69
395.005	89.69
395.229	84.69
395.454	98.69
395.678	82.69
395.903	88.69
396.127	101.69
396.352	95.69
396.576	88.69
396.801	74.69
397.025	84.69
397.249	74.69
397.474	92.69
397.698	95.69
397.922	99.69
398.147	92.69
398.371	86.69
398.595	85.69
398.82	92.69
399.044	75.69
399.268	82.69
399.492	90.69
399.717	100.69
399.941	91.69
400.165	99.69
400.389	93.69
400.613	87.69
400.837	93.69
401.062	85.69
401.286	87.69
401.51	84.69
401.734	94.69
401.958	112.69
402.182	135.69
402.406	154.69
402.63	113.69
402.854	101.69
403.078	74.69
403.302	73.69
403.526	79.69
403.75	88.69
403.974	81.69
404.198	83.69
404.422	91.69
404.645	81.69
404.869	83.69
405.093	79.69
405.317	82.69
405.541	86.69
405.765	110.69
405.988	116.69
406.212	178.69
406.436	238.69
406.66	162.69
406.883	99.69
407.107	97.69
407.331	103.69
407.555	103.69
407.778	106.69
408.002	92.69
408.226	101.69
408.449	74.69
408.673	92.69
408.896	105.69
409.12	97.69
409.344	75.69
409.567	96.69
409.791	96.69
410.014	92.69
410.238	92.69
410.461	107.69
410.685	92.69
410.908	104.69
411.132	100.69
411.355	108.69
411.578	95.69
411.802	91.69
412.025	92.69
412.249	84.69
412.472	85.69
412.695	97.69
412.919	66.69
413.142	78.69
413.365	76.69
413.589	88.69
413.812	94.69
414.035	82.69
414.258	84.69
414.482	87.69
414.705	96.69
414.928	90.69
415.151	83.69
415.374	89.69
415.597	83.69
415.821	81.69
416.044	85.69
416.267	91.69
416.49	116.69
416.713	95.69
416.936	83.69
417.159	90.69
417.382	82.69
417.605	102.69
417.828	101.69
418.051	78.69
418.274	87.69
418.497	83.69
418.72	91.69
418.943	100.69
419.166	90.69
419.389	102.69
419.611	75.69
419.834	84.69
420.057	83.69
420.28	75.69
420.503	87.69
420.726	87.69
420.948	89.69
421.171	100.69
421.394	94.69
421.617	90.69
421.839	55.69
422.062	98.69
422.285	90.69
422.507	98.69
422.73	108.69
422.953	91.69
423.175	88.69
423.398	91.69
423.621	95.69
423.843	103.69
424.066	85.69
424.288	74.69
424.511	96.69
424.733	99.69
424.956	115.69
425.178	97.69
425.401	110.69
425.623	106.69
425.846	85.69
426.068	99.69
426.291	97.69
426.513	86.69
426.735	80.69
426.958	89.69
427.18	117.69
427.402	150.69
427.625	167.69
427.847	130.69
428.069	94.69
428.292	85.69
428.514	101.69
428.736	91.69
428.958	93.69
429.181	96.69
429.403	90.69
429.625	83.69
429.847	78.69
430.069	103.69
430.292	99.69
430.514	85.69
430.736	86.69
430.958	79.69
431.18	79.69
431.402	82.69
431.624	78.69
431.846	80.69
432.068	84.69
432.29	94.69
432.512	80.69
432.734	87.69
432.956	83.69
433.178	100.69
433.4	98.69
433.622	90.69
433.844	90.69
434.066	100.69
434.287	97.69
434.509	89.69
434.731	90.69
434.953	91.69
435.175	82.69
435.397	90.69
435.618	89.69
435.84	95.69
436.062	132.69
436.284	115.69
436.505	104.69
436.727	102.69
436.949	90.69
437.17	86.69
437.392	91.69
437.614	91.69
437.835	94.69
438.057	131.69
438.278	114.69
438.5	118.69
438.721	147.69
438.943	98.69
439.165	92.69
439.386	98.69
439.608	96.69
439.829	115.69
440.05	140.69
440.272	178.69
440.493	102.69
440.715	92.69
440.936	80.69
441.158	118.69
441.379	92.69
441.6	96.69
441.822	91.69
442.043	93.69
442.264	103.69
442.486	110.69
442.707	94.69
442.928	97.69
443.149	130.69
443.371	143.69
443.592	121.69
443.813	101.69
444.034	115.69
444.255	92.69
444.476	82.69
444.698	84.69
444.919	99.69
445.14	132.69
445.361	126.69
445.582	119.69
445.803	150.69
446.024	157.69
446.245	164.69
446.466	133.69
446.687	84.69
446.908	96.69
447.129	76.69
447.35	91.69
447.571	99.69
447.792	92.69
448.013	99.69
448.234	108.69
448.455	109.69
448.675	133.69
448.896	139.69
449.117	113.69
449.338	91.69
449.559	144.69
449.779	160.69
450	101.69
450.221	90.69
450.442	83.69
450.662	81.69
450.883	107.69
451.104	114.69
451.324	98.69
451.545	82.69
451.766	92.69
451.986	92.69
452.207	87.69
452.428	86.69
452.648	97.69
452.869	127.69
453.089	120.69
453.31	105.69
453.53	99.69
453.751	84.69
453.971	99.69
454.192	114.69
454.412	107.69
454.633	106.69
454.853	83.69
455.073	84.69
455.294	79.69
455.514	103.69
455.734	86.69
455.955	91.69
456.175	79.69
456.395	83.69
456.616	83.69
456.836	85.69
457.056	76.69
457.276	79.69
457.497	95.69
457.717	89.69
457.937	82.69
458.157	74.69
458.377	103.69
458.598	111.69
458.818	157.69
459.038	183.69
459.258	128.69
459.478	90.69
459.698	101.69
459.918	99.69
460.138	91.69
460.358	85.69
460.578	78.69
460.798	79.69
461.018	110.69
461.238	88.69
461.458	84.69
461.678	82.69
461.898	79.69
462.118	85.69
462.338	95.69
462.558	89.69
462.777	82.69
462.997	86.69
463.217	95.69
463.437	91.69
463.657	85.69
463.876	94.69
464.096	110.69
464.316	100.69
464.536	90.69
464.755	86.69
464.975	108.69
465.195	175.69
465.414	158.69
465.634	90.69
465.854	75.69
466.073	89.69
466.293	82.69
466.512	96.69
466.732	88.69
466.951	89.69
467.171	112.69
467.391	104.69
467.61	103.69
467.829	94.69
468.049	95.69
468.268	84.69
468.488	87.69
468.707	84.69
468.927	76.69
469.146	99.69
469.365	89.69
469.585	84.69
469.804	110.69
470.023	95.69
470.243	104.69
470.462	90.69
470.681	108.69
470.901	85.69
471.12	79.69
471.339	96.69
471.558	86.69
471.777	87.69
471.997	81.69
472.216	101.69
472.435	93.69
472.654	96.69
472.873	90.69
473.092	85.69
473.311	76.69
473.53	78.69
473.749	86.69
473.968	110.69
474.187	124.69
474.406	115.69
474.625	95.69
474.844	83.69
475.063	87.69
475.282	88.69
475.501	101.69
475.72	91.69
475.939	93.69
476.158	89.69
476.377	94.69
476.596	88.69
476.814	106.69
477.033	97.69
477.252	98.69
477.471	96.69
477.69	104.69
477.908	93.69
478.127	79.69
478.346	94.69
478.564	87.69
478.783	93.69
479.002	102.69
479.22	95.69
479.439	110.69
479.658	131.69
479.876	104.69
480.095	100.69
480.313	85.69
480.532	89.69
480.751	90.69
480.969	91.69
481.188	107.69
481.406	103.69
481.624	97.69
481.843	95.69
482.061	78.69
482.28	87.69
482.498	87.69
482.717	97.69
482.935	98.69
483.153	94.69
483.372	93.69
483.59	84.69
483.808	82.69
484.027	102.69
484.245	86.69
484.463	87.69
484.681	93.69
484.9	86.69
485.118	102.69
485.336	91.69
485.554	97.69
485.772	117.69
485.99	99.69
486.209	101.69
486.427	96.69
486.645	113.69
486.863	119.69
487.081	100.69
487.299	87.69
487.517	102.69
487.735	96.69
487.953	94.69
488.171	83.69
488.389	107.69
488.607	114.69
488.825	88.69
489.043	97.69
489.261	80.69
489.479	94.69
489.696	99.69
489.914	86.69
490.132	93.69
490.35	90.69
490.568	96.69
490.786	86.69
491.003	92.69
491.221	97.69
491.439	104.69
491.657	101.69
491.874	84.69
492.092	87.69
492.31	81.69
492.527	90.69
492.745	93.69
492.963	101.69
493.18	99.69
493.398	96.69
493.615	90.69
493.833	88.69
494.05	77.69
494.268	74.69
494.485	91.69
494.703	82.69
494.92	92.69
495.138	88.69
495.355	86.69
495.573	90.69
495.79	92.69
496.008	92.69
496.225	98.69
496.442	94.69
496.66	88.69
496.877	97.69
497.094	104.69
497.312	104.69
497.529	79.69
497.746	91.69
497.963	86.69
498.181	99.69
498.398	98.69
498.615	110.69
498.832	111.69
499.049	100.69
499.267	87.69
499.484	99.69
499.701	88.69
499.918	91.69
500.135	94.69
500.352	99.69
500.569	77.69
500.786	84.69
501.003	94.69
501.22	89.69
501.437	90.69
501.654	100.69
501.871	113.69
502.088	92.69
502.305	100.69
502.522	85.69
502.739	92.69
502.956	91.69
503.172	92.69
503.389	96.69
503.606	108.69
503.823	104.69
504.04	96.69
504.256	85.69
504.473	76.69
504.69	88.69
504.907	85.69
505.123	99.69
505.34	98.69
505.557	87.69
505.773	91.69
505.99	93.69
506.207	89.69
506.423	96.69
506.64	88.69
506.856	101.69
507.073	93.69
507.289	92.69
507.506	85.69
507.722	118.69
507.939	120.69
508.155	95.69
508.372	94.69
508.588	94.69
508.805	74.69
509.021	104.69
509.238	106.69
509.454	101.69
509.67	111.69
509.887	131.69
510.103	147.69
510.319	232.69
510.536	790.69
510.752	2533.69
510.968	687.69
511.184	154.69
511.401	131.69
511.617	103.69
511.833	101.69
512.049	97.69
512.265	110.69
512.481	86.69
512.698	84.69
512.914	85.69
513.13	94.69
513.346	92.69
513.562	93.69
513.778	100.69
513.994	101.69
514.21	107.69
514.426	135.69
514.642	145.69
514.858	143.69
