Data from Uncirc_1991_H10_HRD10591_00036.txt Node
Date: Wed Jan 03 11:50:45 EST 2024
User: Yrep
Spectrometer: HR+D1059
Trigger mode: 1
Integration Time (sec): 1.000000E-1
Scans to average: 1
Electric dark correction enabled: true
Nonlinearity correction enabled: false
Boxcar width: 0
XAxis mode: Wavelengths
Number of Pixels in Spectrum: 2048
>>>>>Begin Spectral Data<<<<<
223.165	-18.19
223.4	-18.19
223.635	-18.19
223.869	-32.19
224.104	-33.19
224.338	-12.19
224.573	-20.19
224.808	-15.19
225.042	-8.19
225.277	-10.19
225.511	-5.19
225.746	13.81
225.98	5.81
226.215	2.81
226.449	19.81
226.683	33.81
226.918	38.81
227.152	39.81
227.387	33.81
227.621	28.81
227.856	44.81
228.09	51.81
228.324	59.81
228.559	64.81
228.793	60.81
229.027	56.81
229.262	61.81
229.496	80.81
229.73	92.81
229.964	81.81
230.199	79.81
230.433	76.81
230.667	92.81
230.901	90.81
231.136	80.81
231.37	75.81
231.604	79.81
231.838	94.81
232.072	96.81
232.306	67.81
232.541	84.81
232.775	87.81
233.009	74.81
233.243	72.81
233.477	85.81
233.711	78.81
233.945	83.81
234.179	81.81
234.413	91.81
234.647	85.81
234.881	77.81
235.115	84.81
235.349	78.81
235.583	80.81
235.817	76.81
236.051	72.81
236.285	79.81
236.519	81.81
236.753	73.81
236.987	77.81
237.221	85.81
237.455	87.81
237.689	73.81
237.922	80.81
238.156	79.81
238.39	64.81
238.624	85.81
238.858	79.81
239.091	79.81
239.325	88.81
239.559	87.81
239.793	70.81
240.027	87.81
240.26	93.81
240.494	70.81
240.728	92.81
240.961	75.81
241.195	91.81
241.429	80.81
241.662	78.81
241.896	91.81
242.13	82.81
242.363	92.81
242.597	86.81
242.83	85.81
243.064	72.81
243.298	87.81
243.531	75.81
243.765	78.81
243.998	75.81
244.232	70.81
244.465	82.81
244.699	85.81
244.932	74.81
245.166	75.81
245.399	81.81
245.633	81.81
245.866	69.81
246.099	79.81
246.333	74.81
246.566	86.81
246.8	72.81
247.033	76.81
247.266	78.81
247.5	95.81
247.733	89.81
247.966	87.81
248.2	84.81
248.433	77.81
248.666	75.81
248.899	85.81
249.133	86.81
249.366	88.81
249.599	81.81
249.832	82.81
250.066	85.81
250.299	81.81
250.532	76.81
250.765	85.81
250.998	77.81
251.231	81.81
251.465	70.81
251.698	89.81
251.931	85.81
252.164	81.81
252.397	82.81
252.63	84.81
252.863	72.81
253.096	75.81
253.329	75.81
253.562	81.81
253.795	81.81
254.028	77.81
254.261	84.81
254.494	80.81
254.727	79.81
254.96	88.81
255.193	80.81
255.426	76.81
255.659	84.81
255.892	88.81
256.124	71.81
256.357	89.81
256.59	78.81
256.823	75.81
257.056	78.81
257.289	87.81
257.521	67.81
257.754	82.81
257.987	84.81
258.22	83.81
258.452	92.81
258.685	92.81
258.918	95.81
259.151	87.81
259.383	99.81
259.616	80.81
259.849	85.81
260.081	80.81
260.314	83.81
260.547	91.81
260.779	93.81
261.012	78.81
261.244	79.81
261.477	90.81
261.71	93.81
261.942	100.81
262.175	122.81
262.407	95.81
262.64	94.81
262.872	88.81
263.105	99.81
263.337	95.81
263.57	76.81
263.802	84.81
264.035	80.81
264.267	85.81
264.499	85.81
264.732	87.81
264.964	86.81
265.197	85.81
265.429	78.81
265.661	85.81
265.894	88.81
266.126	81.81
266.358	100.81
266.591	81.81
266.823	82.81
267.055	81.81
267.287	76.81
267.52	91.81
267.752	96.81
267.984	89.81
268.216	98.81
268.448	83.81
268.681	87.81
268.913	88.81
269.145	85.81
269.377	76.81
269.609	86.81
269.841	78.81
270.073	95.81
270.306	85.81
270.538	96.81
270.77	88.81
271.002	95.81
271.234	85.81
271.466	86.81
271.698	101.81
271.93	90.81
272.162	82.81
272.394	90.81
272.626	87.81
272.858	88.81
273.09	86.81
273.322	102.81
273.553	70.81
273.785	89.81
274.017	80.81
274.249	89.81
274.481	88.81
274.713	82.81
274.945	89.81
275.176	78.81
275.408	89.81
275.64	76.81
275.872	87.81
276.104	84.81
276.335	88.81
276.567	98.81
276.799	121.81
277.031	102.81
277.262	87.81
277.494	92.81
277.726	82.81
277.957	91.81
278.189	72.81
278.421	78.81
278.652	83.81
278.884	97.81
279.115	91.81
279.347	100.81
279.579	85.81
279.81	83.81
280.042	86.81
280.273	91.81
280.505	80.81
280.736	83.81
280.968	95.81
281.199	92.81
281.431	85.81
281.662	97.81
281.894	95.81
282.125	100.81
282.356	124.81
282.588	142.81
282.819	100.81
283.051	91.81
283.282	94.81
283.513	77.81
283.745	88.81
283.976	77.81
284.207	98.81
284.439	77.81
284.67	79.81
284.901	87.81
285.132	106.81
285.364	87.81
285.595	95.81
285.826	100.81
286.057	95.81
286.288	81.81
286.52	95.81
286.751	85.81
286.982	93.81
287.213	102.81
287.444	85.81
287.675	94.81
287.906	87.81
288.138	87.81
288.369	96.81
288.6	89.81
288.831	87.81
289.062	92.81
289.293	95.81
289.524	90.81
289.755	76.81
289.986	83.81
290.217	95.81
290.448	100.81
290.679	93.81
290.91	101.81
291.141	93.81
291.371	79.81
291.602	89.81
291.833	98.81
292.064	94.81
292.295	89.81
292.526	92.81
292.757	99.81
292.987	90.81
293.218	87.81
293.449	83.81
293.68	90.81
293.91	79.81
294.141	93.81
294.372	101.81
294.603	92.81
294.833	91.81
295.064	105.81
295.295	89.81
295.525	94.81
295.756	101.81
295.987	127.81
296.217	146.81
296.448	113.81
296.679	91.81
296.909	81.81
297.14	101.81
297.37	105.81
297.601	87.81
297.831	87.81
298.062	81.81
298.292	100.81
298.523	101.81
298.753	93.81
298.984	86.81
299.214	95.81
299.445	93.81
299.675	96.81
299.905	86.81
300.136	76.81
300.366	83.81
300.597	94.81
300.827	85.81
301.057	87.81
301.288	99.81
301.518	92.81
301.748	80.81
301.979	102.81
302.209	101.81
302.439	88.81
302.669	85.81
302.9	85.81
303.13	97.81
303.36	91.81
303.59	93.81
303.82	101.81
304.051	86.81
304.281	90.81
304.511	97.81
304.741	92.81
304.971	88.81
305.201	99.81
305.431	101.81
305.661	109.81
305.891	86.81
306.121	102.81
306.352	96.81
306.582	98.81
306.812	93.81
307.042	83.81
307.272	97.81
307.502	93.81
307.731	91.81
307.961	101.81
308.191	94.81
308.421	105.81
308.651	83.81
308.881	100.81
309.111	93.81
309.341	98.81
309.571	102.81
309.8	102.81
310.03	104.81
310.26	95.81
310.49	89.81
310.72	95.81
310.949	115.81
311.179	104.81
311.409	97.81
311.639	104.81
311.868	100.81
312.098	92.81
312.328	108.81
312.557	94.81
312.787	99.81
313.017	97.81
313.246	111.81
313.476	99.81
313.706	83.81
313.935	88.81
314.165	105.81
314.394	107.81
314.624	109.81
314.853	106.81
315.083	93.81
315.312	86.81
315.542	99.81
315.771	120.81
316.001	88.81
316.23	93.81
316.46	79.81
316.689	98.81
316.919	83.81
317.148	87.81
317.377	102.81
317.607	96.81
317.836	80.81
318.065	89.81
318.295	81.81
318.524	103.81
318.753	108.81
318.983	85.81
319.212	105.81
319.441	102.81
319.67	102.81
319.9	102.81
320.129	95.81
320.358	89.81
320.587	95.81
320.816	116.81
321.046	104.81
321.275	103.81
321.504	109.81
321.733	99.81
321.962	97.81
322.191	103.81
322.42	105.81
322.649	113.81
322.878	108.81
323.108	116.81
323.337	153.81
323.566	147.81
323.795	179.81
324.024	224.81
324.253	411.81
324.482	888.81
324.71	1922.81
324.939	2627.81
325.168	936.81
325.397	264.81
325.626	174.81
325.855	142.81
326.084	120.81
326.313	132.81
326.542	178.81
326.77	262.81
326.999	510.81
327.228	1041.81
327.457	1991.81
327.686	1591.81
327.914	395.81
328.143	201.81
328.372	161.81
328.6	129.81
328.829	119.81
329.058	141.81
329.287	127.81
329.515	110.81
329.744	119.81
329.972	112.81
330.201	105.81
330.43	98.81
330.658	112.81
330.887	147.81
331.115	128.81
331.344	109.81
331.572	109.81
331.801	102.81
332.03	100.81
332.258	93.81
332.486	94.81
332.715	108.81
332.943	98.81
333.172	96.81
333.4	97.81
333.629	99.81
333.857	106.81
334.085	104.81
334.314	109.81
334.542	87.81
334.771	96.81
334.999	93.81
335.227	95.81
335.455	103.81
335.684	95.81
335.912	102.81
336.14	114.81
336.369	95.81
336.597	120.81
336.825	102.81
337.053	104.81
337.281	95.81
337.51	96.81
337.738	95.81
337.966	104.81
338.194	98.81
338.422	86.81
338.65	97.81
338.878	89.81
339.106	87.81
339.334	92.81
339.562	91.81
339.79	103.81
340.018	92.81
340.246	93.81
340.474	108.81
340.702	99.81
340.93	95.81
341.158	91.81
341.386	80.81
341.614	96.81
341.842	101.81
342.07	73.81
342.298	82.81
342.526	111.81
342.754	94.81
342.981	99.81
343.209	83.81
343.437	99.81
343.665	95.81
343.893	106.81
344.12	89.81
344.348	97.81
344.576	76.81
344.804	95.81
345.031	100.81
345.259	120.81
345.487	89.81
345.714	95.81
345.942	97.81
346.17	94.81
346.397	94.81
346.625	93.81
346.853	92.81
347.08	82.81
347.308	103.81
347.535	97.81
347.763	106.81
347.99	96.81
348.218	93.81
348.445	108.81
348.673	106.81
348.9	101.81
349.128	102.81
349.355	104.81
349.583	80.81
349.81	89.81
350.037	109.81
350.265	88.81
350.492	96.81
350.72	96.81
350.947	101.81
351.174	94.81
351.402	116.81
351.629	112.81
351.856	100.81
352.083	104.81
352.311	108.81
352.538	107.81
352.765	103.81
352.992	109.81
353.22	111.81
353.447	120.81
353.674	108.81
353.901	93.81
354.128	95.81
354.355	112.81
354.583	109.81
354.81	104.81
355.037	99.81
355.264	114.81
355.491	98.81
355.718	102.81
355.945	100.81
356.172	97.81
356.399	93.81
356.626	87.81
356.853	107.81
357.08	88.81
357.307	87.81
357.534	112.81
357.761	92.81
357.988	96.81
358.215	98.81
358.441	88.81
358.668	96.81
358.895	87.81
359.122	95.81
359.349	87.81
359.576	97.81
359.802	88.81
360.029	111.81
360.256	111.81
360.483	114.81
360.709	96.81
360.936	97.81
361.163	102.81
361.39	83.81
361.616	93.81
361.843	96.81
362.07	83.81
362.296	88.81
362.523	87.81
362.749	105.81
362.976	97.81
363.203	110.81
363.429	85.81
363.656	88.81
363.882	88.81
364.109	76.81
364.335	85.81
364.562	103.81
364.788	93.81
365.015	99.81
365.241	93.81
365.468	97.81
365.694	101.81
365.92	93.81
366.147	98.81
366.373	87.81
366.599	90.81
366.826	90.81
367.052	95.81
367.278	98.81
367.505	95.81
367.731	99.81
367.957	105.81
368.184	87.81
368.41	88.81
368.636	102.81
368.862	98.81
369.089	114.81
369.315	87.81
369.541	91.81
369.767	82.81
369.993	101.81
370.219	89.81
370.445	69.81
370.672	73.81
370.898	96.81
371.124	83.81
371.35	81.81
371.576	92.81
371.802	88.81
372.028	93.81
372.254	81.81
372.48	84.81
372.706	88.81
372.932	78.81
373.158	92.81
373.384	82.81
373.61	86.81
373.835	76.81
374.061	91.81
374.287	96.81
374.513	89.81
374.739	98.81
374.965	79.81
375.191	86.81
375.416	107.81
375.642	95.81
375.868	85.81
376.094	96.81
376.319	101.81
376.545	101.81
376.771	94.81
376.997	99.81
377.222	103.81
377.448	87.81
377.674	85.81
377.899	92.81
378.125	85.81
378.35	80.81
378.576	97.81
378.802	94.81
379.027	96.81
379.253	88.81
379.478	97.81
379.704	86.81
379.929	95.81
380.155	86.81
380.38	97.81
380.606	83.81
380.831	89.81
381.057	95.81
381.282	87.81
381.507	102.81
381.733	88.81
381.958	86.81
382.184	88.81
382.409	97.81
382.634	107.81
382.86	104.81
383.085	94.81
383.31	107.81
383.535	102.81
383.761	111.81
383.986	91.81
384.211	97.81
384.436	104.81
384.662	109.81
384.887	93.81
385.112	101.81
385.337	98.81
385.562	114.81
385.787	115.81
386.013	89.81
386.238	89.81
386.463	91.81
386.688	109.81
386.913	100.81
387.138	93.81
387.363	97.81
387.588	97.81
387.813	107.81
388.038	101.81
388.263	117.81
388.488	105.81
388.713	89.81
388.938	98.81
389.163	87.81
389.387	92.81
389.612	94.81
389.837	85.81
390.062	103.81
390.287	91.81
390.512	100.81
390.736	91.81
390.961	79.81
391.186	90.81
391.411	97.81
391.636	103.81
391.86	71.81
392.085	79.81
392.31	78.81
392.534	100.81
392.759	100.81
392.984	96.81
393.208	91.81
393.433	97.81
393.658	101.81
393.882	76.81
394.107	90.81
394.331	97.81
394.556	100.81
394.78	92.81
395.005	87.81
395.229	90.81
395.454	83.81
395.678	83.81
395.903	93.81
396.127	110.81
396.352	83.81
396.576	88.81
396.801	93.81
397.025	88.81
397.249	93.81
397.474	87.81
397.698	98.81
397.922	84.81
398.147	87.81
398.371	87.81
398.595	87.81
398.82	88.81
399.044	96.81
399.268	88.81
399.492	90.81
399.717	84.81
399.941	86.81
400.165	92.81
400.389	108.81
400.613	90.81
400.837	100.81
401.062	102.81
401.286	91.81
401.51	93.81
401.734	93.81
401.958	95.81
402.182	126.81
402.406	161.81
402.63	121.81
402.854	103.81
403.078	80.81
403.302	90.81
403.526	83.81
403.75	96.81
403.974	91.81
404.198	89.81
404.422	97.81
404.645	86.81
404.869	103.81
405.093	87.81
405.317	99.81
405.541	91.81
405.765	95.81
405.988	127.81
406.212	184.81
406.436	237.81
406.66	155.81
406.883	111.81
407.107	96.81
407.331	95.81
407.555	112.81
407.778	115.81
408.002	89.81
408.226	102.81
408.449	91.81
408.673	96.81
408.896	97.81
409.12	95.81
409.344	97.81
409.567	77.81
409.791	92.81
410.014	93.81
410.238	87.81
410.461	93.81
410.685	101.81
410.908	96.81
411.132	112.81
411.355	97.81
411.578	81.81
411.802	96.81
412.025	86.81
412.249	83.81
412.472	80.81
412.695	105.81
412.919	77.81
413.142	83.81
413.365	71.81
413.589	87.81
413.812	99.81
414.035	89.81
414.258	83.81
414.482	96.81
414.705	92.81
414.928	87.81
415.151	83.81
415.374	91.81
415.597	90.81
415.821	99.81
416.044	95.81
416.267	94.81
416.49	88.81
416.713	83.81
416.936	87.81
417.159	100.81
417.382	99.81
417.605	95.81
417.828	105.81
418.051	96.81
418.274	99.81
418.497	80.81
418.72	85.81
418.943	106.81
419.166	93.81
419.389	91.81
419.611	91.81
419.834	100.81
420.057	92.81
420.28	106.81
420.503	97.81
420.726	77.81
420.948	82.81
421.171	99.81
421.394	101.81
421.617	96.81
421.839	99.81
422.062	94.81
422.285	107.81
422.507	109.81
422.73	103.81
422.953	105.81
423.175	89.81
423.398	88.81
423.621	99.81
423.843	95.81
424.066	87.81
424.288	90.81
424.511	102.81
424.733	103.81
424.956	112.81
425.178	95.81
425.401	111.81
425.623	107.81
425.846	96.81
426.068	93.81
426.291	100.81
426.513	78.81
426.735	100.81
426.958	81.81
427.18	115.81
427.402	151.81
427.625	168.81
427.847	123.81
428.069	111.81
428.292	92.81
428.514	96.81
428.736	90.81
428.958	80.81
429.181	96.81
429.403	90.81
429.625	87.81
429.847	103.81
430.069	112.81
430.292	104.81
430.514	96.81
430.736	87.81
430.958	86.81
431.18	86.81
431.402	88.81
431.624	73.81
431.846	91.81
432.068	84.81
432.29	90.81
432.512	82.81
432.734	88.81
432.956	84.81
433.178	97.81
433.4	103.81
433.622	100.81
433.844	105.81
434.066	101.81
434.287	95.81
434.509	96.81
434.731	83.81
434.953	82.81
435.175	94.81
435.397	93.81
435.618	98.81
435.84	117.81
436.062	147.81
436.284	121.81
436.505	108.81
436.727	99.81
436.949	79.81
437.17	93.81
437.392	92.81
437.614	91.81
437.835	110.81
438.057	118.81
438.278	114.81
438.5	106.81
438.721	114.81
438.943	120.81
439.165	103.81
439.386	96.81
439.608	99.81
439.829	108.81
440.05	135.81
440.272	153.81
440.493	105.81
440.715	75.81
440.936	83.81
441.158	99.81
441.379	93.81
441.6	90.81
441.822	93.81
442.043	103.81
442.264	120.81
442.486	116.81
442.707	113.81
442.928	117.81
443.149	124.81
443.371	139.81
443.592	107.81
443.813	109.81
444.034	111.81
444.255	105.81
444.476	71.81
444.698	88.81
444.919	102.81
445.14	132.81
445.361	133.81
445.582	109.81
445.803	145.81
446.024	148.81
446.245	136.81
446.466	114.81
446.687	107.81
446.908	100.81
447.129	82.81
447.35	81.81
447.571	103.81
447.792	96.81
448.013	95.81
448.234	113.81
448.455	96.81
448.675	132.81
448.896	133.81
449.117	95.81
449.338	112.81
449.559	149.81
449.779	145.81
450	97.81
450.221	98.81
450.442	84.81
450.662	95.81
450.883	132.81
451.104	100.81
451.324	108.81
451.545	93.81
451.766	98.81
451.986	97.81
452.207	88.81
452.428	88.81
452.648	104.81
452.869	113.81
453.089	119.81
453.31	112.81
453.53	103.81
453.751	86.81
453.971	110.81
454.192	113.81
454.412	94.81
454.633	66.81
454.853	88.81
455.073	89.81
455.294	92.81
455.514	91.81
455.734	96.81
455.955	97.81
456.175	94.81
456.395	102.81
456.616	88.81
456.836	90.81
457.056	91.81
457.276	98.81
457.497	84.81
457.717	87.81
457.937	83.81
458.157	88.81
458.377	85.81
458.598	127.81
458.818	170.81
459.038	179.81
459.258	112.81
459.478	100.81
459.698	95.81
459.918	88.81
460.138	99.81
460.358	81.81
460.578	77.81
460.798	92.81
461.018	101.81
461.238	97.81
461.458	84.81
461.678	98.81
461.898	86.81
462.118	104.81
462.338	85.81
462.558	89.81
462.777	72.81
462.997	88.81
463.217	93.81
463.437	105.81
463.657	81.81
463.876	86.81
464.096	94.81
464.316	85.81
464.536	105.81
464.755	113.81
464.975	107.81
465.195	167.81
465.414	179.81
465.634	105.81
465.854	70.81
466.073	86.81
466.293	72.81
466.512	76.81
466.732	91.81
466.951	86.81
467.171	104.81
467.391	98.81
467.61	101.81
467.829	111.81
468.049	85.81
468.268	93.81
468.488	87.81
468.707	91.81
468.927	87.81
469.146	90.81
469.365	71.81
469.585	97.81
469.804	91.81
470.023	94.81
470.243	93.81
470.462	110.81
470.681	109.81
470.901	92.81
471.12	103.81
471.339	86.81
471.558	106.81
471.777	103.81
471.997	86.81
472.216	99.81
472.435	105.81
472.654	95.81
472.873	85.81
473.092	81.81
473.311	90.81
473.53	100.81
473.749	94.81
473.968	80.81
474.187	111.81
474.406	105.81
474.625	76.81
474.844	95.81
475.063	99.81
475.282	97.81
475.501	96.81
475.72	91.81
475.939	105.81
476.158	101.81
476.377	103.81
476.596	91.81
476.814	92.81
477.033	101.81
477.252	81.81
477.471	91.81
477.69	96.81
477.908	105.81
478.127	81.81
478.346	93.81
478.564	112.81
478.783	108.81
479.002	93.81
479.22	76.81
479.439	102.81
479.658	102.81
479.876	99.81
480.095	84.81
480.313	106.81
480.532	93.81
480.751	79.81
480.969	75.81
481.188	98.81
481.406	99.81
481.624	108.81
481.843	87.81
482.061	93.81
482.28	90.81
482.498	87.81
482.717	100.81
482.935	89.81
483.153	86.81
483.372	85.81
483.59	94.81
483.808	93.81
484.027	104.81
484.245	84.81
484.463	95.81
484.681	96.81
484.9	93.81
485.118	80.81
485.336	93.81
485.554	91.81
485.772	100.81
485.99	96.81
486.209	101.81
486.427	100.81
486.645	125.81
486.863	118.81
487.081	93.81
487.299	98.81
487.517	100.81
487.735	102.81
487.953	92.81
488.171	86.81
488.389	99.81
488.607	96.81
488.825	97.81
489.043	95.81
489.261	96.81
489.479	89.81
489.696	88.81
489.914	93.81
490.132	86.81
490.35	91.81
490.568	98.81
490.786	85.81
491.003	84.81
491.221	84.81
491.439	89.81
491.657	87.81
491.874	101.81
492.092	96.81
492.31	103.81
492.527	103.81
492.745	95.81
492.963	91.81
493.18	93.81
493.398	96.81
493.615	108.81
493.833	102.81
494.05	91.81
494.268	87.81
494.485	87.81
494.703	98.81
494.92	84.81
495.138	91.81
495.355	94.81
495.573	102.81
495.79	85.81
496.008	95.81
496.225	95.81
496.442	89.81
496.66	100.81
496.877	100.81
497.094	107.81
497.312	111.81
497.529	98.81
497.746	99.81
497.963	82.81
498.181	78.81
498.398	103.81
498.615	109.81
498.832	105.81
499.049	96.81
499.267	93.81
499.484	112.81
499.701	99.81
499.918	101.81
500.135	80.81
500.352	75.81
500.569	97.81
500.786	96.81
501.003	95.81
501.22	85.81
501.437	98.81
501.654	98.81
501.871	112.81
502.088	97.81
502.305	97.81
502.522	100.81
502.739	84.81
502.956	99.81
503.172	105.81
503.389	94.81
503.606	95.81
503.823	106.81
504.04	91.81
504.256	97.81
504.473	93.81
504.69	100.81
504.907	105.81
505.123	89.81
505.34	104.81
505.557	84.81
505.773	101.81
505.99	100.81
506.207	88.81
506.423	83.81
506.64	92.81
506.856	98.81
507.073	98.81
507.289	94.81
507.506	104.81
507.722	126.81
507.939	115.81
508.155	104.81
508.372	105.81
508.588	88.81
508.805	94.81
509.021	92.81
509.238	95.81
509.454	99.81
509.67	88.81
509.887	105.81
510.103	116.81
510.319	203.81
510.536	773.81
510.752	2381.81
510.968	660.81
511.184	159.81
511.401	111.81
511.617	100.81
511.833	101.81
512.049	92.81
512.265	82.81
512.481	100.81
512.698	93.81
512.914	104.81
513.13	100.81
513.346	94.81
513.562	87.81
513.778	99.81
513.994	96.81
514.21	103.81
514.426	117.81
514.642	135.81
