Data from Uncirc_1991_H10_HRD10591_00004.txt Node
Date: Wed Jan 03 11:50:39 EST 2024
User: Yrep
Spectrometer: HR+D1059
Trigger mode: 1
Integration Time (sec): 1.000000E-1
Scans to average: 1
Electric dark correction enabled: true
Nonlinearity correction enabled: false
Boxcar width: 0
XAxis mode: Wavelengths
Number of Pixels in Spectrum: 2048
>>>>>Begin Spectral Data<<<<<
223.165	-23.56
223.4	-23.56
223.635	-23.56
223.869	-16.56
224.104	-30.56
224.338	-10.56
224.573	-12.56
224.808	-11.56
225.042	-5.56
225.277	4.44
225.511	-6.56
225.746	3.44
225.98	8.44
226.215	11.44
226.449	23.44
226.683	16.44
226.918	21.44
227.152	28.44
227.387	42.44
227.621	35.44
227.856	47.44
228.09	43.44
228.324	44.44
228.559	70.44
228.793	44.44
229.027	49.44
229.262	76.44
229.496	77.44
229.73	81.44
229.964	89.44
230.199	80.44
230.433	65.44
230.667	87.44
230.901	102.44
231.136	82.44
231.37	76.44
231.604	84.44
231.838	78.44
232.072	76.44
232.306	89.44
232.541	71.44
232.775	86.44
233.009	85.44
233.243	91.44
233.477	77.44
233.711	93.44
233.945	96.44
234.179	77.44
234.413	82.44
234.647	75.44
234.881	76.44
235.115	76.44
235.349	80.44
235.583	63.44
235.817	89.44
236.051	91.44
236.285	74.44
236.519	81.44
236.753	83.44
236.987	86.44
237.221	79.44
237.455	74.44
237.689	72.44
237.922	81.44
238.156	79.44
238.39	79.44
238.624	96.44
238.858	67.44
239.091	70.44
239.325	80.44
239.559	82.44
239.793	79.44
240.027	84.44
240.26	81.44
240.494	71.44
240.728	83.44
240.961	72.44
241.195	68.44
241.429	87.44
241.662	77.44
241.896	82.44
242.13	83.44
242.363	73.44
242.597	70.44
242.83	81.44
243.064	65.44
243.298	83.44
243.531	77.44
243.765	88.44
243.998	84.44
244.232	79.44
244.465	70.44
244.699	79.44
244.932	86.44
245.166	89.44
245.399	83.44
245.633	83.44
245.866	75.44
246.099	80.44
246.333	86.44
246.566	80.44
246.8	86.44
247.033	75.44
247.266	76.44
247.5	79.44
247.733	77.44
247.966	75.44
248.2	77.44
248.433	88.44
248.666	76.44
248.899	79.44
249.133	87.44
249.366	91.44
249.599	99.44
249.832	69.44
250.066	80.44
250.299	77.44
250.532	82.44
250.765	95.44
250.998	65.44
251.231	83.44
251.465	77.44
251.698	77.44
251.931	87.44
252.164	78.44
252.397	78.44
252.63	61.44
252.863	88.44
253.096	77.44
253.329	89.44
253.562	76.44
253.795	95.44
254.028	83.44
254.261	93.44
254.494	95.44
254.727	86.44
254.96	81.44
255.193	87.44
255.426	78.44
255.659	89.44
255.892	100.44
256.124	88.44
256.357	91.44
256.59	80.44
256.823	92.44
257.056	80.44
257.289	75.44
257.521	83.44
257.754	81.44
257.987	86.44
258.22	77.44
258.452	79.44
258.685	86.44
258.918	87.44
259.151	84.44
259.383	81.44
259.616	70.44
259.849	94.44
260.081	92.44
260.314	83.44
260.547	90.44
260.779	78.44
261.012	81.44
261.244	93.44
261.477	85.44
261.71	92.44
261.942	96.44
262.175	109.44
262.407	84.44
262.64	82.44
262.872	83.44
263.105	87.44
263.337	93.44
263.57	91.44
263.802	91.44
264.035	80.44
264.267	90.44
264.499	78.44
264.732	94.44
264.964	82.44
265.197	86.44
265.429	78.44
265.661	100.44
265.894	85.44
266.126	92.44
266.358	81.44
266.591	89.44
266.823	79.44
267.055	80.44
267.287	93.44
267.52	98.44
267.752	73.44
267.984	83.44
268.216	94.44
268.448	79.44
268.681	87.44
268.913	75.44
269.145	93.44
269.377	83.44
269.609	83.44
269.841	91.44
270.073	85.44
270.306	83.44
270.538	87.44
270.77	86.44
271.002	83.44
271.234	72.44
271.466	87.44
271.698	85.44
271.93	86.44
272.162	91.44
272.394	99.44
272.626	87.44
272.858	93.44
273.09	99.44
273.322	92.44
273.553	95.44
273.785	79.44
274.017	93.44
274.249	85.44
274.481	87.44
274.713	91.44
274.945	93.44
275.176	84.44
275.408	94.44
275.64	80.44
275.872	89.44
276.104	96.44
276.335	88.44
276.567	91.44
276.799	104.44
277.031	105.44
277.262	88.44
277.494	93.44
277.726	105.44
277.957	81.44
278.189	99.44
278.421	88.44
278.652	91.44
278.884	87.44
279.115	72.44
279.347	80.44
279.579	98.44
279.81	87.44
280.042	94.44
280.273	71.44
280.505	83.44
280.736	88.44
280.968	91.44
281.199	101.44
281.431	90.44
281.662	91.44
281.894	97.44
282.125	100.44
282.356	111.44
282.588	146.44
282.819	114.44
283.051	77.44
283.282	85.44
283.513	88.44
283.745	72.44
283.976	94.44
284.207	95.44
284.439	79.44
284.67	99.44
284.901	100.44
285.132	87.44
285.364	77.44
285.595	77.44
285.826	76.44
286.057	90.44
286.288	86.44
286.52	84.44
286.751	86.44
286.982	87.44
287.213	71.44
287.444	96.44
287.675	96.44
287.906	88.44
288.138	90.44
288.369	95.44
288.6	97.44
288.831	89.44
289.062	99.44
289.293	93.44
289.524	100.44
289.755	87.44
289.986	88.44
290.217	86.44
290.448	91.44
290.679	96.44
290.91	84.44
291.141	86.44
291.371	84.44
291.602	86.44
291.833	95.44
292.064	82.44
292.295	84.44
292.526	83.44
292.757	94.44
292.987	88.44
293.218	88.44
293.449	96.44
293.68	85.44
293.91	98.44
294.141	90.44
294.372	97.44
294.603	78.44
294.833	95.44
295.064	97.44
295.295	94.44
295.525	109.44
295.756	94.44
295.987	119.44
296.217	124.44
296.448	117.44
296.679	94.44
296.909	83.44
297.14	82.44
297.37	90.44
297.601	88.44
297.831	91.44
298.062	92.44
298.292	100.44
298.523	94.44
298.753	83.44
298.984	91.44
299.214	100.44
299.445	94.44
299.675	91.44
299.905	105.44
300.136	76.44
300.366	87.44
300.597	88.44
300.827	98.44
301.057	88.44
301.288	113.44
301.518	81.44
301.748	94.44
301.979	109.44
302.209	89.44
302.439	97.44
302.669	109.44
302.9	104.44
303.13	86.44
303.36	94.44
303.59	103.44
303.82	105.44
304.051	102.44
304.281	102.44
304.511	80.44
304.741	94.44
304.971	99.44
305.201	90.44
305.431	91.44
305.661	103.44
305.891	89.44
306.121	109.44
306.352	107.44
306.582	112.44
306.812	95.44
307.042	100.44
307.272	95.44
307.502	103.44
307.731	87.44
307.961	93.44
308.191	90.44
308.421	86.44
308.651	81.44
308.881	95.44
309.111	92.44
309.341	97.44
309.571	101.44
309.8	80.44
310.03	92.44
310.26	90.44
310.49	89.44
310.72	105.44
310.949	103.44
311.179	109.44
311.409	81.44
311.639	100.44
311.868	109.44
312.098	101.44
312.328	95.44
312.557	111.44
312.787	103.44
313.017	114.44
313.246	106.44
313.476	102.44
313.706	95.44
313.935	94.44
314.165	102.44
314.394	94.44
314.624	92.44
314.853	90.44
315.083	107.44
315.312	105.44
315.542	112.44
315.771	94.44
316.001	95.44
316.23	90.44
316.46	93.44
316.689	100.44
316.919	111.44
317.148	93.44
317.377	93.44
317.607	97.44
317.836	94.44
318.065	87.44
318.295	104.44
318.524	106.44
318.753	96.44
318.983	98.44
319.212	96.44
319.441	124.44
319.67	108.44
319.9	91.44
320.129	80.44
320.358	94.44
320.587	87.44
320.816	105.44
321.046	108.44
321.275	101.44
321.504	109.44
321.733	94.44
321.962	99.44
322.191	103.44
322.42	117.44
322.649	113.44
322.878	108.44
323.108	124.44
323.337	132.44
323.566	134.44
323.795	166.44
324.024	228.44
324.253	419.44
324.482	935.44
324.71	1981.44
324.939	2763.44
325.168	939.44
325.397	263.44
325.626	159.44
325.855	131.44
326.084	110.44
326.313	128.44
326.542	153.44
326.77	246.44
326.999	505.44
327.228	1069.44
327.457	2059.44
327.686	1659.44
327.914	432.44
328.143	205.44
328.372	144.44
328.6	128.44
328.829	122.44
329.058	123.44
329.287	111.44
329.515	98.44
329.744	102.44
329.972	90.44
330.201	94.44
330.43	114.44
330.658	133.44
330.887	131.44
331.115	141.44
331.344	108.44
331.572	113.44
331.801	132.44
332.03	118.44
332.258	98.44
332.486	99.44
332.715	100.44
332.943	105.44
333.172	98.44
333.4	102.44
333.629	95.44
333.857	116.44
334.085	104.44
334.314	105.44
334.542	91.44
334.771	94.44
334.999	103.44
335.227	108.44
335.455	71.44
335.684	88.44
335.912	99.44
336.14	95.44
336.369	105.44
336.597	97.44
336.825	90.44
337.053	94.44
337.281	84.44
337.51	93.44
337.738	77.44
337.966	89.44
338.194	106.44
338.422	87.44
338.65	93.44
338.878	92.44
339.106	100.44
339.334	84.44
339.562	72.44
339.79	102.44
340.018	97.44
340.246	99.44
340.474	85.44
340.702	106.44
340.93	91.44
341.158	85.44
341.386	97.44
341.614	93.44
341.842	99.44
342.07	109.44
342.298	102.44
342.526	96.44
342.754	88.44
342.981	78.44
343.209	99.44
343.437	100.44
343.665	75.44
343.893	83.44
344.12	92.44
344.348	86.44
344.576	102.44
344.804	99.44
345.031	111.44
345.259	116.44
345.487	89.44
345.714	85.44
345.942	100.44
346.17	105.44
346.397	104.44
346.625	101.44
346.853	91.44
347.08	99.44
347.308	100.44
347.535	100.44
347.763	101.44
347.99	99.44
348.218	105.44
348.445	116.44
348.673	100.44
348.9	94.44
349.128	95.44
349.355	104.44
349.583	81.44
349.81	88.44
350.037	109.44
350.265	100.44
350.492	92.44
350.72	79.44
350.947	106.44
351.174	111.44
351.402	104.44
351.629	105.44
351.856	98.44
352.083	103.44
352.311	111.44
352.538	117.44
352.765	107.44
352.992	106.44
353.22	103.44
353.447	95.44
353.674	104.44
353.901	99.44
354.128	94.44
354.355	108.44
354.583	109.44
354.81	108.44
355.037	99.44
355.264	89.44
355.491	96.44
355.718	104.44
355.945	94.44
356.172	99.44
356.399	94.44
356.626	100.44
356.853	89.44
357.08	109.44
357.307	98.44
357.534	95.44
357.761	81.44
357.988	100.44
358.215	96.44
358.441	84.44
358.668	88.44
358.895	78.44
359.122	92.44
359.349	84.44
359.576	95.44
359.802	101.44
360.029	119.44
360.256	113.44
360.483	115.44
360.709	102.44
360.936	77.44
361.163	93.44
361.39	82.44
361.616	90.44
361.843	96.44
362.07	89.44
362.296	97.44
362.523	67.44
362.749	77.44
362.976	86.44
363.203	91.44
363.429	98.44
363.656	90.44
363.882	84.44
364.109	85.44
364.335	89.44
364.562	97.44
364.788	92.44
365.015	95.44
365.241	109.44
365.468	106.44
365.694	110.44
365.92	95.44
366.147	101.44
366.373	96.44
366.599	111.44
366.826	94.44
367.052	103.44
367.278	93.44
367.505	89.44
367.731	92.44
367.957	96.44
368.184	84.44
368.41	84.44
368.636	96.44
368.862	126.44
369.089	97.44
369.315	88.44
369.541	77.44
369.767	96.44
369.993	86.44
370.219	95.44
370.445	82.44
370.672	95.44
370.898	97.44
371.124	98.44
371.35	73.44
371.576	81.44
371.802	80.44
372.028	89.44
372.254	97.44
372.48	88.44
372.706	80.44
372.932	104.44
373.158	81.44
373.384	77.44
373.61	97.44
373.835	85.44
374.061	87.44
374.287	89.44
374.513	96.44
374.739	95.44
374.965	99.44
375.191	79.44
375.416	91.44
375.642	101.44
375.868	99.44
376.094	89.44
376.319	100.44
376.545	99.44
376.771	87.44
376.997	88.44
377.222	76.44
377.448	94.44
377.674	97.44
377.899	96.44
378.125	89.44
378.35	78.44
378.576	85.44
378.802	95.44
379.027	84.44
379.253	91.44
379.478	83.44
379.704	86.44
379.929	93.44
380.155	95.44
380.38	101.44
380.606	99.44
380.831	100.44
381.057	97.44
381.282	100.44
381.507	93.44
381.733	98.44
381.958	91.44
382.184	85.44
382.409	92.44
382.634	108.44
382.86	99.44
383.085	97.44
383.31	99.44
383.535	98.44
383.761	97.44
383.986	93.44
384.211	104.44
384.436	98.44
384.662	92.44
384.887	97.44
385.112	85.44
385.337	98.44
385.562	96.44
385.787	107.44
386.013	102.44
386.238	116.44
386.463	112.44
386.688	96.44
386.913	105.44
387.138	104.44
387.363	95.44
387.588	103.44
387.813	98.44
388.038	97.44
388.263	109.44
388.488	109.44
388.713	95.44
388.938	95.44
389.163	111.44
389.387	96.44
389.612	96.44
389.837	104.44
390.062	91.44
390.287	102.44
390.512	102.44
390.736	100.44
390.961	106.44
391.186	93.44
391.411	93.44
391.636	93.44
391.86	95.44
392.085	95.44
392.31	88.44
392.534	94.44
392.759	92.44
392.984	107.44
393.208	87.44
393.433	102.44
393.658	98.44
393.882	93.44
394.107	81.44
394.331	101.44
394.556	84.44
394.78	90.44
395.005	97.44
395.229	97.44
395.454	80.44
395.678	93.44
395.903	85.44
396.127	84.44
396.352	93.44
396.576	91.44
396.801	97.44
397.025	89.44
397.249	89.44
397.474	95.44
397.698	96.44
397.922	91.44
398.147	102.44
398.371	92.44
398.595	84.44
398.82	83.44
399.044	71.44
399.268	83.44
399.492	91.44
399.717	91.44
399.941	96.44
400.165	93.44
400.389	86.44
400.613	89.44
400.837	93.44
401.062	101.44
401.286	97.44
401.51	92.44
401.734	76.44
401.958	98.44
402.182	121.44
402.406	155.44
402.63	113.44
402.854	95.44
403.078	88.44
403.302	80.44
403.526	98.44
403.75	91.44
403.974	81.44
404.198	88.44
404.422	86.44
404.645	89.44
404.869	110.44
405.093	99.44
405.317	99.44
405.541	94.44
405.765	109.44
405.988	123.44
406.212	166.44
406.436	230.44
406.66	140.44
406.883	102.44
407.107	94.44
407.331	97.44
407.555	112.44
407.778	100.44
408.002	109.44
408.226	96.44
408.449	94.44
408.673	88.44
408.896	87.44
409.12	114.44
409.344	96.44
409.567	105.44
409.791	92.44
410.014	91.44
410.238	83.44
410.461	97.44
410.685	89.44
410.908	96.44
411.132	122.44
411.355	117.44
411.578	103.44
411.802	87.44
412.025	97.44
412.249	85.44
412.472	84.44
412.695	102.44
412.919	90.44
413.142	96.44
413.365	83.44
413.589	85.44
413.812	88.44
414.035	91.44
414.258	91.44
414.482	96.44
414.705	97.44
414.928	72.44
415.151	85.44
415.374	97.44
415.597	95.44
415.821	98.44
416.044	89.44
416.267	97.44
416.49	83.44
416.713	90.44
416.936	90.44
417.159	81.44
417.382	90.44
417.605	77.44
417.828	82.44
418.051	94.44
418.274	80.44
418.497	92.44
418.72	88.44
418.943	81.44
419.166	92.44
419.389	95.44
419.611	91.44
419.834	113.44
420.057	93.44
420.28	89.44
420.503	78.44
420.726	81.44
420.948	83.44
421.171	93.44
421.394	108.44
421.617	95.44
421.839	94.44
422.062	99.44
422.285	103.44
422.507	110.44
422.73	119.44
422.953	105.44
423.175	96.44
423.398	95.44
423.621	91.44
423.843	85.44
424.066	90.44
424.288	84.44
424.511	86.44
424.733	102.44
424.956	114.44
425.178	105.44
425.401	127.44
425.623	121.44
425.846	97.44
426.068	89.44
426.291	95.44
426.513	92.44
426.735	100.44
426.958	98.44
427.18	114.44
427.402	157.44
427.625	187.44
427.847	115.44
428.069	94.44
428.292	102.44
428.514	83.44
428.736	91.44
428.958	101.44
429.181	84.44
429.403	97.44
429.625	83.44
429.847	89.44
430.069	108.44
430.292	95.44
430.514	81.44
430.736	104.44
430.958	97.44
431.18	100.44
431.402	111.44
431.624	82.44
431.846	89.44
432.068	90.44
432.29	84.44
432.512	79.44
432.734	92.44
432.956	91.44
433.178	105.44
433.4	105.44
433.622	93.44
433.844	92.44
434.066	97.44
434.287	83.44
434.509	88.44
434.731	87.44
434.953	85.44
435.175	99.44
435.397	81.44
435.618	100.44
435.84	110.44
436.062	142.44
436.284	123.44
436.505	106.44
436.727	87.44
436.949	88.44
437.17	96.44
437.392	79.44
437.614	101.44
437.835	101.44
438.057	128.44
438.278	122.44
438.5	100.44
438.721	137.44
438.943	129.44
439.165	97.44
439.386	88.44
439.608	96.44
439.829	118.44
440.05	125.44
440.272	173.44
440.493	108.44
440.715	102.44
440.936	91.44
441.158	91.44
441.379	99.44
441.6	98.44
441.822	85.44
442.043	91.44
442.264	95.44
442.486	102.44
442.707	91.44
442.928	104.44
443.149	145.44
443.371	144.44
443.592	114.44
443.813	122.44
444.034	123.44
444.255	110.44
444.476	71.44
444.698	91.44
444.919	107.44
445.14	136.44
445.361	146.44
445.582	123.44
445.803	138.44
446.024	158.44
446.245	164.44
446.466	113.44
446.687	90.44
446.908	89.44
447.129	94.44
447.35	107.44
447.571	91.44
447.792	83.44
448.013	102.44
448.234	112.44
448.455	97.44
448.675	118.44
448.896	141.44
449.117	104.44
449.338	113.44
449.559	155.44
449.779	153.44
450	100.44
450.221	98.44
450.442	94.44
450.662	96.44
450.883	103.44
451.104	108.44
451.324	97.44
451.545	89.44
451.766	90.44
451.986	88.44
452.207	94.44
452.428	91.44
452.648	94.44
452.869	112.44
453.089	117.44
453.31	113.44
453.53	96.44
453.751	95.44
453.971	110.44
454.192	118.44
454.412	100.44
454.633	77.44
454.853	97.44
455.073	85.44
455.294	92.44
455.514	110.44
455.734	82.44
455.955	82.44
456.175	81.44
456.395	95.44
456.616	93.44
456.836	81.44
457.056	91.44
457.276	94.44
457.497	83.44
457.717	97.44
457.937	84.44
458.157	94.44
458.377	85.44
458.598	106.44
458.818	161.44
459.038	180.44
459.258	120.44
459.478	99.44
459.698	93.44
459.918	96.44
460.138	79.44
460.358	99.44
460.578	98.44
460.798	91.44
461.018	89.44
461.238	91.44
461.458	83.44
461.678	92.44
461.898	83.44
462.118	91.44
462.338	95.44
462.558	95.44
462.777	90.44
462.997	92.44
463.217	85.44
463.437	88.44
463.657	106.44
463.876	86.44
464.096	98.44
464.316	103.44
464.536	103.44
464.755	96.44
464.975	106.44
465.195	162.44
465.414	159.44
465.634	92.44
465.854	103.44
466.073	86.44
466.293	85.44
466.512	89.44
466.732	91.44
466.951	87.44
467.171	97.44
467.391	91.44
467.61	105.44
467.829	100.44
468.049	102.44
468.268	79.44
468.488	92.44
468.707	104.44
468.927	91.44
469.146	97.44
469.365	80.44
469.585	92.44
469.804	97.44
470.023	98.44
470.243	99.44
470.462	105.44
470.681	105.44
470.901	75.44
471.12	80.44
471.339	83.44
471.558	88.44
471.777	86.44
471.997	98.44
472.216	85.44
472.435	105.44
472.654	88.44
472.873	93.44
473.092	88.44
473.311	85.44
473.53	84.44
473.749	94.44
473.968	96.44
474.187	108.44
474.406	97.44
474.625	86.44
474.844	86.44
475.063	91.44
475.282	89.44
475.501	92.44
475.72	101.44
475.939	93.44
476.158	89.44
476.377	91.44
476.596	99.44
476.814	92.44
477.033	94.44
477.252	85.44
477.471	98.44
477.69	95.44
477.908	87.44
478.127	98.44
478.346	80.44
478.564	103.44
478.783	95.44
479.002	87.44
479.22	90.44
479.439	100.44
479.658	117.44
479.876	96.44
480.095	93.44
480.313	100.44
480.532	89.44
480.751	81.44
480.969	107.44
481.188	102.44
481.406	106.44
481.624	85.44
481.843	88.44
482.061	94.44
482.28	75.44
482.498	105.44
482.717	82.44
482.935	92.44
483.153	94.44
483.372	92.44
483.59	102.44
483.808	90.44
484.027	93.44
484.245	79.44
484.463	94.44
484.681	82.44
484.9	93.44
485.118	97.44
485.336	107.44
485.554	104.44
485.772	93.44
485.99	112.44
486.209	114.44
486.427	99.44
486.645	107.44
486.863	107.44
487.081	105.44
487.299	110.44
487.517	103.44
487.735	95.44
487.953	103.44
488.171	86.44
488.389	84.44
488.607	88.44
488.825	96.44
489.043	85.44
489.261	78.44
489.479	92.44
489.696	93.44
489.914	85.44
490.132	78.44
490.35	95.44
490.568	79.44
490.786	102.44
491.003	105.44
491.221	95.44
491.439	88.44
491.657	110.44
491.874	105.44
492.092	86.44
492.31	103.44
492.527	87.44
492.745	95.44
492.963	96.44
493.18	88.44
493.398	90.44
493.615	97.44
493.833	84.44
494.05	85.44
494.268	109.44
494.485	96.44
494.703	105.44
494.92	99.44
495.138	84.44
495.355	84.44
495.573	78.44
495.79	96.44
496.008	92.44
496.225	98.44
496.442	99.44
496.66	86.44
496.877	93.44
497.094	90.44
497.312	99.44
497.529	100.44
497.746	95.44
497.963	90.44
498.181	75.44
498.398	93.44
498.615	113.44
498.832	106.44
499.049	97.44
499.267	101.44
499.484	83.44
499.701	78.44
499.918	116.44
500.135	90.44
500.352	89.44
500.569	95.44
500.786	99.44
501.003	97.44
501.22	97.44
501.437	89.44
501.654	79.44
501.871	98.44
502.088	85.44
502.305	95.44
502.522	97.44
502.739	87.44
502.956	98.44
503.172	92.44
503.389	94.44
503.606	103.44
503.823	105.44
504.04	97.44
504.256	101.44
504.473	86.44
504.69	93.44
504.907	86.44
505.123	98.44
505.34	96.44
505.557	104.44
505.773	100.44
505.99	105.44
506.207	94.44
506.423	106.44
506.64	96.44
506.856	98.44
507.073	80.44
507.289	89.44
507.506	89.44
507.722	118.44
507.939	116.44
508.155	103.44
508.372	101.44
508.588	99.44
508.805	93.44
509.021	90.44
509.238	101.44
509.454	101.44
509.67	115.44
509.887	96.44
510.103	125.44
510.319	212.44
510.536	701.44
510.752	2184.44
510.968	618.44
511.184	157.44
511.401	113.44
511.617	93.44
511.833	96.44
512.049	87.44
512.265	95.44
512.481	99.44
512.698	99.44
512.914	98.44
513.13	94.44
513.346	98.44
513.562	79.44
513.778	92.44
513.994	116.44
514.21	108.44
514.426	119.44
514.642	138.44
514.858	122.44
