Data from Uncirc_1991_H10_HRD10591_00044.txt Node
Date: Wed Jan 03 11:50:47 EST 2024
User: Yrep
Spectrometer: HR+D1059
Trigger mode: 1
Integration Time (sec): 1.000000E-1
Scans to average: 1
Electric dark correction enabled: true
Nonlinearity correction enabled: false
Boxcar width: 0
XAxis mode: Wavelengths
Number of Pixels in Spectrum: 2048
>>>>>Begin Spectral Data<<<<<
223.165	-19.94
223.4	-19.94
223.635	-19.94
223.869	-12.94
224.104	-27.94
224.338	0.06
224.573	-12.94
224.808	-7.94
225.042	-8.94
225.277	2.06
225.511	-3.94
225.746	3.06
225.98	12.06
226.215	5.06
226.449	14.06
226.683	11.06
226.918	20.06
227.152	27.06
227.387	36.06
227.621	46.06
227.856	42.06
228.09	47.06
228.324	44.06
228.559	50.06
228.793	54.06
229.027	63.06
229.262	70.06
229.496	74.06
229.73	105.06
229.964	92.06
230.199	76.06
230.433	85.06
230.667	78.06
230.901	66.06
231.136	86.06
231.37	83.06
231.604	66.06
231.838	85.06
232.072	78.06
232.306	74.06
232.541	77.06
232.775	73.06
233.009	85.06
233.243	66.06
233.477	69.06
233.711	80.06
233.945	82.06
234.179	78.06
234.413	84.06
234.647	71.06
234.881	80.06
235.115	78.06
235.349	76.06
235.583	77.06
235.817	71.06
236.051	74.06
236.285	79.06
236.519	82.06
236.753	90.06
236.987	92.06
237.221	93.06
237.455	92.06
237.689	75.06
237.922	81.06
238.156	70.06
238.39	69.06
238.624	76.06
238.858	77.06
239.091	84.06
239.325	77.06
239.559	76.06
239.793	83.06
240.027	59.06
240.26	80.06
240.494	80.06
240.728	69.06
240.961	85.06
241.195	67.06
241.429	75.06
241.662	73.06
241.896	95.06
242.13	81.06
242.363	76.06
242.597	78.06
242.83	81.06
243.064	74.06
243.298	63.06
243.531	66.06
243.765	64.06
243.998	77.06
244.232	89.06
244.465	92.06
244.699	77.06
244.932	60.06
245.166	66.06
245.399	78.06
245.633	79.06
245.866	78.06
246.099	72.06
246.333	86.06
246.566	76.06
246.8	93.06
247.033	86.06
247.266	74.06
247.5	83.06
247.733	100.06
247.966	91.06
248.2	78.06
248.433	79.06
248.666	70.06
248.899	90.06
249.133	82.06
249.366	92.06
249.599	110.06
249.832	86.06
250.066	90.06
250.299	90.06
250.532	68.06
250.765	80.06
250.998	83.06
251.231	83.06
251.465	82.06
251.698	69.06
251.931	85.06
252.164	79.06
252.397	74.06
252.63	80.06
252.863	80.06
253.096	99.06
253.329	88.06
253.562	62.06
253.795	70.06
254.028	82.06
254.261	82.06
254.494	95.06
254.727	85.06
254.96	88.06
255.193	80.06
255.426	98.06
255.659	79.06
255.892	94.06
256.124	66.06
256.357	75.06
256.59	90.06
256.823	66.06
257.056	77.06
257.289	80.06
257.521	66.06
257.754	78.06
257.987	104.06
258.22	101.06
258.452	79.06
258.685	82.06
258.918	77.06
259.151	71.06
259.383	80.06
259.616	79.06
259.849	85.06
260.081	74.06
260.314	82.06
260.547	81.06
260.779	95.06
261.012	78.06
261.244	91.06
261.477	93.06
261.71	102.06
261.942	123.06
262.175	132.06
262.407	91.06
262.64	80.06
262.872	86.06
263.105	92.06
263.337	91.06
263.57	80.06
263.802	79.06
264.035	76.06
264.267	80.06
264.499	88.06
264.732	73.06
264.964	84.06
265.197	83.06
265.429	82.06
265.661	90.06
265.894	73.06
266.126	90.06
266.358	94.06
266.591	87.06
266.823	89.06
267.055	79.06
267.287	77.06
267.52	86.06
267.752	79.06
267.984	82.06
268.216	72.06
268.448	86.06
268.681	90.06
268.913	81.06
269.145	83.06
269.377	74.06
269.609	79.06
269.841	103.06
270.073	108.06
270.306	88.06
270.538	85.06
270.77	95.06
271.002	84.06
271.234	90.06
271.466	98.06
271.698	89.06
271.93	66.06
272.162	85.06
272.394	88.06
272.626	87.06
272.858	79.06
273.09	89.06
273.322	88.06
273.553	81.06
273.785	87.06
274.017	84.06
274.249	87.06
274.481	80.06
274.713	70.06
274.945	93.06
275.176	93.06
275.408	91.06
275.64	102.06
275.872	107.06
276.104	96.06
276.335	96.06
276.567	103.06
276.799	121.06
277.031	106.06
277.262	81.06
277.494	87.06
277.726	91.06
277.957	93.06
278.189	96.06
278.421	91.06
278.652	94.06
278.884	73.06
279.115	100.06
279.347	96.06
279.579	94.06
279.81	88.06
280.042	98.06
280.273	99.06
280.505	79.06
280.736	97.06
280.968	97.06
281.199	88.06
281.431	76.06
281.662	84.06
281.894	96.06
282.125	104.06
282.356	135.06
282.588	166.06
282.819	110.06
283.051	85.06
283.282	99.06
283.513	90.06
283.745	95.06
283.976	90.06
284.207	87.06
284.439	94.06
284.67	85.06
284.901	94.06
285.132	69.06
285.364	94.06
285.595	91.06
285.826	93.06
286.057	98.06
286.288	79.06
286.52	76.06
286.751	85.06
286.982	84.06
287.213	66.06
287.444	87.06
287.675	84.06
287.906	92.06
288.138	101.06
288.369	93.06
288.6	96.06
288.831	77.06
289.062	106.06
289.293	93.06
289.524	90.06
289.755	90.06
289.986	94.06
290.217	70.06
290.448	90.06
290.679	80.06
290.91	94.06
291.141	102.06
291.371	83.06
291.602	86.06
291.833	80.06
292.064	95.06
292.295	88.06
292.526	95.06
292.757	91.06
292.987	79.06
293.218	90.06
293.449	96.06
293.68	86.06
293.91	95.06
294.141	97.06
294.372	83.06
294.603	102.06
294.833	87.06
295.064	94.06
295.295	97.06
295.525	87.06
295.756	94.06
295.987	118.06
296.217	138.06
296.448	132.06
296.679	98.06
296.909	95.06
297.14	91.06
297.37	97.06
297.601	86.06
297.831	93.06
298.062	90.06
298.292	106.06
298.523	98.06
298.753	83.06
298.984	92.06
299.214	77.06
299.445	87.06
299.675	85.06
299.905	89.06
300.136	87.06
300.366	90.06
300.597	94.06
300.827	97.06
301.057	107.06
301.288	115.06
301.518	95.06
301.748	91.06
301.979	97.06
302.209	91.06
302.439	112.06
302.669	94.06
302.9	87.06
303.13	102.06
303.36	84.06
303.59	103.06
303.82	106.06
304.051	87.06
304.281	85.06
304.511	90.06
304.741	88.06
304.971	90.06
305.201	91.06
305.431	93.06
305.661	94.06
305.891	97.06
306.121	97.06
306.352	98.06
306.582	107.06
306.812	103.06
307.042	92.06
307.272	105.06
307.502	76.06
307.731	100.06
307.961	84.06
308.191	63.06
308.421	101.06
308.651	98.06
308.881	92.06
309.111	80.06
309.341	98.06
309.571	110.06
309.8	99.06
310.03	98.06
310.26	100.06
310.49	93.06
310.72	85.06
310.949	122.06
311.179	105.06
311.409	102.06
311.639	99.06
311.868	92.06
312.098	104.06
312.328	84.06
312.557	123.06
312.787	122.06
313.017	96.06
313.246	115.06
313.476	94.06
313.706	108.06
313.935	97.06
314.165	109.06
314.394	101.06
314.624	103.06
314.853	105.06
315.083	95.06
315.312	91.06
315.542	85.06
315.771	91.06
316.001	102.06
316.23	102.06
316.46	87.06
316.689	91.06
316.919	97.06
317.148	104.06
317.377	103.06
317.607	99.06
317.836	90.06
318.065	92.06
318.295	71.06
318.524	92.06
318.753	93.06
318.983	114.06
319.212	113.06
319.441	125.06
319.67	117.06
319.9	95.06
320.129	100.06
320.358	96.06
320.587	104.06
320.816	93.06
321.046	107.06
321.275	116.06
321.504	105.06
321.733	96.06
321.962	106.06
322.191	107.06
322.42	113.06
322.649	118.06
322.878	121.06
323.108	121.06
323.337	124.06
323.566	167.06
323.795	173.06
324.024	236.06
324.253	463.06
324.482	1022.06
324.71	2202.06
324.939	2947.06
325.168	1065.06
325.397	314.06
325.626	184.06
325.855	141.06
326.084	123.06
326.313	139.06
326.542	180.06
326.77	255.06
326.999	536.06
327.228	1153.06
327.457	2206.06
327.686	1758.06
327.914	456.06
328.143	221.06
328.372	184.06
328.6	148.06
328.829	121.06
329.058	150.06
329.287	148.06
329.515	118.06
329.744	104.06
329.972	104.06
330.201	98.06
330.43	119.06
330.658	139.06
330.887	190.06
331.115	167.06
331.344	103.06
331.572	120.06
331.801	124.06
332.03	115.06
332.258	99.06
332.486	86.06
332.715	91.06
332.943	99.06
333.172	99.06
333.4	110.06
333.629	122.06
333.857	109.06
334.085	104.06
334.314	104.06
334.542	110.06
334.771	107.06
334.999	101.06
335.227	100.06
335.455	96.06
335.684	96.06
335.912	96.06
336.14	97.06
336.369	95.06
336.597	102.06
336.825	102.06
337.053	97.06
337.281	96.06
337.51	94.06
337.738	105.06
337.966	108.06
338.194	111.06
338.422	114.06
338.65	108.06
338.878	89.06
339.106	89.06
339.334	92.06
339.562	88.06
339.79	85.06
340.018	74.06
340.246	107.06
340.474	93.06
340.702	113.06
340.93	88.06
341.158	103.06
341.386	102.06
341.614	102.06
341.842	103.06
342.07	95.06
342.298	96.06
342.526	88.06
342.754	95.06
342.981	87.06
343.209	84.06
343.437	100.06
343.665	106.06
343.893	94.06
344.12	97.06
344.348	101.06
344.576	84.06
344.804	85.06
345.031	110.06
345.259	83.06
345.487	106.06
345.714	97.06
345.942	95.06
346.17	98.06
346.397	111.06
346.625	98.06
346.853	102.06
347.08	93.06
347.308	106.06
347.535	108.06
347.763	110.06
347.99	111.06
348.218	98.06
348.445	98.06
348.673	109.06
348.9	98.06
349.128	98.06
349.355	90.06
349.583	103.06
349.81	96.06
350.037	98.06
350.265	108.06
350.492	84.06
350.72	88.06
350.947	110.06
351.174	117.06
351.402	116.06
351.629	134.06
351.856	106.06
352.083	118.06
352.311	114.06
352.538	128.06
352.765	104.06
352.992	112.06
353.22	116.06
353.447	101.06
353.674	104.06
353.901	104.06
354.128	95.06
354.355	97.06
354.583	99.06
354.81	102.06
355.037	93.06
355.264	95.06
355.491	79.06
355.718	94.06
355.945	92.06
356.172	82.06
356.399	84.06
356.626	93.06
356.853	97.06
357.08	92.06
357.307	95.06
357.534	81.06
357.761	91.06
357.988	97.06
358.215	93.06
358.441	93.06
358.668	96.06
358.895	81.06
359.122	82.06
359.349	90.06
359.576	103.06
359.802	101.06
360.029	125.06
360.256	142.06
360.483	116.06
360.709	84.06
360.936	95.06
361.163	84.06
361.39	90.06
361.616	106.06
361.843	87.06
362.07	118.06
362.296	105.06
362.523	88.06
362.749	92.06
362.976	93.06
363.203	114.06
363.429	83.06
363.656	99.06
363.882	86.06
364.109	103.06
364.335	85.06
364.562	111.06
364.788	91.06
365.015	101.06
365.241	94.06
365.468	108.06
365.694	118.06
365.92	95.06
366.147	91.06
366.373	102.06
366.599	82.06
366.826	94.06
367.052	91.06
367.278	84.06
367.505	86.06
367.731	94.06
367.957	108.06
368.184	93.06
368.41	109.06
368.636	117.06
368.862	151.06
369.089	109.06
369.315	93.06
369.541	82.06
369.767	92.06
369.993	110.06
370.219	100.06
370.445	95.06
370.672	92.06
370.898	98.06
371.124	102.06
371.35	95.06
371.576	88.06
371.802	86.06
372.028	83.06
372.254	84.06
372.48	96.06
372.706	77.06
372.932	95.06
373.158	83.06
373.384	82.06
373.61	89.06
373.835	104.06
374.061	97.06
374.287	95.06
374.513	92.06
374.739	91.06
374.965	86.06
375.191	87.06
375.416	96.06
375.642	93.06
375.868	91.06
376.094	86.06
376.319	92.06
376.545	84.06
376.771	79.06
376.997	85.06
377.222	88.06
377.448	91.06
377.674	90.06
377.899	85.06
378.125	89.06
378.35	80.06
378.576	91.06
378.802	93.06
379.027	74.06
379.253	98.06
379.478	96.06
379.704	95.06
379.929	95.06
380.155	93.06
380.38	107.06
380.606	94.06
380.831	106.06
381.057	74.06
381.282	85.06
381.507	94.06
381.733	97.06
381.958	92.06
382.184	100.06
382.409	95.06
382.634	95.06
382.86	95.06
383.085	93.06
383.31	101.06
383.535	89.06
383.761	104.06
383.986	87.06
384.211	94.06
384.436	94.06
384.662	90.06
384.887	100.06
385.112	85.06
385.337	100.06
385.562	102.06
385.787	106.06
386.013	107.06
386.238	119.06
386.463	103.06
386.688	96.06
386.913	107.06
387.138	110.06
387.363	113.06
387.588	90.06
387.813	106.06
388.038	102.06
388.263	96.06
388.488	87.06
388.713	102.06
388.938	85.06
389.163	78.06
389.387	105.06
389.612	90.06
389.837	94.06
390.062	106.06
390.287	98.06
390.512	76.06
390.736	83.06
390.961	97.06
391.186	101.06
391.411	83.06
391.636	105.06
391.86	99.06
392.085	82.06
392.31	78.06
392.534	90.06
392.759	77.06
392.984	107.06
393.208	91.06
393.433	90.06
393.658	71.06
393.882	92.06
394.107	93.06
394.331	88.06
394.556	76.06
394.78	86.06
395.005	90.06
395.229	91.06
395.454	78.06
395.678	94.06
395.903	85.06
396.127	102.06
396.352	99.06
396.576	86.06
396.801	93.06
397.025	90.06
397.249	94.06
397.474	93.06
397.698	81.06
397.922	93.06
398.147	84.06
398.371	75.06
398.595	86.06
398.82	88.06
399.044	92.06
399.268	106.06
399.492	83.06
399.717	82.06
399.941	85.06
400.165	108.06
400.389	107.06
400.613	91.06
400.837	93.06
401.062	92.06
401.286	84.06
401.51	92.06
401.734	97.06
401.958	101.06
402.182	135.06
402.406	191.06
402.63	116.06
402.854	98.06
403.078	92.06
403.302	90.06
403.526	93.06
403.75	90.06
403.974	83.06
404.198	93.06
404.422	86.06
404.645	94.06
404.869	99.06
405.093	92.06
405.317	113.06
405.541	115.06
405.765	104.06
405.988	131.06
406.212	193.06
406.436	276.06
406.66	168.06
406.883	123.06
407.107	100.06
407.331	95.06
407.555	120.06
407.778	124.06
408.002	102.06
408.226	109.06
408.449	86.06
408.673	90.06
408.896	102.06
409.12	109.06
409.344	85.06
409.567	87.06
409.791	89.06
410.014	88.06
410.238	91.06
410.461	81.06
410.685	84.06
410.908	94.06
411.132	112.06
411.355	110.06
411.578	101.06
411.802	92.06
412.025	87.06
412.249	90.06
412.472	84.06
412.695	91.06
412.919	97.06
413.142	86.06
413.365	83.06
413.589	89.06
413.812	103.06
414.035	87.06
414.258	99.06
414.482	97.06
414.705	92.06
414.928	100.06
415.151	93.06
415.374	96.06
415.597	98.06
415.821	97.06
416.044	81.06
416.267	98.06
416.49	80.06
416.713	80.06
416.936	93.06
417.159	84.06
417.382	80.06
417.605	88.06
417.828	96.06
418.051	106.06
418.274	96.06
418.497	82.06
418.72	84.06
418.943	85.06
419.166	83.06
419.389	84.06
419.611	94.06
419.834	90.06
420.057	91.06
420.28	97.06
420.503	80.06
420.726	86.06
420.948	90.06
421.171	89.06
421.394	85.06
421.617	91.06
421.839	71.06
422.062	103.06
422.285	92.06
422.507	103.06
422.73	98.06
422.953	99.06
423.175	97.06
423.398	94.06
423.621	95.06
423.843	95.06
424.066	83.06
424.288	98.06
424.511	91.06
424.733	101.06
424.956	97.06
425.178	101.06
425.401	122.06
425.623	116.06
425.846	100.06
426.068	94.06
426.291	100.06
426.513	101.06
426.735	99.06
426.958	95.06
427.18	115.06
427.402	163.06
427.625	204.06
427.847	164.06
428.069	108.06
428.292	86.06
428.514	97.06
428.736	83.06
428.958	88.06
429.181	92.06
429.403	86.06
429.625	90.06
429.847	97.06
430.069	118.06
430.292	106.06
430.514	102.06
430.736	100.06
430.958	116.06
431.18	99.06
431.402	98.06
431.624	72.06
431.846	92.06
432.068	86.06
432.29	102.06
432.512	94.06
432.734	89.06
432.956	108.06
433.178	108.06
433.4	107.06
433.622	82.06
433.844	91.06
434.066	100.06
434.287	102.06
434.509	96.06
434.731	90.06
434.953	80.06
435.175	96.06
435.397	95.06
435.618	103.06
435.84	114.06
436.062	138.06
436.284	138.06
436.505	110.06
436.727	103.06
436.949	99.06
437.17	93.06
437.392	89.06
437.614	96.06
437.835	125.06
438.057	149.06
438.278	118.06
438.5	108.06
438.721	148.06
438.943	117.06
439.165	116.06
439.386	93.06
439.608	94.06
439.829	115.06
440.05	134.06
440.272	175.06
440.493	98.06
440.715	90.06
440.936	95.06
441.158	99.06
441.379	109.06
441.6	95.06
441.822	89.06
442.043	87.06
442.264	127.06
442.486	124.06
442.707	95.06
442.928	115.06
443.149	168.06
443.371	169.06
443.592	124.06
443.813	138.06
444.034	123.06
444.255	92.06
444.476	98.06
444.698	107.06
444.919	102.06
445.14	141.06
445.361	139.06
445.582	125.06
445.803	193.06
446.024	188.06
446.245	159.06
446.466	127.06
446.687	98.06
446.908	88.06
447.129	91.06
447.35	95.06
447.571	96.06
447.792	96.06
448.013	102.06
448.234	131.06
448.455	116.06
448.675	116.06
448.896	154.06
449.117	114.06
449.338	101.06
449.559	154.06
449.779	160.06
450	109.06
450.221	97.06
450.442	108.06
450.662	100.06
450.883	130.06
451.104	129.06
451.324	101.06
451.545	96.06
451.766	94.06
451.986	85.06
452.207	100.06
452.428	93.06
452.648	97.06
452.869	110.06
453.089	117.06
453.31	133.06
453.53	98.06
453.751	104.06
453.971	115.06
454.192	122.06
454.412	92.06
454.633	97.06
454.853	94.06
455.073	88.06
455.294	99.06
455.514	114.06
455.734	109.06
455.955	93.06
456.175	90.06
456.395	75.06
456.616	93.06
456.836	88.06
457.056	82.06
457.276	95.06
457.497	86.06
457.717	91.06
457.937	100.06
458.157	93.06
458.377	103.06
458.598	127.06
458.818	186.06
459.038	197.06
459.258	131.06
459.478	92.06
459.698	81.06
459.918	96.06
460.138	88.06
460.358	92.06
460.578	106.06
460.798	95.06
461.018	91.06
461.238	81.06
461.458	92.06
461.678	66.06
461.898	103.06
462.118	74.06
462.338	87.06
462.558	92.06
462.777	88.06
462.997	90.06
463.217	92.06
463.437	88.06
463.657	100.06
463.876	101.06
464.096	104.06
464.316	103.06
464.536	87.06
464.755	95.06
464.975	105.06
465.195	198.06
465.414	205.06
465.634	114.06
465.854	85.06
466.073	77.06
466.293	89.06
466.512	83.06
466.732	66.06
466.951	82.06
467.171	99.06
467.391	109.06
467.61	106.06
467.829	94.06
468.049	102.06
468.268	95.06
468.488	86.06
468.707	83.06
468.927	81.06
469.146	86.06
469.365	83.06
469.585	80.06
469.804	102.06
470.023	107.06
470.243	87.06
470.462	113.06
470.681	118.06
470.901	96.06
471.12	84.06
471.339	95.06
471.558	84.06
471.777	80.06
471.997	90.06
472.216	98.06
472.435	90.06
472.654	87.06
472.873	74.06
473.092	67.06
473.311	83.06
473.53	97.06
473.749	92.06
473.968	107.06
474.187	132.06
474.406	110.06
474.625	94.06
474.844	91.06
475.063	87.06
475.282	90.06
475.501	87.06
475.72	82.06
475.939	83.06
476.158	77.06
476.377	93.06
476.596	92.06
476.814	100.06
477.033	92.06
477.252	88.06
477.471	84.06
477.69	93.06
477.908	99.06
478.127	92.06
478.346	90.06
478.564	90.06
478.783	99.06
479.002	86.06
479.22	90.06
479.439	111.06
479.658	97.06
479.876	103.06
480.095	87.06
480.313	98.06
480.532	85.06
480.751	94.06
480.969	93.06
481.188	99.06
481.406	87.06
481.624	99.06
481.843	101.06
482.061	93.06
482.28	69.06
482.498	94.06
482.717	83.06
482.935	84.06
483.153	88.06
483.372	100.06
483.59	97.06
483.808	93.06
484.027	83.06
484.245	91.06
484.463	87.06
484.681	96.06
484.9	99.06
485.118	95.06
485.336	84.06
485.554	95.06
485.772	93.06
485.99	108.06
486.209	93.06
486.427	102.06
486.645	111.06
486.863	99.06
487.081	111.06
487.299	93.06
487.517	95.06
487.735	92.06
487.953	94.06
488.171	81.06
488.389	103.06
488.607	108.06
488.825	92.06
489.043	85.06
489.261	93.06
489.479	93.06
489.696	81.06
489.914	101.06
490.132	101.06
490.35	88.06
490.568	95.06
490.786	94.06
491.003	86.06
491.221	87.06
491.439	87.06
491.657	88.06
491.874	97.06
492.092	94.06
492.31	90.06
492.527	92.06
492.745	101.06
492.963	91.06
493.18	95.06
493.398	93.06
493.615	99.06
493.833	95.06
494.05	84.06
494.268	96.06
494.485	90.06
494.703	88.06
494.92	104.06
495.138	90.06
495.355	98.06
495.573	89.06
495.79	91.06
496.008	86.06
496.225	112.06
496.442	82.06
496.66	91.06
496.877	78.06
497.094	107.06
497.312	94.06
497.529	91.06
497.746	89.06
497.963	82.06
498.181	91.06
498.398	99.06
498.615	117.06
498.832	117.06
499.049	104.06
499.267	80.06
499.484	89.06
499.701	72.06
499.918	92.06
500.135	88.06
500.352	86.06
500.569	80.06
500.786	100.06
501.003	76.06
501.22	84.06
501.437	84.06
501.654	97.06
501.871	115.06
502.088	95.06
502.305	105.06
502.522	82.06
502.739	94.06
502.956	82.06
503.172	91.06
503.389	92.06
503.606	113.06
503.823	99.06
504.04	95.06
504.256	93.06
504.473	100.06
504.69	93.06
504.907	85.06
505.123	86.06
505.34	76.06
505.557	105.06
505.773	88.06
505.99	87.06
506.207	93.06
506.423	96.06
506.64	95.06
506.856	91.06
507.073	103.06
507.289	104.06
507.506	100.06
507.722	124.06
507.939	131.06
508.155	102.06
508.372	91.06
508.588	95.06
508.805	89.06
509.021	92.06
509.238	92.06
509.454	112.06
509.67	118.06
509.887	122.06
510.103	139.06
510.319	216.06
510.536	850.06
510.752	2859.06
510.968	787.06
511.184	168.06
511.401	118.06
511.617	107.06
511.833	99.06
512.049	102.06
512.265	97.06
512.481	88.06
512.698	91.06
512.914	94.06
513.13	106.06
513.346	94.06
513.562	83.06
513.778	95.06
513.994	93.06
514.21	104.06
514.426	119.06
