Data from Uncirc_1991_H10_HRD10591_00066.txt Node
Date: Wed Jan 03 11:50:51 EST 2024
User: Yrep
Spectrometer: HR+D1059
Trigger mode: 1
Integration Time (sec): 1.000000E-1
Scans to average: 1
Electric dark correction enabled: true
Nonlinearity correction enabled: false
Boxcar width: 0
XAxis mode: Wavelengths
Number of Pixels in Spectrum: 2048
>>>>>Begin Spectral Data<<<<<
223.165	-28
223.4	-28
223.635	-28
223.869	-27
224.104	-36
224.338	-17
224.573	-15
224.808	3
225.042	-9
225.277	-2
225.511	-5
225.746	1
225.98	13
226.215	20
226.449	16
226.683	28
226.918	29
227.152	29
227.387	39
227.621	38
227.856	45
228.09	49
228.324	38
228.559	51
228.793	47
229.027	59
229.262	82
229.496	81
229.73	77
229.964	76
230.199	67
230.433	87
230.667	70
230.901	74
231.136	79
231.37	82
231.604	82
231.838	66
232.072	88
232.306	93
232.541	68
232.775	85
233.009	94
233.243	86
233.477	78
233.711	82
233.945	81
234.179	84
234.413	86
234.647	76
234.881	81
235.115	79
235.349	84
235.583	79
235.817	84
236.051	81
236.285	79
236.519	72
236.753	85
236.987	77
237.221	91
237.455	86
237.689	79
237.922	67
238.156	81
238.39	66
238.624	79
238.858	81
239.091	80
239.325	86
239.559	75
239.793	95
240.027	83
240.26	69
240.494	75
240.728	80
240.961	74
241.195	73
241.429	83
241.662	83
241.896	81
242.13	70
242.363	78
242.597	83
242.83	95
243.064	84
243.298	89
243.531	80
243.765	83
243.998	75
244.232	66
244.465	84
244.699	79
244.932	95
245.166	77
245.399	67
245.633	67
245.866	85
246.099	63
246.333	83
246.566	70
246.8	75
247.033	76
247.266	88
247.5	86
247.733	69
247.966	73
248.2	75
248.433	87
248.666	88
248.899	71
249.133	65
249.366	101
249.599	109
249.832	87
250.066	94
250.299	87
250.532	81
250.765	82
250.998	84
251.231	82
251.465	87
251.698	67
251.931	76
252.164	83
252.397	87
252.63	74
252.863	65
253.096	74
253.329	80
253.562	89
253.795	77
254.028	84
254.261	89
254.494	92
254.727	77
254.96	79
255.193	64
255.426	90
255.659	85
255.892	79
256.124	82
256.357	78
256.59	81
256.823	73
257.056	79
257.289	83
257.521	76
257.754	91
257.987	84
258.22	92
258.452	80
258.685	93
258.918	81
259.151	78
259.383	103
259.616	98
259.849	81
260.081	80
260.314	90
260.547	80
260.779	85
261.012	84
261.244	67
261.477	75
261.71	107
261.942	107
262.175	111
262.407	87
262.64	78
262.872	77
263.105	93
263.337	91
263.57	76
263.802	83
264.035	72
264.267	82
264.499	79
264.732	82
264.964	85
265.197	75
265.429	89
265.661	79
265.894	91
266.126	92
266.358	85
266.591	80
266.823	84
267.055	70
267.287	88
267.52	89
267.752	95
267.984	88
268.216	81
268.448	91
268.681	86
268.913	90
269.145	73
269.377	83
269.609	92
269.841	86
270.073	91
270.306	93
270.538	102
270.77	87
271.002	89
271.234	85
271.466	76
271.698	80
271.93	88
272.162	101
272.394	87
272.626	80
272.858	87
273.09	86
273.322	96
273.553	94
273.785	86
274.017	77
274.249	85
274.481	70
274.713	89
274.945	100
275.176	84
275.408	89
275.64	81
275.872	81
276.104	87
276.335	101
276.567	98
276.799	73
277.031	99
277.262	81
277.494	95
277.726	97
277.957	83
278.189	87
278.421	92
278.652	95
278.884	95
279.115	81
279.347	83
279.579	86
279.81	83
280.042	93
280.273	85
280.505	87
280.736	75
280.968	84
281.199	92
281.431	88
281.662	78
281.894	97
282.125	99
282.356	105
282.588	139
282.819	105
283.051	91
283.282	93
283.513	100
283.745	84
283.976	92
284.207	92
284.439	83
284.67	86
284.901	91
285.132	81
285.364	95
285.595	83
285.826	92
286.057	99
286.288	95
286.52	87
286.751	84
286.982	84
287.213	102
287.444	93
287.675	90
287.906	85
288.138	103
288.369	84
288.6	102
288.831	97
289.062	97
289.293	61
289.524	84
289.755	98
289.986	91
290.217	85
290.448	76
290.679	95
290.91	94
291.141	88
291.371	86
291.602	96
291.833	100
292.064	84
292.295	102
292.526	91
292.757	88
292.987	94
293.218	85
293.449	83
293.68	80
293.91	92
294.141	87
294.372	95
294.603	97
294.833	96
295.064	86
295.295	89
295.525	81
295.756	104
295.987	118
296.217	141
296.448	108
296.679	101
296.909	93
297.14	78
297.37	84
297.601	80
297.831	92
298.062	90
298.292	86
298.523	102
298.753	87
298.984	89
299.214	92
299.445	99
299.675	89
299.905	102
300.136	101
300.366	91
300.597	89
300.827	98
301.057	98
301.288	104
301.518	94
301.748	92
301.979	96
302.209	78
302.439	94
302.669	84
302.9	93
303.13	101
303.36	99
303.59	102
303.82	109
304.051	91
304.281	87
304.511	105
304.741	76
304.971	81
305.201	86
305.431	104
305.661	94
305.891	96
306.121	97
306.352	105
306.582	93
306.812	94
307.042	89
307.272	79
307.502	80
307.731	96
307.961	94
308.191	91
308.421	88
308.651	91
308.881	96
309.111	98
309.341	98
309.571	85
309.8	95
310.03	91
310.26	95
310.49	97
310.72	107
310.949	104
311.179	89
311.409	104
311.639	85
311.868	97
312.098	85
312.328	97
312.557	103
312.787	103
313.017	100
313.246	88
313.476	93
313.706	97
313.935	103
314.165	100
314.394	101
314.624	104
314.853	93
315.083	102
315.312	87
315.542	84
315.771	95
316.001	87
316.23	102
316.46	89
316.689	94
316.919	89
317.148	79
317.377	104
317.607	97
317.836	97
318.065	85
318.295	78
318.524	94
318.753	87
318.983	94
319.212	91
319.441	114
319.67	118
319.9	93
320.129	80
320.358	77
320.587	110
320.816	100
321.046	109
321.275	98
321.504	86
321.733	86
321.962	90
322.191	92
322.42	95
322.649	113
322.878	111
323.108	118
323.337	124
323.566	130
323.795	156
324.024	215
324.253	435
324.482	897
324.71	1901
324.939	2551
325.168	915
325.397	268
325.626	144
325.855	136
326.084	133
326.313	136
326.542	159
326.77	241
326.999	470
327.228	1062
327.457	1925
327.686	1535
327.914	400
328.143	196
328.372	155
328.6	112
328.829	117
329.058	112
329.287	110
329.515	105
329.744	104
329.972	97
330.201	107
330.43	117
330.658	132
330.887	140
331.115	126
331.344	92
331.572	97
331.801	93
332.03	97
332.258	114
332.486	86
332.715	82
332.943	93
333.172	97
333.4	98
333.629	99
333.857	110
334.085	105
334.314	95
334.542	88
334.771	95
334.999	93
335.227	86
335.455	93
335.684	99
335.912	99
336.14	101
336.369	107
336.597	86
336.825	94
337.053	104
337.281	105
337.51	109
337.738	91
337.966	78
338.194	101
338.422	92
338.65	96
338.878	92
339.106	83
339.334	97
339.562	73
339.79	85
340.018	95
340.246	97
340.474	93
340.702	86
340.93	90
341.158	105
341.386	109
341.614	93
341.842	96
342.07	96
342.298	94
342.526	92
342.754	95
342.981	89
343.209	95
343.437	96
343.665	80
343.893	105
344.12	87
344.348	79
344.576	87
344.804	114
345.031	108
345.259	109
345.487	94
345.714	111
345.942	91
346.17	94
346.397	89
346.625	96
346.853	104
347.08	88
347.308	109
347.535	116
347.763	95
347.99	103
348.218	75
348.445	120
348.673	112
348.9	100
349.128	95
349.355	97
349.583	91
349.81	87
350.037	106
350.265	95
350.492	90
350.72	89
350.947	91
351.174	109
351.402	121
351.629	102
351.856	87
352.083	93
352.311	101
352.538	107
352.765	113
352.992	119
353.22	112
353.447	109
353.674	100
353.901	96
354.128	101
354.355	99
354.583	100
354.81	108
355.037	101
355.264	98
355.491	79
355.718	103
355.945	88
356.172	104
356.399	80
356.626	106
356.853	93
357.08	95
357.307	81
357.534	89
357.761	97
357.988	85
358.215	110
358.441	96
358.668	100
358.895	96
359.122	85
359.349	93
359.576	95
359.802	92
360.029	108
360.256	122
360.483	101
360.709	75
360.936	101
361.163	84
361.39	93
361.616	85
361.843	96
362.07	93
362.296	100
362.523	104
362.749	97
362.976	88
363.203	87
363.429	97
363.656	92
363.882	95
364.109	96
364.335	93
364.562	90
364.788	87
365.015	92
365.241	97
365.468	108
365.694	102
365.92	102
366.147	83
366.373	76
366.599	88
366.826	101
367.052	85
367.278	87
367.505	89
367.731	92
367.957	84
368.184	96
368.41	98
368.636	98
368.862	132
369.089	107
369.315	96
369.541	101
369.767	100
369.993	83
370.219	91
370.445	94
370.672	94
370.898	88
371.124	84
371.35	94
371.576	93
371.802	80
372.028	84
372.254	97
372.48	92
372.706	85
372.932	87
373.158	93
373.384	95
373.61	87
373.835	77
374.061	80
374.287	85
374.513	87
374.739	101
374.965	96
375.191	88
375.416	85
375.642	99
375.868	87
376.094	90
376.319	97
376.545	93
376.771	87
376.997	94
377.222	87
377.448	87
377.674	86
377.899	92
378.125	102
378.35	100
378.576	87
378.802	99
379.027	105
379.253	89
379.478	70
379.704	93
379.929	95
380.155	97
380.38	95
380.606	95
380.831	79
381.057	103
381.282	94
381.507	79
381.733	89
381.958	94
382.184	86
382.409	89
382.634	99
382.86	96
383.085	86
383.31	105
383.535	95
383.761	100
383.986	76
384.211	100
384.436	85
384.662	98
384.887	101
385.112	103
385.337	98
385.562	90
385.787	104
386.013	107
386.238	102
386.463	103
386.688	105
386.913	99
387.138	99
387.363	112
387.588	103
387.813	101
388.038	97
388.263	109
388.488	87
388.713	106
388.938	106
389.163	91
389.387	84
389.612	88
389.837	101
390.062	105
390.287	104
390.512	88
390.736	100
390.961	94
391.186	96
391.411	76
391.636	87
391.86	86
392.085	86
392.31	81
392.534	67
392.759	93
392.984	101
393.208	100
393.433	96
393.658	95
393.882	80
394.107	71
394.331	79
394.556	84
394.78	78
395.005	96
395.229	94
395.454	90
395.678	82
395.903	89
396.127	97
396.352	101
396.576	96
396.801	76
397.025	92
397.249	84
397.474	93
397.698	80
397.922	96
398.147	87
398.371	96
398.595	87
398.82	88
399.044	81
399.268	83
399.492	93
399.717	86
399.941	81
400.165	93
400.389	99
400.613	86
400.837	87
401.062	75
401.286	77
401.51	89
401.734	78
401.958	82
402.182	109
402.406	149
402.63	109
402.854	93
403.078	91
403.302	94
403.526	97
403.75	94
403.974	80
404.198	91
404.422	113
404.645	78
404.869	103
405.093	93
405.317	108
405.541	104
405.765	95
405.988	120
406.212	162
406.436	235
406.66	140
406.883	103
407.107	100
407.331	97
407.555	93
407.778	87
408.002	100
408.226	94
408.449	95
408.673	88
408.896	96
409.12	95
409.344	88
409.567	85
409.791	102
410.014	86
410.238	93
410.461	102
410.685	92
410.908	86
411.132	109
411.355	95
411.578	106
411.802	93
412.025	80
412.249	94
412.472	93
412.695	99
412.919	92
413.142	79
413.365	89
413.589	86
413.812	91
414.035	98
414.258	94
414.482	90
414.705	86
414.928	79
415.151	81
415.374	100
415.597	80
415.821	96
416.044	95
416.267	75
416.49	85
416.713	87
416.936	89
417.159	85
417.382	86
417.605	83
417.828	89
418.051	89
418.274	84
418.497	97
418.72	102
418.943	95
419.166	85
419.389	90
419.611	90
419.834	76
420.057	102
420.28	84
420.503	86
420.726	97
420.948	83
421.171	101
421.394	91
421.617	88
421.839	93
422.062	91
422.285	85
422.507	93
422.73	117
422.953	85
423.175	76
423.398	89
423.621	90
423.843	84
424.066	88
424.288	79
424.511	88
424.733	96
424.956	106
425.178	101
425.401	119
425.623	112
425.846	93
426.068	87
426.291	82
426.513	101
426.735	99
426.958	89
427.18	112
427.402	140
427.625	182
427.847	120
428.069	88
428.292	79
428.514	91
428.736	83
428.958	77
429.181	79
429.403	107
429.625	88
429.847	88
430.069	113
430.292	110
430.514	89
430.736	83
430.958	84
431.18	92
431.402	77
431.624	73
431.846	85
432.068	79
432.29	93
432.512	84
432.734	87
432.956	97
433.178	108
433.4	101
433.622	94
433.844	88
434.066	79
434.287	94
434.509	99
434.731	83
434.953	92
435.175	104
435.397	102
435.618	96
435.84	102
436.062	119
436.284	118
436.505	99
436.727	108
436.949	98
437.17	86
437.392	93
437.614	85
437.835	99
438.057	116
438.278	122
438.5	117
438.721	136
438.943	105
439.165	85
439.386	78
439.608	86
439.829	106
440.05	119
440.272	157
440.493	103
440.715	94
440.936	86
441.158	90
441.379	82
441.6	100
441.822	96
442.043	88
442.264	99
442.486	98
442.707	90
442.928	96
443.149	127
443.371	112
443.592	117
443.813	119
444.034	126
444.255	86
444.476	94
444.698	92
444.919	103
445.14	143
445.361	119
445.582	124
445.803	132
446.024	136
446.245	139
446.466	108
446.687	100
446.908	91
447.129	92
447.35	84
447.571	87
447.792	95
448.013	113
448.234	98
448.455	103
448.675	117
448.896	122
449.117	113
449.338	112
449.559	127
449.779	144
450	73
450.221	91
450.442	80
450.662	91
450.883	114
451.104	108
451.324	81
451.545	89
451.766	85
451.986	94
452.207	75
452.428	96
452.648	99
452.869	118
453.089	117
453.31	133
453.53	94
453.751	90
453.971	109
454.192	105
454.412	92
454.633	99
454.853	94
455.073	92
455.294	82
455.514	94
455.734	93
455.955	84
456.175	91
456.395	99
456.616	71
456.836	85
457.056	77
457.276	98
457.497	81
457.717	92
457.937	84
458.157	88
458.377	97
458.598	113
458.818	142
459.038	162
459.258	124
459.478	94
459.698	85
459.918	92
460.138	81
460.358	86
460.578	103
460.798	95
461.018	87
461.238	86
461.458	83
461.678	88
461.898	85
462.118	88
462.338	101
462.558	87
462.777	87
462.997	90
463.217	80
463.437	88
463.657	78
463.876	100
464.096	92
464.316	91
464.536	95
464.755	87
464.975	103
465.195	159
465.414	137
465.634	100
465.854	102
466.073	95
466.293	91
466.512	93
466.732	100
466.951	94
467.171	92
467.391	79
467.61	103
467.829	85
468.049	93
468.268	102
468.488	103
468.707	75
468.927	86
469.146	91
469.365	88
469.585	101
469.804	85
470.023	78
470.243	80
470.462	111
470.681	112
470.901	100
471.12	87
471.339	84
471.558	90
471.777	89
471.997	101
472.216	79
472.435	93
472.654	88
472.873	94
473.092	82
473.311	88
473.53	76
473.749	93
473.968	95
474.187	116
474.406	99
474.625	87
474.844	100
475.063	80
475.282	87
475.501	92
475.72	96
475.939	98
476.158	93
476.377	93
476.596	87
476.814	83
477.033	92
477.252	104
477.471	75
477.69	97
477.908	101
478.127	86
478.346	88
478.564	99
478.783	88
479.002	100
479.22	100
479.439	95
479.658	114
479.876	93
480.095	96
480.313	81
480.532	97
480.751	81
480.969	97
481.188	108
481.406	94
481.624	93
481.843	103
482.061	97
482.28	84
482.498	102
482.717	85
482.935	93
483.153	94
483.372	93
483.59	89
483.808	96
484.027	97
484.245	81
484.463	93
484.681	92
484.9	92
485.118	100
485.336	86
485.554	101
485.772	100
485.99	100
486.209	100
486.427	105
486.645	95
486.863	117
487.081	103
487.299	94
487.517	86
487.735	93
487.953	83
488.171	101
488.389	91
488.607	98
488.825	84
489.043	92
489.261	99
489.479	100
489.696	99
489.914	85
490.132	79
490.35	99
490.568	85
490.786	79
491.003	96
491.221	93
491.439	99
491.657	93
491.874	99
492.092	89
492.31	78
492.527	80
492.745	99
492.963	81
493.18	89
493.398	98
493.615	92
493.833	91
494.05	92
494.268	99
494.485	81
494.703	83
494.92	95
495.138	95
495.355	95
495.573	105
495.79	88
496.008	95
496.225	89
496.442	96
496.66	100
496.877	90
497.094	99
497.312	86
497.529	96
497.746	84
497.963	74
498.181	92
498.398	97
498.615	113
498.832	105
499.049	100
499.267	92
499.484	100
499.701	91
499.918	97
500.135	86
500.352	95
500.569	91
500.786	91
501.003	98
501.22	101
501.437	92
501.654	107
501.871	103
502.088	86
502.305	100
502.522	78
502.739	100
502.956	97
503.172	101
503.389	109
503.606	103
503.823	99
504.04	95
504.256	92
504.473	88
504.69	78
504.907	90
505.123	88
505.34	103
505.557	99
505.773	87
505.99	94
506.207	97
506.423	83
506.64	101
506.856	105
507.073	81
507.289	90
507.506	99
507.722	97
507.939	112
508.155	104
508.372	110
508.588	102
508.805	102
509.021	108
509.238	107
509.454	105
509.67	106
509.887	106
510.103	137
510.319	213
510.536	751
510.752	2331
510.968	641
511.184	140
511.401	116
511.617	95
511.833	99
512.049	91
512.265	84
512.481	92
512.698	99
512.914	93
513.13	98
513.346	100
513.562	121
513.778	104
513.994	105
514.21	95
514.426	115
514.642	156
514.858	122
515.074	161
515.29	450
515.506	1465
515.721	535
515.937	150
516.153	119
516.369	96
516.585	107
516.801	95
517.016	104
517.232	92
517.448	89
517.664	92
517.879	83
518.095	100
518.311	83
518.527	93
518.742	103
518.958	100
519.173	115
519.389	95
519.605	90
519.82	88
520.036	104
520.251	118
520.467	103
520.682	100
520.898	104
521.113	113
521.329	136
521.544	212
521.76	571
521.975	2455
522.19	1447
522.406	308
522.621	133
522.836	108
523.052	109
523.267	100
523.482	104
523.698	116
523.913	114
524.128	96
524.343	81
524.559	105
524.774	103
524.989	104
525.204	112
525.419	115
525.634	93
525.849	115
526.064	88
526.28	100
526.495	88
526.71	88
526.925	86
527.14	92
527.355	93
527.57	99
527.785	87
527.999	118
528.214	92
528.429	101
528.644	90
528.859	89
529.074	95
529.289	143
529.503	178
529.718	105
529.933	99
530.148	97
530.363	97
530.577	101
530.792	91
531.007	93
531.221	120
531.436	95
531.651	89
531.865	104
532.08	93
532.295	92
532.509	89
532.724	100
532.938	103
533.153	102
533.367	84
533.582	72
533.796	97
534.011	91
534.225	82
534.44	89
534.654	92
534.868	96
535.083	94
535.297	103
535.511	97
535.726	100
535.94	108
536.154	99
536.369	87
536.583	98
536.797	99
537.011	80
537.225	96
537.44	81
537.654	101
537.868	82
538.082	81
538.296	87
538.51	97
538.724	89
538.938	83
539.153	102
539.367	97
539.581	92
539.795	102
540.009	78
540.222	91
540.436	101
540.65	95
540.864	100
541.078	98
541.292	77
541.506	85
541.72	88
541.934	88
542.147	83
542.361	81
542.575	87
542.789	92
543.002	92
543.216	85
543.43	96
543.644	100
543.857	99
544.071	91
544.285	103
544.498	104
544.712	94
544.925	73
545.139	90
545.352	99
545.566	87
545.779	80
545.993	104
546.206	100
546.42	89
546.633	97
546.847	88
547.06	99
547.274	89
547.487	91
547.7	88
547.914	84
548.127	92
548.34	91
548.554	111
548.767	91
548.98	72
549.193	91
549.407	83
549.62	92
549.833	81
550.046	103
550.259	91
550.473	80
550.686	88
550.899	83
551.112	100
551.325	87
551.538	77
551.751	87
551.964	95
552.177	98
552.39	95
552.603	97
552.816	89
553.029	90
553.242	91
553.455	97
553.667	118
553.88	111
554.093	88
554.306	83
554.519	86
554.732	91
554.944	90
555.157	101
555.37	107
555.583	107
555.795	105
556.008	101
556.221	92
556.433	97
556.646	83
556.859	96
557.071	87
557.284	92
557.496	77
557.709	101
557.921	81
558.134	86
558.346	91
558.559	84
558.771	95
558.984	83
559.196	89
559.409	94
559.621	88
559.833	81
560.046	92
560.258	104
560.47	78
560.683	93
560.895	101
561.107	89
561.32	105
561.532	78
561.744	95
561.956	95
562.168	100
562.381	90
562.593	99
562.805	88
563.017	83
563.229	99
563.441	99
563.653	105
563.865	94
564.077	95
564.289	92
564.501	90
564.713	93
564.925	83
565.137	94
565.349	98
565.561	78
565.773	99
565.985	105
566.197	79
566.408	88
566.62	103
566.832	81
567.044	95
567.255	77
567.467	90
567.679	63
567.891	89
568.102	92
568.314	86
568.526	81
568.737	95
568.949	85
569.161	89
569.372	99
569.584	69
569.795	69
570.007	108
570.218	265
570.43	141
570.641	114
570.853	73
571.064	85
571.276	84
571.487	85
571.698	97
571.91	91
572.121	91
572.333	86
572.544	94
572.755	82
572.966	82
573.178	87
573.389	86
573.6	95
573.811	89
574.023	89
574.234	78
574.445	85
574.656	85
574.867	92
575.078	102
575.289	101
575.501	91
575.712	94
575.923	95
576.134	102
576.345	86
576.556	95
576.767	91
576.978	84
577.188	88
577.399	100
577.61	90
577.821	107
578.032	132
578.243	287
578.454	758
578.665	221
578.875	107
579.086	92
579.297	87
579.508	91
579.718	99
579.929	88
580.14	87
580.35	77
580.561	81
580.772	83
580.982	79
581.193	80
581.403	80
581.614	100
581.825	87
582.035	93
582.246	86
582.456	85
582.667	85
582.877	89
583.087	78
