Data from Penny_2_HRD10591_00006.txt Node
Date: Wed Nov 05 15:34:29 EST 2025
User: Yrep
Spectrometer: HR+D1059
Trigger mode: 1
Integration Time (sec): 1.000000E-1
Scans to average: 1
Electric dark correction enabled: true
Nonlinearity correction enabled: false
Boxcar width: 0
XAxis mode: Wavelengths
Number of Pixels in Spectrum: 2048
>>>>>Begin Spectral Data<<<<<
223.165	-22.88
223.4	-22.88
223.635	-22.88
223.869	-8.88
224.104	-10.88
224.338	-18.88
224.573	-20.88
224.808	-5.88
225.042	6.12
225.277	-2.88
225.511	-2.88
225.746	-5.88
225.98	13.12
226.215	-0.88
226.449	11.12
226.683	19.12
226.918	15.12
227.152	36.12
227.387	39.12
227.621	41.12
227.856	56.12
228.09	48.12
228.324	51.12
228.559	44.12
228.793	46.12
229.027	67.12
229.262	56.12
229.496	65.12
229.73	61.12
229.964	64.12
230.199	66.12
230.433	76.12
230.667	80.12
230.901	88.12
231.136	75.12
231.37	67.12
231.604	88.12
231.838	91.12
232.072	76.12
232.306	85.12
232.541	81.12
232.775	72.12
233.009	77.12
233.243	84.12
233.477	87.12
233.711	82.12
233.945	76.12
234.179	71.12
234.413	89.12
234.647	85.12
234.881	81.12
235.115	64.12
235.349	84.12
235.583	79.12
235.817	71.12
236.051	79.12
236.285	75.12
236.519	92.12
236.753	91.12
236.987	84.12
237.221	87.12
237.455	81.12
237.689	80.12
237.922	59.12
238.156	75.12
238.39	71.12
238.624	83.12
238.858	66.12
239.091	82.12
239.325	82.12
239.559	59.12
239.793	75.12
240.027	78.12
240.26	76.12
240.494	69.12
240.728	76.12
240.961	73.12
241.195	84.12
241.429	77.12
241.662	76.12
241.896	75.12
242.13	85.12
242.363	72.12
242.597	81.12
242.83	75.12
243.064	74.12
243.298	78.12
243.531	67.12
243.765	66.12
243.998	73.12
244.232	87.12
244.465	75.12
244.699	95.12
244.932	67.12
245.166	73.12
245.399	79.12
245.633	72.12
245.866	79.12
246.099	70.12
246.333	69.12
246.566	72.12
246.8	84.12
247.033	90.12
247.266	73.12
247.5	83.12
247.733	79.12
247.966	78.12
248.2	77.12
248.433	95.12
248.666	79.12
248.899	68.12
249.133	75.12
249.366	83.12
249.599	79.12
249.832	80.12
250.066	87.12
250.299	85.12
250.532	87.12
250.765	67.12
250.998	87.12
251.231	81.12
251.465	77.12
251.698	84.12
251.931	78.12
252.164	92.12
252.397	71.12
252.63	74.12
252.863	62.12
253.096	75.12
253.329	67.12
253.562	65.12
253.795	87.12
254.028	81.12
254.261	77.12
254.494	79.12
254.727	87.12
254.96	79.12
255.193	75.12
255.426	78.12
255.659	63.12
255.892	83.12
256.124	79.12
256.357	69.12
256.59	91.12
256.823	78.12
257.056	69.12
257.289	74.12
257.521	75.12
257.754	87.12
257.987	83.12
258.22	87.12
258.452	76.12
258.685	72.12
258.918	83.12
259.151	76.12
259.383	53.12
259.616	83.12
259.849	78.12
260.081	85.12
260.314	86.12
260.547	68.12
260.779	84.12
261.012	88.12
261.244	84.12
261.477	92.12
261.71	80.12
261.942	83.12
262.175	83.12
262.407	82.12
262.64	71.12
262.872	84.12
263.105	82.12
263.337	79.12
263.57	85.12
263.802	85.12
264.035	84.12
264.267	86.12
264.499	98.12
264.732	73.12
264.964	103.12
265.197	90.12
265.429	78.12
265.661	92.12
265.894	96.12
266.126	85.12
266.358	78.12
266.591	84.12
266.823	64.12
267.055	81.12
267.287	89.12
267.52	86.12
267.752	83.12
267.984	78.12
268.216	85.12
268.448	87.12
268.681	95.12
268.913	87.12
269.145	80.12
269.377	81.12
269.609	88.12
269.841	86.12
270.073	96.12
270.306	87.12
270.538	78.12
270.77	84.12
271.002	69.12
271.234	63.12
271.466	67.12
271.698	65.12
271.93	76.12
272.162	87.12
272.394	81.12
272.626	76.12
272.858	90.12
273.09	84.12
273.322	74.12
273.553	83.12
273.785	92.12
274.017	84.12
274.249	89.12
274.481	81.12
274.713	75.12
274.945	81.12
275.176	89.12
275.408	75.12
275.64	75.12
275.872	81.12
276.104	95.12
276.335	79.12
276.567	77.12
276.799	94.12
277.031	83.12
277.262	82.12
277.494	90.12
277.726	94.12
277.957	74.12
278.189	72.12
278.421	79.12
278.652	96.12
278.884	88.12
279.115	86.12
279.347	63.12
279.579	81.12
279.81	78.12
280.042	78.12
280.273	82.12
280.505	87.12
280.736	91.12
280.968	87.12
281.199	77.12
281.431	86.12
281.662	94.12
281.894	86.12
282.125	90.12
282.356	85.12
282.588	88.12
282.819	79.12
283.051	75.12
283.282	89.12
283.513	91.12
283.745	79.12
283.976	78.12
284.207	80.12
284.439	90.12
284.67	80.12
284.901	91.12
285.132	79.12
285.364	91.12
285.595	68.12
285.826	85.12
286.057	87.12
286.288	74.12
286.52	81.12
286.751	75.12
286.982	94.12
287.213	84.12
287.444	72.12
287.675	83.12
287.906	91.12
288.138	89.12
288.369	94.12
288.6	83.12
288.831	76.12
289.062	86.12
289.293	79.12
289.524	85.12
289.755	90.12
289.986	91.12
290.217	84.12
290.448	84.12
290.679	96.12
290.91	95.12
291.141	84.12
291.371	91.12
291.602	81.12
291.833	84.12
292.064	83.12
292.295	76.12
292.526	76.12
292.757	81.12
292.987	83.12
293.218	88.12
293.449	95.12
293.68	81.12
293.91	71.12
294.141	88.12
294.372	85.12
294.603	87.12
294.833	75.12
295.064	90.12
295.295	85.12
295.525	89.12
295.756	81.12
295.987	83.12
296.217	82.12
296.448	93.12
296.679	96.12
296.909	84.12
297.14	98.12
297.37	100.12
297.601	89.12
297.831	93.12
298.062	72.12
298.292	77.12
298.523	86.12
298.753	76.12
298.984	88.12
299.214	85.12
299.445	92.12
299.675	88.12
299.905	86.12
300.136	81.12
300.366	105.12
300.597	81.12
300.827	77.12
301.057	73.12
301.288	83.12
301.518	71.12
301.748	82.12
301.979	84.12
302.209	80.12
302.439	82.12
302.669	86.12
302.9	77.12
303.13	81.12
303.36	71.12
303.59	97.12
303.82	78.12
304.051	83.12
304.281	76.12
304.511	87.12
304.741	83.12
304.971	86.12
305.201	94.12
305.431	88.12
305.661	79.12
305.891	87.12
306.121	89.12
306.352	86.12
306.582	85.12
306.812	97.12
307.042	79.12
307.272	90.12
307.502	84.12
307.731	90.12
307.961	92.12
308.191	92.12
308.421	87.12
308.651	83.12
308.881	90.12
309.111	97.12
309.341	83.12
309.571	74.12
309.8	74.12
310.03	98.12
310.26	87.12
310.49	84.12
310.72	93.12
310.949	67.12
311.179	87.12
311.409	71.12
311.639	85.12
311.868	81.12
312.098	93.12
312.328	89.12
312.557	74.12
312.787	74.12
313.017	87.12
313.246	84.12
313.476	88.12
313.706	87.12
313.935	83.12
314.165	79.12
314.394	84.12
314.624	74.12
314.853	93.12
315.083	74.12
315.312	91.12
315.542	91.12
315.771	80.12
316.001	95.12
316.23	76.12
316.46	70.12
316.689	84.12
316.919	87.12
317.148	87.12
317.377	82.12
317.607	81.12
317.836	84.12
318.065	76.12
318.295	95.12
318.524	83.12
318.753	83.12
318.983	89.12
319.212	87.12
319.441	85.12
319.67	84.12
319.9	83.12
320.129	76.12
320.358	81.12
320.587	82.12
320.816	89.12
321.046	77.12
321.275	87.12
321.504	87.12
321.733	89.12
321.962	83.12
322.191	89.12
322.42	78.12
322.649	87.12
322.878	93.12
323.108	88.12
323.337	91.12
323.566	78.12
323.795	97.12
324.024	88.12
324.253	106.12
324.482	117.12
324.71	150.12
324.939	140.12
325.168	107.12
325.397	97.12
325.626	92.12
325.855	87.12
326.084	84.12
326.313	103.12
326.542	95.12
326.77	92.12
326.999	97.12
327.228	105.12
327.457	133.12
327.686	123.12
327.914	93.12
328.143	98.12
328.372	115.12
328.6	87.12
328.829	72.12
329.058	83.12
329.287	76.12
329.515	71.12
329.744	81.12
329.972	106.12
330.201	113.12
330.43	119.12
330.658	111.12
330.887	95.12
331.115	85.12
331.344	88.12
331.572	81.12
331.801	79.12
332.03	97.12
332.258	102.12
332.486	69.12
332.715	83.12
332.943	84.12
333.172	81.12
333.4	89.12
333.629	89.12
333.857	92.12
334.085	92.12
334.314	129.12
334.542	143.12
334.771	111.12
334.999	103.12
335.227	90.12
335.455	83.12
335.684	99.12
335.912	83.12
336.14	78.12
336.369	85.12
336.597	85.12
336.825	100.12
337.053	76.12
337.281	84.12
337.51	89.12
337.738	97.12
337.966	88.12
338.194	83.12
338.422	92.12
338.65	88.12
338.878	97.12
339.106	89.12
339.334	108.12
339.562	84.12
339.79	83.12
340.018	90.12
340.246	81.12
340.474	91.12
340.702	85.12
340.93	80.12
341.158	85.12
341.386	93.12
341.614	77.12
341.842	84.12
342.07	84.12
342.298	84.12
342.526	71.12
342.754	75.12
342.981	78.12
343.209	96.12
343.437	95.12
343.665	96.12
343.893	86.12
344.12	69.12
344.348	86.12
344.576	86.12
344.804	89.12
345.031	86.12
345.259	83.12
345.487	98.12
345.714	85.12
345.942	90.12
346.17	86.12
346.397	86.12
346.625	83.12
346.853	82.12
347.08	93.12
347.308	84.12
347.535	88.12
347.763	71.12
347.99	69.12
348.218	86.12
348.445	83.12
348.673	85.12
348.9	96.12
349.128	89.12
349.355	75.12
349.583	81.12
349.81	90.12
350.037	84.12
350.265	87.12
350.492	87.12
350.72	81.12
350.947	74.12
351.174	74.12
351.402	83.12
351.629	77.12
351.856	83.12
352.083	85.12
352.311	91.12
352.538	75.12
352.765	81.12
352.992	81.12
353.22	96.12
353.447	73.12
353.674	85.12
353.901	88.12
354.128	84.12
354.355	86.12
354.583	80.12
354.81	93.12
355.037	81.12
355.264	75.12
355.491	70.12
355.718	90.12
355.945	87.12
356.172	86.12
356.399	85.12
356.626	77.12
356.853	83.12
357.08	93.12
357.307	94.12
357.534	91.12
357.761	82.12
357.988	80.12
358.215	73.12
358.441	68.12
358.668	79.12
358.895	99.12
359.122	82.12
359.349	71.12
359.576	85.12
359.802	84.12
360.029	73.12
360.256	90.12
360.483	83.12
360.709	86.12
360.936	99.12
361.163	92.12
361.39	82.12
361.616	76.12
361.843	70.12
362.07	95.12
362.296	88.12
362.523	87.12
362.749	75.12
362.976	87.12
363.203	91.12
363.429	75.12
363.656	79.12
363.882	81.12
364.109	80.12
364.335	77.12
364.562	74.12
364.788	83.12
365.015	82.12
365.241	86.12
365.468	92.12
365.694	82.12
365.92	88.12
366.147	86.12
366.373	82.12
366.599	86.12
366.826	76.12
367.052	78.12
367.278	84.12
367.505	75.12
367.731	83.12
367.957	85.12
368.184	86.12
368.41	93.12
368.636	73.12
368.862	103.12
369.089	82.12
369.315	81.12
369.541	81.12
369.767	84.12
369.993	73.12
370.219	83.12
370.445	83.12
370.672	90.12
370.898	79.12
371.124	87.12
371.35	94.12
371.576	75.12
371.802	81.12
372.028	71.12
372.254	92.12
372.48	78.12
372.706	72.12
372.932	68.12
373.158	87.12
373.384	88.12
373.61	83.12
373.835	94.12
374.061	85.12
374.287	72.12
374.513	78.12
374.739	77.12
374.965	84.12
375.191	67.12
375.416	84.12
375.642	81.12
375.868	83.12
376.094	95.12
376.319	83.12
376.545	81.12
376.771	91.12
376.997	72.12
377.222	68.12
377.448	86.12
377.674	83.12
377.899	89.12
378.125	74.12
378.35	91.12
378.576	77.12
378.802	90.12
379.027	85.12
379.253	91.12
379.478	87.12
379.704	70.12
379.929	74.12
380.155	76.12
380.38	84.12
380.606	89.12
380.831	88.12
381.057	86.12
381.282	86.12
381.507	76.12
381.733	76.12
381.958	83.12
382.184	77.12
382.409	85.12
382.634	83.12
382.86	84.12
383.085	77.12
383.31	83.12
383.535	85.12
383.761	79.12
383.986	83.12
384.211	83.12
384.436	77.12
384.662	85.12
384.887	63.12
385.112	85.12
385.337	84.12
385.562	94.12
385.787	89.12
386.013	86.12
386.238	87.12
386.463	98.12
386.688	89.12
386.913	89.12
387.138	92.12
387.363	75.12
387.588	83.12
387.813	85.12
388.038	86.12
388.263	84.12
388.488	72.12
388.713	108.12
388.938	71.12
389.163	78.12
389.387	97.12
389.612	81.12
389.837	68.12
390.062	89.12
390.287	68.12
390.512	84.12
390.736	75.12
390.961	84.12
391.186	81.12
391.411	88.12
391.636	88.12
391.86	88.12
392.085	74.12
392.31	81.12
392.534	65.12
392.759	97.12
392.984	93.12
393.208	83.12
393.433	92.12
393.658	83.12
393.882	93.12
394.107	74.12
394.331	87.12
394.556	86.12
394.78	89.12
395.005	84.12
395.229	79.12
395.454	85.12
395.678	77.12
395.903	69.12
396.127	87.12
396.352	73.12
396.576	82.12
396.801	79.12
397.025	75.12
397.249	77.12
397.474	81.12
397.698	73.12
397.922	76.12
398.147	82.12
398.371	81.12
398.595	78.12
398.82	80.12
399.044	75.12
399.268	69.12
399.492	73.12
399.717	73.12
399.941	82.12
400.165	94.12
400.389	83.12
400.613	87.12
400.837	74.12
401.062	87.12
401.286	78.12
401.51	97.12
401.734	69.12
401.958	88.12
402.182	78.12
402.406	78.12
402.63	91.12
402.854	93.12
403.078	87.12
403.302	79.12
403.526	80.12
403.75	91.12
403.974	77.12
404.198	71.12
404.422	77.12
404.645	80.12
404.869	92.12
405.093	83.12
405.317	83.12
405.541	87.12
405.765	61.12
405.988	75.12
406.212	86.12
406.436	99.12
406.66	89.12
406.883	74.12
407.107	83.12
407.331	72.12
407.555	83.12
407.778	93.12
408.002	81.12
408.226	85.12
408.449	75.12
408.673	93.12
408.896	92.12
409.12	98.12
409.344	88.12
409.567	91.12
409.791	83.12
410.014	83.12
410.238	73.12
410.461	95.12
410.685	78.12
410.908	77.12
411.132	88.12
411.355	84.12
411.578	87.12
411.802	80.12
412.025	67.12
412.249	78.12
412.472	81.12
412.695	83.12
412.919	85.12
413.142	92.12
413.365	79.12
413.589	97.12
413.812	80.12
414.035	94.12
414.258	78.12
414.482	93.12
414.705	82.12
414.928	91.12
415.151	61.12
415.374	74.12
415.597	81.12
415.821	81.12
416.044	85.12
416.267	90.12
416.49	76.12
416.713	69.12
416.936	81.12
417.159	95.12
417.382	82.12
417.605	80.12
417.828	79.12
418.051	89.12
418.274	77.12
418.497	73.12
418.72	80.12
418.943	85.12
419.166	69.12
419.389	89.12
419.611	84.12
419.834	74.12
420.057	77.12
420.28	82.12
420.503	85.12
420.726	83.12
420.948	92.12
421.171	72.12
421.394	73.12
421.617	76.12
421.839	75.12
422.062	87.12
422.285	67.12
422.507	87.12
422.73	72.12
422.953	83.12
423.175	81.12
423.398	65.12
423.621	92.12
423.843	71.12
424.066	79.12
424.288	79.12
424.511	73.12
424.733	84.12
424.956	81.12
425.178	78.12
425.401	76.12
425.623	85.12
425.846	67.12
426.068	69.12
426.291	82.12
426.513	87.12
426.735	91.12
426.958	68.12
427.18	76.12
427.402	82.12
427.625	71.12
427.847	88.12
428.069	83.12
428.292	77.12
428.514	94.12
428.736	87.12
428.958	81.12
429.181	78.12
429.403	82.12
429.625	76.12
429.847	77.12
430.069	85.12
430.292	90.12
430.514	73.12
430.736	95.12
430.958	75.12
431.18	79.12
431.402	82.12
431.624	63.12
431.846	90.12
432.068	84.12
432.29	84.12
432.512	92.12
432.734	82.12
432.956	100.12
433.178	78.12
433.4	96.12
433.622	88.12
433.844	76.12
434.066	83.12
434.287	87.12
434.509	76.12
434.731	82.12
434.953	77.12
435.175	70.12
435.397	87.12
435.618	78.12
435.84	82.12
436.062	82.12
436.284	87.12
436.505	80.12
436.727	89.12
436.949	86.12
437.17	83.12
437.392	77.12
437.614	87.12
437.835	83.12
438.057	70.12
438.278	68.12
438.5	83.12
438.721	86.12
438.943	85.12
439.165	79.12
439.386	90.12
439.608	96.12
439.829	75.12
440.05	95.12
440.272	86.12
440.493	75.12
440.715	72.12
440.936	79.12
441.158	84.12
441.379	88.12
441.6	72.12
441.822	74.12
442.043	74.12
442.264	67.12
442.486	80.12
442.707	87.12
442.928	77.12
443.149	71.12
443.371	75.12
443.592	79.12
443.813	98.12
444.034	95.12
444.255	96.12
444.476	64.12
444.698	84.12
444.919	73.12
445.14	156.12
445.361	127.12
445.582	79.12
445.803	80.12
446.024	88.12
446.245	86.12
446.466	77.12
446.687	76.12
446.908	82.12
447.129	59.12
447.35	83.12
447.571	79.12
447.792	85.12
448.013	75.12
448.234	91.12
448.455	77.12
448.675	83.12
448.896	87.12
449.117	90.12
449.338	61.12
449.559	77.12
449.779	83.12
450	85.12
450.221	87.12
450.442	74.12
450.662	65.12
450.883	76.12
451.104	84.12
451.324	71.12
451.545	69.12
451.766	77.12
451.986	80.12
452.207	84.12
452.428	67.12
452.648	64.12
452.869	95.12
453.089	85.12
453.31	91.12
453.53	87.12
453.751	92.12
453.971	84.12
454.192	70.12
454.412	76.12
454.633	78.12
454.853	78.12
455.073	86.12
455.294	86.12
455.514	81.12
455.734	78.12
455.955	73.12
456.175	81.12
456.395	77.12
456.616	79.12
456.836	88.12
457.056	83.12
457.276	91.12
457.497	76.12
457.717	82.12
457.937	81.12
458.157	71.12
458.377	65.12
458.598	80.12
458.818	89.12
459.038	85.12
459.258	71.12
459.478	72.12
459.698	83.12
459.918	77.12
460.138	73.12
460.358	83.12
460.578	75.12
460.798	76.12
461.018	81.12
461.238	83.12
461.458	80.12
461.678	93.12
461.898	71.12
462.118	68.12
462.338	87.12
462.558	81.12
462.777	82.12
462.997	74.12
463.217	70.12
463.437	84.12
463.657	75.12
463.876	78.12
464.096	77.12
464.316	84.12
464.536	67.12
464.755	77.12
464.975	83.12
465.195	91.12
465.414	87.12
465.634	81.12
465.854	78.12
466.073	89.12
466.293	84.12
466.512	71.12
466.732	71.12
466.951	84.12
467.171	69.12
467.391	82.12
467.61	90.12
467.829	100.12
468.049	83.12
468.268	89.12
468.488	99.12
468.707	80.12
468.927	83.12
469.146	82.12
469.365	83.12
469.585	85.12
469.804	78.12
470.023	79.12
470.243	68.12
470.462	67.12
470.681	84.12
470.901	81.12
471.12	84.12
471.339	95.12
471.558	89.12
471.777	90.12
471.997	88.12
472.216	122.12
472.435	166.12
472.654	115.12
472.873	84.12
473.092	67.12
473.311	77.12
473.53	87.12
473.749	87.12
473.968	87.12
474.187	82.12
474.406	81.12
474.625	87.12
474.844	94.12
475.063	78.12
475.282	71.12
475.501	88.12
475.72	76.12
475.939	77.12
476.158	83.12
476.377	78.12
476.596	69.12
476.814	73.12
477.033	86.12
477.252	72.12
477.471	82.12
477.69	99.12
477.908	89.12
478.127	79.12
478.346	65.12
478.564	75.12
478.783	89.12
479.002	92.12
479.22	75.12
479.439	77.12
479.658	87.12
479.876	66.12
480.095	83.12
480.313	76.12
480.532	89.12
480.751	79.12
480.969	135.12
481.188	244.12
481.406	154.12
481.624	101.12
481.843	97.12
482.061	83.12
482.28	89.12
482.498	85.12
482.717	95.12
482.935	104.12
483.153	80.12
483.372	91.12
483.59	75.12
483.808	82.12
484.027	85.12
484.245	89.12
484.463	94.12
484.681	90.12
484.9	85.12
485.118	75.12
485.336	84.12
485.554	79.12
485.772	104.12
485.99	86.12
486.209	73.12
486.427	79.12
486.645	80.12
486.863	87.12
487.081	87.12
487.299	79.12
487.517	81.12
487.735	86.12
487.953	86.12
488.171	83.12
488.389	79.12
488.607	81.12
488.825	79.12
489.043	77.12
489.261	89.12
489.479	91.12
489.696	75.12
489.914	83.12
490.132	86.12
490.35	66.12
490.568	73.12
490.786	84.12
491.003	72.12
491.221	85.12
491.439	81.12
491.657	77.12
491.874	90.12
492.092	87.12
492.31	71.12
492.527	89.12
492.745	72.12
492.963	89.12
493.18	88.12
493.398	72.12
493.615	83.12
493.833	77.12
494.05	72.12
494.268	84.12
494.485	95.12
494.703	85.12
494.92	70.12
495.138	82.12
495.355	96.12
495.573	83.12
495.79	78.12
496.008	71.12
496.225	87.12
496.442	80.12
496.66	102.12
496.877	83.12
497.094	89.12
497.312	78.12
497.529	75.12
497.746	86.12
497.963	80.12
498.181	83.12
498.398	76.12
498.615	95.12
498.832	77.12
499.049	87.12
499.267	75.12
499.484	71.12
499.701	83.12
499.918	90.12
500.135	83.12
500.352	93.12
500.569	88.12
500.786	80.12
501.003	88.12
501.22	89.12
501.437	76.12
501.654	74.12
501.871	81.12
502.088	78.12
502.305	85.12
502.522	89.12
502.739	89.12
502.956	92.12
503.172	73.12
503.389	73.12
503.606	87.12
503.823	78.12
504.04	71.12
504.256	85.12
504.473	71.12
504.69	95.12
504.907	80.12
505.123	93.12
505.34	92.12
505.557	89.12
505.773	71.12
505.99	64.12
506.207	83.12
506.423	79.12
506.64	91.12
506.856	88.12
507.073	76.12
507.289	74.12
507.506	81.12
507.722	77.12
507.939	88.12
508.155	87.12
508.372	91.12
508.588	75.12
508.805	85.12
509.021	91.12
509.238	80.12
509.454	88.12
509.67	82.12
509.887	83.12
510.103	83.12
510.319	87.12
510.536	129.12
510.752	227.12
510.968	115.12
511.184	82.12
511.401	81.12
511.617	78.12
511.833	69.12
512.049	79.12
512.265	85.12
512.481	87.12
512.698	92.12
512.914	96.12
513.13	79.12
513.346	79.12
513.562	66.12
513.778	92.12
513.994	87.12
514.21	89.12
514.426	68.12
514.642	84.12
514.858	81.12
515.074	94.12
515.29	147.12
515.506	193.12
515.721	118.12
515.937	92.12
516.153	97.12
516.369	81.12
516.585	87.12
516.801	84.12
517.016	78.12
517.232	88.12
517.448	77.12
517.664	74.12
517.879	87.12
518.095	83.12
518.311	81.12
518.527	87.12
518.742	85.12
518.958	89.12
519.173	90.12
519.389	84.12
519.605	84.12
