Data from Penny_2_HRD10591_00008.txt Node
Date: Wed Nov 05 15:34:30 EST 2025
User: Yrep
Spectrometer: HR+D1059
Trigger mode: 1
Integration Time (sec): 1.000000E-1
Scans to average: 1
Electric dark correction enabled: true
Nonlinearity correction enabled: false
Boxcar width: 0
XAxis mode: Wavelengths
Number of Pixels in Spectrum: 2048
>>>>>Begin Spectral Data<<<<<
223.165	-23.69
223.4	-23.69
223.635	-23.69
223.869	-22.69
224.104	-15.69
224.338	-9.69
224.573	-14.69
224.808	-3.69
225.042	-13.69
225.277	13.31
225.511	-0.69
225.746	6.31
225.98	-3.69
226.215	13.31
226.449	0.31
226.683	12.31
226.918	30.31
227.152	32.31
227.387	42.31
227.621	36.31
227.856	51.31
228.09	59.31
228.324	45.31
228.559	50.31
228.793	56.31
229.027	57.31
229.262	65.31
229.496	79.31
229.73	85.31
229.964	79.31
230.199	65.31
230.433	65.31
230.667	74.31
230.901	79.31
231.136	80.31
231.37	82.31
231.604	81.31
231.838	68.31
232.072	76.31
232.306	78.31
232.541	66.31
232.775	78.31
233.009	92.31
233.243	73.31
233.477	78.31
233.711	86.31
233.945	90.31
234.179	88.31
234.413	78.31
234.647	73.31
234.881	83.31
235.115	79.31
235.349	69.31
235.583	80.31
235.817	89.31
236.051	84.31
236.285	85.31
236.519	77.31
236.753	85.31
236.987	73.31
237.221	72.31
237.455	75.31
237.689	72.31
237.922	94.31
238.156	70.31
238.39	80.31
238.624	83.31
238.858	88.31
239.091	83.31
239.325	88.31
239.559	69.31
239.793	70.31
240.027	66.31
240.26	78.31
240.494	83.31
240.728	87.31
240.961	68.31
241.195	81.31
241.429	89.31
241.662	87.31
241.896	73.31
242.13	77.31
242.363	68.31
242.597	76.31
242.83	74.31
243.064	69.31
243.298	78.31
243.531	81.31
243.765	92.31
243.998	75.31
244.232	89.31
244.465	79.31
244.699	79.31
244.932	83.31
245.166	75.31
245.399	71.31
245.633	79.31
245.866	67.31
246.099	80.31
246.333	94.31
246.566	71.31
246.8	72.31
247.033	72.31
247.266	74.31
247.5	73.31
247.733	77.31
247.966	85.31
248.2	87.31
248.433	70.31
248.666	70.31
248.899	82.31
249.133	83.31
249.366	77.31
249.599	78.31
249.832	82.31
250.066	83.31
250.299	84.31
250.532	78.31
250.765	87.31
250.998	70.31
251.231	77.31
251.465	81.31
251.698	67.31
251.931	90.31
252.164	85.31
252.397	75.31
252.63	92.31
252.863	62.31
253.096	78.31
253.329	69.31
253.562	79.31
253.795	76.31
254.028	77.31
254.261	75.31
254.494	93.31
254.727	84.31
254.96	72.31
255.193	83.31
255.426	71.31
255.659	72.31
255.892	78.31
256.124	82.31
256.357	89.31
256.59	86.31
256.823	74.31
257.056	73.31
257.289	68.31
257.521	75.31
257.754	86.31
257.987	79.31
258.22	87.31
258.452	77.31
258.685	85.31
258.918	78.31
259.151	81.31
259.383	92.31
259.616	84.31
259.849	62.31
260.081	81.31
260.314	87.31
260.547	91.31
260.779	97.31
261.012	77.31
261.244	83.31
261.477	92.31
261.71	83.31
261.942	82.31
262.175	88.31
262.407	72.31
262.64	89.31
262.872	70.31
263.105	88.31
263.337	89.31
263.57	85.31
263.802	76.31
264.035	72.31
264.267	73.31
264.499	75.31
264.732	81.31
264.964	78.31
265.197	83.31
265.429	93.31
265.661	76.31
265.894	84.31
266.126	88.31
266.358	73.31
266.591	82.31
266.823	73.31
267.055	94.31
267.287	93.31
267.52	84.31
267.752	83.31
267.984	80.31
268.216	89.31
268.448	100.31
268.681	85.31
268.913	76.31
269.145	79.31
269.377	74.31
269.609	85.31
269.841	86.31
270.073	77.31
270.306	76.31
270.538	79.31
270.77	75.31
271.002	70.31
271.234	87.31
271.466	92.31
271.698	80.31
271.93	87.31
272.162	83.31
272.394	79.31
272.626	94.31
272.858	94.31
273.09	99.31
273.322	90.31
273.553	70.31
273.785	85.31
274.017	78.31
274.249	69.31
274.481	82.31
274.713	80.31
274.945	87.31
275.176	85.31
275.408	70.31
275.64	92.31
275.872	89.31
276.104	78.31
276.335	86.31
276.567	82.31
276.799	88.31
277.031	93.31
277.262	90.31
277.494	82.31
277.726	81.31
277.957	77.31
278.189	100.31
278.421	83.31
278.652	80.31
278.884	89.31
279.115	70.31
279.347	89.31
279.579	89.31
279.81	89.31
280.042	89.31
280.273	95.31
280.505	90.31
280.736	92.31
280.968	81.31
281.199	86.31
281.431	78.31
281.662	84.31
281.894	80.31
282.125	85.31
282.356	79.31
282.588	87.31
282.819	83.31
283.051	98.31
283.282	72.31
283.513	75.31
283.745	89.31
283.976	73.31
284.207	78.31
284.439	86.31
284.67	95.31
284.901	84.31
285.132	93.31
285.364	84.31
285.595	87.31
285.826	87.31
286.057	89.31
286.288	83.31
286.52	76.31
286.751	83.31
286.982	78.31
287.213	87.31
287.444	73.31
287.675	86.31
287.906	93.31
288.138	85.31
288.369	93.31
288.6	86.31
288.831	79.31
289.062	80.31
289.293	84.31
289.524	88.31
289.755	88.31
289.986	96.31
290.217	82.31
290.448	86.31
290.679	87.31
290.91	107.31
291.141	93.31
291.371	100.31
291.602	77.31
291.833	72.31
292.064	80.31
292.295	76.31
292.526	72.31
292.757	82.31
292.987	78.31
293.218	98.31
293.449	90.31
293.68	76.31
293.91	80.31
294.141	99.31
294.372	89.31
294.603	92.31
294.833	81.31
295.064	83.31
295.295	93.31
295.525	77.31
295.756	85.31
295.987	89.31
296.217	91.31
296.448	83.31
296.679	85.31
296.909	69.31
297.14	79.31
297.37	85.31
297.601	73.31
297.831	85.31
298.062	85.31
298.292	82.31
298.523	66.31
298.753	81.31
298.984	90.31
299.214	86.31
299.445	82.31
299.675	84.31
299.905	67.31
300.136	89.31
300.366	93.31
300.597	70.31
300.827	102.31
301.057	85.31
301.288	73.31
301.518	89.31
301.748	80.31
301.979	90.31
302.209	93.31
302.439	75.31
302.669	79.31
302.9	80.31
303.13	76.31
303.36	94.31
303.59	92.31
303.82	80.31
304.051	82.31
304.281	80.31
304.511	86.31
304.741	80.31
304.971	77.31
305.201	80.31
305.431	95.31
305.661	83.31
305.891	100.31
306.121	101.31
306.352	89.31
306.582	74.31
306.812	85.31
307.042	87.31
307.272	87.31
307.502	97.31
307.731	94.31
307.961	79.31
308.191	77.31
308.421	87.31
308.651	86.31
308.881	84.31
309.111	74.31
309.341	79.31
309.571	90.31
309.8	91.31
310.03	81.31
310.26	71.31
310.49	83.31
310.72	72.31
310.949	83.31
311.179	85.31
311.409	82.31
311.639	83.31
311.868	74.31
312.098	84.31
312.328	92.31
312.557	89.31
312.787	76.31
313.017	91.31
313.246	77.31
313.476	97.31
313.706	68.31
313.935	91.31
314.165	71.31
314.394	85.31
314.624	89.31
314.853	84.31
315.083	83.31
315.312	90.31
315.542	94.31
315.771	85.31
316.001	83.31
316.23	85.31
316.46	79.31
316.689	84.31
316.919	82.31
317.148	80.31
317.377	90.31
317.607	91.31
317.836	77.31
318.065	84.31
318.295	91.31
318.524	91.31
318.753	81.31
318.983	70.31
319.212	80.31
319.441	77.31
319.67	79.31
319.9	92.31
320.129	97.31
320.358	95.31
320.587	94.31
320.816	90.31
321.046	91.31
321.275	80.31
321.504	85.31
321.733	96.31
321.962	76.31
322.191	98.31
322.42	83.31
322.649	89.31
322.878	91.31
323.108	79.31
323.337	86.31
323.566	89.31
323.795	92.31
324.024	90.31
324.253	105.31
324.482	107.31
324.71	137.31
324.939	133.31
325.168	99.31
325.397	87.31
325.626	80.31
325.855	69.31
326.084	80.31
326.313	93.31
326.542	88.31
326.77	98.31
326.999	101.31
327.228	101.31
327.457	152.31
327.686	118.31
327.914	100.31
328.143	95.31
328.372	105.31
328.6	86.31
328.829	98.31
329.058	87.31
329.287	89.31
329.515	83.31
329.744	82.31
329.972	108.31
330.201	94.31
330.43	130.31
330.658	106.31
330.887	86.31
331.115	95.31
331.344	77.31
331.572	76.31
331.801	75.31
332.03	94.31
332.258	86.31
332.486	69.31
332.715	79.31
332.943	73.31
333.172	78.31
333.4	78.31
333.629	75.31
333.857	93.31
334.085	100.31
334.314	129.31
334.542	142.31
334.771	123.31
334.999	92.31
335.227	61.31
335.455	74.31
335.684	87.31
335.912	85.31
336.14	88.31
336.369	91.31
336.597	94.31
336.825	86.31
337.053	90.31
337.281	81.31
337.51	66.31
337.738	75.31
337.966	80.31
338.194	89.31
338.422	82.31
338.65	82.31
338.878	83.31
339.106	81.31
339.334	78.31
339.562	71.31
339.79	88.31
340.018	71.31
340.246	83.31
340.474	86.31
340.702	81.31
340.93	83.31
341.158	80.31
341.386	91.31
341.614	86.31
341.842	100.31
342.07	77.31
342.298	74.31
342.526	81.31
342.754	85.31
342.981	75.31
343.209	86.31
343.437	91.31
343.665	76.31
343.893	77.31
344.12	76.31
344.348	68.31
344.576	95.31
344.804	104.31
345.031	85.31
345.259	86.31
345.487	77.31
345.714	85.31
345.942	99.31
346.17	93.31
346.397	89.31
346.625	84.31
346.853	82.31
347.08	72.31
347.308	83.31
347.535	89.31
347.763	88.31
347.99	84.31
348.218	78.31
348.445	80.31
348.673	91.31
348.9	80.31
349.128	91.31
349.355	67.31
349.583	82.31
349.81	83.31
350.037	83.31
350.265	80.31
350.492	81.31
350.72	88.31
350.947	80.31
351.174	79.31
351.402	89.31
351.629	70.31
351.856	78.31
352.083	75.31
352.311	78.31
352.538	68.31
352.765	99.31
352.992	94.31
353.22	74.31
353.447	84.31
353.674	85.31
353.901	89.31
354.128	99.31
354.355	87.31
354.583	94.31
354.81	99.31
355.037	87.31
355.264	90.31
355.491	77.31
355.718	77.31
355.945	79.31
356.172	88.31
356.399	95.31
356.626	83.31
356.853	85.31
357.08	82.31
357.307	86.31
357.534	79.31
357.761	74.31
357.988	82.31
358.215	88.31
358.441	81.31
358.668	87.31
358.895	85.31
359.122	76.31
359.349	83.31
359.576	89.31
359.802	75.31
360.029	85.31
360.256	99.31
360.483	71.31
360.709	79.31
360.936	75.31
361.163	80.31
361.39	80.31
361.616	86.31
361.843	86.31
362.07	90.31
362.296	89.31
362.523	88.31
362.749	93.31
362.976	90.31
363.203	93.31
363.429	86.31
363.656	78.31
363.882	65.31
364.109	67.31
364.335	78.31
364.562	77.31
364.788	73.31
365.015	89.31
365.241	89.31
365.468	82.31
365.694	93.31
365.92	91.31
366.147	82.31
366.373	88.31
366.599	91.31
366.826	72.31
367.052	92.31
367.278	77.31
367.505	93.31
367.731	78.31
367.957	67.31
368.184	97.31
368.41	89.31
368.636	85.31
368.862	85.31
369.089	74.31
369.315	79.31
369.541	66.31
369.767	75.31
369.993	72.31
370.219	77.31
370.445	78.31
370.672	80.31
370.898	79.31
371.124	95.31
371.35	78.31
371.576	73.31
371.802	82.31
372.028	72.31
372.254	85.31
372.48	79.31
372.706	87.31
372.932	81.31
373.158	84.31
373.384	63.31
373.61	75.31
373.835	83.31
374.061	87.31
374.287	79.31
374.513	93.31
374.739	75.31
374.965	74.31
375.191	86.31
375.416	83.31
375.642	80.31
375.868	76.31
376.094	85.31
376.319	82.31
376.545	85.31
376.771	72.31
376.997	78.31
377.222	76.31
377.448	73.31
377.674	83.31
377.899	93.31
378.125	78.31
378.35	79.31
378.576	76.31
378.802	84.31
379.027	80.31
379.253	88.31
379.478	79.31
379.704	91.31
379.929	79.31
380.155	80.31
380.38	84.31
380.606	79.31
380.831	77.31
381.057	72.31
381.282	79.31
381.507	79.31
381.733	80.31
381.958	77.31
382.184	78.31
382.409	86.31
382.634	87.31
382.86	86.31
383.085	97.31
383.31	77.31
383.535	76.31
383.761	78.31
383.986	85.31
384.211	82.31
384.436	82.31
384.662	82.31
384.887	84.31
385.112	81.31
385.337	91.31
385.562	85.31
385.787	83.31
386.013	78.31
386.238	77.31
386.463	80.31
386.688	87.31
386.913	60.31
387.138	78.31
387.363	82.31
387.588	86.31
387.813	71.31
388.038	93.31
388.263	83.31
388.488	82.31
388.713	78.31
388.938	97.31
389.163	74.31
389.387	68.31
389.612	85.31
389.837	90.31
390.062	105.31
390.287	72.31
390.512	80.31
390.736	79.31
390.961	73.31
391.186	80.31
391.411	88.31
391.636	79.31
391.86	91.31
392.085	106.31
392.31	77.31
392.534	74.31
392.759	76.31
392.984	77.31
393.208	77.31
393.433	89.31
393.658	91.31
393.882	82.31
394.107	96.31
394.331	89.31
394.556	87.31
394.78	76.31
395.005	87.31
395.229	81.31
395.454	85.31
395.678	73.31
395.903	91.31
396.127	94.31
396.352	96.31
396.576	92.31
396.801	82.31
397.025	69.31
397.249	83.31
397.474	85.31
397.698	84.31
397.922	86.31
398.147	77.31
398.371	79.31
398.595	77.31
398.82	81.31
399.044	73.31
399.268	71.31
399.492	86.31
399.717	104.31
399.941	87.31
400.165	72.31
400.389	90.31
400.613	81.31
400.837	91.31
401.062	87.31
401.286	76.31
401.51	89.31
401.734	79.31
401.958	88.31
402.182	81.31
402.406	98.31
402.63	75.31
402.854	86.31
403.078	81.31
403.302	76.31
403.526	86.31
403.75	85.31
403.974	84.31
404.198	87.31
404.422	88.31
404.645	79.31
404.869	84.31
405.093	79.31
405.317	75.31
405.541	92.31
405.765	75.31
405.988	106.31
406.212	97.31
406.436	96.31
406.66	104.31
406.883	87.31
407.107	76.31
407.331	88.31
407.555	83.31
407.778	78.31
408.002	70.31
408.226	72.31
408.449	71.31
408.673	76.31
408.896	85.31
409.12	80.31
409.344	74.31
409.567	78.31
409.791	80.31
410.014	78.31
410.238	79.31
410.461	88.31
410.685	85.31
410.908	65.31
411.132	80.31
411.355	83.31
411.578	78.31
411.802	92.31
412.025	92.31
412.249	86.31
412.472	84.31
412.695	86.31
412.919	92.31
413.142	87.31
413.365	79.31
413.589	82.31
413.812	94.31
414.035	84.31
414.258	89.31
414.482	87.31
414.705	80.31
414.928	85.31
415.151	93.31
415.374	100.31
415.597	82.31
415.821	75.31
416.044	93.31
416.267	76.31
416.49	78.31
416.713	76.31
416.936	76.31
417.159	89.31
417.382	83.31
417.605	79.31
417.828	63.31
418.051	76.31
418.274	77.31
418.497	78.31
418.72	74.31
418.943	80.31
419.166	66.31
419.389	87.31
419.611	80.31
419.834	70.31
420.057	70.31
420.28	88.31
420.503	94.31
420.726	95.31
420.948	70.31
421.171	87.31
421.394	85.31
421.617	76.31
421.839	93.31
422.062	74.31
422.285	83.31
422.507	75.31
422.73	72.31
422.953	79.31
423.175	93.31
423.398	67.31
423.621	81.31
423.843	65.31
424.066	83.31
424.288	88.31
424.511	69.31
424.733	84.31
424.956	85.31
425.178	83.31
425.401	78.31
425.623	85.31
425.846	94.31
426.068	75.31
426.291	79.31
426.513	94.31
426.735	83.31
426.958	75.31
427.18	73.31
427.402	87.31
427.625	97.31
427.847	83.31
428.069	86.31
428.292	78.31
428.514	77.31
428.736	89.31
428.958	87.31
429.181	89.31
429.403	86.31
429.625	80.31
429.847	74.31
430.069	67.31
430.292	79.31
430.514	79.31
430.736	87.31
430.958	80.31
431.18	75.31
431.402	75.31
431.624	83.31
431.846	85.31
432.068	88.31
432.29	77.31
432.512	91.31
432.734	72.31
432.956	99.31
433.178	92.31
433.4	79.31
433.622	65.31
433.844	79.31
434.066	71.31
434.287	89.31
434.509	83.31
434.731	71.31
434.953	75.31
435.175	74.31
435.397	75.31
435.618	87.31
435.84	79.31
436.062	79.31
436.284	87.31
436.505	83.31
436.727	88.31
436.949	77.31
437.17	87.31
437.392	90.31
437.614	68.31
437.835	83.31
438.057	92.31
438.278	79.31
438.5	81.31
438.721	85.31
438.943	97.31
439.165	99.31
439.386	74.31
439.608	70.31
439.829	94.31
440.05	96.31
440.272	82.31
440.493	88.31
440.715	83.31
440.936	87.31
441.158	92.31
441.379	78.31
441.6	81.31
441.822	82.31
442.043	95.31
442.264	92.31
442.486	75.31
442.707	80.31
442.928	83.31
443.149	90.31
443.371	91.31
443.592	81.31
443.813	83.31
444.034	75.31
444.255	82.31
444.476	87.31
444.698	94.31
444.919	89.31
445.14	152.31
445.361	123.31
445.582	91.31
445.803	93.31
446.024	92.31
446.245	81.31
446.466	73.31
446.687	73.31
446.908	95.31
447.129	86.31
447.35	77.31
447.571	71.31
447.792	74.31
448.013	81.31
448.234	87.31
448.455	94.31
448.675	85.31
448.896	78.31
449.117	70.31
449.338	96.31
449.559	79.31
449.779	85.31
450	70.31
450.221	81.31
450.442	81.31
450.662	80.31
450.883	84.31
451.104	85.31
451.324	88.31
451.545	85.31
451.766	95.31
451.986	73.31
452.207	82.31
452.428	89.31
452.648	91.31
452.869	87.31
453.089	96.31
453.31	90.31
453.53	88.31
453.751	85.31
453.971	75.31
454.192	71.31
454.412	80.31
454.633	85.31
454.853	73.31
455.073	80.31
455.294	85.31
455.514	86.31
455.734	73.31
455.955	92.31
456.175	79.31
456.395	81.31
456.616	87.31
456.836	84.31
457.056	87.31
457.276	86.31
457.497	78.31
457.717	77.31
457.937	86.31
458.157	69.31
458.377	74.31
458.598	78.31
458.818	74.31
459.038	80.31
459.258	71.31
459.478	83.31
459.698	85.31
459.918	84.31
460.138	78.31
460.358	74.31
460.578	100.31
460.798	87.31
461.018	84.31
461.238	85.31
461.458	97.31
461.678	90.31
461.898	87.31
462.118	75.31
462.338	91.31
462.558	78.31
462.777	75.31
462.997	84.31
463.217	81.31
463.437	75.31
463.657	78.31
463.876	91.31
464.096	64.31
464.316	81.31
464.536	74.31
464.755	74.31
464.975	89.31
465.195	86.31
465.414	99.31
465.634	88.31
465.854	75.31
466.073	78.31
466.293	79.31
466.512	79.31
466.732	79.31
466.951	79.31
467.171	85.31
467.391	97.31
467.61	75.31
467.829	103.31
468.049	101.31
468.268	111.31
468.488	88.31
468.707	91.31
468.927	74.31
469.146	88.31
469.365	91.31
469.585	72.31
469.804	81.31
470.023	94.31
470.243	83.31
470.462	77.31
470.681	65.31
470.901	75.31
471.12	97.31
471.339	86.31
471.558	94.31
471.777	81.31
471.997	95.31
472.216	125.31
472.435	150.31
472.654	93.31
472.873	78.31
473.092	87.31
473.311	89.31
473.53	86.31
473.749	83.31
473.968	82.31
474.187	77.31
474.406	93.31
474.625	73.31
474.844	78.31
475.063	87.31
475.282	91.31
475.501	93.31
475.72	79.31
475.939	79.31
476.158	79.31
476.377	81.31
476.596	78.31
476.814	91.31
477.033	77.31
477.252	78.31
477.471	83.31
477.69	84.31
477.908	95.31
478.127	80.31
478.346	94.31
478.564	85.31
478.783	91.31
479.002	85.31
479.22	85.31
479.439	90.31
479.658	86.31
479.876	91.31
480.095	87.31
480.313	83.31
480.532	93.31
480.751	85.31
480.969	131.31
481.188	228.31
481.406	146.31
481.624	89.31
481.843	81.31
482.061	75.31
482.28	66.31
482.498	78.31
482.717	78.31
482.935	93.31
483.153	83.31
483.372	91.31
483.59	78.31
483.808	75.31
484.027	77.31
484.245	94.31
484.463	77.31
484.681	71.31
484.9	77.31
485.118	87.31
485.336	80.31
485.554	78.31
485.772	75.31
485.99	88.31
486.209	76.31
486.427	78.31
486.645	81.31
486.863	85.31
487.081	85.31
487.299	86.31
487.517	91.31
487.735	78.31
487.953	83.31
488.171	93.31
488.389	78.31
488.607	83.31
488.825	77.31
489.043	94.31
489.261	79.31
489.479	69.31
489.696	87.31
489.914	85.31
490.132	88.31
490.35	89.31
490.568	92.31
490.786	85.31
491.003	80.31
491.221	92.31
491.439	80.31
491.657	96.31
491.874	79.31
492.092	85.31
492.31	85.31
492.527	78.31
492.745	91.31
492.963	97.31
493.18	81.31
493.398	82.31
493.615	88.31
493.833	82.31
494.05	83.31
494.268	97.31
494.485	93.31
494.703	79.31
494.92	76.31
495.138	87.31
495.355	90.31
495.573	91.31
495.79	74.31
496.008	90.31
496.225	95.31
496.442	83.31
496.66	87.31
496.877	86.31
497.094	91.31
497.312	75.31
497.529	89.31
497.746	79.31
497.963	75.31
498.181	70.31
498.398	77.31
498.615	89.31
498.832	79.31
499.049	73.31
499.267	69.31
499.484	89.31
499.701	73.31
499.918	95.31
500.135	91.31
500.352	85.31
500.569	85.31
500.786	96.31
501.003	78.31
501.22	89.31
501.437	86.31
501.654	94.31
501.871	84.31
502.088	80.31
502.305	90.31
502.522	89.31
502.739	79.31
502.956	77.31
503.172	87.31
503.389	84.31
503.606	79.31
503.823	72.31
504.04	81.31
504.256	78.31
504.473	88.31
504.69	85.31
504.907	91.31
505.123	85.31
505.34	87.31
505.557	79.31
505.773	88.31
505.99	90.31
506.207	85.31
506.423	73.31
506.64	83.31
506.856	91.31
507.073	79.31
507.289	86.31
507.506	82.31
507.722	82.31
507.939	77.31
508.155	91.31
508.372	85.31
508.588	95.31
508.805	101.31
509.021	97.31
509.238	87.31
509.454	78.31
509.67	86.31
509.887	87.31
510.103	87.31
510.319	93.31
510.536	134.31
510.752	201.31
510.968	117.31
511.184	76.31
511.401	85.31
511.617	83.31
511.833	79.31
512.049	70.31
512.265	84.31
512.481	89.31
512.698	92.31
512.914	72.31
513.13	77.31
513.346	81.31
513.562	100.31
513.778	94.31
513.994	81.31
514.21	75.31
514.426	92.31
514.642	83.31
514.858	101.31
515.074	88.31
515.29	131.31
515.506	176.31
515.721	113.31
515.937	98.31
516.153	69.31
516.369	83.31
516.585	80.31
516.801	85.31
517.016	81.31
517.232	79.31
517.448	65.31
517.664	83.31
517.879	81.31
518.095	82.31
518.311	78.31
518.527	77.31
518.742	89.31
518.958	77.31
519.173	87.31
519.389	77.31
519.605	77.31
