Data from Penny_2_HRD10591_00010.txt Node
Date: Wed Nov 05 15:34:31 EST 2025
User: Yrep
Spectrometer: HR+D1059
Trigger mode: 1
Integration Time (sec): 1.000000E-1
Scans to average: 1
Electric dark correction enabled: true
Nonlinearity correction enabled: false
Boxcar width: 0
XAxis mode: Wavelengths
Number of Pixels in Spectrum: 2048
>>>>>Begin Spectral Data<<<<<
223.165	-25.12
223.4	-25.12
223.635	-25.12
223.869	-24.12
224.104	-15.12
224.338	-23.12
224.573	-21.12
224.808	-2.12
225.042	-10.12
225.277	10.88
225.511	-3.12
225.746	-6.12
225.98	4.88
226.215	11.88
226.449	12.88
226.683	31.88
226.918	29.88
227.152	27.88
227.387	24.88
227.621	19.88
227.856	50.88
228.09	42.88
228.324	44.88
228.559	39.88
228.793	47.88
229.027	59.88
229.262	57.88
229.496	56.88
229.73	73.88
229.964	72.88
230.199	56.88
230.433	70.88
230.667	65.88
230.901	81.88
231.136	73.88
231.37	58.88
231.604	68.88
231.838	58.88
232.072	78.88
232.306	74.88
232.541	75.88
232.775	69.88
233.009	69.88
233.243	78.88
233.477	71.88
233.711	77.88
233.945	82.88
234.179	67.88
234.413	73.88
234.647	77.88
234.881	81.88
235.115	89.88
235.349	84.88
235.583	77.88
235.817	70.88
236.051	72.88
236.285	83.88
236.519	82.88
236.753	78.88
236.987	77.88
237.221	65.88
237.455	74.88
237.689	73.88
237.922	73.88
238.156	76.88
238.39	67.88
238.624	65.88
238.858	67.88
239.091	82.88
239.325	65.88
239.559	60.88
239.793	72.88
240.027	72.88
240.26	62.88
240.494	84.88
240.728	84.88
240.961	76.88
241.195	85.88
241.429	83.88
241.662	67.88
241.896	63.88
242.13	75.88
242.363	73.88
242.597	69.88
242.83	71.88
243.064	68.88
243.298	75.88
243.531	81.88
243.765	82.88
243.998	68.88
244.232	78.88
244.465	89.88
244.699	57.88
244.932	89.88
245.166	72.88
245.399	72.88
245.633	82.88
245.866	69.88
246.099	74.88
246.333	87.88
246.566	82.88
246.8	59.88
247.033	83.88
247.266	72.88
247.5	70.88
247.733	89.88
247.966	68.88
248.2	73.88
248.433	81.88
248.666	90.88
248.899	71.88
249.133	94.88
249.366	84.88
249.599	63.88
249.832	81.88
250.066	81.88
250.299	68.88
250.532	77.88
250.765	80.88
250.998	89.88
251.231	73.88
251.465	76.88
251.698	75.88
251.931	87.88
252.164	72.88
252.397	79.88
252.63	67.88
252.863	77.88
253.096	90.88
253.329	77.88
253.562	79.88
253.795	72.88
254.028	85.88
254.261	77.88
254.494	71.88
254.727	78.88
254.96	65.88
255.193	80.88
255.426	76.88
255.659	61.88
255.892	84.88
256.124	76.88
256.357	74.88
256.59	70.88
256.823	71.88
257.056	81.88
257.289	73.88
257.521	69.88
257.754	64.88
257.987	61.88
258.22	87.88
258.452	74.88
258.685	79.88
258.918	75.88
259.151	85.88
259.383	85.88
259.616	95.88
259.849	61.88
260.081	84.88
260.314	78.88
260.547	83.88
260.779	66.88
261.012	80.88
261.244	83.88
261.477	84.88
261.71	73.88
261.942	88.88
262.175	72.88
262.407	75.88
262.64	68.88
262.872	79.88
263.105	80.88
263.337	85.88
263.57	77.88
263.802	75.88
264.035	77.88
264.267	75.88
264.499	90.88
264.732	87.88
264.964	75.88
265.197	85.88
265.429	70.88
265.661	87.88
265.894	83.88
266.126	67.88
266.358	77.88
266.591	85.88
266.823	83.88
267.055	80.88
267.287	86.88
267.52	80.88
267.752	79.88
267.984	74.88
268.216	77.88
268.448	76.88
268.681	76.88
268.913	89.88
269.145	75.88
269.377	83.88
269.609	73.88
269.841	84.88
270.073	77.88
270.306	76.88
270.538	69.88
270.77	74.88
271.002	78.88
271.234	78.88
271.466	96.88
271.698	74.88
271.93	77.88
272.162	71.88
272.394	93.88
272.626	77.88
272.858	62.88
273.09	74.88
273.322	88.88
273.553	68.88
273.785	72.88
274.017	72.88
274.249	88.88
274.481	74.88
274.713	69.88
274.945	74.88
275.176	67.88
275.408	68.88
275.64	89.88
275.872	82.88
276.104	79.88
276.335	84.88
276.567	84.88
276.799	88.88
277.031	76.88
277.262	81.88
277.494	84.88
277.726	77.88
277.957	96.88
278.189	91.88
278.421	81.88
278.652	81.88
278.884	81.88
279.115	82.88
279.347	82.88
279.579	84.88
279.81	69.88
280.042	75.88
280.273	88.88
280.505	89.88
280.736	84.88
280.968	66.88
281.199	75.88
281.431	84.88
281.662	77.88
281.894	69.88
282.125	84.88
282.356	77.88
282.588	79.88
282.819	84.88
283.051	82.88
283.282	73.88
283.513	75.88
283.745	88.88
283.976	67.88
284.207	75.88
284.439	82.88
284.67	72.88
284.901	76.88
285.132	71.88
285.364	82.88
285.595	85.88
285.826	96.88
286.057	93.88
286.288	63.88
286.52	63.88
286.751	76.88
286.982	89.88
287.213	69.88
287.444	73.88
287.675	92.88
287.906	91.88
288.138	77.88
288.369	74.88
288.6	84.88
288.831	81.88
289.062	87.88
289.293	79.88
289.524	92.88
289.755	64.88
289.986	87.88
290.217	87.88
290.448	83.88
290.679	94.88
290.91	91.88
291.141	82.88
291.371	86.88
291.602	82.88
291.833	85.88
292.064	82.88
292.295	86.88
292.526	76.88
292.757	78.88
292.987	91.88
293.218	83.88
293.449	81.88
293.68	72.88
293.91	80.88
294.141	77.88
294.372	89.88
294.603	92.88
294.833	71.88
295.064	89.88
295.295	80.88
295.525	80.88
295.756	82.88
295.987	86.88
296.217	76.88
296.448	79.88
296.679	74.88
296.909	75.88
297.14	91.88
297.37	85.88
297.601	87.88
297.831	79.88
298.062	82.88
298.292	89.88
298.523	101.88
298.753	65.88
298.984	84.88
299.214	88.88
299.445	70.88
299.675	86.88
299.905	85.88
300.136	82.88
300.366	57.88
300.597	67.88
300.827	85.88
301.057	77.88
301.288	74.88
301.518	92.88
301.748	81.88
301.979	95.88
302.209	75.88
302.439	86.88
302.669	99.88
302.9	79.88
303.13	81.88
303.36	80.88
303.59	90.88
303.82	93.88
304.051	80.88
304.281	78.88
304.511	76.88
304.741	71.88
304.971	85.88
305.201	91.88
305.431	90.88
305.661	91.88
305.891	78.88
306.121	81.88
306.352	85.88
306.582	79.88
306.812	77.88
307.042	77.88
307.272	87.88
307.502	78.88
307.731	90.88
307.961	87.88
308.191	83.88
308.421	87.88
308.651	83.88
308.881	74.88
309.111	73.88
309.341	75.88
309.571	101.88
309.8	83.88
310.03	81.88
310.26	93.88
310.49	84.88
310.72	82.88
310.949	80.88
311.179	84.88
311.409	77.88
311.639	75.88
311.868	92.88
312.098	85.88
312.328	78.88
312.557	76.88
312.787	78.88
313.017	87.88
313.246	91.88
313.476	84.88
313.706	87.88
313.935	76.88
314.165	77.88
314.394	90.88
314.624	92.88
314.853	73.88
315.083	77.88
315.312	86.88
315.542	95.88
315.771	76.88
316.001	87.88
316.23	77.88
316.46	74.88
316.689	83.88
316.919	85.88
317.148	90.88
317.377	83.88
317.607	80.88
317.836	81.88
318.065	81.88
318.295	82.88
318.524	89.88
318.753	85.88
318.983	80.88
319.212	89.88
319.441	75.88
319.67	91.88
319.9	82.88
320.129	83.88
320.358	74.88
320.587	97.88
320.816	62.88
321.046	60.88
321.275	86.88
321.504	73.88
321.733	75.88
321.962	82.88
322.191	79.88
322.42	87.88
322.649	79.88
322.878	92.88
323.108	72.88
323.337	86.88
323.566	77.88
323.795	81.88
324.024	83.88
324.253	91.88
324.482	116.88
324.71	141.88
324.939	157.88
325.168	107.88
325.397	85.88
325.626	85.88
325.855	86.88
326.084	73.88
326.313	73.88
326.542	68.88
326.77	84.88
326.999	96.88
327.228	103.88
327.457	133.88
327.686	121.88
327.914	99.88
328.143	100.88
328.372	103.88
328.6	101.88
328.829	74.88
329.058	72.88
329.287	95.88
329.515	80.88
329.744	102.88
329.972	101.88
330.201	95.88
330.43	119.88
330.658	103.88
330.887	80.88
331.115	73.88
331.344	77.88
331.572	89.88
331.801	86.88
332.03	99.88
332.258	96.88
332.486	96.88
332.715	75.88
332.943	75.88
333.172	84.88
333.4	81.88
333.629	83.88
333.857	90.88
334.085	97.88
334.314	105.88
334.542	121.88
334.771	106.88
334.999	91.88
335.227	77.88
335.455	83.88
335.684	85.88
335.912	80.88
336.14	89.88
336.369	82.88
336.597	86.88
336.825	88.88
337.053	73.88
337.281	86.88
337.51	91.88
337.738	88.88
337.966	84.88
338.194	79.88
338.422	83.88
338.65	80.88
338.878	81.88
339.106	69.88
339.334	90.88
339.562	75.88
339.79	73.88
340.018	67.88
340.246	76.88
340.474	73.88
340.702	75.88
340.93	88.88
341.158	89.88
341.386	81.88
341.614	92.88
341.842	75.88
342.07	81.88
342.298	85.88
342.526	73.88
342.754	75.88
342.981	84.88
343.209	66.88
343.437	92.88
343.665	92.88
343.893	79.88
344.12	74.88
344.348	87.88
344.576	89.88
344.804	88.88
345.031	84.88
345.259	73.88
345.487	83.88
345.714	79.88
345.942	74.88
346.17	89.88
346.397	76.88
346.625	79.88
346.853	71.88
347.08	72.88
347.308	72.88
347.535	92.88
347.763	85.88
347.99	85.88
348.218	92.88
348.445	75.88
348.673	78.88
348.9	81.88
349.128	87.88
349.355	75.88
349.583	93.88
349.81	84.88
350.037	61.88
350.265	90.88
350.492	73.88
350.72	88.88
350.947	88.88
351.174	78.88
351.402	81.88
351.629	72.88
351.856	79.88
352.083	84.88
352.311	87.88
352.538	93.88
352.765	80.88
352.992	92.88
353.22	89.88
353.447	99.88
353.674	100.88
353.901	90.88
354.128	79.88
354.355	87.88
354.583	67.88
354.81	88.88
355.037	87.88
355.264	77.88
355.491	84.88
355.718	63.88
355.945	90.88
356.172	83.88
356.399	82.88
356.626	80.88
356.853	70.88
357.08	83.88
357.307	91.88
357.534	77.88
357.761	89.88
357.988	81.88
358.215	83.88
358.441	91.88
358.668	83.88
358.895	84.88
359.122	74.88
359.349	72.88
359.576	71.88
359.802	81.88
360.029	92.88
360.256	93.88
360.483	81.88
360.709	74.88
360.936	81.88
361.163	87.88
361.39	97.88
361.616	87.88
361.843	95.88
362.07	79.88
362.296	77.88
362.523	94.88
362.749	76.88
362.976	82.88
363.203	101.88
363.429	89.88
363.656	72.88
363.882	74.88
364.109	85.88
364.335	70.88
364.562	69.88
364.788	77.88
365.015	76.88
365.241	80.88
365.468	94.88
365.694	76.88
365.92	76.88
366.147	81.88
366.373	78.88
366.599	73.88
366.826	94.88
367.052	85.88
367.278	83.88
367.505	73.88
367.731	95.88
367.957	82.88
368.184	69.88
368.41	89.88
368.636	86.88
368.862	85.88
369.089	81.88
369.315	78.88
369.541	76.88
369.767	75.88
369.993	72.88
370.219	90.88
370.445	90.88
370.672	88.88
370.898	70.88
371.124	82.88
371.35	75.88
371.576	84.88
371.802	78.88
372.028	85.88
372.254	99.88
372.48	92.88
372.706	96.88
372.932	80.88
373.158	89.88
373.384	87.88
373.61	85.88
373.835	83.88
374.061	81.88
374.287	80.88
374.513	65.88
374.739	82.88
374.965	83.88
375.191	90.88
375.416	81.88
375.642	71.88
375.868	91.88
376.094	68.88
376.319	104.88
376.545	86.88
376.771	82.88
376.997	82.88
377.222	70.88
377.448	93.88
377.674	83.88
377.899	77.88
378.125	82.88
378.35	75.88
378.576	67.88
378.802	74.88
379.027	90.88
379.253	87.88
379.478	73.88
379.704	68.88
379.929	83.88
380.155	85.88
380.38	85.88
380.606	77.88
380.831	78.88
381.057	76.88
381.282	67.88
381.507	87.88
381.733	76.88
381.958	66.88
382.184	69.88
382.409	71.88
382.634	89.88
382.86	63.88
383.085	68.88
383.31	84.88
383.535	89.88
383.761	82.88
383.986	90.88
384.211	84.88
384.436	90.88
384.662	79.88
384.887	78.88
385.112	78.88
385.337	76.88
385.562	77.88
385.787	84.88
386.013	86.88
386.238	73.88
386.463	76.88
386.688	93.88
386.913	71.88
387.138	98.88
387.363	78.88
387.588	76.88
387.813	91.88
388.038	85.88
388.263	90.88
388.488	80.88
388.713	88.88
388.938	82.88
389.163	77.88
389.387	68.88
389.612	87.88
389.837	78.88
390.062	80.88
390.287	69.88
390.512	92.88
390.736	71.88
390.961	86.88
391.186	89.88
391.411	86.88
391.636	83.88
391.86	83.88
392.085	83.88
392.31	71.88
392.534	77.88
392.759	90.88
392.984	90.88
393.208	90.88
393.433	98.88
393.658	99.88
393.882	88.88
394.107	77.88
394.331	99.88
394.556	69.88
394.78	71.88
395.005	98.88
395.229	81.88
395.454	76.88
395.678	91.88
395.903	85.88
396.127	96.88
396.352	81.88
396.576	95.88
396.801	87.88
397.025	79.88
397.249	85.88
397.474	92.88
397.698	85.88
397.922	84.88
398.147	75.88
398.371	73.88
398.595	73.88
398.82	74.88
399.044	82.88
399.268	75.88
399.492	80.88
399.717	95.88
399.941	67.88
400.165	68.88
400.389	82.88
400.613	76.88
400.837	72.88
401.062	93.88
401.286	83.88
401.51	82.88
401.734	87.88
401.958	80.88
402.182	94.88
402.406	77.88
402.63	79.88
402.854	76.88
403.078	75.88
403.302	75.88
403.526	69.88
403.75	76.88
403.974	69.88
404.198	77.88
404.422	80.88
404.645	77.88
404.869	75.88
405.093	96.88
405.317	81.88
405.541	96.88
405.765	85.88
405.988	87.88
406.212	93.88
406.436	85.88
406.66	78.88
406.883	89.88
407.107	83.88
407.331	79.88
407.555	85.88
407.778	86.88
408.002	74.88
408.226	80.88
408.449	84.88
408.673	80.88
408.896	77.88
409.12	85.88
409.344	85.88
409.567	90.88
409.791	87.88
410.014	85.88
410.238	78.88
410.461	74.88
410.685	80.88
410.908	65.88
411.132	84.88
411.355	91.88
411.578	86.88
411.802	63.88
412.025	83.88
412.249	95.88
412.472	89.88
412.695	81.88
412.919	88.88
413.142	91.88
413.365	71.88
413.589	97.88
413.812	89.88
414.035	88.88
414.258	89.88
414.482	63.88
414.705	59.88
414.928	73.88
415.151	83.88
415.374	74.88
415.597	83.88
415.821	95.88
416.044	79.88
416.267	80.88
416.49	70.88
416.713	84.88
416.936	71.88
417.159	75.88
417.382	90.88
417.605	76.88
417.828	89.88
418.051	84.88
418.274	67.88
418.497	61.88
418.72	85.88
418.943	88.88
419.166	81.88
419.389	92.88
419.611	88.88
419.834	75.88
420.057	79.88
420.28	74.88
420.503	75.88
420.726	81.88
420.948	97.88
421.171	94.88
421.394	77.88
421.617	71.88
421.839	84.88
422.062	65.88
422.285	78.88
422.507	95.88
422.73	83.88
422.953	87.88
423.175	86.88
423.398	86.88
423.621	99.88
423.843	91.88
424.066	90.88
424.288	83.88
424.511	81.88
424.733	74.88
424.956	85.88
425.178	64.88
425.401	83.88
425.623	68.88
425.846	81.88
426.068	85.88
426.291	98.88
426.513	79.88
426.735	91.88
426.958	77.88
427.18	65.88
427.402	93.88
427.625	91.88
427.847	78.88
428.069	83.88
428.292	76.88
428.514	90.88
428.736	82.88
428.958	74.88
429.181	72.88
429.403	96.88
429.625	76.88
429.847	88.88
430.069	85.88
430.292	77.88
430.514	72.88
430.736	76.88
430.958	81.88
431.18	72.88
431.402	84.88
431.624	85.88
431.846	77.88
432.068	87.88
432.29	78.88
432.512	91.88
432.734	75.88
432.956	82.88
433.178	71.88
433.4	76.88
433.622	80.88
433.844	81.88
434.066	95.88
434.287	83.88
434.509	82.88
434.731	78.88
434.953	82.88
435.175	63.88
435.397	75.88
435.618	84.88
435.84	83.88
436.062	84.88
436.284	88.88
436.505	68.88
436.727	72.88
436.949	87.88
437.17	70.88
437.392	75.88
437.614	83.88
437.835	80.88
438.057	77.88
438.278	81.88
438.5	76.88
438.721	91.88
438.943	97.88
439.165	77.88
439.386	83.88
439.608	81.88
439.829	85.88
440.05	90.88
440.272	73.88
440.493	81.88
440.715	86.88
440.936	83.88
441.158	76.88
441.379	89.88
441.6	102.88
441.822	85.88
442.043	71.88
442.264	83.88
442.486	83.88
442.707	85.88
442.928	84.88
443.149	91.88
443.371	86.88
443.592	78.88
443.813	72.88
444.034	76.88
444.255	93.88
444.476	77.88
444.698	75.88
444.919	94.88
445.14	155.88
445.361	127.88
445.582	83.88
445.803	83.88
446.024	68.88
446.245	90.88
446.466	81.88
446.687	74.88
446.908	83.88
447.129	82.88
447.35	78.88
447.571	80.88
447.792	79.88
448.013	82.88
448.234	87.88
448.455	78.88
448.675	73.88
448.896	81.88
449.117	70.88
449.338	72.88
449.559	74.88
449.779	81.88
450	81.88
450.221	75.88
450.442	88.88
450.662	76.88
450.883	84.88
451.104	83.88
451.324	84.88
451.545	70.88
451.766	79.88
451.986	81.88
452.207	92.88
452.428	93.88
452.648	67.88
452.869	69.88
453.089	80.88
453.31	86.88
453.53	85.88
453.751	81.88
453.971	74.88
454.192	78.88
454.412	71.88
454.633	84.88
454.853	87.88
455.073	88.88
455.294	81.88
455.514	80.88
455.734	75.88
455.955	75.88
456.175	94.88
456.395	77.88
456.616	71.88
456.836	79.88
457.056	79.88
457.276	104.88
457.497	73.88
457.717	76.88
457.937	75.88
458.157	80.88
458.377	87.88
458.598	74.88
458.818	82.88
459.038	81.88
459.258	89.88
459.478	90.88
459.698	73.88
459.918	82.88
460.138	92.88
460.358	82.88
460.578	92.88
460.798	76.88
461.018	77.88
461.238	88.88
461.458	84.88
461.678	67.88
461.898	68.88
462.118	72.88
462.338	61.88
462.558	81.88
462.777	69.88
462.997	81.88
463.217	71.88
463.437	73.88
463.657	84.88
463.876	77.88
464.096	84.88
464.316	78.88
464.536	92.88
464.755	88.88
464.975	80.88
465.195	98.88
465.414	91.88
465.634	87.88
465.854	82.88
466.073	69.88
466.293	68.88
466.512	77.88
466.732	85.88
466.951	84.88
467.171	76.88
467.391	85.88
467.61	87.88
467.829	92.88
468.049	95.88
468.268	111.88
468.488	87.88
468.707	82.88
468.927	84.88
469.146	87.88
469.365	97.88
469.585	70.88
469.804	88.88
470.023	83.88
470.243	92.88
470.462	93.88
470.681	76.88
470.901	85.88
471.12	83.88
471.339	89.88
471.558	73.88
471.777	100.88
471.997	99.88
472.216	138.88
472.435	153.88
472.654	98.88
472.873	67.88
473.092	78.88
473.311	71.88
473.53	81.88
473.749	94.88
473.968	92.88
474.187	82.88
474.406	74.88
474.625	87.88
474.844	87.88
475.063	80.88
475.282	84.88
475.501	90.88
475.72	83.88
475.939	91.88
476.158	75.88
476.377	71.88
476.596	72.88
476.814	83.88
477.033	78.88
477.252	75.88
477.471	76.88
477.69	77.88
477.908	85.88
478.127	78.88
478.346	70.88
478.564	92.88
478.783	75.88
479.002	77.88
479.22	88.88
479.439	82.88
479.658	84.88
479.876	78.88
480.095	94.88
480.313	87.88
480.532	85.88
480.751	101.88
480.969	141.88
481.188	218.88
481.406	168.88
481.624	96.88
481.843	80.88
482.061	93.88
482.28	77.88
482.498	81.88
482.717	87.88
482.935	85.88
483.153	72.88
483.372	85.88
483.59	74.88
483.808	89.88
484.027	89.88
484.245	92.88
484.463	67.88
484.681	67.88
484.9	73.88
485.118	79.88
485.336	88.88
485.554	89.88
485.772	60.88
485.99	65.88
486.209	86.88
486.427	91.88
486.645	71.88
486.863	73.88
487.081	81.88
487.299	90.88
487.517	71.88
487.735	68.88
487.953	94.88
488.171	89.88
488.389	75.88
488.607	94.88
488.825	92.88
489.043	74.88
489.261	78.88
489.479	79.88
489.696	77.88
489.914	70.88
490.132	77.88
490.35	71.88
490.568	76.88
490.786	89.88
491.003	75.88
491.221	85.88
491.439	85.88
491.657	95.88
491.874	79.88
492.092	76.88
492.31	82.88
492.527	73.88
492.745	88.88
492.963	84.88
493.18	71.88
493.398	76.88
493.615	86.88
493.833	79.88
494.05	81.88
494.268	78.88
494.485	89.88
494.703	74.88
494.92	75.88
495.138	83.88
495.355	71.88
495.573	85.88
495.79	90.88
496.008	102.88
496.225	87.88
496.442	91.88
496.66	72.88
496.877	79.88
497.094	84.88
497.312	87.88
497.529	65.88
497.746	73.88
497.963	82.88
498.181	90.88
498.398	84.88
498.615	76.88
498.832	84.88
499.049	82.88
499.267	83.88
499.484	76.88
499.701	72.88
499.918	90.88
500.135	69.88
500.352	89.88
500.569	68.88
500.786	89.88
501.003	83.88
501.22	73.88
501.437	73.88
501.654	78.88
501.871	87.88
502.088	77.88
502.305	89.88
502.522	86.88
502.739	72.88
502.956	91.88
503.172	89.88
503.389	89.88
503.606	64.88
503.823	83.88
504.04	82.88
504.256	98.88
504.473	77.88
504.69	81.88
504.907	85.88
505.123	62.88
505.34	74.88
505.557	83.88
505.773	98.88
505.99	100.88
506.207	82.88
506.423	87.88
506.64	91.88
506.856	84.88
507.073	73.88
507.289	74.88
507.506	72.88
507.722	63.88
507.939	83.88
508.155	85.88
508.372	90.88
508.588	83.88
508.805	78.88
509.021	73.88
509.238	81.88
509.454	81.88
509.67	81.88
509.887	84.88
510.103	85.88
510.319	99.88
510.536	129.88
510.752	210.88
510.968	101.88
511.184	92.88
511.401	82.88
511.617	82.88
511.833	62.88
512.049	74.88
512.265	81.88
512.481	85.88
512.698	84.88
512.914	82.88
513.13	85.88
513.346	63.88
513.562	88.88
513.778	79.88
513.994	96.88
514.21	73.88
514.426	90.88
514.642	88.88
514.858	80.88
515.074	85.88
515.29	124.88
515.506	182.88
515.721	113.88
515.937	80.88
516.153	79.88
516.369	84.88
516.585	74.88
516.801	76.88
517.016	72.88
517.232	68.88
517.448	87.88
517.664	79.88
517.879	83.88
518.095	87.88
518.311	82.88
518.527	74.88
518.742	93.88
518.958	83.88
519.173	78.88
519.389	83.88
519.605	66.88
