Data from Penny_2_HRD10591_00019.txt Node
Date: Wed Nov 05 15:34:36 EST 2025
User: Yrep
Spectrometer: HR+D1059
Trigger mode: 1
Integration Time (sec): 1.000000E-1
Scans to average: 1
Electric dark correction enabled: true
Nonlinearity correction enabled: false
Boxcar width: 0
XAxis mode: Wavelengths
Number of Pixels in Spectrum: 2048
>>>>>Begin Spectral Data<<<<<
223.165	3.19
223.4	3.19
223.635	3.19
223.869	-25.81
224.104	-18.81
224.338	-18.81
224.573	-23.81
224.808	-12.81
225.042	10.19
225.277	-8.81
225.511	-8.81
225.746	2.19
225.98	6.19
226.215	-3.81
226.449	14.19
226.683	19.19
226.918	32.19
227.152	34.19
227.387	29.19
227.621	24.19
227.856	47.19
228.09	48.19
228.324	43.19
228.559	57.19
228.793	52.19
229.027	50.19
229.262	49.19
229.496	58.19
229.73	69.19
229.964	80.19
230.199	82.19
230.433	64.19
230.667	78.19
230.901	86.19
231.136	73.19
231.37	84.19
231.604	78.19
231.838	75.19
232.072	86.19
232.306	86.19
232.541	89.19
232.775	85.19
233.009	71.19
233.243	82.19
233.477	77.19
233.711	97.19
233.945	84.19
234.179	54.19
234.413	70.19
234.647	91.19
234.881	87.19
235.115	94.19
235.349	77.19
235.583	92.19
235.817	85.19
236.051	84.19
236.285	73.19
236.519	73.19
236.753	74.19
236.987	85.19
237.221	73.19
237.455	72.19
237.689	74.19
237.922	72.19
238.156	78.19
238.39	84.19
238.624	86.19
238.858	79.19
239.091	81.19
239.325	76.19
239.559	68.19
239.793	81.19
240.027	67.19
240.26	85.19
240.494	78.19
240.728	70.19
240.961	71.19
241.195	84.19
241.429	80.19
241.662	64.19
241.896	73.19
242.13	74.19
242.363	88.19
242.597	96.19
242.83	83.19
243.064	77.19
243.298	74.19
243.531	83.19
243.765	75.19
243.998	80.19
244.232	76.19
244.465	62.19
244.699	97.19
244.932	78.19
245.166	74.19
245.399	84.19
245.633	72.19
245.866	82.19
246.099	74.19
246.333	74.19
246.566	83.19
246.8	69.19
247.033	76.19
247.266	70.19
247.5	83.19
247.733	64.19
247.966	94.19
248.2	84.19
248.433	67.19
248.666	80.19
248.899	77.19
249.133	84.19
249.366	84.19
249.599	75.19
249.832	75.19
250.066	90.19
250.299	80.19
250.532	84.19
250.765	68.19
250.998	80.19
251.231	84.19
251.465	70.19
251.698	79.19
251.931	72.19
252.164	77.19
252.397	84.19
252.63	83.19
252.863	78.19
253.096	93.19
253.329	70.19
253.562	86.19
253.795	69.19
254.028	87.19
254.261	83.19
254.494	77.19
254.727	81.19
254.96	78.19
255.193	83.19
255.426	72.19
255.659	80.19
255.892	85.19
256.124	82.19
256.357	89.19
256.59	88.19
256.823	82.19
257.056	79.19
257.289	73.19
257.521	84.19
257.754	79.19
257.987	93.19
258.22	92.19
258.452	74.19
258.685	84.19
258.918	73.19
259.151	71.19
259.383	84.19
259.616	79.19
259.849	79.19
260.081	88.19
260.314	77.19
260.547	81.19
260.779	88.19
261.012	78.19
261.244	92.19
261.477	75.19
261.71	88.19
261.942	79.19
262.175	81.19
262.407	82.19
262.64	71.19
262.872	84.19
263.105	69.19
263.337	84.19
263.57	70.19
263.802	74.19
264.035	67.19
264.267	83.19
264.499	59.19
264.732	88.19
264.964	90.19
265.197	78.19
265.429	86.19
265.661	82.19
265.894	71.19
266.126	77.19
266.358	92.19
266.591	61.19
266.823	89.19
267.055	84.19
267.287	90.19
267.52	67.19
267.752	88.19
267.984	74.19
268.216	74.19
268.448	77.19
268.681	92.19
268.913	80.19
269.145	88.19
269.377	76.19
269.609	71.19
269.841	77.19
270.073	77.19
270.306	79.19
270.538	80.19
270.77	82.19
271.002	88.19
271.234	78.19
271.466	108.19
271.698	85.19
271.93	87.19
272.162	74.19
272.394	86.19
272.626	94.19
272.858	91.19
273.09	86.19
273.322	84.19
273.553	96.19
273.785	84.19
274.017	80.19
274.249	72.19
274.481	99.19
274.713	89.19
274.945	84.19
275.176	78.19
275.408	93.19
275.64	77.19
275.872	86.19
276.104	82.19
276.335	77.19
276.567	84.19
276.799	88.19
277.031	76.19
277.262	86.19
277.494	79.19
277.726	81.19
277.957	81.19
278.189	89.19
278.421	89.19
278.652	84.19
278.884	81.19
279.115	70.19
279.347	78.19
279.579	85.19
279.81	93.19
280.042	87.19
280.273	97.19
280.505	72.19
280.736	70.19
280.968	78.19
281.199	82.19
281.431	88.19
281.662	93.19
281.894	76.19
282.125	84.19
282.356	80.19
282.588	87.19
282.819	84.19
283.051	77.19
283.282	84.19
283.513	86.19
283.745	97.19
283.976	88.19
284.207	71.19
284.439	96.19
284.67	84.19
284.901	74.19
285.132	78.19
285.364	82.19
285.595	81.19
285.826	79.19
286.057	87.19
286.288	88.19
286.52	84.19
286.751	94.19
286.982	93.19
287.213	86.19
287.444	85.19
287.675	88.19
287.906	82.19
288.138	95.19
288.369	64.19
288.6	82.19
288.831	80.19
289.062	89.19
289.293	90.19
289.524	80.19
289.755	82.19
289.986	81.19
290.217	80.19
290.448	84.19
290.679	81.19
290.91	92.19
291.141	82.19
291.371	75.19
291.602	75.19
291.833	83.19
292.064	76.19
292.295	76.19
292.526	90.19
292.757	94.19
292.987	94.19
293.218	79.19
293.449	67.19
293.68	68.19
293.91	83.19
294.141	86.19
294.372	73.19
294.603	84.19
294.833	74.19
295.064	93.19
295.295	100.19
295.525	92.19
295.756	88.19
295.987	103.19
296.217	88.19
296.448	92.19
296.679	89.19
296.909	88.19
297.14	86.19
297.37	76.19
297.601	68.19
297.831	84.19
298.062	86.19
298.292	78.19
298.523	78.19
298.753	80.19
298.984	78.19
299.214	81.19
299.445	82.19
299.675	86.19
299.905	93.19
300.136	93.19
300.366	89.19
300.597	88.19
300.827	87.19
301.057	85.19
301.288	83.19
301.518	97.19
301.748	86.19
301.979	107.19
302.209	85.19
302.439	82.19
302.669	75.19
302.9	96.19
303.13	88.19
303.36	86.19
303.59	102.19
303.82	92.19
304.051	80.19
304.281	108.19
304.511	85.19
304.741	96.19
304.971	97.19
305.201	85.19
305.431	94.19
305.661	86.19
305.891	94.19
306.121	78.19
306.352	84.19
306.582	93.19
306.812	104.19
307.042	79.19
307.272	98.19
307.502	95.19
307.731	98.19
307.961	88.19
308.191	97.19
308.421	94.19
308.651	85.19
308.881	88.19
309.111	74.19
309.341	82.19
309.571	78.19
309.8	90.19
310.03	90.19
310.26	95.19
310.49	87.19
310.72	87.19
310.949	74.19
311.179	94.19
311.409	93.19
311.639	92.19
311.868	99.19
312.098	100.19
312.328	79.19
312.557	93.19
312.787	68.19
313.017	81.19
313.246	92.19
313.476	76.19
313.706	75.19
313.935	85.19
314.165	76.19
314.394	74.19
314.624	91.19
314.853	100.19
315.083	67.19
315.312	95.19
315.542	84.19
315.771	88.19
316.001	102.19
316.23	84.19
316.46	83.19
316.689	82.19
316.919	101.19
317.148	89.19
317.377	109.19
317.607	92.19
317.836	80.19
318.065	81.19
318.295	93.19
318.524	81.19
318.753	86.19
318.983	84.19
319.212	98.19
319.441	89.19
319.67	76.19
319.9	73.19
320.129	77.19
320.358	73.19
320.587	69.19
320.816	78.19
321.046	82.19
321.275	95.19
321.504	72.19
321.733	105.19
321.962	82.19
322.191	93.19
322.42	94.19
322.649	83.19
322.878	96.19
323.108	86.19
323.337	77.19
323.566	100.19
323.795	93.19
324.024	89.19
324.253	92.19
324.482	124.19
324.71	152.19
324.939	155.19
325.168	109.19
325.397	87.19
325.626	91.19
325.855	82.19
326.084	81.19
326.313	82.19
326.542	89.19
326.77	89.19
326.999	99.19
327.228	104.19
327.457	123.19
327.686	114.19
327.914	104.19
328.143	108.19
328.372	98.19
328.6	75.19
328.829	74.19
329.058	84.19
329.287	88.19
329.515	91.19
329.744	102.19
329.972	96.19
330.201	109.19
330.43	132.19
330.658	99.19
330.887	94.19
331.115	88.19
331.344	86.19
331.572	92.19
331.801	93.19
332.03	88.19
332.258	81.19
332.486	82.19
332.715	67.19
332.943	78.19
333.172	76.19
333.4	93.19
333.629	75.19
333.857	72.19
334.085	91.19
334.314	117.19
334.542	149.19
334.771	119.19
334.999	92.19
335.227	79.19
335.455	91.19
335.684	94.19
335.912	93.19
336.14	90.19
336.369	78.19
336.597	83.19
336.825	65.19
337.053	88.19
337.281	78.19
337.51	99.19
337.738	98.19
337.966	83.19
338.194	79.19
338.422	82.19
338.65	78.19
338.878	88.19
339.106	77.19
339.334	74.19
339.562	78.19
339.79	90.19
340.018	78.19
340.246	90.19
340.474	78.19
340.702	77.19
340.93	75.19
341.158	97.19
341.386	100.19
341.614	96.19
341.842	89.19
342.07	76.19
342.298	83.19
342.526	86.19
342.754	78.19
342.981	83.19
343.209	86.19
343.437	98.19
343.665	80.19
343.893	92.19
344.12	85.19
344.348	90.19
344.576	91.19
344.804	80.19
345.031	91.19
345.259	88.19
345.487	99.19
345.714	85.19
345.942	69.19
346.17	86.19
346.397	73.19
346.625	91.19
346.853	90.19
347.08	84.19
347.308	91.19
347.535	78.19
347.763	96.19
347.99	93.19
348.218	79.19
348.445	74.19
348.673	86.19
348.9	82.19
349.128	79.19
349.355	74.19
349.583	100.19
349.81	97.19
350.037	76.19
350.265	82.19
350.492	87.19
350.72	88.19
350.947	88.19
351.174	90.19
351.402	78.19
351.629	65.19
351.856	79.19
352.083	76.19
352.311	78.19
352.538	82.19
352.765	79.19
352.992	88.19
353.22	84.19
353.447	76.19
353.674	100.19
353.901	98.19
354.128	86.19
354.355	71.19
354.583	88.19
354.81	74.19
355.037	77.19
355.264	69.19
355.491	84.19
355.718	83.19
355.945	92.19
356.172	87.19
356.399	87.19
356.626	84.19
356.853	99.19
357.08	86.19
357.307	73.19
357.534	87.19
357.761	82.19
357.988	98.19
358.215	78.19
358.441	77.19
358.668	78.19
358.895	83.19
359.122	93.19
359.349	75.19
359.576	91.19
359.802	94.19
360.029	85.19
360.256	91.19
360.483	82.19
360.709	75.19
360.936	84.19
361.163	91.19
361.39	83.19
361.616	89.19
361.843	96.19
362.07	80.19
362.296	86.19
362.523	90.19
362.749	86.19
362.976	90.19
363.203	86.19
363.429	78.19
363.656	88.19
363.882	88.19
364.109	98.19
364.335	78.19
364.562	90.19
364.788	68.19
365.015	89.19
365.241	93.19
365.468	73.19
365.694	67.19
365.92	84.19
366.147	78.19
366.373	98.19
366.599	81.19
366.826	80.19
367.052	93.19
367.278	88.19
367.505	96.19
367.731	82.19
367.957	87.19
368.184	92.19
368.41	88.19
368.636	84.19
368.862	72.19
369.089	90.19
369.315	67.19
369.541	82.19
369.767	84.19
369.993	82.19
370.219	78.19
370.445	74.19
370.672	73.19
370.898	86.19
371.124	82.19
371.35	79.19
371.576	91.19
371.802	86.19
372.028	76.19
372.254	66.19
372.48	83.19
372.706	88.19
372.932	80.19
373.158	75.19
373.384	88.19
373.61	95.19
373.835	97.19
374.061	84.19
374.287	93.19
374.513	82.19
374.739	75.19
374.965	79.19
375.191	86.19
375.416	85.19
375.642	86.19
375.868	80.19
376.094	85.19
376.319	71.19
376.545	82.19
376.771	78.19
376.997	85.19
377.222	84.19
377.448	70.19
377.674	56.19
377.899	69.19
378.125	82.19
378.35	84.19
378.576	88.19
378.802	85.19
379.027	82.19
379.253	88.19
379.478	86.19
379.704	89.19
379.929	89.19
380.155	75.19
380.38	74.19
380.606	78.19
380.831	88.19
381.057	80.19
381.282	90.19
381.507	93.19
381.733	90.19
381.958	94.19
382.184	77.19
382.409	83.19
382.634	88.19
382.86	86.19
383.085	86.19
383.31	78.19
383.535	92.19
383.761	79.19
383.986	96.19
384.211	78.19
384.436	84.19
384.662	84.19
384.887	84.19
385.112	86.19
385.337	72.19
385.562	92.19
385.787	76.19
386.013	82.19
386.238	80.19
386.463	75.19
386.688	98.19
386.913	92.19
387.138	88.19
387.363	92.19
387.588	79.19
387.813	77.19
388.038	86.19
388.263	92.19
388.488	83.19
388.713	70.19
388.938	74.19
389.163	86.19
389.387	75.19
389.612	78.19
389.837	89.19
390.062	93.19
390.287	81.19
390.512	94.19
390.736	80.19
390.961	77.19
391.186	80.19
391.411	82.19
391.636	75.19
391.86	76.19
392.085	88.19
392.31	70.19
392.534	82.19
392.759	79.19
392.984	85.19
393.208	91.19
393.433	85.19
393.658	86.19
393.882	65.19
394.107	83.19
394.331	68.19
394.556	81.19
394.78	77.19
395.005	77.19
395.229	89.19
395.454	89.19
395.678	100.19
395.903	78.19
396.127	82.19
396.352	70.19
396.576	83.19
396.801	88.19
397.025	77.19
397.249	74.19
397.474	93.19
397.698	83.19
397.922	96.19
398.147	87.19
398.371	89.19
398.595	77.19
398.82	72.19
399.044	90.19
399.268	84.19
399.492	88.19
399.717	81.19
399.941	85.19
400.165	83.19
400.389	72.19
400.613	77.19
400.837	93.19
401.062	94.19
401.286	86.19
401.51	78.19
401.734	81.19
401.958	90.19
402.182	87.19
402.406	81.19
402.63	76.19
402.854	79.19
403.078	82.19
403.302	91.19
403.526	96.19
403.75	84.19
403.974	69.19
404.198	86.19
404.422	76.19
404.645	66.19
404.869	81.19
405.093	90.19
405.317	83.19
405.541	91.19
405.765	88.19
405.988	86.19
406.212	89.19
406.436	88.19
406.66	92.19
406.883	81.19
407.107	84.19
407.331	86.19
407.555	75.19
407.778	82.19
408.002	92.19
408.226	73.19
408.449	74.19
408.673	101.19
408.896	79.19
409.12	82.19
409.344	78.19
409.567	95.19
409.791	93.19
410.014	87.19
410.238	87.19
410.461	72.19
410.685	76.19
410.908	87.19
411.132	88.19
411.355	73.19
411.578	91.19
411.802	97.19
412.025	92.19
412.249	88.19
412.472	78.19
412.695	74.19
412.919	87.19
413.142	85.19
413.365	83.19
413.589	81.19
413.812	68.19
414.035	85.19
414.258	96.19
414.482	84.19
414.705	85.19
414.928	75.19
415.151	85.19
415.374	91.19
415.597	78.19
415.821	72.19
416.044	76.19
416.267	100.19
416.49	86.19
416.713	86.19
416.936	74.19
417.159	73.19
417.382	71.19
417.605	79.19
417.828	84.19
418.051	84.19
418.274	73.19
418.497	80.19
418.72	90.19
418.943	91.19
419.166	79.19
419.389	54.19
419.611	73.19
419.834	81.19
420.057	92.19
420.28	80.19
420.503	84.19
420.726	79.19
420.948	76.19
421.171	64.19
421.394	89.19
421.617	86.19
421.839	70.19
422.062	80.19
422.285	75.19
422.507	84.19
422.73	85.19
422.953	87.19
423.175	68.19
423.398	79.19
423.621	86.19
423.843	89.19
424.066	80.19
424.288	86.19
424.511	84.19
424.733	81.19
424.956	70.19
425.178	81.19
425.401	72.19
425.623	80.19
425.846	82.19
426.068	72.19
426.291	82.19
426.513	93.19
426.735	75.19
426.958	64.19
427.18	85.19
427.402	88.19
427.625	96.19
427.847	94.19
428.069	86.19
428.292	81.19
428.514	84.19
428.736	87.19
428.958	76.19
429.181	84.19
429.403	76.19
429.625	92.19
429.847	83.19
430.069	81.19
430.292	87.19
430.514	82.19
430.736	87.19
430.958	78.19
431.18	77.19
431.402	92.19
431.624	70.19
431.846	77.19
432.068	83.19
432.29	83.19
432.512	75.19
432.734	79.19
432.956	79.19
433.178	79.19
433.4	75.19
433.622	84.19
433.844	77.19
434.066	85.19
434.287	69.19
434.509	83.19
434.731	89.19
434.953	89.19
435.175	75.19
435.397	93.19
435.618	85.19
435.84	84.19
436.062	84.19
436.284	79.19
436.505	82.19
436.727	94.19
436.949	74.19
437.17	97.19
437.392	82.19
437.614	72.19
437.835	76.19
438.057	76.19
438.278	80.19
438.5	70.19
438.721	74.19
438.943	83.19
439.165	84.19
439.386	73.19
439.608	85.19
439.829	91.19
440.05	84.19
440.272	80.19
440.493	85.19
440.715	75.19
440.936	85.19
441.158	78.19
441.379	89.19
441.6	92.19
441.822	86.19
442.043	79.19
442.264	76.19
442.486	78.19
442.707	88.19
442.928	77.19
443.149	68.19
443.371	82.19
443.592	76.19
443.813	80.19
444.034	77.19
444.255	75.19
444.476	79.19
444.698	94.19
444.919	93.19
445.14	156.19
445.361	108.19
445.582	80.19
445.803	85.19
446.024	85.19
446.245	91.19
446.466	80.19
446.687	77.19
446.908	69.19
447.129	84.19
447.35	75.19
447.571	79.19
447.792	86.19
448.013	79.19
448.234	81.19
448.455	71.19
448.675	86.19
448.896	76.19
449.117	83.19
449.338	67.19
449.559	92.19
449.779	88.19
450	85.19
450.221	88.19
450.442	84.19
450.662	75.19
450.883	81.19
451.104	89.19
451.324	82.19
451.545	90.19
451.766	89.19
451.986	71.19
452.207	75.19
452.428	79.19
452.648	84.19
452.869	78.19
453.089	72.19
453.31	70.19
453.53	76.19
453.751	87.19
453.971	83.19
454.192	79.19
454.412	82.19
454.633	84.19
454.853	87.19
455.073	80.19
455.294	75.19
455.514	88.19
455.734	98.19
455.955	77.19
456.175	75.19
456.395	61.19
456.616	82.19
456.836	78.19
457.056	94.19
457.276	76.19
457.497	84.19
457.717	93.19
457.937	89.19
458.157	84.19
458.377	92.19
458.598	72.19
458.818	90.19
459.038	100.19
459.258	80.19
459.478	89.19
459.698	78.19
459.918	86.19
460.138	84.19
460.358	92.19
460.578	81.19
460.798	87.19
461.018	91.19
461.238	74.19
461.458	84.19
461.678	96.19
461.898	84.19
462.118	89.19
462.338	81.19
462.558	81.19
462.777	74.19
462.997	94.19
463.217	89.19
463.437	97.19
463.657	83.19
463.876	74.19
464.096	88.19
464.316	82.19
464.536	84.19
464.755	75.19
464.975	96.19
465.195	94.19
465.414	85.19
465.634	74.19
465.854	76.19
466.073	84.19
466.293	85.19
466.512	71.19
466.732	66.19
466.951	79.19
467.171	92.19
467.391	77.19
467.61	92.19
467.829	73.19
468.049	89.19
468.268	97.19
468.488	96.19
468.707	67.19
468.927	82.19
469.146	85.19
469.365	74.19
469.585	87.19
469.804	87.19
470.023	68.19
470.243	88.19
470.462	93.19
470.681	82.19
470.901	74.19
471.12	81.19
471.339	82.19
471.558	82.19
471.777	91.19
471.997	82.19
472.216	119.19
472.435	160.19
472.654	100.19
472.873	97.19
473.092	76.19
473.311	82.19
473.53	76.19
473.749	84.19
473.968	86.19
474.187	73.19
474.406	82.19
474.625	93.19
474.844	92.19
475.063	80.19
475.282	93.19
475.501	80.19
475.72	94.19
475.939	88.19
476.158	83.19
476.377	85.19
476.596	72.19
476.814	74.19
477.033	74.19
477.252	76.19
477.471	76.19
477.69	79.19
477.908	83.19
478.127	92.19
478.346	78.19
478.564	76.19
478.783	92.19
479.002	86.19
479.22	86.19
479.439	81.19
479.658	74.19
479.876	83.19
480.095	78.19
480.313	81.19
480.532	88.19
480.751	91.19
480.969	120.19
481.188	226.19
481.406	154.19
481.624	91.19
481.843	91.19
482.061	79.19
482.28	71.19
482.498	80.19
482.717	99.19
482.935	79.19
483.153	76.19
483.372	70.19
483.59	87.19
483.808	77.19
484.027	86.19
484.245	86.19
484.463	68.19
484.681	88.19
484.9	82.19
485.118	80.19
485.336	70.19
485.554	74.19
485.772	84.19
485.99	76.19
486.209	73.19
486.427	80.19
486.645	88.19
486.863	80.19
487.081	93.19
487.299	84.19
487.517	75.19
487.735	86.19
487.953	90.19
488.171	78.19
488.389	85.19
488.607	89.19
488.825	79.19
489.043	77.19
489.261	92.19
489.479	77.19
489.696	92.19
489.914	89.19
490.132	96.19
490.35	84.19
490.568	77.19
490.786	94.19
491.003	96.19
491.221	82.19
491.439	85.19
491.657	81.19
491.874	89.19
492.092	80.19
492.31	79.19
492.527	90.19
492.745	69.19
492.963	90.19
493.18	77.19
493.398	97.19
493.615	97.19
493.833	82.19
494.05	91.19
494.268	84.19
494.485	80.19
494.703	89.19
494.92	90.19
495.138	93.19
495.355	86.19
495.573	76.19
495.79	89.19
496.008	73.19
496.225	77.19
496.442	92.19
496.66	84.19
496.877	76.19
497.094	84.19
497.312	84.19
497.529	77.19
497.746	84.19
497.963	86.19
498.181	83.19
498.398	71.19
498.615	82.19
498.832	74.19
499.049	83.19
499.267	74.19
499.484	81.19
499.701	81.19
499.918	85.19
500.135	88.19
500.352	76.19
500.569	94.19
500.786	78.19
501.003	69.19
501.22	83.19
501.437	82.19
501.654	98.19
501.871	84.19
502.088	89.19
502.305	68.19
502.522	70.19
502.739	76.19
502.956	85.19
503.172	84.19
503.389	82.19
503.606	83.19
503.823	77.19
504.04	69.19
504.256	84.19
504.473	78.19
504.69	80.19
504.907	84.19
505.123	89.19
505.34	91.19
505.557	99.19
505.773	84.19
505.99	81.19
506.207	81.19
506.423	93.19
506.64	87.19
506.856	86.19
507.073	76.19
507.289	84.19
507.506	79.19
507.722	78.19
507.939	80.19
508.155	82.19
508.372	86.19
508.588	72.19
508.805	87.19
509.021	88.19
509.238	98.19
509.454	84.19
509.67	96.19
509.887	78.19
510.103	82.19
510.319	96.19
510.536	139.19
510.752	200.19
510.968	117.19
511.184	80.19
511.401	85.19
511.617	91.19
511.833	79.19
512.049	77.19
512.265	81.19
512.481	86.19
512.698	71.19
512.914	72.19
513.13	75.19
513.346	85.19
513.562	87.19
513.778	74.19
513.994	75.19
514.21	80.19
514.426	76.19
514.642	90.19
514.858	86.19
515.074	96.19
515.29	129.19
515.506	183.19
515.721	114.19
515.937	88.19
516.153	71.19
516.369	87.19
516.585	76.19
516.801	92.19
517.016	86.19
517.232	89.19
517.448	80.19
517.664	77.19
517.879	79.19
518.095	88.19
518.311	82.19
518.527	76.19
518.742	92.19
518.958	78.19
519.173	97.19
519.389	90.19
519.605	76.19
