Data from Penny_2_HRD10591_00005.txt Node
Date: Wed Nov 05 15:34:29 EST 2025
User: Yrep
Spectrometer: HR+D1059
Trigger mode: 1
Integration Time (sec): 1.000000E-1
Scans to average: 1
Electric dark correction enabled: true
Nonlinearity correction enabled: false
Boxcar width: 0
XAxis mode: Wavelengths
Number of Pixels in Spectrum: 2048
>>>>>Begin Spectral Data<<<<<
223.165	-24.25
223.4	-24.25
223.635	-24.25
223.869	-12.25
224.104	-23.25
224.338	-8.25
224.573	-20.25
224.808	-12.25
225.042	10.75
225.277	8.75
225.511	-11.25
225.746	4.75
225.98	8.75
226.215	2.75
226.449	18.75
226.683	19.75
226.918	21.75
227.152	15.75
227.387	36.75
227.621	34.75
227.856	37.75
228.09	43.75
228.324	47.75
228.559	69.75
228.793	52.75
229.027	58.75
229.262	55.75
229.496	55.75
229.73	52.75
229.964	79.75
230.199	63.75
230.433	82.75
230.667	73.75
230.901	82.75
231.136	77.75
231.37	77.75
231.604	79.75
231.838	82.75
232.072	71.75
232.306	67.75
232.541	81.75
232.775	89.75
233.009	86.75
233.243	86.75
233.477	79.75
233.711	77.75
233.945	70.75
234.179	73.75
234.413	68.75
234.647	81.75
234.881	79.75
235.115	77.75
235.349	73.75
235.583	84.75
235.817	79.75
236.051	63.75
236.285	69.75
236.519	77.75
236.753	63.75
236.987	59.75
237.221	60.75
237.455	73.75
237.689	66.75
237.922	72.75
238.156	66.75
238.39	67.75
238.624	80.75
238.858	87.75
239.091	85.75
239.325	74.75
239.559	80.75
239.793	77.75
240.027	75.75
240.26	76.75
240.494	81.75
240.728	73.75
240.961	69.75
241.195	66.75
241.429	67.75
241.662	66.75
241.896	75.75
242.13	73.75
242.363	83.75
242.597	59.75
242.83	65.75
243.064	65.75
243.298	74.75
243.531	87.75
243.765	81.75
243.998	75.75
244.232	75.75
244.465	87.75
244.699	74.75
244.932	83.75
245.166	88.75
245.399	84.75
245.633	78.75
245.866	56.75
246.099	89.75
246.333	83.75
246.566	90.75
246.8	75.75
247.033	72.75
247.266	74.75
247.5	81.75
247.733	70.75
247.966	79.75
248.2	71.75
248.433	73.75
248.666	64.75
248.899	70.75
249.133	76.75
249.366	71.75
249.599	73.75
249.832	87.75
250.066	69.75
250.299	74.75
250.532	78.75
250.765	80.75
250.998	78.75
251.231	67.75
251.465	88.75
251.698	69.75
251.931	83.75
252.164	70.75
252.397	74.75
252.63	78.75
252.863	75.75
253.096	71.75
253.329	72.75
253.562	66.75
253.795	78.75
254.028	69.75
254.261	81.75
254.494	75.75
254.727	84.75
254.96	87.75
255.193	65.75
255.426	77.75
255.659	63.75
255.892	80.75
256.124	70.75
256.357	77.75
256.59	79.75
256.823	78.75
257.056	81.75
257.289	72.75
257.521	76.75
257.754	80.75
257.987	85.75
258.22	76.75
258.452	79.75
258.685	80.75
258.918	72.75
259.151	71.75
259.383	79.75
259.616	77.75
259.849	66.75
260.081	71.75
260.314	79.75
260.547	75.75
260.779	81.75
261.012	78.75
261.244	77.75
261.477	94.75
261.71	83.75
261.942	75.75
262.175	93.75
262.407	82.75
262.64	80.75
262.872	91.75
263.105	76.75
263.337	76.75
263.57	79.75
263.802	80.75
264.035	68.75
264.267	59.75
264.499	79.75
264.732	79.75
264.964	83.75
265.197	80.75
265.429	76.75
265.661	89.75
265.894	77.75
266.126	78.75
266.358	78.75
266.591	73.75
266.823	75.75
267.055	73.75
267.287	72.75
267.52	77.75
267.752	69.75
267.984	79.75
268.216	76.75
268.448	66.75
268.681	63.75
268.913	79.75
269.145	77.75
269.377	71.75
269.609	75.75
269.841	86.75
270.073	68.75
270.306	79.75
270.538	69.75
270.77	61.75
271.002	75.75
271.234	79.75
271.466	81.75
271.698	71.75
271.93	74.75
272.162	93.75
272.394	94.75
272.626	80.75
272.858	80.75
273.09	72.75
273.322	75.75
273.553	79.75
273.785	65.75
274.017	76.75
274.249	76.75
274.481	84.75
274.713	66.75
274.945	81.75
275.176	72.75
275.408	77.75
275.64	87.75
275.872	85.75
276.104	85.75
276.335	73.75
276.567	88.75
276.799	75.75
277.031	83.75
277.262	80.75
277.494	78.75
277.726	86.75
277.957	81.75
278.189	79.75
278.421	83.75
278.652	81.75
278.884	63.75
279.115	89.75
279.347	77.75
279.579	80.75
279.81	76.75
280.042	90.75
280.273	95.75
280.505	73.75
280.736	81.75
280.968	70.75
281.199	79.75
281.431	85.75
281.662	87.75
281.894	79.75
282.125	86.75
282.356	67.75
282.588	84.75
282.819	83.75
283.051	69.75
283.282	87.75
283.513	81.75
283.745	78.75
283.976	65.75
284.207	75.75
284.439	79.75
284.67	88.75
284.901	69.75
285.132	82.75
285.364	69.75
285.595	75.75
285.826	87.75
286.057	71.75
286.288	72.75
286.52	71.75
286.751	72.75
286.982	71.75
287.213	72.75
287.444	78.75
287.675	91.75
287.906	83.75
288.138	71.75
288.369	76.75
288.6	84.75
288.831	74.75
289.062	82.75
289.293	83.75
289.524	71.75
289.755	83.75
289.986	82.75
290.217	84.75
290.448	91.75
290.679	89.75
290.91	75.75
291.141	67.75
291.371	68.75
291.602	71.75
291.833	68.75
292.064	74.75
292.295	85.75
292.526	83.75
292.757	79.75
292.987	81.75
293.218	81.75
293.449	84.75
293.68	72.75
293.91	71.75
294.141	87.75
294.372	80.75
294.603	78.75
294.833	77.75
295.064	86.75
295.295	104.75
295.525	78.75
295.756	77.75
295.987	83.75
296.217	80.75
296.448	71.75
296.679	82.75
296.909	77.75
297.14	84.75
297.37	83.75
297.601	75.75
297.831	79.75
298.062	77.75
298.292	75.75
298.523	87.75
298.753	82.75
298.984	86.75
299.214	75.75
299.445	83.75
299.675	70.75
299.905	71.75
300.136	82.75
300.366	92.75
300.597	91.75
300.827	81.75
301.057	81.75
301.288	81.75
301.518	84.75
301.748	75.75
301.979	93.75
302.209	84.75
302.439	72.75
302.669	83.75
302.9	77.75
303.13	77.75
303.36	87.75
303.59	81.75
303.82	101.75
304.051	81.75
304.281	77.75
304.511	82.75
304.741	89.75
304.971	82.75
305.201	79.75
305.431	79.75
305.661	87.75
305.891	82.75
306.121	81.75
306.352	88.75
306.582	84.75
306.812	95.75
307.042	84.75
307.272	76.75
307.502	84.75
307.731	92.75
307.961	63.75
308.191	79.75
308.421	87.75
308.651	93.75
308.881	93.75
309.111	70.75
309.341	69.75
309.571	93.75
309.8	85.75
310.03	69.75
310.26	79.75
310.49	77.75
310.72	83.75
310.949	85.75
311.179	94.75
311.409	70.75
311.639	73.75
311.868	82.75
312.098	83.75
312.328	86.75
312.557	87.75
312.787	77.75
313.017	72.75
313.246	79.75
313.476	83.75
313.706	75.75
313.935	71.75
314.165	91.75
314.394	81.75
314.624	81.75
314.853	78.75
315.083	88.75
315.312	69.75
315.542	79.75
315.771	74.75
316.001	88.75
316.23	86.75
316.46	93.75
316.689	73.75
316.919	93.75
317.148	85.75
317.377	81.75
317.607	70.75
317.836	77.75
318.065	88.75
318.295	71.75
318.524	74.75
318.753	75.75
318.983	92.75
319.212	78.75
319.441	72.75
319.67	73.75
319.9	76.75
320.129	82.75
320.358	85.75
320.587	82.75
320.816	71.75
321.046	60.75
321.275	83.75
321.504	85.75
321.733	82.75
321.962	78.75
322.191	82.75
322.42	78.75
322.649	70.75
322.878	87.75
323.108	86.75
323.337	81.75
323.566	89.75
323.795	62.75
324.024	77.75
324.253	94.75
324.482	111.75
324.71	129.75
324.939	137.75
325.168	101.75
325.397	100.75
325.626	91.75
325.855	80.75
326.084	87.75
326.313	85.75
326.542	93.75
326.77	89.75
326.999	99.75
327.228	113.75
327.457	121.75
327.686	102.75
327.914	93.75
328.143	107.75
328.372	96.75
328.6	74.75
328.829	70.75
329.058	91.75
329.287	89.75
329.515	79.75
329.744	89.75
329.972	93.75
330.201	121.75
330.43	113.75
330.658	100.75
330.887	88.75
331.115	79.75
331.344	77.75
331.572	77.75
331.801	75.75
332.03	71.75
332.258	79.75
332.486	78.75
332.715	75.75
332.943	81.75
333.172	91.75
333.4	74.75
333.629	78.75
333.857	85.75
334.085	102.75
334.314	116.75
334.542	144.75
334.771	104.75
334.999	85.75
335.227	87.75
335.455	83.75
335.684	84.75
335.912	96.75
336.14	83.75
336.369	83.75
336.597	71.75
336.825	87.75
337.053	83.75
337.281	66.75
337.51	61.75
337.738	90.75
337.966	77.75
338.194	94.75
338.422	63.75
338.65	71.75
338.878	89.75
339.106	76.75
339.334	82.75
339.562	82.75
339.79	76.75
340.018	77.75
340.246	93.75
340.474	90.75
340.702	81.75
340.93	89.75
341.158	70.75
341.386	87.75
341.614	65.75
341.842	80.75
342.07	67.75
342.298	88.75
342.526	79.75
342.754	68.75
342.981	76.75
343.209	79.75
343.437	76.75
343.665	78.75
343.893	75.75
344.12	81.75
344.348	88.75
344.576	68.75
344.804	64.75
345.031	81.75
345.259	77.75
345.487	87.75
345.714	82.75
345.942	96.75
346.17	81.75
346.397	81.75
346.625	76.75
346.853	86.75
347.08	90.75
347.308	79.75
347.535	77.75
347.763	73.75
347.99	67.75
348.218	80.75
348.445	79.75
348.673	87.75
348.9	87.75
349.128	78.75
349.355	82.75
349.583	87.75
349.81	85.75
350.037	83.75
350.265	81.75
350.492	81.75
350.72	73.75
350.947	83.75
351.174	88.75
351.402	72.75
351.629	85.75
351.856	85.75
352.083	80.75
352.311	84.75
352.538	73.75
352.765	72.75
352.992	77.75
353.22	71.75
353.447	84.75
353.674	92.75
353.901	91.75
354.128	81.75
354.355	83.75
354.583	73.75
354.81	83.75
355.037	89.75
355.264	88.75
355.491	72.75
355.718	67.75
355.945	80.75
356.172	75.75
356.399	79.75
356.626	63.75
356.853	96.75
357.08	79.75
357.307	73.75
357.534	82.75
357.761	78.75
357.988	83.75
358.215	83.75
358.441	84.75
358.668	85.75
358.895	81.75
359.122	78.75
359.349	82.75
359.576	71.75
359.802	76.75
360.029	81.75
360.256	70.75
360.483	77.75
360.709	73.75
360.936	70.75
361.163	67.75
361.39	71.75
361.616	81.75
361.843	78.75
362.07	82.75
362.296	77.75
362.523	66.75
362.749	73.75
362.976	72.75
363.203	88.75
363.429	77.75
363.656	88.75
363.882	73.75
364.109	69.75
364.335	82.75
364.562	70.75
364.788	80.75
365.015	80.75
365.241	74.75
365.468	79.75
365.694	72.75
365.92	78.75
366.147	74.75
366.373	72.75
366.599	79.75
366.826	91.75
367.052	79.75
367.278	91.75
367.505	72.75
367.731	81.75
367.957	77.75
368.184	64.75
368.41	89.75
368.636	73.75
368.862	88.75
369.089	91.75
369.315	86.75
369.541	89.75
369.767	84.75
369.993	83.75
370.219	77.75
370.445	78.75
370.672	89.75
370.898	79.75
371.124	77.75
371.35	89.75
371.576	73.75
371.802	81.75
372.028	88.75
372.254	83.75
372.48	83.75
372.706	68.75
372.932	72.75
373.158	70.75
373.384	79.75
373.61	73.75
373.835	81.75
374.061	79.75
374.287	76.75
374.513	69.75
374.739	88.75
374.965	92.75
375.191	72.75
375.416	72.75
375.642	74.75
375.868	71.75
376.094	71.75
376.319	82.75
376.545	67.75
376.771	77.75
376.997	77.75
377.222	60.75
377.448	84.75
377.674	79.75
377.899	90.75
378.125	94.75
378.35	77.75
378.576	89.75
378.802	81.75
379.027	70.75
379.253	81.75
379.478	81.75
379.704	101.75
379.929	72.75
380.155	67.75
380.38	85.75
380.606	79.75
380.831	60.75
381.057	76.75
381.282	82.75
381.507	69.75
381.733	75.75
381.958	74.75
382.184	83.75
382.409	68.75
382.634	92.75
382.86	93.75
383.085	90.75
383.31	72.75
383.535	89.75
383.761	79.75
383.986	96.75
384.211	78.75
384.436	87.75
384.662	76.75
384.887	94.75
385.112	86.75
385.337	80.75
385.562	87.75
385.787	75.75
386.013	66.75
386.238	73.75
386.463	83.75
386.688	99.75
386.913	75.75
387.138	75.75
387.363	84.75
387.588	79.75
387.813	91.75
388.038	75.75
388.263	64.75
388.488	81.75
388.713	84.75
388.938	72.75
389.163	80.75
389.387	75.75
389.612	79.75
389.837	68.75
390.062	72.75
390.287	64.75
390.512	70.75
390.736	76.75
390.961	75.75
391.186	71.75
391.411	70.75
391.636	79.75
391.86	85.75
392.085	77.75
392.31	74.75
392.534	76.75
392.759	60.75
392.984	80.75
393.208	94.75
393.433	94.75
393.658	87.75
393.882	62.75
394.107	71.75
394.331	68.75
394.556	73.75
394.78	73.75
395.005	63.75
395.229	79.75
395.454	73.75
395.678	70.75
395.903	72.75
396.127	80.75
396.352	72.75
396.576	77.75
396.801	83.75
397.025	64.75
397.249	66.75
397.474	93.75
397.698	76.75
397.922	85.75
398.147	71.75
398.371	78.75
398.595	81.75
398.82	90.75
399.044	77.75
399.268	61.75
399.492	71.75
399.717	81.75
399.941	70.75
400.165	81.75
400.389	84.75
400.613	78.75
400.837	85.75
401.062	80.75
401.286	71.75
401.51	86.75
401.734	79.75
401.958	77.75
402.182	73.75
402.406	69.75
402.63	72.75
402.854	73.75
403.078	77.75
403.302	77.75
403.526	72.75
403.75	66.75
403.974	77.75
404.198	65.75
404.422	69.75
404.645	84.75
404.869	71.75
405.093	73.75
405.317	80.75
405.541	87.75
405.765	73.75
405.988	83.75
406.212	76.75
406.436	88.75
406.66	81.75
406.883	84.75
407.107	65.75
407.331	72.75
407.555	88.75
407.778	82.75
408.002	91.75
408.226	72.75
408.449	79.75
408.673	89.75
408.896	88.75
409.12	59.75
409.344	67.75
409.567	68.75
409.791	83.75
410.014	83.75
410.238	73.75
410.461	74.75
410.685	72.75
410.908	71.75
411.132	71.75
411.355	78.75
411.578	73.75
411.802	63.75
412.025	87.75
412.249	77.75
412.472	72.75
412.695	69.75
412.919	81.75
413.142	73.75
413.365	77.75
413.589	74.75
413.812	83.75
414.035	67.75
414.258	83.75
414.482	80.75
414.705	83.75
414.928	67.75
415.151	71.75
415.374	64.75
415.597	86.75
415.821	73.75
416.044	88.75
416.267	69.75
416.49	57.75
416.713	79.75
416.936	73.75
417.159	71.75
417.382	89.75
417.605	71.75
417.828	70.75
418.051	97.75
418.274	72.75
418.497	81.75
418.72	76.75
418.943	79.75
419.166	76.75
419.389	63.75
419.611	73.75
419.834	86.75
420.057	73.75
420.28	70.75
420.503	59.75
420.726	79.75
420.948	87.75
421.171	72.75
421.394	73.75
421.617	65.75
421.839	85.75
422.062	80.75
422.285	87.75
422.507	82.75
422.73	83.75
422.953	62.75
423.175	81.75
423.398	72.75
423.621	55.75
423.843	78.75
424.066	83.75
424.288	76.75
424.511	89.75
424.733	63.75
424.956	79.75
425.178	86.75
425.401	79.75
425.623	89.75
425.846	63.75
426.068	88.75
426.291	71.75
426.513	84.75
426.735	79.75
426.958	67.75
427.18	76.75
427.402	86.75
427.625	72.75
427.847	81.75
428.069	73.75
428.292	65.75
428.514	86.75
428.736	73.75
428.958	66.75
429.181	82.75
429.403	85.75
429.625	70.75
429.847	73.75
430.069	63.75
430.292	81.75
430.514	84.75
430.736	93.75
430.958	76.75
431.18	74.75
431.402	73.75
431.624	63.75
431.846	82.75
432.068	81.75
432.29	72.75
432.512	85.75
432.734	78.75
432.956	80.75
433.178	81.75
433.4	88.75
433.622	87.75
433.844	81.75
434.066	74.75
434.287	85.75
434.509	87.75
434.731	77.75
434.953	71.75
435.175	61.75
435.397	78.75
435.618	71.75
435.84	67.75
436.062	68.75
436.284	77.75
436.505	78.75
436.727	85.75
436.949	78.75
437.17	70.75
437.392	80.75
437.614	81.75
437.835	84.75
438.057	86.75
438.278	80.75
438.5	68.75
438.721	84.75
438.943	72.75
439.165	88.75
439.386	77.75
439.608	69.75
439.829	78.75
440.05	77.75
440.272	81.75
440.493	86.75
440.715	74.75
440.936	92.75
441.158	89.75
441.379	83.75
441.6	68.75
441.822	74.75
442.043	77.75
442.264	78.75
442.486	71.75
442.707	84.75
442.928	79.75
443.149	91.75
443.371	78.75
443.592	82.75
443.813	63.75
444.034	72.75
444.255	69.75
444.476	87.75
444.698	91.75
444.919	69.75
445.14	140.75
445.361	91.75
445.582	79.75
445.803	80.75
446.024	89.75
446.245	72.75
446.466	81.75
446.687	90.75
446.908	80.75
447.129	80.75
447.35	71.75
447.571	67.75
447.792	71.75
448.013	71.75
448.234	89.75
448.455	87.75
448.675	72.75
448.896	87.75
449.117	71.75
449.338	65.75
449.559	89.75
449.779	89.75
450	80.75
450.221	78.75
450.442	76.75
450.662	76.75
450.883	84.75
451.104	90.75
451.324	77.75
451.545	77.75
451.766	79.75
451.986	70.75
452.207	83.75
452.428	91.75
452.648	88.75
452.869	71.75
453.089	75.75
453.31	80.75
453.53	82.75
453.751	73.75
453.971	79.75
454.192	96.75
454.412	79.75
454.633	76.75
454.853	63.75
455.073	70.75
455.294	69.75
455.514	77.75
455.734	70.75
455.955	75.75
456.175	72.75
456.395	77.75
456.616	81.75
456.836	66.75
457.056	73.75
457.276	60.75
457.497	83.75
457.717	85.75
457.937	82.75
458.157	69.75
458.377	81.75
458.598	71.75
458.818	81.75
459.038	76.75
459.258	82.75
459.478	87.75
459.698	83.75
459.918	67.75
460.138	88.75
460.358	76.75
460.578	83.75
460.798	75.75
461.018	83.75
461.238	73.75
461.458	83.75
461.678	71.75
461.898	78.75
462.118	97.75
462.338	79.75
462.558	71.75
462.777	74.75
462.997	70.75
463.217	67.75
463.437	72.75
463.657	72.75
463.876	78.75
464.096	72.75
464.316	66.75
464.536	77.75
464.755	81.75
464.975	84.75
465.195	92.75
465.414	86.75
465.634	79.75
465.854	77.75
466.073	77.75
466.293	85.75
466.512	79.75
466.732	74.75
466.951	74.75
467.171	68.75
467.391	79.75
467.61	73.75
467.829	83.75
468.049	101.75
468.268	92.75
468.488	73.75
468.707	68.75
468.927	73.75
469.146	72.75
469.365	80.75
469.585	82.75
469.804	78.75
470.023	75.75
470.243	88.75
470.462	72.75
470.681	79.75
470.901	79.75
471.12	77.75
471.339	81.75
471.558	69.75
471.777	89.75
471.997	88.75
472.216	109.75
472.435	116.75
472.654	84.75
472.873	89.75
473.092	81.75
473.311	81.75
473.53	68.75
473.749	80.75
473.968	84.75
474.187	83.75
474.406	78.75
474.625	86.75
474.844	85.75
475.063	75.75
475.282	80.75
475.501	78.75
475.72	79.75
475.939	79.75
476.158	82.75
476.377	79.75
476.596	71.75
476.814	82.75
477.033	79.75
477.252	85.75
477.471	79.75
477.69	70.75
477.908	81.75
478.127	81.75
478.346	91.75
478.564	76.75
478.783	81.75
479.002	83.75
479.22	89.75
479.439	70.75
479.658	74.75
479.876	70.75
480.095	82.75
480.313	88.75
480.532	75.75
480.751	93.75
480.969	112.75
481.188	199.75
481.406	138.75
481.624	85.75
481.843	79.75
482.061	75.75
482.28	78.75
482.498	73.75
482.717	79.75
482.935	85.75
483.153	81.75
483.372	61.75
483.59	79.75
483.808	71.75
484.027	91.75
484.245	80.75
484.463	78.75
484.681	88.75
484.9	67.75
485.118	86.75
485.336	73.75
485.554	72.75
485.772	77.75
485.99	83.75
486.209	76.75
486.427	88.75
486.645	76.75
486.863	78.75
487.081	83.75
487.299	86.75
487.517	78.75
487.735	88.75
487.953	77.75
488.171	64.75
488.389	79.75
488.607	74.75
488.825	74.75
489.043	88.75
489.261	77.75
489.479	75.75
489.696	79.75
489.914	84.75
490.132	83.75
490.35	87.75
490.568	93.75
490.786	81.75
491.003	88.75
491.221	81.75
491.439	81.75
491.657	78.75
491.874	72.75
492.092	90.75
492.31	86.75
492.527	84.75
492.745	91.75
492.963	78.75
493.18	77.75
493.398	88.75
493.615	87.75
493.833	66.75
494.05	81.75
494.268	72.75
494.485	85.75
494.703	93.75
494.92	80.75
495.138	77.75
495.355	77.75
495.573	81.75
495.79	86.75
496.008	77.75
496.225	80.75
496.442	70.75
496.66	81.75
496.877	79.75
497.094	64.75
497.312	71.75
497.529	70.75
497.746	93.75
497.963	79.75
498.181	85.75
498.398	93.75
498.615	79.75
498.832	84.75
499.049	85.75
499.267	88.75
499.484	81.75
499.701	73.75
499.918	80.75
500.135	76.75
500.352	70.75
500.569	82.75
500.786	74.75
501.003	90.75
501.22	70.75
501.437	82.75
501.654	88.75
501.871	67.75
502.088	95.75
502.305	85.75
502.522	88.75
502.739	84.75
502.956	70.75
503.172	75.75
503.389	78.75
503.606	84.75
503.823	83.75
504.04	75.75
504.256	72.75
504.473	79.75
504.69	84.75
504.907	83.75
505.123	73.75
505.34	67.75
505.557	80.75
505.773	72.75
505.99	70.75
506.207	72.75
506.423	73.75
506.64	86.75
506.856	70.75
507.073	71.75
507.289	88.75
507.506	75.75
507.722	69.75
507.939	86.75
508.155	79.75
508.372	75.75
508.588	87.75
508.805	91.75
509.021	71.75
509.238	78.75
509.454	68.75
509.67	84.75
509.887	87.75
510.103	97.75
510.319	90.75
510.536	123.75
510.752	191.75
510.968	101.75
511.184	81.75
511.401	78.75
511.617	80.75
511.833	78.75
512.049	74.75
512.265	71.75
512.481	92.75
512.698	65.75
512.914	86.75
513.13	77.75
513.346	87.75
513.562	88.75
513.778	79.75
513.994	89.75
514.21	83.75
514.426	89.75
514.642	56.75
514.858	91.75
515.074	81.75
515.29	110.75
515.506	153.75
515.721	89.75
515.937	80.75
516.153	80.75
516.369	68.75
516.585	66.75
516.801	77.75
517.016	69.75
517.232	77.75
517.448	87.75
517.664	74.75
517.879	81.75
518.095	83.75
518.311	86.75
518.527	80.75
518.742	85.75
518.958	78.75
519.173	81.75
519.389	77.75
519.605	70.75
519.82	72.75
