Data from Penny_2_HRD10591_00016.txt Node
Date: Wed Nov 05 15:34:34 EST 2025
User: Yrep
Spectrometer: HR+D1059
Trigger mode: 1
Integration Time (sec): 1.000000E-1
Scans to average: 1
Electric dark correction enabled: true
Nonlinearity correction enabled: false
Boxcar width: 0
XAxis mode: Wavelengths
Number of Pixels in Spectrum: 2048
>>>>>Begin Spectral Data<<<<<
223.165	-22.25
223.4	-22.25
223.635	-22.25
223.869	-17.25
224.104	-12.25
224.338	-31.25
224.573	-6.25
224.808	-14.25
225.042	4.75
225.277	2.75
225.511	-10.25
225.746	-12.25
225.98	19.75
226.215	6.75
226.449	19.75
226.683	16.75
226.918	20.75
227.152	34.75
227.387	36.75
227.621	30.75
227.856	49.75
228.09	35.75
228.324	41.75
228.559	46.75
228.793	45.75
229.027	57.75
229.262	55.75
229.496	62.75
229.73	79.75
229.964	71.75
230.199	67.75
230.433	79.75
230.667	69.75
230.901	73.75
231.136	90.75
231.37	72.75
231.604	81.75
231.838	69.75
232.072	79.75
232.306	84.75
232.541	84.75
232.775	88.75
233.009	87.75
233.243	72.75
233.477	80.75
233.711	74.75
233.945	69.75
234.179	72.75
234.413	78.75
234.647	82.75
234.881	97.75
235.115	72.75
235.349	80.75
235.583	89.75
235.817	77.75
236.051	65.75
236.285	73.75
236.519	67.75
236.753	78.75
236.987	77.75
237.221	79.75
237.455	76.75
237.689	73.75
237.922	71.75
238.156	78.75
238.39	76.75
238.624	69.75
238.858	68.75
239.091	61.75
239.325	82.75
239.559	75.75
239.793	96.75
240.027	69.75
240.26	65.75
240.494	77.75
240.728	64.75
240.961	60.75
241.195	81.75
241.429	63.75
241.662	73.75
241.896	73.75
242.13	61.75
242.363	69.75
242.597	82.75
242.83	65.75
243.064	79.75
243.298	81.75
243.531	72.75
243.765	82.75
243.998	72.75
244.232	78.75
244.465	74.75
244.699	87.75
244.932	77.75
245.166	74.75
245.399	74.75
245.633	71.75
245.866	76.75
246.099	80.75
246.333	62.75
246.566	62.75
246.8	78.75
247.033	63.75
247.266	81.75
247.5	77.75
247.733	61.75
247.966	68.75
248.2	65.75
248.433	69.75
248.666	70.75
248.899	66.75
249.133	76.75
249.366	88.75
249.599	76.75
249.832	61.75
250.066	81.75
250.299	76.75
250.532	65.75
250.765	67.75
250.998	63.75
251.231	67.75
251.465	73.75
251.698	74.75
251.931	74.75
252.164	67.75
252.397	71.75
252.63	89.75
252.863	73.75
253.096	66.75
253.329	69.75
253.562	84.75
253.795	75.75
254.028	87.75
254.261	71.75
254.494	70.75
254.727	68.75
254.96	64.75
255.193	69.75
255.426	71.75
255.659	68.75
255.892	72.75
256.124	68.75
256.357	78.75
256.59	73.75
256.823	55.75
257.056	75.75
257.289	88.75
257.521	63.75
257.754	73.75
257.987	75.75
258.22	68.75
258.452	81.75
258.685	79.75
258.918	73.75
259.151	88.75
259.383	76.75
259.616	78.75
259.849	75.75
260.081	85.75
260.314	79.75
260.547	71.75
260.779	82.75
261.012	77.75
261.244	83.75
261.477	64.75
261.71	65.75
261.942	72.75
262.175	74.75
262.407	78.75
262.64	73.75
262.872	80.75
263.105	80.75
263.337	76.75
263.57	70.75
263.802	62.75
264.035	75.75
264.267	81.75
264.499	71.75
264.732	84.75
264.964	93.75
265.197	77.75
265.429	68.75
265.661	81.75
265.894	70.75
266.126	82.75
266.358	84.75
266.591	78.75
266.823	75.75
267.055	70.75
267.287	66.75
267.52	70.75
267.752	65.75
267.984	70.75
268.216	70.75
268.448	85.75
268.681	68.75
268.913	82.75
269.145	91.75
269.377	79.75
269.609	76.75
269.841	69.75
270.073	68.75
270.306	83.75
270.538	81.75
270.77	85.75
271.002	91.75
271.234	78.75
271.466	70.75
271.698	66.75
271.93	84.75
272.162	78.75
272.394	63.75
272.626	81.75
272.858	69.75
273.09	67.75
273.322	90.75
273.553	78.75
273.785	88.75
274.017	74.75
274.249	74.75
274.481	90.75
274.713	84.75
274.945	83.75
275.176	69.75
275.408	84.75
275.64	75.75
275.872	72.75
276.104	67.75
276.335	73.75
276.567	61.75
276.799	66.75
277.031	75.75
277.262	75.75
277.494	80.75
277.726	68.75
277.957	84.75
278.189	66.75
278.421	85.75
278.652	81.75
278.884	69.75
279.115	73.75
279.347	78.75
279.579	65.75
279.81	65.75
280.042	86.75
280.273	89.75
280.505	97.75
280.736	93.75
280.968	77.75
281.199	82.75
281.431	82.75
281.662	75.75
281.894	70.75
282.125	79.75
282.356	78.75
282.588	81.75
282.819	66.75
283.051	86.75
283.282	78.75
283.513	90.75
283.745	89.75
283.976	89.75
284.207	79.75
284.439	89.75
284.67	68.75
284.901	70.75
285.132	81.75
285.364	93.75
285.595	74.75
285.826	89.75
286.057	89.75
286.288	75.75
286.52	85.75
286.751	77.75
286.982	88.75
287.213	55.75
287.444	65.75
287.675	84.75
287.906	90.75
288.138	89.75
288.369	84.75
288.6	97.75
288.831	78.75
289.062	79.75
289.293	84.75
289.524	89.75
289.755	83.75
289.986	78.75
290.217	71.75
290.448	76.75
290.679	75.75
290.91	93.75
291.141	91.75
291.371	71.75
291.602	80.75
291.833	83.75
292.064	72.75
292.295	81.75
292.526	84.75
292.757	84.75
292.987	86.75
293.218	89.75
293.449	72.75
293.68	74.75
293.91	73.75
294.141	81.75
294.372	59.75
294.603	81.75
294.833	74.75
295.064	67.75
295.295	80.75
295.525	75.75
295.756	73.75
295.987	94.75
296.217	81.75
296.448	87.75
296.679	83.75
296.909	74.75
297.14	86.75
297.37	78.75
297.601	75.75
297.831	93.75
298.062	75.75
298.292	75.75
298.523	67.75
298.753	81.75
298.984	93.75
299.214	85.75
299.445	81.75
299.675	83.75
299.905	95.75
300.136	91.75
300.366	79.75
300.597	87.75
300.827	82.75
301.057	68.75
301.288	87.75
301.518	75.75
301.748	73.75
301.979	88.75
302.209	82.75
302.439	89.75
302.669	79.75
302.9	71.75
303.13	78.75
303.36	92.75
303.59	71.75
303.82	76.75
304.051	89.75
304.281	93.75
304.511	89.75
304.741	94.75
304.971	78.75
305.201	70.75
305.431	72.75
305.661	80.75
305.891	79.75
306.121	80.75
306.352	75.75
306.582	79.75
306.812	86.75
307.042	98.75
307.272	74.75
307.502	86.75
307.731	77.75
307.961	73.75
308.191	81.75
308.421	89.75
308.651	81.75
308.881	76.75
309.111	80.75
309.341	71.75
309.571	71.75
309.8	75.75
310.03	85.75
310.26	85.75
310.49	79.75
310.72	89.75
310.949	81.75
311.179	99.75
311.409	73.75
311.639	66.75
311.868	85.75
312.098	79.75
312.328	70.75
312.557	76.75
312.787	74.75
313.017	80.75
313.246	88.75
313.476	85.75
313.706	74.75
313.935	62.75
314.165	78.75
314.394	80.75
314.624	73.75
314.853	82.75
315.083	92.75
315.312	74.75
315.542	78.75
315.771	81.75
316.001	78.75
316.23	77.75
316.46	80.75
316.689	88.75
316.919	86.75
317.148	81.75
317.377	79.75
317.607	80.75
317.836	72.75
318.065	81.75
318.295	91.75
318.524	76.75
318.753	76.75
318.983	81.75
319.212	73.75
319.441	93.75
319.67	68.75
319.9	76.75
320.129	82.75
320.358	74.75
320.587	86.75
320.816	90.75
321.046	68.75
321.275	83.75
321.504	76.75
321.733	80.75
321.962	73.75
322.191	93.75
322.42	86.75
322.649	82.75
322.878	96.75
323.108	77.75
323.337	74.75
323.566	78.75
323.795	88.75
324.024	96.75
324.253	104.75
324.482	97.75
324.71	135.75
324.939	137.75
325.168	105.75
325.397	72.75
325.626	84.75
325.855	84.75
326.084	87.75
326.313	71.75
326.542	79.75
326.77	91.75
326.999	91.75
327.228	116.75
327.457	119.75
327.686	102.75
327.914	88.75
328.143	97.75
328.372	100.75
328.6	75.75
328.829	73.75
329.058	66.75
329.287	83.75
329.515	95.75
329.744	98.75
329.972	104.75
330.201	122.75
330.43	109.75
330.658	90.75
330.887	102.75
331.115	88.75
331.344	79.75
331.572	92.75
331.801	94.75
332.03	76.75
332.258	76.75
332.486	81.75
332.715	67.75
332.943	78.75
333.172	67.75
333.4	73.75
333.629	81.75
333.857	90.75
334.085	94.75
334.314	88.75
334.542	123.75
334.771	114.75
334.999	80.75
335.227	69.75
335.455	75.75
335.684	88.75
335.912	62.75
336.14	81.75
336.369	72.75
336.597	80.75
336.825	77.75
337.053	81.75
337.281	80.75
337.51	73.75
337.738	78.75
337.966	85.75
338.194	78.75
338.422	75.75
338.65	91.75
338.878	72.75
339.106	95.75
339.334	79.75
339.562	81.75
339.79	93.75
340.018	66.75
340.246	87.75
340.474	85.75
340.702	82.75
340.93	88.75
341.158	75.75
341.386	95.75
341.614	75.75
341.842	73.75
342.07	78.75
342.298	74.75
342.526	70.75
342.754	74.75
342.981	73.75
343.209	83.75
343.437	86.75
343.665	86.75
343.893	74.75
344.12	81.75
344.348	82.75
344.576	104.75
344.804	85.75
345.031	72.75
345.259	77.75
345.487	86.75
345.714	85.75
345.942	85.75
346.17	80.75
346.397	83.75
346.625	89.75
346.853	66.75
347.08	86.75
347.308	85.75
347.535	72.75
347.763	85.75
347.99	82.75
348.218	83.75
348.445	73.75
348.673	75.75
348.9	76.75
349.128	87.75
349.355	66.75
349.583	69.75
349.81	100.75
350.037	85.75
350.265	82.75
350.492	82.75
350.72	81.75
350.947	78.75
351.174	74.75
351.402	80.75
351.629	72.75
351.856	71.75
352.083	77.75
352.311	79.75
352.538	85.75
352.765	82.75
352.992	83.75
353.22	69.75
353.447	69.75
353.674	84.75
353.901	72.75
354.128	81.75
354.355	87.75
354.583	80.75
354.81	75.75
355.037	85.75
355.264	73.75
355.491	75.75
355.718	68.75
355.945	75.75
356.172	76.75
356.399	82.75
356.626	86.75
356.853	85.75
357.08	68.75
357.307	74.75
357.534	93.75
357.761	78.75
357.988	90.75
358.215	83.75
358.441	95.75
358.668	65.75
358.895	88.75
359.122	80.75
359.349	70.75
359.576	67.75
359.802	79.75
360.029	75.75
360.256	85.75
360.483	67.75
360.709	85.75
360.936	75.75
361.163	74.75
361.39	73.75
361.616	71.75
361.843	85.75
362.07	72.75
362.296	79.75
362.523	81.75
362.749	68.75
362.976	92.75
363.203	83.75
363.429	75.75
363.656	75.75
363.882	78.75
364.109	90.75
364.335	87.75
364.562	70.75
364.788	76.75
365.015	81.75
365.241	72.75
365.468	78.75
365.694	79.75
365.92	82.75
366.147	75.75
366.373	68.75
366.599	63.75
366.826	77.75
367.052	80.75
367.278	78.75
367.505	82.75
367.731	100.75
367.957	74.75
368.184	77.75
368.41	73.75
368.636	73.75
368.862	87.75
369.089	81.75
369.315	80.75
369.541	72.75
369.767	94.75
369.993	62.75
370.219	73.75
370.445	85.75
370.672	82.75
370.898	65.75
371.124	83.75
371.35	70.75
371.576	77.75
371.802	89.75
372.028	65.75
372.254	74.75
372.48	84.75
372.706	93.75
372.932	79.75
373.158	83.75
373.384	77.75
373.61	90.75
373.835	87.75
374.061	85.75
374.287	85.75
374.513	90.75
374.739	76.75
374.965	90.75
375.191	78.75
375.416	87.75
375.642	97.75
375.868	77.75
376.094	79.75
376.319	80.75
376.545	73.75
376.771	85.75
376.997	75.75
377.222	85.75
377.448	73.75
377.674	79.75
377.899	93.75
378.125	67.75
378.35	78.75
378.576	60.75
378.802	71.75
379.027	84.75
379.253	77.75
379.478	75.75
379.704	81.75
379.929	86.75
380.155	71.75
380.38	86.75
380.606	73.75
380.831	75.75
381.057	92.75
381.282	84.75
381.507	78.75
381.733	80.75
381.958	67.75
382.184	85.75
382.409	85.75
382.634	98.75
382.86	81.75
383.085	92.75
383.31	81.75
383.535	85.75
383.761	103.75
383.986	70.75
384.211	76.75
384.436	88.75
384.662	69.75
384.887	73.75
385.112	82.75
385.337	72.75
385.562	79.75
385.787	76.75
386.013	85.75
386.238	87.75
386.463	75.75
386.688	74.75
386.913	79.75
387.138	83.75
387.363	78.75
387.588	68.75
387.813	85.75
388.038	77.75
388.263	78.75
388.488	77.75
388.713	72.75
388.938	63.75
389.163	81.75
389.387	75.75
389.612	74.75
389.837	86.75
390.062	79.75
390.287	71.75
390.512	79.75
390.736	75.75
390.961	75.75
391.186	70.75
391.411	77.75
391.636	90.75
391.86	72.75
392.085	94.75
392.31	66.75
392.534	84.75
392.759	92.75
392.984	94.75
393.208	87.75
393.433	86.75
393.658	72.75
393.882	81.75
394.107	72.75
394.331	72.75
394.556	79.75
394.78	73.75
395.005	74.75
395.229	80.75
395.454	81.75
395.678	80.75
395.903	85.75
396.127	85.75
396.352	77.75
396.576	82.75
396.801	93.75
397.025	74.75
397.249	87.75
397.474	71.75
397.698	82.75
397.922	86.75
398.147	70.75
398.371	74.75
398.595	76.75
398.82	93.75
399.044	73.75
399.268	76.75
399.492	67.75
399.717	81.75
399.941	79.75
400.165	82.75
400.389	75.75
400.613	65.75
400.837	89.75
401.062	74.75
401.286	76.75
401.51	72.75
401.734	77.75
401.958	92.75
402.182	75.75
402.406	81.75
402.63	75.75
402.854	89.75
403.078	68.75
403.302	71.75
403.526	75.75
403.75	69.75
403.974	75.75
404.198	71.75
404.422	74.75
404.645	82.75
404.869	86.75
405.093	81.75
405.317	92.75
405.541	78.75
405.765	85.75
405.988	78.75
406.212	81.75
406.436	81.75
406.66	86.75
406.883	89.75
407.107	71.75
407.331	76.75
407.555	76.75
407.778	74.75
408.002	79.75
408.226	69.75
408.449	72.75
408.673	79.75
408.896	77.75
409.12	87.75
409.344	90.75
409.567	78.75
409.791	66.75
410.014	81.75
410.238	77.75
410.461	80.75
410.685	86.75
410.908	85.75
411.132	88.75
411.355	81.75
411.578	86.75
411.802	84.75
412.025	86.75
412.249	84.75
412.472	83.75
412.695	92.75
412.919	72.75
413.142	76.75
413.365	84.75
413.589	68.75
413.812	73.75
414.035	74.75
414.258	83.75
414.482	71.75
414.705	73.75
414.928	81.75
415.151	74.75
415.374	79.75
415.597	71.75
415.821	77.75
416.044	87.75
416.267	73.75
416.49	85.75
416.713	65.75
416.936	87.75
417.159	87.75
417.382	75.75
417.605	86.75
417.828	70.75
418.051	72.75
418.274	84.75
418.497	86.75
418.72	73.75
418.943	64.75
419.166	82.75
419.389	68.75
419.611	80.75
419.834	77.75
420.057	74.75
420.28	81.75
420.503	85.75
420.726	93.75
420.948	66.75
421.171	74.75
421.394	77.75
421.617	69.75
421.839	68.75
422.062	89.75
422.285	75.75
422.507	79.75
422.73	84.75
422.953	65.75
423.175	72.75
423.398	71.75
423.621	86.75
423.843	81.75
424.066	81.75
424.288	64.75
424.511	94.75
424.733	68.75
424.956	66.75
425.178	97.75
425.401	74.75
425.623	82.75
425.846	88.75
426.068	80.75
426.291	82.75
426.513	89.75
426.735	82.75
426.958	61.75
427.18	83.75
427.402	66.75
427.625	84.75
427.847	73.75
428.069	84.75
428.292	73.75
428.514	81.75
428.736	66.75
428.958	94.75
429.181	75.75
429.403	89.75
429.625	86.75
429.847	71.75
430.069	78.75
430.292	66.75
430.514	78.75
430.736	62.75
430.958	76.75
431.18	78.75
431.402	69.75
431.624	74.75
431.846	87.75
432.068	74.75
432.29	88.75
432.512	86.75
432.734	76.75
432.956	79.75
433.178	86.75
433.4	80.75
433.622	73.75
433.844	81.75
434.066	79.75
434.287	70.75
434.509	80.75
434.731	83.75
434.953	69.75
435.175	81.75
435.397	95.75
435.618	92.75
435.84	71.75
436.062	79.75
436.284	71.75
436.505	80.75
436.727	79.75
436.949	84.75
437.17	78.75
437.392	87.75
437.614	73.75
437.835	80.75
438.057	81.75
438.278	86.75
438.5	89.75
438.721	79.75
438.943	76.75
439.165	78.75
439.386	70.75
439.608	65.75
439.829	81.75
440.05	98.75
440.272	85.75
440.493	74.75
440.715	70.75
440.936	78.75
441.158	87.75
441.379	73.75
441.6	74.75
441.822	84.75
442.043	90.75
442.264	76.75
442.486	83.75
442.707	81.75
442.928	74.75
443.149	75.75
443.371	82.75
443.592	72.75
443.813	85.75
444.034	74.75
444.255	65.75
444.476	81.75
444.698	84.75
444.919	83.75
445.14	161.75
445.361	125.75
445.582	78.75
445.803	79.75
446.024	83.75
446.245	91.75
446.466	74.75
446.687	69.75
446.908	64.75
447.129	73.75
447.35	87.75
447.571	85.75
447.792	75.75
448.013	79.75
448.234	74.75
448.455	83.75
448.675	85.75
448.896	85.75
449.117	90.75
449.338	85.75
449.559	72.75
449.779	77.75
450	73.75
450.221	91.75
450.442	87.75
450.662	69.75
450.883	80.75
451.104	89.75
451.324	102.75
451.545	68.75
451.766	75.75
451.986	68.75
452.207	77.75
452.428	81.75
452.648	85.75
452.869	85.75
453.089	90.75
453.31	75.75
453.53	68.75
453.751	74.75
453.971	85.75
454.192	82.75
454.412	83.75
454.633	63.75
454.853	74.75
455.073	83.75
455.294	81.75
455.514	84.75
455.734	84.75
455.955	75.75
456.175	67.75
456.395	81.75
456.616	75.75
456.836	74.75
457.056	78.75
457.276	79.75
457.497	85.75
457.717	79.75
457.937	85.75
458.157	83.75
458.377	75.75
458.598	81.75
458.818	91.75
459.038	76.75
459.258	69.75
459.478	79.75
459.698	75.75
459.918	77.75
460.138	73.75
460.358	65.75
460.578	79.75
460.798	78.75
461.018	66.75
461.238	73.75
461.458	86.75
461.678	74.75
461.898	68.75
462.118	81.75
462.338	93.75
462.558	71.75
462.777	83.75
462.997	89.75
463.217	66.75
463.437	68.75
463.657	69.75
463.876	79.75
464.096	81.75
464.316	82.75
464.536	74.75
464.755	68.75
464.975	67.75
465.195	78.75
465.414	83.75
465.634	84.75
465.854	83.75
466.073	68.75
466.293	75.75
466.512	74.75
466.732	95.75
466.951	81.75
467.171	84.75
467.391	89.75
467.61	81.75
467.829	86.75
468.049	99.75
468.268	87.75
468.488	80.75
468.707	79.75
468.927	92.75
469.146	89.75
469.365	89.75
469.585	71.75
469.804	76.75
470.023	77.75
470.243	82.75
470.462	79.75
470.681	92.75
470.901	66.75
471.12	87.75
471.339	81.75
471.558	87.75
471.777	85.75
471.997	91.75
472.216	127.75
472.435	153.75
472.654	93.75
472.873	91.75
473.092	79.75
473.311	70.75
473.53	81.75
473.749	75.75
473.968	74.75
474.187	87.75
474.406	69.75
474.625	74.75
474.844	73.75
475.063	71.75
475.282	71.75
475.501	80.75
475.72	70.75
475.939	77.75
476.158	89.75
476.377	76.75
476.596	87.75
476.814	80.75
477.033	83.75
477.252	84.75
477.471	83.75
477.69	87.75
477.908	76.75
478.127	90.75
478.346	71.75
478.564	73.75
478.783	88.75
479.002	86.75
479.22	65.75
479.439	72.75
479.658	90.75
479.876	93.75
480.095	90.75
480.313	85.75
480.532	85.75
480.751	103.75
480.969	128.75
481.188	229.75
481.406	141.75
481.624	85.75
481.843	84.75
482.061	68.75
482.28	86.75
482.498	105.75
482.717	75.75
482.935	84.75
483.153	73.75
483.372	93.75
483.59	64.75
483.808	78.75
484.027	73.75
484.245	81.75
484.463	71.75
484.681	84.75
484.9	83.75
485.118	78.75
485.336	88.75
485.554	79.75
485.772	61.75
485.99	92.75
486.209	89.75
486.427	66.75
486.645	79.75
486.863	76.75
487.081	76.75
487.299	86.75
487.517	75.75
487.735	79.75
487.953	85.75
488.171	75.75
488.389	89.75
488.607	94.75
488.825	73.75
489.043	81.75
489.261	65.75
489.479	79.75
489.696	85.75
489.914	94.75
490.132	77.75
490.35	79.75
490.568	65.75
490.786	79.75
491.003	93.75
491.221	74.75
491.439	77.75
491.657	97.75
491.874	86.75
492.092	86.75
492.31	83.75
492.527	85.75
492.745	81.75
492.963	89.75
493.18	93.75
493.398	81.75
493.615	80.75
493.833	78.75
494.05	74.75
494.268	86.75
494.485	85.75
494.703	76.75
494.92	75.75
495.138	87.75
495.355	79.75
495.573	74.75
495.79	79.75
496.008	90.75
496.225	71.75
496.442	76.75
496.66	69.75
496.877	87.75
497.094	84.75
497.312	85.75
497.529	91.75
497.746	86.75
497.963	95.75
498.181	79.75
498.398	82.75
498.615	87.75
498.832	73.75
499.049	90.75
499.267	66.75
499.484	80.75
499.701	81.75
499.918	91.75
500.135	92.75
500.352	74.75
500.569	77.75
500.786	72.75
501.003	87.75
501.22	82.75
501.437	80.75
501.654	69.75
501.871	67.75
502.088	65.75
502.305	95.75
502.522	79.75
502.739	78.75
502.956	96.75
503.172	73.75
503.389	81.75
503.606	73.75
503.823	78.75
504.04	89.75
504.256	85.75
504.473	81.75
504.69	88.75
504.907	81.75
505.123	78.75
505.34	77.75
505.557	71.75
505.773	74.75
505.99	88.75
506.207	74.75
506.423	74.75
506.64	67.75
506.856	54.75
507.073	69.75
507.289	71.75
507.506	84.75
507.722	83.75
507.939	81.75
508.155	74.75
508.372	84.75
508.588	67.75
508.805	73.75
509.021	90.75
509.238	81.75
509.454	86.75
509.67	93.75
509.887	84.75
510.103	76.75
510.319	95.75
510.536	138.75
510.752	198.75
510.968	110.75
511.184	86.75
511.401	75.75
511.617	97.75
511.833	68.75
512.049	77.75
512.265	79.75
512.481	86.75
512.698	83.75
512.914	71.75
513.13	79.75
513.346	73.75
513.562	83.75
513.778	89.75
513.994	80.75
514.21	90.75
514.426	85.75
514.642	81.75
514.858	89.75
515.074	110.75
515.29	137.75
515.506	169.75
515.721	123.75
515.937	83.75
516.153	85.75
516.369	69.75
516.585	86.75
516.801	81.75
517.016	83.75
517.232	71.75
517.448	69.75
517.664	83.75
517.879	85.75
518.095	83.75
518.311	70.75
518.527	67.75
518.742	75.75
518.958	87.75
519.173	79.75
519.389	76.75
519.605	81.75
519.82	72.75
