Data from Penny_2_HRD10591_00007.txt Node
Date: Wed Nov 05 15:34:30 EST 2025
User: Yrep
Spectrometer: HR+D1059
Trigger mode: 1
Integration Time (sec): 1.000000E-1
Scans to average: 1
Electric dark correction enabled: true
Nonlinearity correction enabled: false
Boxcar width: 0
XAxis mode: Wavelengths
Number of Pixels in Spectrum: 2048
>>>>>Begin Spectral Data<<<<<
223.165	-15.31
223.4	-15.31
223.635	-15.31
223.869	-18.31
224.104	-12.31
224.338	-28.31
224.573	3.69
224.808	-9.31
225.042	-19.31
225.277	-6.31
225.511	2.69
225.746	12.69
225.98	2.69
226.215	10.69
226.449	16.69
226.683	11.69
226.918	19.69
227.152	28.69
227.387	28.69
227.621	38.69
227.856	47.69
228.09	43.69
228.324	59.69
228.559	49.69
228.793	58.69
229.027	55.69
229.262	61.69
229.496	55.69
229.73	71.69
229.964	75.69
230.199	76.69
230.433	68.69
230.667	75.69
230.901	69.69
231.136	76.69
231.37	61.69
231.604	77.69
231.838	89.69
232.072	77.69
232.306	82.69
232.541	101.69
232.775	75.69
233.009	88.69
233.243	82.69
233.477	74.69
233.711	84.69
233.945	72.69
234.179	85.69
234.413	71.69
234.647	73.69
234.881	84.69
235.115	77.69
235.349	98.69
235.583	87.69
235.817	82.69
236.051	80.69
236.285	81.69
236.519	86.69
236.753	75.69
236.987	73.69
237.221	80.69
237.455	78.69
237.689	74.69
237.922	77.69
238.156	73.69
238.39	69.69
238.624	78.69
238.858	75.69
239.091	70.69
239.325	91.69
239.559	63.69
239.793	70.69
240.027	85.69
240.26	69.69
240.494	83.69
240.728	73.69
240.961	85.69
241.195	84.69
241.429	83.69
241.662	68.69
241.896	73.69
242.13	85.69
242.363	63.69
242.597	77.69
242.83	76.69
243.064	81.69
243.298	77.69
243.531	71.69
243.765	78.69
243.998	77.69
244.232	83.69
244.465	81.69
244.699	68.69
244.932	74.69
245.166	65.69
245.399	79.69
245.633	89.69
245.866	84.69
246.099	81.69
246.333	93.69
246.566	74.69
246.8	80.69
247.033	73.69
247.266	81.69
247.5	61.69
247.733	82.69
247.966	79.69
248.2	74.69
248.433	81.69
248.666	81.69
248.899	80.69
249.133	80.69
249.366	65.69
249.599	67.69
249.832	82.69
250.066	78.69
250.299	64.69
250.532	77.69
250.765	73.69
250.998	76.69
251.231	83.69
251.465	87.69
251.698	90.69
251.931	77.69
252.164	79.69
252.397	75.69
252.63	83.69
252.863	77.69
253.096	73.69
253.329	87.69
253.562	85.69
253.795	95.69
254.028	68.69
254.261	89.69
254.494	75.69
254.727	89.69
254.96	93.69
255.193	69.69
255.426	74.69
255.659	83.69
255.892	73.69
256.124	66.69
256.357	93.69
256.59	89.69
256.823	83.69
257.056	76.69
257.289	82.69
257.521	83.69
257.754	74.69
257.987	83.69
258.22	61.69
258.452	68.69
258.685	80.69
258.918	76.69
259.151	75.69
259.383	85.69
259.616	67.69
259.849	88.69
260.081	81.69
260.314	83.69
260.547	63.69
260.779	85.69
261.012	83.69
261.244	71.69
261.477	87.69
261.71	90.69
261.942	78.69
262.175	73.69
262.407	83.69
262.64	75.69
262.872	89.69
263.105	65.69
263.337	87.69
263.57	79.69
263.802	91.69
264.035	80.69
264.267	66.69
264.499	71.69
264.732	90.69
264.964	80.69
265.197	68.69
265.429	92.69
265.661	79.69
265.894	101.69
266.126	88.69
266.358	77.69
266.591	76.69
266.823	88.69
267.055	90.69
267.287	82.69
267.52	80.69
267.752	80.69
267.984	87.69
268.216	83.69
268.448	81.69
268.681	75.69
268.913	80.69
269.145	79.69
269.377	88.69
269.609	81.69
269.841	71.69
270.073	82.69
270.306	83.69
270.538	85.69
270.77	88.69
271.002	69.69
271.234	78.69
271.466	77.69
271.698	88.69
271.93	77.69
272.162	84.69
272.394	91.69
272.626	73.69
272.858	83.69
273.09	84.69
273.322	89.69
273.553	69.69
273.785	73.69
274.017	74.69
274.249	71.69
274.481	89.69
274.713	79.69
274.945	77.69
275.176	82.69
275.408	84.69
275.64	79.69
275.872	77.69
276.104	78.69
276.335	81.69
276.567	78.69
276.799	93.69
277.031	109.69
277.262	83.69
277.494	83.69
277.726	82.69
277.957	88.69
278.189	86.69
278.421	85.69
278.652	99.69
278.884	86.69
279.115	95.69
279.347	85.69
279.579	80.69
279.81	90.69
280.042	93.69
280.273	86.69
280.505	81.69
280.736	72.69
280.968	91.69
281.199	77.69
281.431	91.69
281.662	85.69
281.894	83.69
282.125	79.69
282.356	76.69
282.588	82.69
282.819	96.69
283.051	100.69
283.282	98.69
283.513	84.69
283.745	79.69
283.976	95.69
284.207	92.69
284.439	83.69
284.67	80.69
284.901	82.69
285.132	89.69
285.364	86.69
285.595	73.69
285.826	81.69
286.057	74.69
286.288	81.69
286.52	87.69
286.751	89.69
286.982	82.69
287.213	80.69
287.444	78.69
287.675	88.69
287.906	85.69
288.138	85.69
288.369	80.69
288.6	83.69
288.831	82.69
289.062	92.69
289.293	85.69
289.524	92.69
289.755	82.69
289.986	84.69
290.217	95.69
290.448	89.69
290.679	74.69
290.91	84.69
291.141	84.69
291.371	80.69
291.602	95.69
291.833	81.69
292.064	94.69
292.295	99.69
292.526	86.69
292.757	93.69
292.987	85.69
293.218	65.69
293.449	67.69
293.68	76.69
293.91	77.69
294.141	90.69
294.372	76.69
294.603	76.69
294.833	83.69
295.064	63.69
295.295	86.69
295.525	86.69
295.756	75.69
295.987	91.69
296.217	76.69
296.448	88.69
296.679	91.69
296.909	78.69
297.14	87.69
297.37	73.69
297.601	85.69
297.831	79.69
298.062	90.69
298.292	72.69
298.523	92.69
298.753	92.69
298.984	94.69
299.214	85.69
299.445	86.69
299.675	82.69
299.905	89.69
300.136	73.69
300.366	78.69
300.597	97.69
300.827	77.69
301.057	94.69
301.288	79.69
301.518	85.69
301.748	92.69
301.979	107.69
302.209	92.69
302.439	88.69
302.669	74.69
302.9	78.69
303.13	77.69
303.36	86.69
303.59	95.69
303.82	78.69
304.051	79.69
304.281	84.69
304.511	93.69
304.741	75.69
304.971	86.69
305.201	93.69
305.431	92.69
305.661	76.69
305.891	93.69
306.121	90.69
306.352	91.69
306.582	81.69
306.812	72.69
307.042	75.69
307.272	87.69
307.502	90.69
307.731	81.69
307.961	74.69
308.191	75.69
308.421	85.69
308.651	79.69
308.881	75.69
309.111	91.69
309.341	87.69
309.571	76.69
309.8	81.69
310.03	92.69
310.26	84.69
310.49	88.69
310.72	77.69
310.949	76.69
311.179	85.69
311.409	77.69
311.639	79.69
311.868	98.69
312.098	82.69
312.328	77.69
312.557	84.69
312.787	85.69
313.017	66.69
313.246	91.69
313.476	76.69
313.706	86.69
313.935	88.69
314.165	92.69
314.394	83.69
314.624	84.69
314.853	88.69
315.083	72.69
315.312	80.69
315.542	87.69
315.771	83.69
316.001	83.69
316.23	83.69
316.46	72.69
316.689	84.69
316.919	83.69
317.148	76.69
317.377	72.69
317.607	85.69
317.836	81.69
318.065	89.69
318.295	82.69
318.524	83.69
318.753	70.69
318.983	71.69
319.212	82.69
319.441	88.69
319.67	80.69
319.9	83.69
320.129	95.69
320.358	71.69
320.587	79.69
320.816	85.69
321.046	98.69
321.275	76.69
321.504	99.69
321.733	77.69
321.962	85.69
322.191	93.69
322.42	76.69
322.649	76.69
322.878	86.69
323.108	84.69
323.337	83.69
323.566	87.69
323.795	81.69
324.024	83.69
324.253	111.69
324.482	115.69
324.71	132.69
324.939	151.69
325.168	101.69
325.397	98.69
325.626	89.69
325.855	72.69
326.084	77.69
326.313	84.69
326.542	83.69
326.77	78.69
326.999	99.69
327.228	121.69
327.457	140.69
327.686	116.69
327.914	101.69
328.143	102.69
328.372	97.69
328.6	89.69
328.829	84.69
329.058	85.69
329.287	95.69
329.515	79.69
329.744	89.69
329.972	84.69
330.201	127.69
330.43	108.69
330.658	97.69
330.887	100.69
331.115	77.69
331.344	96.69
331.572	91.69
331.801	89.69
332.03	87.69
332.258	98.69
332.486	86.69
332.715	83.69
332.943	87.69
333.172	80.69
333.4	98.69
333.629	97.69
333.857	82.69
334.085	107.69
334.314	109.69
334.542	139.69
334.771	103.69
334.999	79.69
335.227	80.69
335.455	66.69
335.684	75.69
335.912	84.69
336.14	87.69
336.369	82.69
336.597	93.69
336.825	78.69
337.053	84.69
337.281	89.69
337.51	82.69
337.738	95.69
337.966	87.69
338.194	84.69
338.422	77.69
338.65	85.69
338.878	84.69
339.106	89.69
339.334	67.69
339.562	79.69
339.79	83.69
340.018	87.69
340.246	78.69
340.474	83.69
340.702	88.69
340.93	90.69
341.158	76.69
341.386	77.69
341.614	86.69
341.842	100.69
342.07	74.69
342.298	74.69
342.526	86.69
342.754	79.69
342.981	87.69
343.209	87.69
343.437	92.69
343.665	90.69
343.893	83.69
344.12	91.69
344.348	76.69
344.576	77.69
344.804	86.69
345.031	76.69
345.259	76.69
345.487	85.69
345.714	77.69
345.942	74.69
346.17	83.69
346.397	69.69
346.625	84.69
346.853	83.69
347.08	78.69
347.308	82.69
347.535	76.69
347.763	89.69
347.99	78.69
348.218	86.69
348.445	71.69
348.673	83.69
348.9	92.69
349.128	77.69
349.355	83.69
349.583	80.69
349.81	86.69
350.037	92.69
350.265	88.69
350.492	68.69
350.72	83.69
350.947	75.69
351.174	84.69
351.402	83.69
351.629	82.69
351.856	78.69
352.083	73.69
352.311	76.69
352.538	79.69
352.765	75.69
352.992	81.69
353.22	69.69
353.447	87.69
353.674	80.69
353.901	95.69
354.128	91.69
354.355	93.69
354.583	75.69
354.81	87.69
355.037	71.69
355.264	76.69
355.491	64.69
355.718	78.69
355.945	87.69
356.172	86.69
356.399	72.69
356.626	76.69
356.853	91.69
357.08	84.69
357.307	81.69
357.534	95.69
357.761	84.69
357.988	95.69
358.215	87.69
358.441	74.69
358.668	87.69
358.895	84.69
359.122	73.69
359.349	76.69
359.576	98.69
359.802	83.69
360.029	81.69
360.256	65.69
360.483	77.69
360.709	71.69
360.936	77.69
361.163	80.69
361.39	81.69
361.616	83.69
361.843	67.69
362.07	85.69
362.296	69.69
362.523	84.69
362.749	87.69
362.976	80.69
363.203	97.69
363.429	91.69
363.656	89.69
363.882	73.69
364.109	85.69
364.335	90.69
364.562	84.69
364.788	85.69
365.015	84.69
365.241	78.69
365.468	87.69
365.694	83.69
365.92	90.69
366.147	81.69
366.373	82.69
366.599	89.69
366.826	63.69
367.052	89.69
367.278	89.69
367.505	87.69
367.731	92.69
367.957	81.69
368.184	82.69
368.41	97.69
368.636	96.69
368.862	84.69
369.089	83.69
369.315	83.69
369.541	91.69
369.767	77.69
369.993	77.69
370.219	78.69
370.445	70.69
370.672	83.69
370.898	91.69
371.124	89.69
371.35	93.69
371.576	88.69
371.802	82.69
372.028	96.69
372.254	84.69
372.48	82.69
372.706	74.69
372.932	89.69
373.158	83.69
373.384	82.69
373.61	85.69
373.835	86.69
374.061	85.69
374.287	91.69
374.513	79.69
374.739	77.69
374.965	77.69
375.191	82.69
375.416	83.69
375.642	75.69
375.868	91.69
376.094	87.69
376.319	75.69
376.545	79.69
376.771	95.69
376.997	80.69
377.222	105.69
377.448	81.69
377.674	71.69
377.899	86.69
378.125	96.69
378.35	79.69
378.576	76.69
378.802	95.69
379.027	77.69
379.253	79.69
379.478	81.69
379.704	78.69
379.929	87.69
380.155	73.69
380.38	78.69
380.606	94.69
380.831	84.69
381.057	73.69
381.282	78.69
381.507	84.69
381.733	87.69
381.958	69.69
382.184	87.69
382.409	78.69
382.634	73.69
382.86	76.69
383.085	84.69
383.31	73.69
383.535	81.69
383.761	82.69
383.986	74.69
384.211	80.69
384.436	78.69
384.662	80.69
384.887	70.69
385.112	85.69
385.337	67.69
385.562	98.69
385.787	79.69
386.013	85.69
386.238	88.69
386.463	74.69
386.688	98.69
386.913	81.69
387.138	80.69
387.363	76.69
387.588	73.69
387.813	82.69
388.038	81.69
388.263	92.69
388.488	73.69
388.713	82.69
388.938	73.69
389.163	75.69
389.387	83.69
389.612	75.69
389.837	76.69
390.062	87.69
390.287	92.69
390.512	79.69
390.736	76.69
390.961	77.69
391.186	77.69
391.411	86.69
391.636	81.69
391.86	83.69
392.085	81.69
392.31	80.69
392.534	66.69
392.759	86.69
392.984	83.69
393.208	74.69
393.433	93.69
393.658	78.69
393.882	73.69
394.107	75.69
394.331	84.69
394.556	93.69
394.78	84.69
395.005	89.69
395.229	78.69
395.454	73.69
395.678	87.69
395.903	63.69
396.127	85.69
396.352	77.69
396.576	91.69
396.801	83.69
397.025	80.69
397.249	91.69
397.474	87.69
397.698	88.69
397.922	85.69
398.147	100.69
398.371	87.69
398.595	72.69
398.82	82.69
399.044	83.69
399.268	72.69
399.492	85.69
399.717	90.69
399.941	90.69
400.165	67.69
400.389	74.69
400.613	69.69
400.837	85.69
401.062	89.69
401.286	81.69
401.51	87.69
401.734	78.69
401.958	90.69
402.182	74.69
402.406	83.69
402.63	84.69
402.854	83.69
403.078	87.69
403.302	67.69
403.526	91.69
403.75	88.69
403.974	77.69
404.198	77.69
404.422	72.69
404.645	92.69
404.869	83.69
405.093	91.69
405.317	85.69
405.541	83.69
405.765	78.69
405.988	93.69
406.212	90.69
406.436	83.69
406.66	82.69
406.883	75.69
407.107	81.69
407.331	76.69
407.555	82.69
407.778	83.69
408.002	83.69
408.226	83.69
408.449	86.69
408.673	91.69
408.896	82.69
409.12	84.69
409.344	87.69
409.567	76.69
409.791	92.69
410.014	90.69
410.238	77.69
410.461	67.69
410.685	76.69
410.908	79.69
411.132	84.69
411.355	80.69
411.578	74.69
411.802	76.69
412.025	85.69
412.249	67.69
412.472	81.69
412.695	95.69
412.919	89.69
413.142	73.69
413.365	77.69
413.589	72.69
413.812	75.69
414.035	92.69
414.258	87.69
414.482	75.69
414.705	74.69
414.928	92.69
415.151	73.69
415.374	89.69
415.597	80.69
415.821	93.69
416.044	86.69
416.267	84.69
416.49	85.69
416.713	85.69
416.936	88.69
417.159	61.69
417.382	91.69
417.605	81.69
417.828	70.69
418.051	75.69
418.274	75.69
418.497	81.69
418.72	83.69
418.943	72.69
419.166	79.69
419.389	81.69
419.611	89.69
419.834	70.69
420.057	87.69
420.28	90.69
420.503	65.69
420.726	97.69
420.948	87.69
421.171	82.69
421.394	82.69
421.617	80.69
421.839	91.69
422.062	82.69
422.285	73.69
422.507	78.69
422.73	87.69
422.953	65.69
423.175	76.69
423.398	75.69
423.621	85.69
423.843	72.69
424.066	86.69
424.288	83.69
424.511	79.69
424.733	87.69
424.956	70.69
425.178	77.69
425.401	100.69
425.623	83.69
425.846	84.69
426.068	87.69
426.291	87.69
426.513	85.69
426.735	75.69
426.958	82.69
427.18	73.69
427.402	89.69
427.625	88.69
427.847	74.69
428.069	72.69
428.292	79.69
428.514	91.69
428.736	80.69
428.958	89.69
429.181	81.69
429.403	73.69
429.625	88.69
429.847	82.69
430.069	91.69
430.292	75.69
430.514	70.69
430.736	75.69
430.958	73.69
431.18	74.69
431.402	77.69
431.624	84.69
431.846	67.69
432.068	96.69
432.29	83.69
432.512	86.69
432.734	83.69
432.956	83.69
433.178	91.69
433.4	86.69
433.622	69.69
433.844	81.69
434.066	85.69
434.287	80.69
434.509	73.69
434.731	83.69
434.953	91.69
435.175	91.69
435.397	86.69
435.618	75.69
435.84	75.69
436.062	76.69
436.284	72.69
436.505	75.69
436.727	86.69
436.949	79.69
437.17	76.69
437.392	74.69
437.614	89.69
437.835	91.69
438.057	86.69
438.278	75.69
438.5	68.69
438.721	84.69
438.943	70.69
439.165	89.69
439.386	91.69
439.608	103.69
439.829	86.69
440.05	72.69
440.272	89.69
440.493	87.69
440.715	77.69
440.936	86.69
441.158	77.69
441.379	73.69
441.6	87.69
441.822	81.69
442.043	69.69
442.264	77.69
442.486	82.69
442.707	75.69
442.928	71.69
443.149	83.69
443.371	81.69
443.592	83.69
443.813	73.69
444.034	82.69
444.255	92.69
444.476	83.69
444.698	86.69
444.919	87.69
445.14	164.69
445.361	117.69
445.582	87.69
445.803	90.69
446.024	89.69
446.245	83.69
446.466	84.69
446.687	71.69
446.908	79.69
447.129	87.69
447.35	86.69
447.571	86.69
447.792	89.69
448.013	99.69
448.234	85.69
448.455	79.69
448.675	79.69
448.896	82.69
449.117	90.69
449.338	81.69
449.559	91.69
449.779	91.69
450	91.69
450.221	87.69
450.442	75.69
450.662	77.69
450.883	75.69
451.104	86.69
451.324	75.69
451.545	85.69
451.766	87.69
451.986	80.69
452.207	72.69
452.428	80.69
452.648	92.69
452.869	82.69
453.089	70.69
453.31	76.69
453.53	83.69
453.751	77.69
453.971	83.69
454.192	78.69
454.412	65.69
454.633	76.69
454.853	75.69
455.073	93.69
455.294	70.69
455.514	77.69
455.734	68.69
455.955	85.69
456.175	75.69
456.395	91.69
456.616	68.69
456.836	78.69
457.056	76.69
457.276	88.69
457.497	83.69
457.717	77.69
457.937	83.69
458.157	86.69
458.377	81.69
458.598	104.69
458.818	98.69
459.038	77.69
459.258	83.69
459.478	82.69
459.698	84.69
459.918	63.69
460.138	76.69
460.358	78.69
460.578	87.69
460.798	78.69
461.018	89.69
461.238	89.69
461.458	88.69
461.678	97.69
461.898	88.69
462.118	80.69
462.338	74.69
462.558	76.69
462.777	77.69
462.997	78.69
463.217	90.69
463.437	76.69
463.657	81.69
463.876	73.69
464.096	75.69
464.316	79.69
464.536	80.69
464.755	90.69
464.975	90.69
465.195	86.69
465.414	91.69
465.634	84.69
465.854	67.69
466.073	87.69
466.293	77.69
466.512	71.69
466.732	71.69
466.951	80.69
467.171	99.69
467.391	78.69
467.61	80.69
467.829	100.69
468.049	107.69
468.268	112.69
468.488	87.69
468.707	81.69
468.927	74.69
469.146	79.69
469.365	83.69
469.585	91.69
469.804	74.69
470.023	74.69
470.243	77.69
470.462	95.69
470.681	86.69
470.901	84.69
471.12	72.69
471.339	85.69
471.558	83.69
471.777	67.69
471.997	101.69
472.216	145.69
472.435	143.69
472.654	86.69
472.873	77.69
473.092	83.69
473.311	78.69
473.53	91.69
473.749	82.69
473.968	86.69
474.187	77.69
474.406	88.69
474.625	74.69
474.844	68.69
475.063	83.69
475.282	83.69
475.501	85.69
475.72	80.69
475.939	84.69
476.158	83.69
476.377	68.69
476.596	80.69
476.814	72.69
477.033	99.69
477.252	98.69
477.471	83.69
477.69	103.69
477.908	69.69
478.127	78.69
478.346	88.69
478.564	82.69
478.783	73.69
479.002	76.69
479.22	87.69
479.439	83.69
479.658	73.69
479.876	73.69
480.095	85.69
480.313	76.69
480.532	93.69
480.751	96.69
480.969	132.69
481.188	217.69
481.406	139.69
481.624	84.69
481.843	71.69
482.061	83.69
482.28	87.69
482.498	81.69
482.717	92.69
482.935	92.69
483.153	94.69
483.372	91.69
483.59	85.69
483.808	84.69
484.027	87.69
484.245	71.69
484.463	72.69
484.681	83.69
484.9	83.69
485.118	74.69
485.336	71.69
485.554	70.69
485.772	86.69
485.99	62.69
486.209	84.69
486.427	71.69
486.645	78.69
486.863	65.69
487.081	85.69
487.299	79.69
487.517	76.69
487.735	80.69
487.953	93.69
488.171	101.69
488.389	90.69
488.607	103.69
488.825	80.69
489.043	77.69
489.261	91.69
489.479	90.69
489.696	83.69
489.914	80.69
490.132	80.69
490.35	82.69
490.568	72.69
490.786	69.69
491.003	84.69
491.221	83.69
491.439	75.69
491.657	73.69
491.874	91.69
492.092	88.69
492.31	80.69
492.527	93.69
492.745	87.69
492.963	90.69
493.18	83.69
493.398	81.69
493.615	75.69
493.833	87.69
494.05	70.69
494.268	77.69
494.485	101.69
494.703	92.69
494.92	79.69
495.138	83.69
495.355	83.69
495.573	88.69
495.79	86.69
496.008	101.69
496.225	92.69
496.442	76.69
496.66	88.69
496.877	88.69
497.094	87.69
497.312	102.69
497.529	88.69
497.746	71.69
497.963	65.69
498.181	76.69
498.398	81.69
498.615	83.69
498.832	90.69
499.049	68.69
499.267	83.69
499.484	75.69
499.701	83.69
499.918	81.69
500.135	85.69
500.352	81.69
500.569	62.69
500.786	78.69
501.003	104.69
501.22	84.69
501.437	74.69
501.654	90.69
501.871	73.69
502.088	79.69
502.305	83.69
502.522	95.69
502.739	76.69
502.956	85.69
503.172	94.69
503.389	88.69
503.606	74.69
503.823	73.69
504.04	82.69
504.256	85.69
504.473	71.69
504.69	83.69
504.907	86.69
505.123	101.69
505.34	82.69
505.557	94.69
505.773	91.69
505.99	77.69
506.207	70.69
506.423	71.69
506.64	69.69
506.856	77.69
507.073	84.69
507.289	93.69
507.506	90.69
507.722	84.69
507.939	89.69
508.155	87.69
508.372	81.69
508.588	68.69
508.805	90.69
509.021	84.69
509.238	91.69
509.454	83.69
509.67	68.69
509.887	79.69
510.103	82.69
510.319	103.69
510.536	137.69
510.752	206.69
510.968	107.69
511.184	93.69
511.401	76.69
511.617	73.69
511.833	82.69
512.049	72.69
512.265	73.69
512.481	82.69
512.698	87.69
512.914	80.69
513.13	83.69
513.346	84.69
513.562	75.69
513.778	94.69
513.994	83.69
514.21	87.69
514.426	81.69
514.642	86.69
514.858	85.69
515.074	76.69
515.29	136.69
515.506	197.69
515.721	123.69
515.937	107.69
516.153	92.69
516.369	94.69
516.585	79.69
516.801	85.69
517.016	94.69
517.232	71.69
517.448	64.69
517.664	87.69
517.879	67.69
518.095	75.69
518.311	90.69
518.527	84.69
518.742	83.69
518.958	79.69
519.173	78.69
519.389	86.69
519.605	77.69
