Data from Penny_2_HRD10591_00017.txt Node
Date: Wed Nov 05 15:34:35 EST 2025
User: Yrep
Spectrometer: HR+D1059
Trigger mode: 1
Integration Time (sec): 1.000000E-1
Scans to average: 1
Electric dark correction enabled: true
Nonlinearity correction enabled: false
Boxcar width: 0
XAxis mode: Wavelengths
Number of Pixels in Spectrum: 2048
>>>>>Begin Spectral Data<<<<<
223.165	-22.81
223.4	-22.81
223.635	-22.81
223.869	-18.81
224.104	-21.81
224.338	-20.81
224.573	-6.81
224.808	-27.81
225.042	-18.81
225.277	-7.81
225.511	7.19
225.746	13.19
225.98	9.19
226.215	10.19
226.449	19.19
226.683	26.19
226.918	39.19
227.152	21.19
227.387	45.19
227.621	32.19
227.856	40.19
228.09	48.19
228.324	43.19
228.559	61.19
228.793	53.19
229.027	61.19
229.262	73.19
229.496	69.19
229.73	80.19
229.964	74.19
230.199	68.19
230.433	75.19
230.667	75.19
230.901	92.19
231.136	64.19
231.37	86.19
231.604	89.19
231.838	78.19
232.072	79.19
232.306	79.19
232.541	93.19
232.775	86.19
233.009	78.19
233.243	83.19
233.477	79.19
233.711	70.19
233.945	87.19
234.179	87.19
234.413	90.19
234.647	95.19
234.881	85.19
235.115	90.19
235.349	82.19
235.583	81.19
235.817	82.19
236.051	77.19
236.285	96.19
236.519	71.19
236.753	93.19
236.987	93.19
237.221	86.19
237.455	99.19
237.689	81.19
237.922	84.19
238.156	83.19
238.39	72.19
238.624	73.19
238.858	81.19
239.091	81.19
239.325	67.19
239.559	90.19
239.793	79.19
240.027	78.19
240.26	76.19
240.494	63.19
240.728	69.19
240.961	95.19
241.195	71.19
241.429	78.19
241.662	79.19
241.896	90.19
242.13	69.19
242.363	68.19
242.597	81.19
242.83	79.19
243.064	76.19
243.298	89.19
243.531	69.19
243.765	74.19
243.998	87.19
244.232	78.19
244.465	75.19
244.699	82.19
244.932	82.19
245.166	80.19
245.399	75.19
245.633	71.19
245.866	87.19
246.099	85.19
246.333	88.19
246.566	75.19
246.8	84.19
247.033	76.19
247.266	86.19
247.5	81.19
247.733	70.19
247.966	73.19
248.2	85.19
248.433	75.19
248.666	88.19
248.899	84.19
249.133	77.19
249.366	95.19
249.599	79.19
249.832	85.19
250.066	85.19
250.299	84.19
250.532	81.19
250.765	76.19
250.998	89.19
251.231	61.19
251.465	76.19
251.698	72.19
251.931	75.19
252.164	74.19
252.397	91.19
252.63	71.19
252.863	79.19
253.096	78.19
253.329	75.19
253.562	88.19
253.795	80.19
254.028	75.19
254.261	80.19
254.494	85.19
254.727	79.19
254.96	86.19
255.193	82.19
255.426	87.19
255.659	81.19
255.892	88.19
256.124	71.19
256.357	73.19
256.59	82.19
256.823	80.19
257.056	80.19
257.289	100.19
257.521	88.19
257.754	87.19
257.987	82.19
258.22	80.19
258.452	81.19
258.685	80.19
258.918	67.19
259.151	64.19
259.383	88.19
259.616	68.19
259.849	76.19
260.081	88.19
260.314	81.19
260.547	83.19
260.779	81.19
261.012	71.19
261.244	95.19
261.477	90.19
261.71	72.19
261.942	95.19
262.175	89.19
262.407	78.19
262.64	81.19
262.872	97.19
263.105	78.19
263.337	83.19
263.57	87.19
263.802	88.19
264.035	80.19
264.267	67.19
264.499	72.19
264.732	87.19
264.964	77.19
265.197	75.19
265.429	65.19
265.661	72.19
265.894	65.19
266.126	73.19
266.358	83.19
266.591	92.19
266.823	76.19
267.055	87.19
267.287	79.19
267.52	97.19
267.752	72.19
267.984	89.19
268.216	93.19
268.448	86.19
268.681	77.19
268.913	79.19
269.145	77.19
269.377	75.19
269.609	82.19
269.841	83.19
270.073	74.19
270.306	79.19
270.538	76.19
270.77	86.19
271.002	77.19
271.234	104.19
271.466	95.19
271.698	89.19
271.93	94.19
272.162	77.19
272.394	79.19
272.626	97.19
272.858	92.19
273.09	68.19
273.322	91.19
273.553	80.19
273.785	88.19
274.017	64.19
274.249	77.19
274.481	67.19
274.713	68.19
274.945	89.19
275.176	94.19
275.408	77.19
275.64	91.19
275.872	87.19
276.104	81.19
276.335	85.19
276.567	89.19
276.799	106.19
277.031	95.19
277.262	90.19
277.494	84.19
277.726	74.19
277.957	78.19
278.189	82.19
278.421	84.19
278.652	83.19
278.884	79.19
279.115	88.19
279.347	76.19
279.579	79.19
279.81	95.19
280.042	97.19
280.273	98.19
280.505	85.19
280.736	91.19
280.968	78.19
281.199	91.19
281.431	89.19
281.662	96.19
281.894	81.19
282.125	99.19
282.356	88.19
282.588	85.19
282.819	86.19
283.051	81.19
283.282	92.19
283.513	81.19
283.745	77.19
283.976	78.19
284.207	82.19
284.439	89.19
284.67	68.19
284.901	76.19
285.132	78.19
285.364	74.19
285.595	87.19
285.826	71.19
286.057	90.19
286.288	91.19
286.52	96.19
286.751	83.19
286.982	90.19
287.213	89.19
287.444	80.19
287.675	79.19
287.906	86.19
288.138	76.19
288.369	91.19
288.6	86.19
288.831	82.19
289.062	92.19
289.293	77.19
289.524	88.19
289.755	78.19
289.986	83.19
290.217	82.19
290.448	81.19
290.679	72.19
290.91	84.19
291.141	85.19
291.371	79.19
291.602	81.19
291.833	94.19
292.064	89.19
292.295	93.19
292.526	85.19
292.757	92.19
292.987	84.19
293.218	75.19
293.449	85.19
293.68	103.19
293.91	90.19
294.141	82.19
294.372	84.19
294.603	78.19
294.833	76.19
295.064	88.19
295.295	74.19
295.525	90.19
295.756	92.19
295.987	86.19
296.217	95.19
296.448	85.19
296.679	95.19
296.909	100.19
297.14	71.19
297.37	81.19
297.601	74.19
297.831	80.19
298.062	96.19
298.292	78.19
298.523	86.19
298.753	79.19
298.984	89.19
299.214	84.19
299.445	91.19
299.675	82.19
299.905	83.19
300.136	87.19
300.366	90.19
300.597	81.19
300.827	80.19
301.057	97.19
301.288	100.19
301.518	91.19
301.748	76.19
301.979	94.19
302.209	94.19
302.439	111.19
302.669	84.19
302.9	85.19
303.13	81.19
303.36	86.19
303.59	87.19
303.82	85.19
304.051	84.19
304.281	84.19
304.511	99.19
304.741	86.19
304.971	78.19
305.201	94.19
305.431	81.19
305.661	85.19
305.891	85.19
306.121	82.19
306.352	80.19
306.582	91.19
306.812	85.19
307.042	90.19
307.272	86.19
307.502	103.19
307.731	96.19
307.961	98.19
308.191	88.19
308.421	86.19
308.651	85.19
308.881	82.19
309.111	97.19
309.341	75.19
309.571	87.19
309.8	96.19
310.03	67.19
310.26	83.19
310.49	71.19
310.72	85.19
310.949	92.19
311.179	80.19
311.409	75.19
311.639	92.19
311.868	82.19
312.098	84.19
312.328	89.19
312.557	86.19
312.787	93.19
313.017	88.19
313.246	76.19
313.476	93.19
313.706	85.19
313.935	71.19
314.165	79.19
314.394	99.19
314.624	90.19
314.853	90.19
315.083	84.19
315.312	76.19
315.542	81.19
315.771	88.19
316.001	77.19
316.23	81.19
316.46	101.19
316.689	85.19
316.919	82.19
317.148	77.19
317.377	77.19
317.607	84.19
317.836	86.19
318.065	100.19
318.295	99.19
318.524	77.19
318.753	87.19
318.983	80.19
319.212	87.19
319.441	85.19
319.67	79.19
319.9	67.19
320.129	88.19
320.358	73.19
320.587	89.19
320.816	89.19
321.046	88.19
321.275	88.19
321.504	85.19
321.733	82.19
321.962	89.19
322.191	75.19
322.42	73.19
322.649	90.19
322.878	83.19
323.108	101.19
323.337	104.19
323.566	86.19
323.795	84.19
324.024	91.19
324.253	125.19
324.482	124.19
324.71	167.19
324.939	163.19
325.168	105.19
325.397	102.19
325.626	92.19
325.855	91.19
326.084	88.19
326.313	97.19
326.542	90.19
326.77	105.19
326.999	121.19
327.228	127.19
327.457	131.19
327.686	128.19
327.914	102.19
328.143	121.19
328.372	119.19
328.6	92.19
328.829	99.19
329.058	95.19
329.287	109.19
329.515	90.19
329.744	100.19
329.972	115.19
330.201	124.19
330.43	142.19
330.658	96.19
330.887	89.19
331.115	90.19
331.344	90.19
331.572	73.19
331.801	102.19
332.03	84.19
332.258	87.19
332.486	90.19
332.715	87.19
332.943	100.19
333.172	101.19
333.4	86.19
333.629	107.19
333.857	91.19
334.085	97.19
334.314	136.19
334.542	167.19
334.771	111.19
334.999	108.19
335.227	88.19
335.455	97.19
335.684	90.19
335.912	88.19
336.14	78.19
336.369	87.19
336.597	92.19
336.825	86.19
337.053	97.19
337.281	74.19
337.51	80.19
337.738	87.19
337.966	93.19
338.194	78.19
338.422	89.19
338.65	83.19
338.878	85.19
339.106	87.19
339.334	78.19
339.562	79.19
339.79	76.19
340.018	75.19
340.246	76.19
340.474	86.19
340.702	87.19
340.93	81.19
341.158	77.19
341.386	68.19
341.614	87.19
341.842	89.19
342.07	84.19
342.298	92.19
342.526	92.19
342.754	89.19
342.981	92.19
343.209	94.19
343.437	103.19
343.665	84.19
343.893	86.19
344.12	78.19
344.348	77.19
344.576	88.19
344.804	98.19
345.031	85.19
345.259	81.19
345.487	79.19
345.714	72.19
345.942	65.19
346.17	93.19
346.397	87.19
346.625	78.19
346.853	86.19
347.08	84.19
347.308	69.19
347.535	87.19
347.763	95.19
347.99	95.19
348.218	84.19
348.445	72.19
348.673	98.19
348.9	94.19
349.128	93.19
349.355	83.19
349.583	79.19
349.81	83.19
350.037	85.19
350.265	72.19
350.492	84.19
350.72	85.19
350.947	82.19
351.174	72.19
351.402	73.19
351.629	72.19
351.856	94.19
352.083	75.19
352.311	75.19
352.538	89.19
352.765	90.19
352.992	95.19
353.22	90.19
353.447	75.19
353.674	86.19
353.901	92.19
354.128	83.19
354.355	87.19
354.583	68.19
354.81	82.19
355.037	85.19
355.264	93.19
355.491	84.19
355.718	72.19
355.945	94.19
356.172	83.19
356.399	84.19
356.626	75.19
356.853	97.19
357.08	86.19
357.307	85.19
357.534	91.19
357.761	69.19
357.988	97.19
358.215	95.19
358.441	89.19
358.668	82.19
358.895	88.19
359.122	84.19
359.349	98.19
359.576	80.19
359.802	85.19
360.029	102.19
360.256	88.19
360.483	91.19
360.709	78.19
360.936	97.19
361.163	97.19
361.39	102.19
361.616	75.19
361.843	58.19
362.07	79.19
362.296	96.19
362.523	77.19
362.749	77.19
362.976	93.19
363.203	73.19
363.429	85.19
363.656	87.19
363.882	71.19
364.109	79.19
364.335	82.19
364.562	86.19
364.788	73.19
365.015	99.19
365.241	87.19
365.468	83.19
365.694	94.19
365.92	91.19
366.147	77.19
366.373	77.19
366.599	91.19
366.826	78.19
367.052	89.19
367.278	86.19
367.505	99.19
367.731	96.19
367.957	94.19
368.184	92.19
368.41	80.19
368.636	87.19
368.862	87.19
369.089	72.19
369.315	75.19
369.541	89.19
369.767	81.19
369.993	75.19
370.219	101.19
370.445	84.19
370.672	73.19
370.898	93.19
371.124	92.19
371.35	97.19
371.576	105.19
371.802	84.19
372.028	70.19
372.254	89.19
372.48	92.19
372.706	75.19
372.932	87.19
373.158	73.19
373.384	87.19
373.61	82.19
373.835	90.19
374.061	77.19
374.287	67.19
374.513	72.19
374.739	80.19
374.965	75.19
375.191	80.19
375.416	86.19
375.642	84.19
375.868	82.19
376.094	71.19
376.319	72.19
376.545	74.19
376.771	80.19
376.997	87.19
377.222	75.19
377.448	75.19
377.674	82.19
377.899	83.19
378.125	80.19
378.35	89.19
378.576	79.19
378.802	87.19
379.027	95.19
379.253	84.19
379.478	73.19
379.704	78.19
379.929	86.19
380.155	92.19
380.38	88.19
380.606	82.19
380.831	86.19
381.057	92.19
381.282	82.19
381.507	81.19
381.733	90.19
381.958	92.19
382.184	73.19
382.409	70.19
382.634	86.19
382.86	81.19
383.085	75.19
383.31	77.19
383.535	76.19
383.761	87.19
383.986	75.19
384.211	77.19
384.436	90.19
384.662	90.19
384.887	90.19
385.112	82.19
385.337	89.19
385.562	70.19
385.787	84.19
386.013	81.19
386.238	88.19
386.463	85.19
386.688	102.19
386.913	89.19
387.138	81.19
387.363	76.19
387.588	74.19
387.813	89.19
388.038	80.19
388.263	86.19
388.488	98.19
388.713	88.19
388.938	68.19
389.163	82.19
389.387	83.19
389.612	94.19
389.837	95.19
390.062	91.19
390.287	72.19
390.512	87.19
390.736	81.19
390.961	76.19
391.186	88.19
391.411	73.19
391.636	85.19
391.86	79.19
392.085	60.19
392.31	81.19
392.534	71.19
392.759	76.19
392.984	78.19
393.208	79.19
393.433	79.19
393.658	86.19
393.882	87.19
394.107	71.19
394.331	86.19
394.556	91.19
394.78	89.19
395.005	76.19
395.229	75.19
395.454	91.19
395.678	95.19
395.903	90.19
396.127	68.19
396.352	72.19
396.576	81.19
396.801	76.19
397.025	88.19
397.249	76.19
397.474	89.19
397.698	77.19
397.922	81.19
398.147	84.19
398.371	88.19
398.595	85.19
398.82	77.19
399.044	92.19
399.268	77.19
399.492	74.19
399.717	73.19
399.941	95.19
400.165	72.19
400.389	79.19
400.613	92.19
400.837	64.19
401.062	73.19
401.286	90.19
401.51	90.19
401.734	77.19
401.958	77.19
402.182	81.19
402.406	93.19
402.63	87.19
402.854	80.19
403.078	75.19
403.302	73.19
403.526	87.19
403.75	76.19
403.974	85.19
404.198	72.19
404.422	76.19
404.645	86.19
404.869	74.19
405.093	99.19
405.317	83.19
405.541	80.19
405.765	91.19
405.988	63.19
406.212	85.19
406.436	95.19
406.66	89.19
406.883	93.19
407.107	76.19
407.331	88.19
407.555	86.19
407.778	80.19
408.002	89.19
408.226	77.19
408.449	92.19
408.673	81.19
408.896	70.19
409.12	78.19
409.344	75.19
409.567	87.19
409.791	79.19
410.014	75.19
410.238	78.19
410.461	72.19
410.685	79.19
410.908	74.19
411.132	67.19
411.355	81.19
411.578	81.19
411.802	89.19
412.025	76.19
412.249	87.19
412.472	87.19
412.695	86.19
412.919	75.19
413.142	82.19
413.365	88.19
413.589	76.19
413.812	76.19
414.035	82.19
414.258	81.19
414.482	82.19
414.705	83.19
414.928	84.19
415.151	72.19
415.374	87.19
415.597	79.19
415.821	80.19
416.044	74.19
416.267	79.19
416.49	88.19
416.713	86.19
416.936	79.19
417.159	77.19
417.382	85.19
417.605	80.19
417.828	96.19
418.051	82.19
418.274	84.19
418.497	90.19
418.72	82.19
418.943	80.19
419.166	81.19
419.389	79.19
419.611	92.19
419.834	95.19
420.057	89.19
420.28	82.19
420.503	87.19
420.726	72.19
420.948	81.19
421.171	73.19
421.394	82.19
421.617	75.19
421.839	79.19
422.062	86.19
422.285	94.19
422.507	91.19
422.73	83.19
422.953	80.19
423.175	75.19
423.398	72.19
423.621	96.19
423.843	77.19
424.066	85.19
424.288	78.19
424.511	80.19
424.733	90.19
424.956	82.19
425.178	77.19
425.401	83.19
425.623	80.19
425.846	91.19
426.068	84.19
426.291	91.19
426.513	75.19
426.735	86.19
426.958	70.19
427.18	80.19
427.402	86.19
427.625	89.19
427.847	81.19
428.069	77.19
428.292	89.19
428.514	82.19
428.736	81.19
428.958	68.19
429.181	72.19
429.403	73.19
429.625	85.19
429.847	82.19
430.069	82.19
430.292	79.19
430.514	95.19
430.736	78.19
430.958	73.19
431.18	83.19
431.402	78.19
431.624	77.19
431.846	83.19
432.068	89.19
432.29	87.19
432.512	84.19
432.734	77.19
432.956	76.19
433.178	83.19
433.4	82.19
433.622	79.19
433.844	89.19
434.066	101.19
434.287	71.19
434.509	91.19
434.731	90.19
434.953	84.19
435.175	81.19
435.397	64.19
435.618	77.19
435.84	76.19
436.062	85.19
436.284	94.19
436.505	78.19
436.727	77.19
436.949	94.19
437.17	94.19
437.392	79.19
437.614	87.19
437.835	73.19
438.057	67.19
438.278	93.19
438.5	104.19
438.721	77.19
438.943	71.19
439.165	78.19
439.386	80.19
439.608	89.19
439.829	80.19
440.05	93.19
440.272	80.19
440.493	87.19
440.715	85.19
440.936	85.19
441.158	75.19
441.379	75.19
441.6	87.19
441.822	79.19
442.043	89.19
442.264	89.19
442.486	81.19
442.707	79.19
442.928	96.19
443.149	81.19
443.371	91.19
443.592	89.19
443.813	78.19
444.034	83.19
444.255	81.19
444.476	75.19
444.698	83.19
444.919	68.19
445.14	156.19
445.361	124.19
445.582	80.19
445.803	86.19
446.024	79.19
446.245	79.19
446.466	76.19
446.687	91.19
446.908	92.19
447.129	82.19
447.35	78.19
447.571	86.19
447.792	73.19
448.013	85.19
448.234	89.19
448.455	73.19
448.675	88.19
448.896	85.19
449.117	86.19
449.338	67.19
449.559	90.19
449.779	82.19
450	84.19
450.221	78.19
450.442	82.19
450.662	74.19
450.883	106.19
451.104	79.19
451.324	79.19
451.545	83.19
451.766	92.19
451.986	80.19
452.207	80.19
452.428	66.19
452.648	84.19
452.869	97.19
453.089	71.19
453.31	80.19
453.53	72.19
453.751	80.19
453.971	87.19
454.192	85.19
454.412	88.19
454.633	91.19
454.853	75.19
455.073	74.19
455.294	77.19
455.514	78.19
455.734	71.19
455.955	85.19
456.175	97.19
456.395	90.19
456.616	76.19
456.836	75.19
457.056	76.19
457.276	89.19
457.497	80.19
457.717	74.19
457.937	75.19
458.157	76.19
458.377	82.19
458.598	76.19
458.818	79.19
459.038	91.19
459.258	79.19
459.478	80.19
459.698	73.19
459.918	79.19
460.138	78.19
460.358	83.19
460.578	85.19
460.798	83.19
461.018	85.19
461.238	82.19
461.458	101.19
461.678	87.19
461.898	81.19
462.118	87.19
462.338	95.19
462.558	83.19
462.777	88.19
462.997	80.19
463.217	71.19
463.437	81.19
463.657	81.19
463.876	88.19
464.096	78.19
464.316	77.19
464.536	94.19
464.755	75.19
464.975	87.19
465.195	89.19
465.414	99.19
465.634	77.19
465.854	80.19
466.073	92.19
466.293	86.19
466.512	81.19
466.732	79.19
466.951	76.19
467.171	82.19
467.391	89.19
467.61	90.19
467.829	97.19
468.049	120.19
468.268	102.19
468.488	99.19
468.707	100.19
468.927	76.19
469.146	85.19
469.365	86.19
469.585	81.19
469.804	85.19
470.023	86.19
470.243	89.19
470.462	93.19
470.681	106.19
470.901	88.19
471.12	73.19
471.339	76.19
471.558	67.19
471.777	68.19
471.997	89.19
472.216	155.19
472.435	173.19
472.654	95.19
472.873	94.19
473.092	84.19
473.311	89.19
473.53	82.19
473.749	89.19
473.968	92.19
474.187	86.19
474.406	97.19
474.625	90.19
474.844	90.19
475.063	76.19
475.282	91.19
475.501	85.19
475.72	86.19
475.939	87.19
476.158	92.19
476.377	86.19
476.596	78.19
476.814	80.19
477.033	73.19
477.252	88.19
477.471	95.19
477.69	71.19
477.908	69.19
478.127	87.19
478.346	81.19
478.564	97.19
478.783	81.19
479.002	85.19
479.22	96.19
479.439	95.19
479.658	86.19
479.876	92.19
480.095	76.19
480.313	63.19
480.532	92.19
480.751	101.19
480.969	145.19
481.188	271.19
481.406	173.19
481.624	96.19
481.843	81.19
482.061	81.19
482.28	91.19
482.498	74.19
482.717	87.19
482.935	82.19
483.153	84.19
483.372	91.19
483.59	87.19
483.808	89.19
484.027	87.19
484.245	67.19
484.463	82.19
484.681	74.19
484.9	93.19
485.118	85.19
485.336	76.19
485.554	91.19
485.772	76.19
485.99	77.19
486.209	81.19
486.427	80.19
486.645	95.19
486.863	68.19
487.081	93.19
487.299	85.19
487.517	68.19
487.735	82.19
487.953	83.19
488.171	87.19
488.389	95.19
488.607	87.19
488.825	74.19
489.043	76.19
489.261	87.19
489.479	74.19
489.696	79.19
489.914	88.19
490.132	77.19
490.35	91.19
490.568	87.19
490.786	89.19
491.003	90.19
491.221	87.19
491.439	91.19
491.657	94.19
491.874	86.19
492.092	91.19
492.31	87.19
492.527	83.19
492.745	86.19
492.963	77.19
493.18	77.19
493.398	78.19
493.615	82.19
493.833	81.19
494.05	99.19
494.268	91.19
494.485	87.19
494.703	93.19
494.92	74.19
495.138	76.19
495.355	95.19
495.573	83.19
495.79	92.19
496.008	80.19
496.225	78.19
496.442	94.19
496.66	86.19
496.877	89.19
497.094	85.19
497.312	87.19
497.529	77.19
497.746	81.19
497.963	72.19
498.181	83.19
498.398	71.19
498.615	85.19
498.832	78.19
499.049	87.19
499.267	77.19
499.484	82.19
499.701	79.19
499.918	97.19
500.135	85.19
500.352	90.19
500.569	92.19
500.786	79.19
501.003	75.19
501.22	78.19
501.437	88.19
501.654	81.19
501.871	93.19
502.088	87.19
502.305	87.19
502.522	87.19
502.739	101.19
502.956	99.19
503.172	87.19
503.389	87.19
503.606	89.19
503.823	88.19
504.04	75.19
504.256	81.19
504.473	77.19
504.69	105.19
504.907	93.19
505.123	89.19
505.34	84.19
505.557	91.19
505.773	82.19
505.99	86.19
506.207	91.19
506.423	79.19
506.64	83.19
506.856	80.19
507.073	85.19
507.289	93.19
507.506	78.19
507.722	76.19
507.939	86.19
508.155	98.19
508.372	77.19
508.588	82.19
508.805	81.19
509.021	86.19
509.238	88.19
509.454	91.19
509.67	79.19
509.887	93.19
510.103	95.19
510.319	87.19
510.536	142.19
510.752	216.19
510.968	119.19
511.184	82.19
511.401	99.19
511.617	96.19
511.833	85.19
512.049	95.19
512.265	79.19
512.481	83.19
512.698	70.19
512.914	83.19
513.13	90.19
513.346	75.19
513.562	72.19
513.778	85.19
513.994	84.19
514.21	83.19
514.426	97.19
514.642	80.19
514.858	86.19
515.074	113.19
515.29	143.19
515.506	205.19
515.721	113.19
515.937	88.19
516.153	93.19
516.369	88.19
516.585	91.19
516.801	91.19
517.016	81.19
517.232	89.19
517.448	75.19
517.664	91.19
517.879	85.19
518.095	73.19
518.311	89.19
518.527	85.19
518.742	89.19
518.958	81.19
519.173	76.19
519.389	94.19
