Data from Penny_2_HRD10591_00001.txt Node
Date: Wed Nov 05 15:34:27 EST 2025
User: Yrep
Spectrometer: HR+D1059
Trigger mode: 1
Integration Time (sec): 1.000000E-1
Scans to average: 1
Electric dark correction enabled: true
Nonlinearity correction enabled: false
Boxcar width: 0
XAxis mode: Wavelengths
Number of Pixels in Spectrum: 2048
>>>>>Begin Spectral Data<<<<<
223.165	-27.56
223.4	-27.56
223.635	-27.56
223.869	-17.56
224.104	-20.56
224.338	-10.56
224.573	-9.56
224.808	-14.56
225.042	-1.56
225.277	-19.56
225.511	1.44
225.746	-0.56
225.98	5.44
226.215	5.44
226.449	17.44
226.683	25.44
226.918	31.44
227.152	35.44
227.387	53.44
227.621	49.44
227.856	40.44
228.09	34.44
228.324	62.44
228.559	60.44
228.793	65.44
229.027	77.44
229.262	59.44
229.496	71.44
229.73	85.44
229.964	70.44
230.199	85.44
230.433	71.44
230.667	71.44
230.901	88.44
231.136	90.44
231.37	89.44
231.604	79.44
231.838	74.44
232.072	93.44
232.306	87.44
232.541	98.44
232.775	88.44
233.009	83.44
233.243	85.44
233.477	83.44
233.711	80.44
233.945	92.44
234.179	91.44
234.413	76.44
234.647	77.44
234.881	77.44
235.115	82.44
235.349	101.44
235.583	85.44
235.817	73.44
236.051	89.44
236.285	89.44
236.519	69.44
236.753	79.44
236.987	73.44
237.221	87.44
237.455	74.44
237.689	83.44
237.922	85.44
238.156	74.44
238.39	83.44
238.624	74.44
238.858	75.44
239.091	84.44
239.325	76.44
239.559	75.44
239.793	74.44
240.027	80.44
240.26	83.44
240.494	83.44
240.728	62.44
240.961	76.44
241.195	79.44
241.429	79.44
241.662	87.44
241.896	74.44
242.13	76.44
242.363	78.44
242.597	77.44
242.83	73.44
243.064	75.44
243.298	73.44
243.531	76.44
243.765	84.44
243.998	75.44
244.232	78.44
244.465	73.44
244.699	79.44
244.932	73.44
245.166	83.44
245.399	83.44
245.633	83.44
245.866	71.44
246.099	72.44
246.333	72.44
246.566	80.44
246.8	72.44
247.033	77.44
247.266	85.44
247.5	83.44
247.733	73.44
247.966	76.44
248.2	94.44
248.433	67.44
248.666	69.44
248.899	82.44
249.133	89.44
249.366	87.44
249.599	74.44
249.832	84.44
250.066	77.44
250.299	87.44
250.532	83.44
250.765	82.44
250.998	82.44
251.231	66.44
251.465	74.44
251.698	78.44
251.931	98.44
252.164	61.44
252.397	85.44
252.63	68.44
252.863	86.44
253.096	88.44
253.329	80.44
253.562	78.44
253.795	73.44
254.028	77.44
254.261	92.44
254.494	93.44
254.727	75.44
254.96	84.44
255.193	74.44
255.426	82.44
255.659	76.44
255.892	95.44
256.124	77.44
256.357	76.44
256.59	74.44
256.823	67.44
257.056	77.44
257.289	77.44
257.521	91.44
257.754	65.44
257.987	83.44
258.22	78.44
258.452	72.44
258.685	93.44
258.918	78.44
259.151	77.44
259.383	88.44
259.616	83.44
259.849	74.44
260.081	96.44
260.314	76.44
260.547	73.44
260.779	85.44
261.012	60.44
261.244	81.44
261.477	83.44
261.71	78.44
261.942	78.44
262.175	96.44
262.407	85.44
262.64	69.44
262.872	88.44
263.105	70.44
263.337	76.44
263.57	88.44
263.802	76.44
264.035	68.44
264.267	89.44
264.499	83.44
264.732	76.44
264.964	75.44
265.197	75.44
265.429	82.44
265.661	81.44
265.894	79.44
266.126	93.44
266.358	81.44
266.591	73.44
266.823	69.44
267.055	81.44
267.287	61.44
267.52	69.44
267.752	83.44
267.984	80.44
268.216	77.44
268.448	93.44
268.681	98.44
268.913	70.44
269.145	90.44
269.377	71.44
269.609	77.44
269.841	83.44
270.073	94.44
270.306	78.44
270.538	68.44
270.77	78.44
271.002	95.44
271.234	86.44
271.466	76.44
271.698	69.44
271.93	90.44
272.162	81.44
272.394	91.44
272.626	87.44
272.858	71.44
273.09	82.44
273.322	88.44
273.553	74.44
273.785	77.44
274.017	84.44
274.249	91.44
274.481	85.44
274.713	91.44
274.945	83.44
275.176	82.44
275.408	88.44
275.64	68.44
275.872	91.44
276.104	85.44
276.335	81.44
276.567	94.44
276.799	92.44
277.031	76.44
277.262	101.44
277.494	89.44
277.726	89.44
277.957	74.44
278.189	86.44
278.421	83.44
278.652	86.44
278.884	74.44
279.115	81.44
279.347	87.44
279.579	90.44
279.81	89.44
280.042	96.44
280.273	91.44
280.505	67.44
280.736	75.44
280.968	67.44
281.199	75.44
281.431	89.44
281.662	87.44
281.894	84.44
282.125	87.44
282.356	78.44
282.588	74.44
282.819	94.44
283.051	86.44
283.282	79.44
283.513	95.44
283.745	79.44
283.976	80.44
284.207	81.44
284.439	78.44
284.67	83.44
284.901	77.44
285.132	93.44
285.364	78.44
285.595	82.44
285.826	80.44
286.057	74.44
286.288	85.44
286.52	102.44
286.751	80.44
286.982	73.44
287.213	89.44
287.444	90.44
287.675	88.44
287.906	104.44
288.138	91.44
288.369	81.44
288.6	83.44
288.831	91.44
289.062	91.44
289.293	88.44
289.524	93.44
289.755	80.44
289.986	85.44
290.217	80.44
290.448	79.44
290.679	81.44
290.91	102.44
291.141	93.44
291.371	90.44
291.602	95.44
291.833	88.44
292.064	93.44
292.295	83.44
292.526	78.44
292.757	87.44
292.987	81.44
293.218	87.44
293.449	79.44
293.68	89.44
293.91	104.44
294.141	91.44
294.372	76.44
294.603	76.44
294.833	80.44
295.064	78.44
295.295	80.44
295.525	96.44
295.756	84.44
295.987	83.44
296.217	85.44
296.448	86.44
296.679	87.44
296.909	82.44
297.14	90.44
297.37	89.44
297.601	86.44
297.831	86.44
298.062	85.44
298.292	81.44
298.523	86.44
298.753	82.44
298.984	80.44
299.214	82.44
299.445	103.44
299.675	78.44
299.905	102.44
300.136	89.44
300.366	84.44
300.597	98.44
300.827	102.44
301.057	77.44
301.288	95.44
301.518	73.44
301.748	88.44
301.979	99.44
302.209	85.44
302.439	81.44
302.669	89.44
302.9	83.44
303.13	91.44
303.36	85.44
303.59	89.44
303.82	91.44
304.051	91.44
304.281	91.44
304.511	85.44
304.741	88.44
304.971	87.44
305.201	105.44
305.431	91.44
305.661	88.44
305.891	90.44
306.121	74.44
306.352	93.44
306.582	85.44
306.812	81.44
307.042	78.44
307.272	85.44
307.502	99.44
307.731	90.44
307.961	93.44
308.191	85.44
308.421	88.44
308.651	81.44
308.881	93.44
309.111	79.44
309.341	87.44
309.571	92.44
309.8	85.44
310.03	84.44
310.26	87.44
310.49	93.44
310.72	85.44
310.949	78.44
311.179	70.44
311.409	81.44
311.639	85.44
311.868	90.44
312.098	87.44
312.328	83.44
312.557	90.44
312.787	94.44
313.017	85.44
313.246	85.44
313.476	89.44
313.706	73.44
313.935	84.44
314.165	92.44
314.394	80.44
314.624	82.44
314.853	95.44
315.083	92.44
315.312	76.44
315.542	72.44
315.771	86.44
316.001	85.44
316.23	85.44
316.46	91.44
316.689	79.44
316.919	94.44
317.148	89.44
317.377	87.44
317.607	81.44
317.836	90.44
318.065	83.44
318.295	95.44
318.524	97.44
318.753	99.44
318.983	97.44
319.212	91.44
319.441	71.44
319.67	84.44
319.9	77.44
320.129	100.44
320.358	88.44
320.587	89.44
320.816	87.44
321.046	87.44
321.275	77.44
321.504	90.44
321.733	82.44
321.962	75.44
322.191	77.44
322.42	79.44
322.649	95.44
322.878	97.44
323.108	96.44
323.337	92.44
323.566	89.44
323.795	91.44
324.024	84.44
324.253	99.44
324.482	113.44
324.71	138.44
324.939	132.44
325.168	98.44
325.397	95.44
325.626	82.44
325.855	92.44
326.084	95.44
326.313	90.44
326.542	88.44
326.77	82.44
326.999	107.44
327.228	92.44
327.457	105.44
327.686	114.44
327.914	88.44
328.143	97.44
328.372	108.44
328.6	87.44
328.829	94.44
329.058	92.44
329.287	83.44
329.515	98.44
329.744	111.44
329.972	102.44
330.201	101.44
330.43	99.44
330.658	86.44
330.887	79.44
331.115	91.44
331.344	87.44
331.572	95.44
331.801	93.44
332.03	78.44
332.258	89.44
332.486	77.44
332.715	82.44
332.943	73.44
333.172	83.44
333.4	87.44
333.629	76.44
333.857	81.44
334.085	95.44
334.314	100.44
334.542	126.44
334.771	115.44
334.999	92.44
335.227	85.44
335.455	73.44
335.684	83.44
335.912	93.44
336.14	88.44
336.369	88.44
336.597	76.44
336.825	74.44
337.053	82.44
337.281	86.44
337.51	83.44
337.738	95.44
337.966	81.44
338.194	75.44
338.422	95.44
338.65	88.44
338.878	85.44
339.106	95.44
339.334	79.44
339.562	93.44
339.79	84.44
340.018	90.44
340.246	85.44
340.474	89.44
340.702	84.44
340.93	77.44
341.158	98.44
341.386	97.44
341.614	89.44
341.842	94.44
342.07	94.44
342.298	79.44
342.526	98.44
342.754	75.44
342.981	79.44
343.209	82.44
343.437	105.44
343.665	65.44
343.893	86.44
344.12	91.44
344.348	85.44
344.576	77.44
344.804	91.44
345.031	90.44
345.259	78.44
345.487	101.44
345.714	93.44
345.942	93.44
346.17	77.44
346.397	78.44
346.625	92.44
346.853	82.44
347.08	71.44
347.308	101.44
347.535	87.44
347.763	94.44
347.99	92.44
348.218	89.44
348.445	91.44
348.673	89.44
348.9	83.44
349.128	71.44
349.355	86.44
349.583	75.44
349.81	86.44
350.037	77.44
350.265	96.44
350.492	84.44
350.72	97.44
350.947	95.44
351.174	91.44
351.402	92.44
351.629	75.44
351.856	85.44
352.083	99.44
352.311	84.44
352.538	81.44
352.765	77.44
352.992	93.44
353.22	96.44
353.447	85.44
353.674	77.44
353.901	98.44
354.128	82.44
354.355	71.44
354.583	79.44
354.81	77.44
355.037	84.44
355.264	79.44
355.491	75.44
355.718	75.44
355.945	70.44
356.172	87.44
356.399	92.44
356.626	101.44
356.853	82.44
357.08	80.44
357.307	94.44
357.534	88.44
357.761	95.44
357.988	90.44
358.215	94.44
358.441	77.44
358.668	77.44
358.895	77.44
359.122	77.44
359.349	83.44
359.576	104.44
359.802	73.44
360.029	77.44
360.256	90.44
360.483	77.44
360.709	79.44
360.936	97.44
361.163	83.44
361.39	77.44
361.616	86.44
361.843	79.44
362.07	92.44
362.296	86.44
362.523	84.44
362.749	79.44
362.976	83.44
363.203	88.44
363.429	89.44
363.656	93.44
363.882	79.44
364.109	98.44
364.335	80.44
364.562	89.44
364.788	78.44
365.015	86.44
365.241	79.44
365.468	86.44
365.694	77.44
365.92	83.44
366.147	87.44
366.373	85.44
366.599	82.44
366.826	92.44
367.052	83.44
367.278	84.44
367.505	86.44
367.731	94.44
367.957	83.44
368.184	94.44
368.41	89.44
368.636	88.44
368.862	92.44
369.089	84.44
369.315	83.44
369.541	90.44
369.767	92.44
369.993	68.44
370.219	84.44
370.445	78.44
370.672	80.44
370.898	89.44
371.124	79.44
371.35	70.44
371.576	92.44
371.802	86.44
372.028	75.44
372.254	79.44
372.48	81.44
372.706	95.44
372.932	99.44
373.158	101.44
373.384	63.44
373.61	82.44
373.835	81.44
374.061	81.44
374.287	89.44
374.513	78.44
374.739	97.44
374.965	94.44
375.191	101.44
375.416	88.44
375.642	81.44
375.868	81.44
376.094	91.44
376.319	83.44
376.545	90.44
376.771	87.44
376.997	95.44
377.222	85.44
377.448	74.44
377.674	97.44
377.899	91.44
378.125	84.44
378.35	85.44
378.576	90.44
378.802	94.44
379.027	85.44
379.253	94.44
379.478	82.44
379.704	97.44
379.929	82.44
380.155	96.44
380.38	95.44
380.606	78.44
380.831	89.44
381.057	88.44
381.282	94.44
381.507	94.44
381.733	85.44
381.958	77.44
382.184	79.44
382.409	83.44
382.634	87.44
382.86	91.44
383.085	86.44
383.31	94.44
383.535	82.44
383.761	71.44
383.986	93.44
384.211	83.44
384.436	87.44
384.662	77.44
384.887	84.44
385.112	75.44
385.337	86.44
385.562	78.44
385.787	78.44
386.013	82.44
386.238	91.44
386.463	77.44
386.688	96.44
386.913	77.44
387.138	93.44
387.363	79.44
387.588	89.44
387.813	87.44
388.038	77.44
388.263	83.44
388.488	92.44
388.713	89.44
388.938	91.44
389.163	74.44
389.387	71.44
389.612	93.44
389.837	92.44
390.062	85.44
390.287	86.44
390.512	96.44
390.736	90.44
390.961	86.44
391.186	70.44
391.411	86.44
391.636	97.44
391.86	73.44
392.085	66.44
392.31	82.44
392.534	75.44
392.759	77.44
392.984	86.44
393.208	76.44
393.433	77.44
393.658	92.44
393.882	91.44
394.107	90.44
394.331	94.44
394.556	75.44
394.78	83.44
395.005	77.44
395.229	74.44
395.454	79.44
395.678	78.44
395.903	86.44
396.127	83.44
396.352	83.44
396.576	80.44
396.801	78.44
397.025	99.44
397.249	77.44
397.474	82.44
397.698	101.44
397.922	75.44
398.147	78.44
398.371	89.44
398.595	98.44
398.82	82.44
399.044	85.44
399.268	92.44
399.492	78.44
399.717	62.44
399.941	92.44
400.165	85.44
400.389	79.44
400.613	75.44
400.837	71.44
401.062	78.44
401.286	83.44
401.51	91.44
401.734	100.44
401.958	96.44
402.182	89.44
402.406	89.44
402.63	79.44
402.854	95.44
403.078	87.44
403.302	86.44
403.526	77.44
403.75	73.44
403.974	73.44
404.198	88.44
404.422	101.44
404.645	87.44
404.869	80.44
405.093	89.44
405.317	85.44
405.541	83.44
405.765	76.44
405.988	84.44
406.212	81.44
406.436	97.44
406.66	85.44
406.883	84.44
407.107	90.44
407.331	85.44
407.555	86.44
407.778	85.44
408.002	87.44
408.226	79.44
408.449	87.44
408.673	74.44
408.896	85.44
409.12	87.44
409.344	77.44
409.567	82.44
409.791	75.44
410.014	72.44
410.238	72.44
410.461	83.44
410.685	93.44
410.908	95.44
411.132	79.44
411.355	101.44
411.578	86.44
411.802	84.44
412.025	94.44
412.249	79.44
412.472	85.44
412.695	81.44
412.919	74.44
413.142	68.44
413.365	83.44
413.589	85.44
413.812	89.44
414.035	89.44
414.258	64.44
414.482	88.44
414.705	95.44
414.928	101.44
415.151	92.44
415.374	77.44
415.597	80.44
415.821	82.44
416.044	82.44
416.267	79.44
416.49	91.44
416.713	99.44
416.936	75.44
417.159	83.44
417.382	93.44
417.605	72.44
417.828	82.44
418.051	79.44
418.274	81.44
418.497	95.44
418.72	77.44
418.943	85.44
419.166	77.44
419.389	91.44
419.611	75.44
419.834	84.44
420.057	81.44
420.28	81.44
420.503	85.44
420.726	81.44
420.948	73.44
421.171	92.44
421.394	71.44
421.617	72.44
421.839	79.44
422.062	84.44
422.285	63.44
422.507	80.44
422.73	82.44
422.953	77.44
423.175	80.44
423.398	89.44
423.621	87.44
423.843	74.44
424.066	89.44
424.288	80.44
424.511	81.44
424.733	84.44
424.956	95.44
425.178	86.44
425.401	101.44
425.623	82.44
425.846	88.44
426.068	86.44
426.291	95.44
426.513	84.44
426.735	72.44
426.958	85.44
427.18	89.44
427.402	87.44
427.625	88.44
427.847	89.44
428.069	97.44
428.292	80.44
428.514	102.44
428.736	87.44
428.958	77.44
429.181	81.44
429.403	76.44
429.625	91.44
429.847	81.44
430.069	90.44
430.292	86.44
430.514	93.44
430.736	94.44
430.958	82.44
431.18	80.44
431.402	77.44
431.624	86.44
431.846	80.44
432.068	83.44
432.29	89.44
432.512	84.44
432.734	89.44
432.956	92.44
433.178	83.44
433.4	61.44
433.622	73.44
433.844	65.44
434.066	80.44
434.287	75.44
434.509	89.44
434.731	89.44
434.953	71.44
435.175	83.44
435.397	85.44
435.618	91.44
435.84	87.44
436.062	89.44
436.284	98.44
436.505	89.44
436.727	75.44
436.949	75.44
437.17	77.44
437.392	76.44
437.614	89.44
437.835	82.44
438.057	78.44
438.278	72.44
438.5	86.44
438.721	85.44
438.943	89.44
439.165	90.44
439.386	89.44
439.608	87.44
439.829	90.44
440.05	81.44
440.272	72.44
440.493	81.44
440.715	73.44
440.936	93.44
441.158	67.44
441.379	74.44
441.6	80.44
441.822	81.44
442.043	63.44
442.264	71.44
442.486	75.44
442.707	78.44
442.928	97.44
443.149	86.44
443.371	85.44
443.592	87.44
443.813	87.44
444.034	89.44
444.255	89.44
444.476	80.44
444.698	81.44
444.919	103.44
445.14	169.44
445.361	124.44
445.582	77.44
445.803	77.44
446.024	82.44
446.245	83.44
446.466	87.44
446.687	83.44
446.908	88.44
447.129	82.44
447.35	88.44
447.571	80.44
447.792	75.44
448.013	93.44
448.234	103.44
448.455	85.44
448.675	80.44
448.896	90.44
449.117	85.44
449.338	63.44
449.559	80.44
449.779	87.44
450	101.44
450.221	89.44
450.442	93.44
450.662	85.44
450.883	88.44
451.104	74.44
451.324	88.44
451.545	83.44
451.766	85.44
451.986	70.44
452.207	77.44
452.428	81.44
452.648	89.44
452.869	88.44
453.089	103.44
453.31	75.44
453.53	90.44
453.751	95.44
453.971	80.44
454.192	89.44
454.412	86.44
454.633	82.44
454.853	94.44
455.073	76.44
455.294	77.44
455.514	84.44
455.734	87.44
455.955	75.44
456.175	75.44
456.395	79.44
456.616	93.44
456.836	69.44
457.056	73.44
457.276	89.44
457.497	80.44
457.717	76.44
457.937	75.44
458.157	74.44
458.377	83.44
458.598	74.44
458.818	85.44
459.038	86.44
459.258	77.44
459.478	73.44
459.698	80.44
459.918	79.44
460.138	70.44
460.358	82.44
460.578	89.44
460.798	88.44
461.018	88.44
461.238	86.44
461.458	99.44
461.678	88.44
461.898	88.44
462.118	74.44
462.338	79.44
462.558	78.44
462.777	84.44
462.997	67.44
463.217	85.44
463.437	83.44
463.657	78.44
463.876	81.44
464.096	86.44
464.316	72.44
464.536	85.44
464.755	79.44
464.975	83.44
465.195	89.44
465.414	89.44
465.634	87.44
465.854	78.44
466.073	77.44
466.293	85.44
466.512	75.44
466.732	77.44
466.951	82.44
467.171	77.44
467.391	89.44
467.61	85.44
467.829	96.44
468.049	100.44
468.268	101.44
468.488	83.44
468.707	78.44
468.927	76.44
469.146	74.44
469.365	88.44
469.585	105.44
469.804	93.44
470.023	88.44
470.243	93.44
470.462	64.44
470.681	81.44
470.901	95.44
471.12	92.44
471.339	94.44
471.558	100.44
471.777	89.44
471.997	98.44
472.216	121.44
472.435	130.44
472.654	85.44
472.873	83.44
473.092	78.44
473.311	67.44
473.53	87.44
473.749	84.44
473.968	89.44
474.187	76.44
474.406	69.44
474.625	86.44
474.844	81.44
475.063	72.44
475.282	75.44
475.501	91.44
475.72	77.44
475.939	82.44
476.158	83.44
476.377	83.44
476.596	74.44
476.814	101.44
477.033	85.44
477.252	84.44
477.471	95.44
477.69	87.44
477.908	92.44
478.127	92.44
478.346	74.44
478.564	87.44
478.783	89.44
479.002	93.44
479.22	84.44
479.439	94.44
479.658	79.44
479.876	75.44
480.095	79.44
480.313	92.44
480.532	87.44
480.751	79.44
480.969	105.44
481.188	201.44
481.406	124.44
481.624	100.44
481.843	87.44
482.061	75.44
482.28	93.44
482.498	89.44
482.717	89.44
482.935	98.44
483.153	80.44
483.372	93.44
483.59	90.44
483.808	79.44
484.027	90.44
484.245	80.44
484.463	92.44
484.681	103.44
484.9	79.44
485.118	78.44
485.336	84.44
485.554	73.44
485.772	85.44
485.99	74.44
486.209	93.44
486.427	91.44
486.645	72.44
486.863	93.44
487.081	92.44
487.299	82.44
487.517	103.44
487.735	81.44
487.953	86.44
488.171	78.44
488.389	96.44
488.607	87.44
488.825	71.44
489.043	85.44
489.261	99.44
489.479	105.44
489.696	97.44
489.914	64.44
490.132	82.44
490.35	87.44
490.568	86.44
490.786	94.44
491.003	91.44
491.221	85.44
491.439	81.44
491.657	95.44
491.874	86.44
492.092	82.44
492.31	84.44
492.527	72.44
492.745	81.44
492.963	94.44
493.18	87.44
493.398	93.44
493.615	83.44
493.833	96.44
494.05	87.44
494.268	92.44
494.485	80.44
494.703	80.44
494.92	81.44
495.138	68.44
495.355	102.44
495.573	78.44
495.79	85.44
496.008	85.44
496.225	91.44
496.442	90.44
496.66	98.44
496.877	71.44
497.094	95.44
497.312	77.44
497.529	91.44
497.746	77.44
497.963	87.44
498.181	90.44
498.398	97.44
498.615	88.44
498.832	80.44
499.049	83.44
499.267	97.44
499.484	89.44
499.701	94.44
499.918	94.44
500.135	82.44
500.352	92.44
500.569	88.44
500.786	77.44
501.003	92.44
501.22	81.44
501.437	89.44
501.654	80.44
501.871	82.44
502.088	83.44
502.305	87.44
502.522	92.44
502.739	85.44
502.956	85.44
503.172	80.44
503.389	96.44
503.606	80.44
503.823	92.44
504.04	85.44
504.256	82.44
504.473	82.44
504.69	94.44
504.907	95.44
505.123	97.44
505.34	77.44
505.557	79.44
505.773	86.44
505.99	66.44
506.207	75.44
506.423	80.44
506.64	100.44
506.856	76.44
507.073	85.44
507.289	92.44
507.506	79.44
507.722	89.44
507.939	72.44
508.155	79.44
508.372	73.44
508.588	85.44
508.805	80.44
509.021	91.44
509.238	77.44
509.454	90.44
509.67	75.44
509.887	81.44
510.103	84.44
510.319	100.44
510.536	126.44
510.752	182.44
510.968	108.44
511.184	93.44
511.401	84.44
511.617	95.44
511.833	71.44
512.049	85.44
512.265	89.44
512.481	83.44
512.698	101.44
512.914	95.44
513.13	85.44
513.346	90.44
513.562	89.44
513.778	79.44
513.994	93.44
514.21	83.44
514.426	89.44
514.642	90.44
514.858	83.44
515.074	97.44
515.29	116.44
515.506	159.44
515.721	115.44
515.937	102.44
516.153	89.44
516.369	89.44
516.585	72.44
516.801	77.44
517.016	85.44
517.232	79.44
517.448	79.44
517.664	74.44
517.879	85.44
518.095	83.44
518.311	82.44
518.527	85.44
518.742	89.44
518.958	90.44
519.173	90.44
519.389	85.44
