Data from Penny_2_HRD10591_00004.txt Node
Date: Wed Nov 05 15:34:28 EST 2025
User: Yrep
Spectrometer: HR+D1059
Trigger mode: 1
Integration Time (sec): 1.000000E-1
Scans to average: 1
Electric dark correction enabled: true
Nonlinearity correction enabled: false
Boxcar width: 0
XAxis mode: Wavelengths
Number of Pixels in Spectrum: 2048
>>>>>Begin Spectral Data<<<<<
223.165	-17.38
223.4	-17.38
223.635	-17.38
223.869	-5.38
224.104	-19.38
224.338	-13.38
224.573	-16.38
224.808	-4.38
225.042	-18.38
225.277	5.62
225.511	-17.38
225.746	-4.38
225.98	9.62
226.215	12.62
226.449	7.62
226.683	25.62
226.918	24.62
227.152	30.62
227.387	21.62
227.621	32.62
227.856	42.62
228.09	43.62
228.324	39.62
228.559	50.62
228.793	65.62
229.027	52.62
229.262	66.62
229.496	72.62
229.73	49.62
229.964	80.62
230.199	71.62
230.433	69.62
230.667	66.62
230.901	73.62
231.136	72.62
231.37	77.62
231.604	82.62
231.838	90.62
232.072	77.62
232.306	78.62
232.541	76.62
232.775	81.62
233.009	82.62
233.243	87.62
233.477	72.62
233.711	77.62
233.945	70.62
234.179	68.62
234.413	81.62
234.647	82.62
234.881	71.62
235.115	76.62
235.349	73.62
235.583	76.62
235.817	74.62
236.051	62.62
236.285	70.62
236.519	74.62
236.753	71.62
236.987	82.62
237.221	74.62
237.455	77.62
237.689	68.62
237.922	78.62
238.156	72.62
238.39	71.62
238.624	80.62
238.858	83.62
239.091	66.62
239.325	77.62
239.559	75.62
239.793	77.62
240.027	92.62
240.26	97.62
240.494	72.62
240.728	58.62
240.961	77.62
241.195	85.62
241.429	74.62
241.662	74.62
241.896	78.62
242.13	69.62
242.363	59.62
242.597	70.62
242.83	83.62
243.064	73.62
243.298	68.62
243.531	76.62
243.765	77.62
243.998	79.62
244.232	77.62
244.465	75.62
244.699	72.62
244.932	74.62
245.166	72.62
245.399	72.62
245.633	87.62
245.866	70.62
246.099	54.62
246.333	71.62
246.566	71.62
246.8	81.62
247.033	74.62
247.266	60.62
247.5	71.62
247.733	88.62
247.966	78.62
248.2	65.62
248.433	72.62
248.666	74.62
248.899	82.62
249.133	72.62
249.366	77.62
249.599	77.62
249.832	77.62
250.066	69.62
250.299	68.62
250.532	63.62
250.765	66.62
250.998	65.62
251.231	82.62
251.465	82.62
251.698	80.62
251.931	76.62
252.164	91.62
252.397	79.62
252.63	73.62
252.863	61.62
253.096	84.62
253.329	86.62
253.562	87.62
253.795	80.62
254.028	90.62
254.261	90.62
254.494	75.62
254.727	85.62
254.96	77.62
255.193	71.62
255.426	86.62
255.659	77.62
255.892	73.62
256.124	66.62
256.357	82.62
256.59	74.62
256.823	87.62
257.056	86.62
257.289	81.62
257.521	79.62
257.754	75.62
257.987	76.62
258.22	80.62
258.452	74.62
258.685	74.62
258.918	86.62
259.151	79.62
259.383	73.62
259.616	69.62
259.849	72.62
260.081	82.62
260.314	99.62
260.547	99.62
260.779	85.62
261.012	58.62
261.244	69.62
261.477	74.62
261.71	81.62
261.942	90.62
262.175	76.62
262.407	68.62
262.64	72.62
262.872	91.62
263.105	80.62
263.337	64.62
263.57	83.62
263.802	86.62
264.035	75.62
264.267	75.62
264.499	75.62
264.732	77.62
264.964	80.62
265.197	84.62
265.429	84.62
265.661	84.62
265.894	94.62
266.126	80.62
266.358	91.62
266.591	84.62
266.823	80.62
267.055	87.62
267.287	76.62
267.52	89.62
267.752	82.62
267.984	82.62
268.216	82.62
268.448	92.62
268.681	83.62
268.913	78.62
269.145	88.62
269.377	78.62
269.609	90.62
269.841	84.62
270.073	70.62
270.306	86.62
270.538	76.62
270.77	80.62
271.002	91.62
271.234	73.62
271.466	89.62
271.698	84.62
271.93	82.62
272.162	81.62
272.394	86.62
272.626	78.62
272.858	74.62
273.09	84.62
273.322	76.62
273.553	76.62
273.785	94.62
274.017	91.62
274.249	65.62
274.481	77.62
274.713	89.62
274.945	81.62
275.176	69.62
275.408	75.62
275.64	68.62
275.872	76.62
276.104	82.62
276.335	81.62
276.567	75.62
276.799	84.62
277.031	77.62
277.262	92.62
277.494	87.62
277.726	89.62
277.957	74.62
278.189	80.62
278.421	89.62
278.652	80.62
278.884	82.62
279.115	85.62
279.347	74.62
279.579	84.62
279.81	102.62
280.042	86.62
280.273	83.62
280.505	79.62
280.736	83.62
280.968	82.62
281.199	70.62
281.431	75.62
281.662	80.62
281.894	86.62
282.125	74.62
282.356	73.62
282.588	79.62
282.819	81.62
283.051	86.62
283.282	66.62
283.513	82.62
283.745	83.62
283.976	70.62
284.207	74.62
284.439	90.62
284.67	82.62
284.901	87.62
285.132	76.62
285.364	86.62
285.595	66.62
285.826	69.62
286.057	87.62
286.288	93.62
286.52	66.62
286.751	86.62
286.982	86.62
287.213	90.62
287.444	66.62
287.675	79.62
287.906	80.62
288.138	84.62
288.369	79.62
288.6	78.62
288.831	70.62
289.062	85.62
289.293	95.62
289.524	88.62
289.755	82.62
289.986	81.62
290.217	90.62
290.448	87.62
290.679	83.62
290.91	72.62
291.141	78.62
291.371	94.62
291.602	86.62
291.833	80.62
292.064	88.62
292.295	76.62
292.526	86.62
292.757	95.62
292.987	82.62
293.218	78.62
293.449	78.62
293.68	85.62
293.91	85.62
294.141	86.62
294.372	91.62
294.603	69.62
294.833	84.62
295.064	83.62
295.295	73.62
295.525	84.62
295.756	86.62
295.987	80.62
296.217	88.62
296.448	84.62
296.679	81.62
296.909	77.62
297.14	84.62
297.37	74.62
297.601	76.62
297.831	82.62
298.062	82.62
298.292	88.62
298.523	75.62
298.753	64.62
298.984	76.62
299.214	67.62
299.445	91.62
299.675	79.62
299.905	85.62
300.136	71.62
300.366	63.62
300.597	80.62
300.827	76.62
301.057	78.62
301.288	79.62
301.518	84.62
301.748	88.62
301.979	98.62
302.209	84.62
302.439	86.62
302.669	96.62
302.9	71.62
303.13	76.62
303.36	88.62
303.59	76.62
303.82	92.62
304.051	92.62
304.281	80.62
304.511	101.62
304.741	90.62
304.971	91.62
305.201	92.62
305.431	92.62
305.661	79.62
305.891	93.62
306.121	96.62
306.352	92.62
306.582	83.62
306.812	91.62
307.042	94.62
307.272	93.62
307.502	83.62
307.731	92.62
307.961	95.62
308.191	94.62
308.421	72.62
308.651	94.62
308.881	90.62
309.111	92.62
309.341	76.62
309.571	99.62
309.8	87.62
310.03	89.62
310.26	87.62
310.49	86.62
310.72	82.62
310.949	92.62
311.179	101.62
311.409	85.62
311.639	87.62
311.868	93.62
312.098	96.62
312.328	83.62
312.557	76.62
312.787	82.62
313.017	73.62
313.246	74.62
313.476	87.62
313.706	86.62
313.935	84.62
314.165	97.62
314.394	78.62
314.624	80.62
314.853	73.62
315.083	84.62
315.312	91.62
315.542	85.62
315.771	88.62
316.001	90.62
316.23	69.62
316.46	74.62
316.689	75.62
316.919	85.62
317.148	74.62
317.377	89.62
317.607	82.62
317.836	79.62
318.065	72.62
318.295	80.62
318.524	86.62
318.753	86.62
318.983	98.62
319.212	86.62
319.441	78.62
319.67	82.62
319.9	81.62
320.129	91.62
320.358	84.62
320.587	90.62
320.816	76.62
321.046	92.62
321.275	86.62
321.504	79.62
321.733	96.62
321.962	96.62
322.191	88.62
322.42	92.62
322.649	94.62
322.878	96.62
323.108	80.62
323.337	73.62
323.566	83.62
323.795	87.62
324.024	94.62
324.253	102.62
324.482	114.62
324.71	142.62
324.939	136.62
325.168	123.62
325.397	89.62
325.626	78.62
325.855	87.62
326.084	82.62
326.313	82.62
326.542	77.62
326.77	88.62
326.999	106.62
327.228	134.62
327.457	134.62
327.686	126.62
327.914	94.62
328.143	88.62
328.372	90.62
328.6	94.62
328.829	86.62
329.058	72.62
329.287	80.62
329.515	99.62
329.744	86.62
329.972	116.62
330.201	132.62
330.43	128.62
330.658	87.62
330.887	98.62
331.115	87.62
331.344	85.62
331.572	92.62
331.801	91.62
332.03	80.62
332.258	85.62
332.486	84.62
332.715	83.62
332.943	82.62
333.172	86.62
333.4	90.62
333.629	88.62
333.857	86.62
334.085	92.62
334.314	120.62
334.542	128.62
334.771	105.62
334.999	84.62
335.227	72.62
335.455	80.62
335.684	79.62
335.912	73.62
336.14	87.62
336.369	72.62
336.597	90.62
336.825	85.62
337.053	80.62
337.281	86.62
337.51	88.62
337.738	87.62
337.966	78.62
338.194	78.62
338.422	76.62
338.65	82.62
338.878	86.62
339.106	77.62
339.334	86.62
339.562	87.62
339.79	93.62
340.018	82.62
340.246	80.62
340.474	73.62
340.702	89.62
340.93	85.62
341.158	89.62
341.386	87.62
341.614	102.62
341.842	84.62
342.07	77.62
342.298	78.62
342.526	77.62
342.754	91.62
342.981	79.62
343.209	85.62
343.437	87.62
343.665	83.62
343.893	87.62
344.12	82.62
344.348	86.62
344.576	79.62
344.804	81.62
345.031	84.62
345.259	67.62
345.487	87.62
345.714	72.62
345.942	92.62
346.17	83.62
346.397	98.62
346.625	70.62
346.853	72.62
347.08	68.62
347.308	83.62
347.535	81.62
347.763	71.62
347.99	78.62
348.218	79.62
348.445	83.62
348.673	91.62
348.9	90.62
349.128	83.62
349.355	85.62
349.583	79.62
349.81	66.62
350.037	105.62
350.265	89.62
350.492	80.62
350.72	66.62
350.947	73.62
351.174	74.62
351.402	89.62
351.629	81.62
351.856	92.62
352.083	79.62
352.311	95.62
352.538	80.62
352.765	88.62
352.992	87.62
353.22	92.62
353.447	78.62
353.674	71.62
353.901	96.62
354.128	87.62
354.355	70.62
354.583	80.62
354.81	62.62
355.037	86.62
355.264	86.62
355.491	88.62
355.718	78.62
355.945	81.62
356.172	82.62
356.399	90.62
356.626	82.62
356.853	88.62
357.08	98.62
357.307	80.62
357.534	92.62
357.761	79.62
357.988	82.62
358.215	81.62
358.441	86.62
358.668	91.62
358.895	76.62
359.122	82.62
359.349	72.62
359.576	84.62
359.802	78.62
360.029	99.62
360.256	82.62
360.483	93.62
360.709	71.62
360.936	87.62
361.163	80.62
361.39	88.62
361.616	76.62
361.843	82.62
362.07	74.62
362.296	88.62
362.523	85.62
362.749	78.62
362.976	72.62
363.203	86.62
363.429	76.62
363.656	94.62
363.882	89.62
364.109	82.62
364.335	89.62
364.562	71.62
364.788	80.62
365.015	75.62
365.241	83.62
365.468	94.62
365.694	79.62
365.92	86.62
366.147	81.62
366.373	86.62
366.599	78.62
366.826	75.62
367.052	82.62
367.278	76.62
367.505	78.62
367.731	94.62
367.957	95.62
368.184	88.62
368.41	82.62
368.636	89.62
368.862	87.62
369.089	84.62
369.315	85.62
369.541	82.62
369.767	84.62
369.993	88.62
370.219	84.62
370.445	88.62
370.672	67.62
370.898	88.62
371.124	80.62
371.35	82.62
371.576	83.62
371.802	72.62
372.028	80.62
372.254	67.62
372.48	83.62
372.706	82.62
372.932	74.62
373.158	72.62
373.384	80.62
373.61	87.62
373.835	73.62
374.061	75.62
374.287	91.62
374.513	80.62
374.739	78.62
374.965	68.62
375.191	76.62
375.416	80.62
375.642	99.62
375.868	84.62
376.094	86.62
376.319	79.62
376.545	73.62
376.771	89.62
376.997	91.62
377.222	88.62
377.448	89.62
377.674	90.62
377.899	86.62
378.125	87.62
378.35	69.62
378.576	62.62
378.802	83.62
379.027	85.62
379.253	77.62
379.478	90.62
379.704	74.62
379.929	82.62
380.155	82.62
380.38	83.62
380.606	82.62
380.831	79.62
381.057	86.62
381.282	86.62
381.507	85.62
381.733	87.62
381.958	62.62
382.184	90.62
382.409	85.62
382.634	86.62
382.86	76.62
383.085	85.62
383.31	59.62
383.535	100.62
383.761	77.62
383.986	77.62
384.211	72.62
384.436	70.62
384.662	79.62
384.887	84.62
385.112	73.62
385.337	88.62
385.562	82.62
385.787	83.62
386.013	83.62
386.238	96.62
386.463	80.62
386.688	77.62
386.913	72.62
387.138	87.62
387.363	92.62
387.588	69.62
387.813	89.62
388.038	89.62
388.263	80.62
388.488	79.62
388.713	84.62
388.938	87.62
389.163	94.62
389.387	84.62
389.612	84.62
389.837	74.62
390.062	82.62
390.287	83.62
390.512	66.62
390.736	81.62
390.961	82.62
391.186	99.62
391.411	73.62
391.636	74.62
391.86	88.62
392.085	76.62
392.31	84.62
392.534	86.62
392.759	83.62
392.984	77.62
393.208	74.62
393.433	86.62
393.658	78.62
393.882	74.62
394.107	70.62
394.331	69.62
394.556	83.62
394.78	74.62
395.005	72.62
395.229	74.62
395.454	79.62
395.678	74.62
395.903	75.62
396.127	89.62
396.352	89.62
396.576	74.62
396.801	79.62
397.025	87.62
397.249	94.62
397.474	86.62
397.698	81.62
397.922	77.62
398.147	79.62
398.371	81.62
398.595	80.62
398.82	89.62
399.044	87.62
399.268	82.62
399.492	71.62
399.717	82.62
399.941	66.62
400.165	73.62
400.389	80.62
400.613	70.62
400.837	80.62
401.062	67.62
401.286	72.62
401.51	80.62
401.734	84.62
401.958	76.62
402.182	84.62
402.406	87.62
402.63	85.62
402.854	66.62
403.078	80.62
403.302	58.62
403.526	69.62
403.75	80.62
403.974	87.62
404.198	82.62
404.422	73.62
404.645	85.62
404.869	73.62
405.093	76.62
405.317	78.62
405.541	69.62
405.765	75.62
405.988	77.62
406.212	96.62
406.436	85.62
406.66	88.62
406.883	95.62
407.107	68.62
407.331	84.62
407.555	85.62
407.778	79.62
408.002	87.62
408.226	69.62
408.449	74.62
408.673	83.62
408.896	94.62
409.12	85.62
409.344	75.62
409.567	91.62
409.791	87.62
410.014	79.62
410.238	93.62
410.461	83.62
410.685	67.62
410.908	83.62
411.132	75.62
411.355	87.62
411.578	77.62
411.802	83.62
412.025	87.62
412.249	92.62
412.472	82.62
412.695	75.62
412.919	76.62
413.142	90.62
413.365	88.62
413.589	90.62
413.812	82.62
414.035	80.62
414.258	74.62
414.482	84.62
414.705	91.62
414.928	84.62
415.151	89.62
415.374	69.62
415.597	77.62
415.821	76.62
416.044	82.62
416.267	82.62
416.49	86.62
416.713	80.62
416.936	77.62
417.159	89.62
417.382	71.62
417.605	77.62
417.828	77.62
418.051	71.62
418.274	72.62
418.497	75.62
418.72	75.62
418.943	77.62
419.166	66.62
419.389	64.62
419.611	78.62
419.834	89.62
420.057	94.62
420.28	86.62
420.503	82.62
420.726	67.62
420.948	79.62
421.171	74.62
421.394	83.62
421.617	86.62
421.839	75.62
422.062	70.62
422.285	82.62
422.507	58.62
422.73	84.62
422.953	85.62
423.175	68.62
423.398	73.62
423.621	74.62
423.843	90.62
424.066	83.62
424.288	91.62
424.511	83.62
424.733	69.62
424.956	71.62
425.178	86.62
425.401	83.62
425.623	80.62
425.846	78.62
426.068	88.62
426.291	97.62
426.513	78.62
426.735	84.62
426.958	82.62
427.18	88.62
427.402	95.62
427.625	90.62
427.847	84.62
428.069	67.62
428.292	88.62
428.514	79.62
428.736	80.62
428.958	77.62
429.181	82.62
429.403	85.62
429.625	90.62
429.847	82.62
430.069	80.62
430.292	66.62
430.514	92.62
430.736	75.62
430.958	93.62
431.18	89.62
431.402	82.62
431.624	76.62
431.846	90.62
432.068	71.62
432.29	89.62
432.512	87.62
432.734	92.62
432.956	74.62
433.178	95.62
433.4	80.62
433.622	73.62
433.844	64.62
434.066	66.62
434.287	86.62
434.509	82.62
434.731	77.62
434.953	81.62
435.175	77.62
435.397	80.62
435.618	73.62
435.84	78.62
436.062	88.62
436.284	74.62
436.505	84.62
436.727	69.62
436.949	72.62
437.17	88.62
437.392	74.62
437.614	86.62
437.835	78.62
438.057	67.62
438.278	85.62
438.5	65.62
438.721	96.62
438.943	79.62
439.165	76.62
439.386	82.62
439.608	86.62
439.829	78.62
440.05	69.62
440.272	78.62
440.493	68.62
440.715	63.62
440.936	76.62
441.158	77.62
441.379	92.62
441.6	75.62
441.822	80.62
442.043	83.62
442.264	73.62
442.486	78.62
442.707	92.62
442.928	83.62
443.149	68.62
443.371	76.62
443.592	73.62
443.813	79.62
444.034	65.62
444.255	82.62
444.476	75.62
444.698	88.62
444.919	77.62
445.14	158.62
445.361	136.62
445.582	84.62
445.803	85.62
446.024	91.62
446.245	85.62
446.466	84.62
446.687	94.62
446.908	98.62
447.129	79.62
447.35	96.62
447.571	74.62
447.792	82.62
448.013	82.62
448.234	95.62
448.455	71.62
448.675	75.62
448.896	80.62
449.117	78.62
449.338	60.62
449.559	93.62
449.779	82.62
450	81.62
450.221	82.62
450.442	68.62
450.662	76.62
450.883	93.62
451.104	94.62
451.324	72.62
451.545	80.62
451.766	75.62
451.986	78.62
452.207	76.62
452.428	78.62
452.648	70.62
452.869	88.62
453.089	98.62
453.31	89.62
453.53	74.62
453.751	77.62
453.971	75.62
454.192	82.62
454.412	77.62
454.633	72.62
454.853	69.62
455.073	81.62
455.294	80.62
455.514	86.62
455.734	82.62
455.955	82.62
456.175	74.62
456.395	80.62
456.616	67.62
456.836	74.62
457.056	86.62
457.276	68.62
457.497	75.62
457.717	77.62
457.937	92.62
458.157	75.62
458.377	84.62
458.598	82.62
458.818	86.62
459.038	87.62
459.258	75.62
459.478	77.62
459.698	67.62
459.918	92.62
460.138	82.62
460.358	77.62
460.578	74.62
460.798	88.62
461.018	84.62
461.238	70.62
461.458	81.62
461.678	76.62
461.898	85.62
462.118	85.62
462.338	94.62
462.558	78.62
462.777	80.62
462.997	75.62
463.217	82.62
463.437	92.62
463.657	101.62
463.876	69.62
464.096	71.62
464.316	80.62
464.536	74.62
464.755	74.62
464.975	89.62
465.195	107.62
465.414	77.62
465.634	68.62
465.854	85.62
466.073	85.62
466.293	83.62
466.512	72.62
466.732	65.62
466.951	83.62
467.171	80.62
467.391	84.62
467.61	86.62
467.829	97.62
468.049	112.62
468.268	105.62
468.488	74.62
468.707	86.62
468.927	86.62
469.146	79.62
469.365	76.62
469.585	78.62
469.804	96.62
470.023	91.62
470.243	85.62
470.462	94.62
470.681	74.62
470.901	81.62
471.12	90.62
471.339	83.62
471.558	84.62
471.777	85.62
471.997	86.62
472.216	115.62
472.435	142.62
472.654	82.62
472.873	80.62
473.092	77.62
473.311	79.62
473.53	68.62
473.749	90.62
473.968	87.62
474.187	72.62
474.406	66.62
474.625	87.62
474.844	81.62
475.063	81.62
475.282	72.62
475.501	97.62
475.72	82.62
475.939	73.62
476.158	84.62
476.377	90.62
476.596	95.62
476.814	88.62
477.033	89.62
477.252	95.62
477.471	90.62
477.69	77.62
477.908	77.62
478.127	73.62
478.346	80.62
478.564	77.62
478.783	79.62
479.002	69.62
479.22	77.62
479.439	88.62
479.658	84.62
479.876	82.62
480.095	61.62
480.313	88.62
480.532	85.62
480.751	84.62
480.969	125.62
481.188	223.62
481.406	142.62
481.624	70.62
481.843	81.62
482.061	91.62
482.28	85.62
482.498	83.62
482.717	83.62
482.935	63.62
483.153	70.62
483.372	86.62
483.59	88.62
483.808	80.62
484.027	73.62
484.245	79.62
484.463	77.62
484.681	79.62
484.9	73.62
485.118	82.62
485.336	81.62
485.554	89.62
485.772	84.62
485.99	82.62
486.209	85.62
486.427	78.62
486.645	80.62
486.863	80.62
487.081	86.62
487.299	80.62
487.517	74.62
487.735	80.62
487.953	89.62
488.171	78.62
488.389	76.62
488.607	82.62
488.825	82.62
489.043	79.62
489.261	68.62
489.479	77.62
489.696	86.62
489.914	64.62
490.132	82.62
490.35	85.62
490.568	71.62
490.786	78.62
491.003	98.62
491.221	91.62
491.439	84.62
491.657	89.62
491.874	72.62
492.092	87.62
492.31	90.62
492.527	86.62
492.745	75.62
492.963	77.62
493.18	78.62
493.398	80.62
493.615	102.62
493.833	94.62
494.05	81.62
494.268	72.62
494.485	78.62
494.703	78.62
494.92	79.62
495.138	78.62
495.355	81.62
495.573	74.62
495.79	88.62
496.008	78.62
496.225	74.62
496.442	76.62
496.66	94.62
496.877	78.62
497.094	75.62
497.312	69.62
497.529	94.62
497.746	90.62
497.963	89.62
498.181	66.62
498.398	82.62
498.615	89.62
498.832	87.62
499.049	78.62
499.267	73.62
499.484	77.62
499.701	83.62
499.918	89.62
500.135	79.62
500.352	90.62
500.569	68.62
500.786	87.62
501.003	73.62
501.22	82.62
501.437	87.62
501.654	78.62
501.871	81.62
502.088	66.62
502.305	71.62
502.522	79.62
502.739	78.62
502.956	79.62
503.172	67.62
503.389	78.62
503.606	81.62
503.823	91.62
504.04	79.62
504.256	90.62
504.473	91.62
504.69	82.62
504.907	82.62
505.123	85.62
505.34	66.62
505.557	74.62
505.773	87.62
505.99	90.62
506.207	74.62
506.423	84.62
506.64	85.62
506.856	72.62
507.073	82.62
507.289	78.62
507.506	86.62
507.722	78.62
507.939	76.62
508.155	92.62
508.372	74.62
508.588	89.62
508.805	83.62
509.021	74.62
509.238	84.62
509.454	74.62
509.67	74.62
509.887	83.62
510.103	85.62
510.319	86.62
510.536	116.62
510.752	192.62
510.968	106.62
511.184	88.62
511.401	72.62
511.617	89.62
511.833	74.62
512.049	82.62
512.265	79.62
512.481	90.62
512.698	74.62
512.914	74.62
513.13	94.62
513.346	72.62
513.562	79.62
513.778	90.62
513.994	89.62
514.21	94.62
514.426	94.62
514.642	83.62
514.858	94.62
515.074	81.62
515.29	120.62
515.506	171.62
515.721	110.62
515.937	77.62
516.153	87.62
516.369	72.62
516.585	74.62
516.801	62.62
517.016	88.62
517.232	86.62
517.448	84.62
517.664	73.62
517.879	89.62
518.095	64.62
518.311	90.62
518.527	99.62
518.742	82.62
518.958	78.62
519.173	89.62
519.389	75.62
519.605	78.62
519.82	98.62
