Data from Penny_2_HRD10591_00015.txt Node
Date: Wed Nov 05 15:34:34 EST 2025
User: Yrep
Spectrometer: HR+D1059
Trigger mode: 1
Integration Time (sec): 1.000000E-1
Scans to average: 1
Electric dark correction enabled: true
Nonlinearity correction enabled: false
Boxcar width: 0
XAxis mode: Wavelengths
Number of Pixels in Spectrum: 2048
>>>>>Begin Spectral Data<<<<<
223.165	-9.31
223.4	-9.31
223.635	-9.31
223.869	-23.31
224.104	-36.31
224.338	-6.31
224.573	-6.31
224.808	-27.31
225.042	-19.31
225.277	4.69
225.511	5.69
225.746	-0.31
225.98	15.69
226.215	11.69
226.449	7.69
226.683	23.69
226.918	31.69
227.152	27.69
227.387	43.69
227.621	23.69
227.856	47.69
228.09	41.69
228.324	57.69
228.559	57.69
228.793	50.69
229.027	68.69
229.262	60.69
229.496	58.69
229.73	76.69
229.964	88.69
230.199	76.69
230.433	72.69
230.667	88.69
230.901	80.69
231.136	79.69
231.37	78.69
231.604	76.69
231.838	75.69
232.072	81.69
232.306	87.69
232.541	80.69
232.775	88.69
233.009	84.69
233.243	99.69
233.477	94.69
233.711	72.69
233.945	77.69
234.179	86.69
234.413	85.69
234.647	73.69
234.881	77.69
235.115	79.69
235.349	87.69
235.583	95.69
235.817	85.69
236.051	72.69
236.285	68.69
236.519	73.69
236.753	80.69
236.987	77.69
237.221	77.69
237.455	72.69
237.689	68.69
237.922	74.69
238.156	79.69
238.39	70.69
238.624	63.69
238.858	67.69
239.091	74.69
239.325	66.69
239.559	73.69
239.793	62.69
240.027	73.69
240.26	87.69
240.494	70.69
240.728	70.69
240.961	71.69
241.195	77.69
241.429	69.69
241.662	61.69
241.896	74.69
242.13	64.69
242.363	63.69
242.597	67.69
242.83	74.69
243.064	72.69
243.298	71.69
243.531	76.69
243.765	78.69
243.998	76.69
244.232	74.69
244.465	77.69
244.699	74.69
244.932	78.69
245.166	87.69
245.399	78.69
245.633	78.69
245.866	90.69
246.099	77.69
246.333	70.69
246.566	82.69
246.8	63.69
247.033	74.69
247.266	83.69
247.5	82.69
247.733	68.69
247.966	76.69
248.2	83.69
248.433	68.69
248.666	66.69
248.899	77.69
249.133	90.69
249.366	89.69
249.599	69.69
249.832	60.69
250.066	86.69
250.299	86.69
250.532	86.69
250.765	79.69
250.998	72.69
251.231	72.69
251.465	86.69
251.698	67.69
251.931	81.69
252.164	75.69
252.397	85.69
252.63	86.69
252.863	73.69
253.096	72.69
253.329	80.69
253.562	75.69
253.795	71.69
254.028	80.69
254.261	74.69
254.494	88.69
254.727	97.69
254.96	73.69
255.193	76.69
255.426	83.69
255.659	85.69
255.892	84.69
256.124	86.69
256.357	86.69
256.59	90.69
256.823	80.69
257.056	70.69
257.289	80.69
257.521	71.69
257.754	72.69
257.987	79.69
258.22	74.69
258.452	76.69
258.685	65.69
258.918	87.69
259.151	72.69
259.383	75.69
259.616	72.69
259.849	90.69
260.081	77.69
260.314	94.69
260.547	81.69
260.779	74.69
261.012	97.69
261.244	84.69
261.477	89.69
261.71	88.69
261.942	78.69
262.175	92.69
262.407	57.69
262.64	84.69
262.872	75.69
263.105	79.69
263.337	76.69
263.57	79.69
263.802	80.69
264.035	71.69
264.267	81.69
264.499	72.69
264.732	95.69
264.964	69.69
265.197	78.69
265.429	85.69
265.661	100.69
265.894	76.69
266.126	87.69
266.358	88.69
266.591	78.69
266.823	76.69
267.055	75.69
267.287	59.69
267.52	72.69
267.752	70.69
267.984	92.69
268.216	87.69
268.448	79.69
268.681	78.69
268.913	77.69
269.145	75.69
269.377	80.69
269.609	70.69
269.841	75.69
270.073	78.69
270.306	71.69
270.538	101.69
270.77	76.69
271.002	78.69
271.234	83.69
271.466	97.69
271.698	75.69
271.93	90.69
272.162	85.69
272.394	82.69
272.626	94.69
272.858	74.69
273.09	74.69
273.322	91.69
273.553	80.69
273.785	86.69
274.017	90.69
274.249	85.69
274.481	83.69
274.713	101.69
274.945	94.69
275.176	77.69
275.408	96.69
275.64	67.69
275.872	83.69
276.104	92.69
276.335	83.69
276.567	83.69
276.799	72.69
277.031	83.69
277.262	94.69
277.494	93.69
277.726	84.69
277.957	76.69
278.189	72.69
278.421	81.69
278.652	78.69
278.884	84.69
279.115	74.69
279.347	87.69
279.579	84.69
279.81	78.69
280.042	84.69
280.273	74.69
280.505	83.69
280.736	80.69
280.968	86.69
281.199	82.69
281.431	93.69
281.662	96.69
281.894	84.69
282.125	83.69
282.356	87.69
282.588	90.69
282.819	73.69
283.051	84.69
283.282	78.69
283.513	88.69
283.745	86.69
283.976	85.69
284.207	89.69
284.439	79.69
284.67	87.69
284.901	70.69
285.132	74.69
285.364	81.69
285.595	68.69
285.826	92.69
286.057	92.69
286.288	85.69
286.52	85.69
286.751	90.69
286.982	86.69
287.213	78.69
287.444	72.69
287.675	68.69
287.906	93.69
288.138	78.69
288.369	79.69
288.6	86.69
288.831	81.69
289.062	82.69
289.293	81.69
289.524	93.69
289.755	82.69
289.986	75.69
290.217	83.69
290.448	92.69
290.679	84.69
290.91	78.69
291.141	74.69
291.371	77.69
291.602	77.69
291.833	80.69
292.064	99.69
292.295	91.69
292.526	85.69
292.757	87.69
292.987	92.69
293.218	84.69
293.449	89.69
293.68	90.69
293.91	70.69
294.141	71.69
294.372	86.69
294.603	81.69
294.833	78.69
295.064	94.69
295.295	93.69
295.525	85.69
295.756	79.69
295.987	91.69
296.217	85.69
296.448	100.69
296.679	74.69
296.909	81.69
297.14	69.69
297.37	88.69
297.601	92.69
297.831	80.69
298.062	90.69
298.292	85.69
298.523	74.69
298.753	90.69
298.984	78.69
299.214	84.69
299.445	93.69
299.675	99.69
299.905	88.69
300.136	76.69
300.366	83.69
300.597	82.69
300.827	85.69
301.057	86.69
301.288	78.69
301.518	83.69
301.748	88.69
301.979	92.69
302.209	87.69
302.439	84.69
302.669	87.69
302.9	86.69
303.13	87.69
303.36	77.69
303.59	71.69
303.82	95.69
304.051	79.69
304.281	73.69
304.511	106.69
304.741	88.69
304.971	80.69
305.201	76.69
305.431	70.69
305.661	80.69
305.891	76.69
306.121	86.69
306.352	87.69
306.582	78.69
306.812	82.69
307.042	84.69
307.272	96.69
307.502	93.69
307.731	87.69
307.961	92.69
308.191	90.69
308.421	84.69
308.651	79.69
308.881	96.69
309.111	104.69
309.341	92.69
309.571	82.69
309.8	87.69
310.03	92.69
310.26	96.69
310.49	73.69
310.72	87.69
310.949	72.69
311.179	75.69
311.409	86.69
311.639	76.69
311.868	90.69
312.098	79.69
312.328	95.69
312.557	82.69
312.787	77.69
313.017	78.69
313.246	67.69
313.476	87.69
313.706	78.69
313.935	75.69
314.165	84.69
314.394	85.69
314.624	98.69
314.853	89.69
315.083	90.69
315.312	90.69
315.542	84.69
315.771	85.69
316.001	87.69
316.23	99.69
316.46	101.69
316.689	92.69
316.919	98.69
317.148	81.69
317.377	78.69
317.607	79.69
317.836	77.69
318.065	68.69
318.295	72.69
318.524	86.69
318.753	83.69
318.983	83.69
319.212	83.69
319.441	93.69
319.67	85.69
319.9	87.69
320.129	78.69
320.358	74.69
320.587	93.69
320.816	85.69
321.046	91.69
321.275	83.69
321.504	89.69
321.733	68.69
321.962	78.69
322.191	91.69
322.42	73.69
322.649	77.69
322.878	88.69
323.108	97.69
323.337	86.69
323.566	97.69
323.795	94.69
324.024	109.69
324.253	89.69
324.482	124.69
324.71	158.69
324.939	155.69
325.168	100.69
325.397	87.69
325.626	91.69
325.855	83.69
326.084	84.69
326.313	87.69
326.542	87.69
326.77	90.69
326.999	98.69
327.228	118.69
327.457	141.69
327.686	136.69
327.914	107.69
328.143	101.69
328.372	108.69
328.6	95.69
328.829	87.69
329.058	99.69
329.287	83.69
329.515	90.69
329.744	105.69
329.972	109.69
330.201	119.69
330.43	122.69
330.658	101.69
330.887	90.69
331.115	92.69
331.344	86.69
331.572	92.69
331.801	76.69
332.03	91.69
332.258	84.69
332.486	88.69
332.715	83.69
332.943	92.69
333.172	86.69
333.4	81.69
333.629	79.69
333.857	101.69
334.085	118.69
334.314	127.69
334.542	144.69
334.771	124.69
334.999	101.69
335.227	81.69
335.455	78.69
335.684	81.69
335.912	79.69
336.14	86.69
336.369	86.69
336.597	69.69
336.825	84.69
337.053	83.69
337.281	78.69
337.51	76.69
337.738	74.69
337.966	80.69
338.194	76.69
338.422	90.69
338.65	76.69
338.878	78.69
339.106	86.69
339.334	91.69
339.562	80.69
339.79	88.69
340.018	80.69
340.246	90.69
340.474	96.69
340.702	90.69
340.93	85.69
341.158	84.69
341.386	93.69
341.614	95.69
341.842	78.69
342.07	81.69
342.298	80.69
342.526	70.69
342.754	90.69
342.981	92.69
343.209	91.69
343.437	90.69
343.665	81.69
343.893	87.69
344.12	73.69
344.348	81.69
344.576	84.69
344.804	79.69
345.031	87.69
345.259	86.69
345.487	95.69
345.714	82.69
345.942	87.69
346.17	88.69
346.397	87.69
346.625	80.69
346.853	81.69
347.08	88.69
347.308	93.69
347.535	103.69
347.763	89.69
347.99	104.69
348.218	80.69
348.445	91.69
348.673	92.69
348.9	78.69
349.128	72.69
349.355	87.69
349.583	87.69
349.81	98.69
350.037	92.69
350.265	93.69
350.492	74.69
350.72	80.69
350.947	86.69
351.174	87.69
351.402	86.69
351.629	79.69
351.856	88.69
352.083	81.69
352.311	76.69
352.538	95.69
352.765	74.69
352.992	76.69
353.22	77.69
353.447	70.69
353.674	85.69
353.901	77.69
354.128	99.69
354.355	95.69
354.583	93.69
354.81	87.69
355.037	81.69
355.264	84.69
355.491	74.69
355.718	76.69
355.945	73.69
356.172	69.69
356.399	74.69
356.626	75.69
356.853	87.69
357.08	93.69
357.307	83.69
357.534	90.69
357.761	78.69
357.988	97.69
358.215	84.69
358.441	90.69
358.668	79.69
358.895	67.69
359.122	81.69
359.349	83.69
359.576	81.69
359.802	75.69
360.029	87.69
360.256	88.69
360.483	96.69
360.709	77.69
360.936	84.69
361.163	82.69
361.39	71.69
361.616	75.69
361.843	83.69
362.07	91.69
362.296	80.69
362.523	87.69
362.749	80.69
362.976	91.69
363.203	87.69
363.429	76.69
363.656	88.69
363.882	87.69
364.109	84.69
364.335	78.69
364.562	98.69
364.788	82.69
365.015	89.69
365.241	91.69
365.468	95.69
365.694	98.69
365.92	91.69
366.147	89.69
366.373	87.69
366.599	83.69
366.826	78.69
367.052	72.69
367.278	77.69
367.505	70.69
367.731	87.69
367.957	75.69
368.184	85.69
368.41	114.69
368.636	94.69
368.862	79.69
369.089	73.69
369.315	80.69
369.541	89.69
369.767	95.69
369.993	98.69
370.219	84.69
370.445	73.69
370.672	88.69
370.898	76.69
371.124	93.69
371.35	84.69
371.576	76.69
371.802	67.69
372.028	94.69
372.254	98.69
372.48	87.69
372.706	96.69
372.932	88.69
373.158	76.69
373.384	78.69
373.61	68.69
373.835	92.69
374.061	92.69
374.287	81.69
374.513	76.69
374.739	76.69
374.965	87.69
375.191	86.69
375.416	83.69
375.642	80.69
375.868	89.69
376.094	81.69
376.319	83.69
376.545	91.69
376.771	91.69
376.997	76.69
377.222	88.69
377.448	78.69
377.674	71.69
377.899	101.69
378.125	85.69
378.35	96.69
378.576	95.69
378.802	93.69
379.027	72.69
379.253	85.69
379.478	73.69
379.704	85.69
379.929	88.69
380.155	86.69
380.38	73.69
380.606	77.69
380.831	73.69
381.057	94.69
381.282	88.69
381.507	87.69
381.733	74.69
381.958	82.69
382.184	77.69
382.409	94.69
382.634	86.69
382.86	86.69
383.085	90.69
383.31	87.69
383.535	99.69
383.761	81.69
383.986	86.69
384.211	83.69
384.436	81.69
384.662	87.69
384.887	93.69
385.112	80.69
385.337	71.69
385.562	72.69
385.787	78.69
386.013	88.69
386.238	80.69
386.463	78.69
386.688	93.69
386.913	87.69
387.138	79.69
387.363	85.69
387.588	91.69
387.813	92.69
388.038	79.69
388.263	74.69
388.488	76.69
388.713	91.69
388.938	84.69
389.163	77.69
389.387	106.69
389.612	79.69
389.837	65.69
390.062	71.69
390.287	76.69
390.512	80.69
390.736	91.69
390.961	83.69
391.186	85.69
391.411	75.69
391.636	86.69
391.86	68.69
392.085	87.69
392.31	87.69
392.534	70.69
392.759	87.69
392.984	87.69
393.208	94.69
393.433	86.69
393.658	80.69
393.882	82.69
394.107	92.69
394.331	90.69
394.556	78.69
394.78	84.69
395.005	80.69
395.229	80.69
395.454	84.69
395.678	92.69
395.903	95.69
396.127	89.69
396.352	67.69
396.576	74.69
396.801	85.69
397.025	83.69
397.249	71.69
397.474	95.69
397.698	81.69
397.922	90.69
398.147	87.69
398.371	82.69
398.595	91.69
398.82	81.69
399.044	80.69
399.268	81.69
399.492	82.69
399.717	90.69
399.941	87.69
400.165	84.69
400.389	74.69
400.613	78.69
400.837	69.69
401.062	87.69
401.286	88.69
401.51	79.69
401.734	74.69
401.958	78.69
402.182	88.69
402.406	88.69
402.63	71.69
402.854	77.69
403.078	72.69
403.302	82.69
403.526	80.69
403.75	84.69
403.974	88.69
404.198	91.69
404.422	75.69
404.645	81.69
404.869	84.69
405.093	85.69
405.317	79.69
405.541	83.69
405.765	61.69
405.988	93.69
406.212	80.69
406.436	86.69
406.66	82.69
406.883	87.69
407.107	86.69
407.331	64.69
407.555	79.69
407.778	72.69
408.002	80.69
408.226	93.69
408.449	78.69
408.673	81.69
408.896	91.69
409.12	91.69
409.344	90.69
409.567	82.69
409.791	89.69
410.014	77.69
410.238	83.69
410.461	86.69
410.685	84.69
410.908	99.69
411.132	95.69
411.355	96.69
411.578	89.69
411.802	88.69
412.025	80.69
412.249	82.69
412.472	69.69
412.695	78.69
412.919	83.69
413.142	88.69
413.365	73.69
413.589	92.69
413.812	80.69
414.035	94.69
414.258	72.69
414.482	83.69
414.705	88.69
414.928	79.69
415.151	82.69
415.374	80.69
415.597	92.69
415.821	74.69
416.044	87.69
416.267	79.69
416.49	73.69
416.713	80.69
416.936	88.69
417.159	77.69
417.382	78.69
417.605	90.69
417.828	79.69
418.051	82.69
418.274	86.69
418.497	92.69
418.72	80.69
418.943	79.69
419.166	90.69
419.389	70.69
419.611	85.69
419.834	74.69
420.057	78.69
420.28	86.69
420.503	83.69
420.726	82.69
420.948	96.69
421.171	88.69
421.394	88.69
421.617	88.69
421.839	74.69
422.062	86.69
422.285	89.69
422.507	76.69
422.73	86.69
422.953	76.69
423.175	70.69
423.398	86.69
423.621	95.69
423.843	86.69
424.066	70.69
424.288	70.69
424.511	75.69
424.733	91.69
424.956	80.69
425.178	89.69
425.401	82.69
425.623	69.69
425.846	83.69
426.068	73.69
426.291	94.69
426.513	90.69
426.735	87.69
426.958	74.69
427.18	80.69
427.402	91.69
427.625	84.69
427.847	80.69
428.069	76.69
428.292	74.69
428.514	79.69
428.736	79.69
428.958	88.69
429.181	76.69
429.403	90.69
429.625	70.69
429.847	79.69
430.069	72.69
430.292	97.69
430.514	86.69
430.736	68.69
430.958	83.69
431.18	88.69
431.402	79.69
431.624	92.69
431.846	81.69
432.068	84.69
432.29	86.69
432.512	74.69
432.734	81.69
432.956	88.69
433.178	98.69
433.4	86.69
433.622	74.69
433.844	76.69
434.066	95.69
434.287	88.69
434.509	77.69
434.731	80.69
434.953	82.69
435.175	76.69
435.397	86.69
435.618	85.69
435.84	71.69
436.062	75.69
436.284	79.69
436.505	82.69
436.727	81.69
436.949	74.69
437.17	85.69
437.392	87.69
437.614	86.69
437.835	87.69
438.057	85.69
438.278	85.69
438.5	84.69
438.721	80.69
438.943	87.69
439.165	70.69
439.386	92.69
439.608	86.69
439.829	93.69
440.05	99.69
440.272	80.69
440.493	84.69
440.715	73.69
440.936	75.69
441.158	86.69
441.379	83.69
441.6	86.69
441.822	77.69
442.043	82.69
442.264	84.69
442.486	93.69
442.707	70.69
442.928	76.69
443.149	76.69
443.371	80.69
443.592	88.69
443.813	81.69
444.034	91.69
444.255	74.69
444.476	71.69
444.698	72.69
444.919	75.69
445.14	159.69
445.361	114.69
445.582	74.69
445.803	75.69
446.024	71.69
446.245	78.69
446.466	70.69
446.687	73.69
446.908	98.69
447.129	72.69
447.35	101.69
447.571	85.69
447.792	88.69
448.013	78.69
448.234	86.69
448.455	81.69
448.675	82.69
448.896	66.69
449.117	79.69
449.338	82.69
449.559	78.69
449.779	82.69
450	96.69
450.221	80.69
450.442	70.69
450.662	85.69
450.883	86.69
451.104	81.69
451.324	79.69
451.545	76.69
451.766	95.69
451.986	64.69
452.207	87.69
452.428	87.69
452.648	82.69
452.869	78.69
453.089	96.69
453.31	78.69
453.53	81.69
453.751	84.69
453.971	91.69
454.192	84.69
454.412	72.69
454.633	88.69
454.853	86.69
455.073	92.69
455.294	81.69
455.514	79.69
455.734	82.69
455.955	81.69
456.175	74.69
456.395	75.69
456.616	83.69
456.836	72.69
457.056	79.69
457.276	89.69
457.497	77.69
457.717	76.69
457.937	85.69
458.157	72.69
458.377	83.69
458.598	99.69
458.818	79.69
459.038	82.69
459.258	90.69
459.478	89.69
459.698	87.69
459.918	85.69
460.138	86.69
460.358	71.69
460.578	78.69
460.798	79.69
461.018	88.69
461.238	78.69
461.458	70.69
461.678	67.69
461.898	85.69
462.118	92.69
462.338	83.69
462.558	86.69
462.777	72.69
462.997	93.69
463.217	84.69
463.437	73.69
463.657	81.69
463.876	86.69
464.096	77.69
464.316	78.69
464.536	80.69
464.755	63.69
464.975	82.69
465.195	88.69
465.414	98.69
465.634	76.69
465.854	81.69
466.073	81.69
466.293	77.69
466.512	86.69
466.732	79.69
466.951	74.69
467.171	76.69
467.391	79.69
467.61	100.69
467.829	91.69
468.049	110.69
468.268	108.69
468.488	72.69
468.707	82.69
468.927	90.69
469.146	81.69
469.365	81.69
469.585	106.69
469.804	79.69
470.023	84.69
470.243	78.69
470.462	74.69
470.681	71.69
470.901	80.69
471.12	81.69
471.339	87.69
471.558	87.69
471.777	89.69
471.997	94.69
472.216	132.69
472.435	160.69
472.654	103.69
472.873	79.69
473.092	86.69
473.311	85.69
473.53	84.69
473.749	90.69
473.968	81.69
474.187	84.69
474.406	101.69
474.625	79.69
474.844	88.69
475.063	84.69
475.282	77.69
475.501	79.69
475.72	94.69
475.939	80.69
476.158	76.69
476.377	102.69
476.596	87.69
476.814	87.69
477.033	77.69
477.252	78.69
477.471	77.69
477.69	70.69
477.908	88.69
478.127	91.69
478.346	78.69
478.564	87.69
478.783	73.69
479.002	72.69
479.22	80.69
479.439	80.69
479.658	86.69
479.876	74.69
480.095	78.69
480.313	98.69
480.532	86.69
480.751	92.69
480.969	126.69
481.188	230.69
481.406	154.69
481.624	94.69
481.843	83.69
482.061	82.69
482.28	83.69
482.498	79.69
482.717	86.69
482.935	77.69
483.153	69.69
483.372	90.69
483.59	90.69
483.808	88.69
484.027	87.69
484.245	84.69
484.463	77.69
484.681	82.69
484.9	74.69
485.118	92.69
485.336	86.69
485.554	79.69
485.772	91.69
485.99	90.69
486.209	75.69
486.427	90.69
486.645	86.69
486.863	77.69
487.081	87.69
487.299	82.69
487.517	81.69
487.735	85.69
487.953	80.69
488.171	86.69
488.389	71.69
488.607	87.69
488.825	80.69
489.043	77.69
489.261	81.69
489.479	74.69
489.696	94.69
489.914	92.69
490.132	91.69
490.35	87.69
490.568	86.69
490.786	78.69
491.003	77.69
491.221	87.69
491.439	76.69
491.657	84.69
491.874	98.69
492.092	64.69
492.31	82.69
492.527	86.69
492.745	71.69
492.963	85.69
493.18	76.69
493.398	98.69
493.615	80.69
493.833	95.69
494.05	71.69
494.268	74.69
494.485	78.69
494.703	79.69
494.92	78.69
495.138	84.69
495.355	78.69
495.573	76.69
495.79	78.69
496.008	83.69
496.225	78.69
496.442	84.69
496.66	84.69
496.877	86.69
497.094	83.69
497.312	76.69
497.529	95.69
497.746	72.69
497.963	86.69
498.181	91.69
498.398	94.69
498.615	91.69
498.832	86.69
499.049	77.69
499.267	80.69
499.484	80.69
499.701	96.69
499.918	85.69
500.135	75.69
500.352	84.69
500.569	77.69
500.786	94.69
501.003	86.69
501.22	86.69
501.437	82.69
501.654	98.69
501.871	78.69
502.088	83.69
502.305	76.69
502.522	74.69
502.739	91.69
502.956	82.69
503.172	92.69
503.389	81.69
503.606	84.69
503.823	86.69
504.04	75.69
504.256	78.69
504.473	62.69
504.69	91.69
504.907	80.69
505.123	83.69
505.34	91.69
505.557	87.69
505.773	81.69
505.99	81.69
506.207	93.69
506.423	74.69
506.64	89.69
506.856	79.69
507.073	80.69
507.289	96.69
507.506	85.69
507.722	77.69
507.939	92.69
508.155	82.69
508.372	57.69
508.588	82.69
508.805	75.69
509.021	92.69
509.238	87.69
509.454	86.69
509.67	80.69
509.887	91.69
510.103	85.69
510.319	88.69
510.536	147.69
510.752	213.69
510.968	123.69
511.184	80.69
511.401	79.69
511.617	99.69
511.833	84.69
512.049	94.69
512.265	83.69
512.481	98.69
512.698	91.69
512.914	86.69
513.13	82.69
513.346	73.69
513.562	92.69
513.778	84.69
513.994	86.69
514.21	80.69
514.426	105.69
514.642	80.69
514.858	80.69
515.074	96.69
515.29	132.69
515.506	197.69
515.721	127.69
515.937	100.69
516.153	97.69
516.369	96.69
516.585	100.69
516.801	84.69
517.016	70.69
517.232	79.69
517.448	75.69
517.664	87.69
517.879	84.69
518.095	84.69
518.311	91.69
518.527	81.69
518.742	81.69
518.958	87.69
519.173	86.69
519.389	93.69
519.605	88.69
