Data from Penny_2_HRD10591_00020.txt Node
Date: Wed Nov 05 15:34:36 EST 2025
User: Yrep
Spectrometer: HR+D1059
Trigger mode: 1
Integration Time (sec): 1.000000E-1
Scans to average: 1
Electric dark correction enabled: true
Nonlinearity correction enabled: false
Boxcar width: 0
XAxis mode: Wavelengths
Number of Pixels in Spectrum: 2048
>>>>>Begin Spectral Data<<<<<
223.165	-10.38
223.4	-10.38
223.635	-10.38
223.869	-21.38
224.104	-21.38
224.338	-11.38
224.573	-15.38
224.808	-14.38
225.042	-20.38
225.277	2.62
225.511	-8.38
225.746	-6.38
225.98	7.62
226.215	14.62
226.449	8.62
226.683	28.62
226.918	24.62
227.152	42.62
227.387	35.62
227.621	33.62
227.856	54.62
228.09	46.62
228.324	42.62
228.559	46.62
228.793	54.62
229.027	63.62
229.262	59.62
229.496	60.62
229.73	61.62
229.964	76.62
230.199	68.62
230.433	71.62
230.667	68.62
230.901	73.62
231.136	72.62
231.37	84.62
231.604	64.62
231.838	79.62
232.072	75.62
232.306	87.62
232.541	79.62
232.775	74.62
233.009	70.62
233.243	74.62
233.477	76.62
233.711	92.62
233.945	70.62
234.179	70.62
234.413	67.62
234.647	87.62
234.881	76.62
235.115	84.62
235.349	86.62
235.583	76.62
235.817	89.62
236.051	77.62
236.285	85.62
236.519	88.62
236.753	72.62
236.987	85.62
237.221	76.62
237.455	65.62
237.689	86.62
237.922	75.62
238.156	64.62
238.39	64.62
238.624	67.62
238.858	83.62
239.091	68.62
239.325	75.62
239.559	70.62
239.793	58.62
240.027	91.62
240.26	70.62
240.494	80.62
240.728	71.62
240.961	80.62
241.195	72.62
241.429	67.62
241.662	64.62
241.896	82.62
242.13	80.62
242.363	81.62
242.597	67.62
242.83	70.62
243.064	82.62
243.298	65.62
243.531	66.62
243.765	67.62
243.998	60.62
244.232	80.62
244.465	90.62
244.699	73.62
244.932	64.62
245.166	86.62
245.399	86.62
245.633	84.62
245.866	87.62
246.099	75.62
246.333	71.62
246.566	70.62
246.8	74.62
247.033	68.62
247.266	75.62
247.5	75.62
247.733	71.62
247.966	75.62
248.2	75.62
248.433	72.62
248.666	68.62
248.899	85.62
249.133	72.62
249.366	73.62
249.599	66.62
249.832	81.62
250.066	79.62
250.299	73.62
250.532	74.62
250.765	76.62
250.998	72.62
251.231	72.62
251.465	81.62
251.698	73.62
251.931	72.62
252.164	75.62
252.397	84.62
252.63	82.62
252.863	71.62
253.096	68.62
253.329	77.62
253.562	74.62
253.795	76.62
254.028	77.62
254.261	80.62
254.494	72.62
254.727	92.62
254.96	82.62
255.193	75.62
255.426	72.62
255.659	77.62
255.892	72.62
256.124	82.62
256.357	70.62
256.59	80.62
256.823	76.62
257.056	72.62
257.289	78.62
257.521	70.62
257.754	85.62
257.987	72.62
258.22	82.62
258.452	71.62
258.685	82.62
258.918	74.62
259.151	73.62
259.383	86.62
259.616	70.62
259.849	85.62
260.081	68.62
260.314	72.62
260.547	88.62
260.779	74.62
261.012	88.62
261.244	83.62
261.477	89.62
261.71	67.62
261.942	88.62
262.175	81.62
262.407	72.62
262.64	83.62
262.872	82.62
263.105	84.62
263.337	80.62
263.57	82.62
263.802	80.62
264.035	80.62
264.267	93.62
264.499	72.62
264.732	74.62
264.964	68.62
265.197	71.62
265.429	72.62
265.661	71.62
265.894	79.62
266.126	94.62
266.358	91.62
266.591	74.62
266.823	64.62
267.055	78.62
267.287	88.62
267.52	82.62
267.752	84.62
267.984	78.62
268.216	88.62
268.448	79.62
268.681	102.62
268.913	91.62
269.145	75.62
269.377	80.62
269.609	76.62
269.841	95.62
270.073	90.62
270.306	89.62
270.538	82.62
270.77	90.62
271.002	71.62
271.234	80.62
271.466	78.62
271.698	77.62
271.93	66.62
272.162	78.62
272.394	99.62
272.626	87.62
272.858	87.62
273.09	70.62
273.322	77.62
273.553	84.62
273.785	85.62
274.017	79.62
274.249	80.62
274.481	88.62
274.713	85.62
274.945	81.62
275.176	78.62
275.408	77.62
275.64	91.62
275.872	71.62
276.104	70.62
276.335	84.62
276.567	92.62
276.799	89.62
277.031	78.62
277.262	86.62
277.494	82.62
277.726	87.62
277.957	88.62
278.189	83.62
278.421	84.62
278.652	86.62
278.884	88.62
279.115	79.62
279.347	74.62
279.579	78.62
279.81	76.62
280.042	80.62
280.273	89.62
280.505	79.62
280.736	87.62
280.968	76.62
281.199	80.62
281.431	73.62
281.662	75.62
281.894	75.62
282.125	85.62
282.356	75.62
282.588	82.62
282.819	76.62
283.051	91.62
283.282	82.62
283.513	98.62
283.745	86.62
283.976	78.62
284.207	62.62
284.439	105.62
284.67	74.62
284.901	89.62
285.132	76.62
285.364	76.62
285.595	67.62
285.826	82.62
286.057	75.62
286.288	74.62
286.52	80.62
286.751	77.62
286.982	87.62
287.213	83.62
287.444	83.62
287.675	74.62
287.906	77.62
288.138	91.62
288.369	81.62
288.6	89.62
288.831	78.62
289.062	85.62
289.293	78.62
289.524	74.62
289.755	68.62
289.986	70.62
290.217	67.62
290.448	93.62
290.679	81.62
290.91	76.62
291.141	82.62
291.371	74.62
291.602	77.62
291.833	72.62
292.064	82.62
292.295	83.62
292.526	106.62
292.757	82.62
292.987	74.62
293.218	68.62
293.449	80.62
293.68	71.62
293.91	75.62
294.141	91.62
294.372	90.62
294.603	76.62
294.833	94.62
295.064	84.62
295.295	79.62
295.525	97.62
295.756	81.62
295.987	87.62
296.217	79.62
296.448	72.62
296.679	73.62
296.909	92.62
297.14	92.62
297.37	87.62
297.601	93.62
297.831	89.62
298.062	88.62
298.292	85.62
298.523	88.62
298.753	87.62
298.984	87.62
299.214	92.62
299.445	83.62
299.675	89.62
299.905	70.62
300.136	82.62
300.366	75.62
300.597	76.62
300.827	77.62
301.057	92.62
301.288	88.62
301.518	91.62
301.748	86.62
301.979	90.62
302.209	85.62
302.439	80.62
302.669	79.62
302.9	89.62
303.13	78.62
303.36	92.62
303.59	92.62
303.82	84.62
304.051	86.62
304.281	90.62
304.511	69.62
304.741	76.62
304.971	82.62
305.201	68.62
305.431	83.62
305.661	90.62
305.891	84.62
306.121	89.62
306.352	77.62
306.582	86.62
306.812	78.62
307.042	77.62
307.272	80.62
307.502	90.62
307.731	72.62
307.961	86.62
308.191	92.62
308.421	98.62
308.651	68.62
308.881	79.62
309.111	77.62
309.341	79.62
309.571	82.62
309.8	67.62
310.03	67.62
310.26	73.62
310.49	78.62
310.72	77.62
310.949	79.62
311.179	69.62
311.409	78.62
311.639	82.62
311.868	79.62
312.098	75.62
312.328	85.62
312.557	76.62
312.787	60.62
313.017	75.62
313.246	78.62
313.476	82.62
313.706	81.62
313.935	87.62
314.165	87.62
314.394	86.62
314.624	80.62
314.853	83.62
315.083	85.62
315.312	84.62
315.542	89.62
315.771	83.62
316.001	82.62
316.23	95.62
316.46	80.62
316.689	80.62
316.919	92.62
317.148	79.62
317.377	84.62
317.607	90.62
317.836	81.62
318.065	85.62
318.295	86.62
318.524	75.62
318.753	72.62
318.983	81.62
319.212	90.62
319.441	83.62
319.67	74.62
319.9	76.62
320.129	69.62
320.358	89.62
320.587	91.62
320.816	73.62
321.046	70.62
321.275	82.62
321.504	78.62
321.733	76.62
321.962	90.62
322.191	82.62
322.42	86.62
322.649	75.62
322.878	88.62
323.108	76.62
323.337	84.62
323.566	86.62
323.795	82.62
324.024	87.62
324.253	102.62
324.482	113.62
324.71	150.62
324.939	161.62
325.168	100.62
325.397	77.62
325.626	81.62
325.855	76.62
326.084	78.62
326.313	88.62
326.542	82.62
326.77	91.62
326.999	94.62
327.228	107.62
327.457	142.62
327.686	115.62
327.914	124.62
328.143	121.62
328.372	94.62
328.6	89.62
328.829	95.62
329.058	88.62
329.287	92.62
329.515	91.62
329.744	86.62
329.972	116.62
330.201	126.62
330.43	126.62
330.658	104.62
330.887	97.62
331.115	84.62
331.344	86.62
331.572	72.62
331.801	80.62
332.03	78.62
332.258	77.62
332.486	75.62
332.715	83.62
332.943	92.62
333.172	87.62
333.4	82.62
333.629	75.62
333.857	87.62
334.085	96.62
334.314	121.62
334.542	158.62
334.771	132.62
334.999	97.62
335.227	85.62
335.455	68.62
335.684	100.62
335.912	83.62
336.14	84.62
336.369	94.62
336.597	87.62
336.825	72.62
337.053	70.62
337.281	85.62
337.51	72.62
337.738	65.62
337.966	80.62
338.194	72.62
338.422	82.62
338.65	83.62
338.878	83.62
339.106	76.62
339.334	101.62
339.562	78.62
339.79	78.62
340.018	72.62
340.246	94.62
340.474	73.62
340.702	74.62
340.93	75.62
341.158	100.62
341.386	86.62
341.614	90.62
341.842	80.62
342.07	75.62
342.298	80.62
342.526	87.62
342.754	88.62
342.981	75.62
343.209	76.62
343.437	99.62
343.665	86.62
343.893	70.62
344.12	83.62
344.348	84.62
344.576	81.62
344.804	70.62
345.031	95.62
345.259	88.62
345.487	90.62
345.714	72.62
345.942	82.62
346.17	90.62
346.397	85.62
346.625	85.62
346.853	81.62
347.08	81.62
347.308	88.62
347.535	88.62
347.763	88.62
347.99	85.62
348.218	90.62
348.445	81.62
348.673	75.62
348.9	89.62
349.128	85.62
349.355	90.62
349.583	71.62
349.81	90.62
350.037	73.62
350.265	81.62
350.492	73.62
350.72	84.62
350.947	107.62
351.174	86.62
351.402	79.62
351.629	72.62
351.856	71.62
352.083	86.62
352.311	78.62
352.538	91.62
352.765	91.62
352.992	75.62
353.22	83.62
353.447	88.62
353.674	88.62
353.901	68.62
354.128	70.62
354.355	87.62
354.583	93.62
354.81	83.62
355.037	76.62
355.264	96.62
355.491	78.62
355.718	84.62
355.945	72.62
356.172	81.62
356.399	88.62
356.626	69.62
356.853	82.62
357.08	81.62
357.307	86.62
357.534	82.62
357.761	75.62
357.988	72.62
358.215	95.62
358.441	78.62
358.668	83.62
358.895	85.62
359.122	78.62
359.349	74.62
359.576	78.62
359.802	84.62
360.029	78.62
360.256	86.62
360.483	76.62
360.709	88.62
360.936	86.62
361.163	73.62
361.39	84.62
361.616	78.62
361.843	83.62
362.07	72.62
362.296	66.62
362.523	84.62
362.749	89.62
362.976	84.62
363.203	90.62
363.429	74.62
363.656	74.62
363.882	84.62
364.109	66.62
364.335	76.62
364.562	81.62
364.788	92.62
365.015	86.62
365.241	70.62
365.468	86.62
365.694	86.62
365.92	79.62
366.147	87.62
366.373	88.62
366.599	80.62
366.826	79.62
367.052	82.62
367.278	80.62
367.505	83.62
367.731	80.62
367.957	87.62
368.184	78.62
368.41	80.62
368.636	82.62
368.862	86.62
369.089	92.62
369.315	77.62
369.541	86.62
369.767	80.62
369.993	85.62
370.219	93.62
370.445	84.62
370.672	88.62
370.898	84.62
371.124	84.62
371.35	81.62
371.576	94.62
371.802	78.62
372.028	75.62
372.254	80.62
372.48	82.62
372.706	94.62
372.932	76.62
373.158	72.62
373.384	83.62
373.61	78.62
373.835	85.62
374.061	85.62
374.287	84.62
374.513	88.62
374.739	70.62
374.965	80.62
375.191	80.62
375.416	74.62
375.642	74.62
375.868	95.62
376.094	90.62
376.319	86.62
376.545	80.62
376.771	76.62
376.997	83.62
377.222	70.62
377.448	78.62
377.674	75.62
377.899	74.62
378.125	81.62
378.35	86.62
378.576	81.62
378.802	73.62
379.027	69.62
379.253	84.62
379.478	72.62
379.704	81.62
379.929	94.62
380.155	93.62
380.38	92.62
380.606	77.62
380.831	92.62
381.057	80.62
381.282	73.62
381.507	80.62
381.733	85.62
381.958	88.62
382.184	81.62
382.409	77.62
382.634	78.62
382.86	69.62
383.085	76.62
383.31	94.62
383.535	84.62
383.761	82.62
383.986	79.62
384.211	92.62
384.436	79.62
384.662	82.62
384.887	80.62
385.112	67.62
385.337	77.62
385.562	75.62
385.787	75.62
386.013	87.62
386.238	85.62
386.463	85.62
386.688	90.62
386.913	90.62
387.138	83.62
387.363	78.62
387.588	86.62
387.813	75.62
388.038	83.62
388.263	77.62
388.488	77.62
388.713	87.62
388.938	81.62
389.163	88.62
389.387	82.62
389.612	71.62
389.837	86.62
390.062	78.62
390.287	83.62
390.512	80.62
390.736	90.62
390.961	79.62
391.186	70.62
391.411	72.62
391.636	79.62
391.86	71.62
392.085	85.62
392.31	78.62
392.534	91.62
392.759	82.62
392.984	81.62
393.208	72.62
393.433	88.62
393.658	82.62
393.882	77.62
394.107	63.62
394.331	82.62
394.556	76.62
394.78	82.62
395.005	80.62
395.229	71.62
395.454	84.62
395.678	69.62
395.903	80.62
396.127	79.62
396.352	88.62
396.576	94.62
396.801	71.62
397.025	80.62
397.249	68.62
397.474	67.62
397.698	67.62
397.922	85.62
398.147	82.62
398.371	81.62
398.595	57.62
398.82	87.62
399.044	84.62
399.268	77.62
399.492	81.62
399.717	86.62
399.941	69.62
400.165	94.62
400.389	80.62
400.613	78.62
400.837	80.62
401.062	90.62
401.286	71.62
401.51	82.62
401.734	69.62
401.958	82.62
402.182	92.62
402.406	83.62
402.63	77.62
402.854	85.62
403.078	85.62
403.302	63.62
403.526	86.62
403.75	94.62
403.974	89.62
404.198	80.62
404.422	88.62
404.645	68.62
404.869	71.62
405.093	74.62
405.317	78.62
405.541	84.62
405.765	84.62
405.988	84.62
406.212	91.62
406.436	85.62
406.66	82.62
406.883	83.62
407.107	89.62
407.331	79.62
407.555	69.62
407.778	76.62
408.002	68.62
408.226	66.62
408.449	84.62
408.673	88.62
408.896	74.62
409.12	74.62
409.344	77.62
409.567	94.62
409.791	80.62
410.014	75.62
410.238	70.62
410.461	86.62
410.685	67.62
410.908	86.62
411.132	84.62
411.355	81.62
411.578	89.62
411.802	77.62
412.025	91.62
412.249	92.62
412.472	81.62
412.695	70.62
412.919	95.62
413.142	79.62
413.365	88.62
413.589	86.62
413.812	75.62
414.035	76.62
414.258	94.62
414.482	89.62
414.705	84.62
414.928	83.62
415.151	96.62
415.374	76.62
415.597	90.62
415.821	87.62
416.044	69.62
416.267	82.62
416.49	72.62
416.713	76.62
416.936	83.62
417.159	80.62
417.382	81.62
417.605	74.62
417.828	84.62
418.051	81.62
418.274	91.62
418.497	90.62
418.72	78.62
418.943	81.62
419.166	83.62
419.389	74.62
419.611	64.62
419.834	68.62
420.057	85.62
420.28	87.62
420.503	80.62
420.726	72.62
420.948	78.62
421.171	72.62
421.394	92.62
421.617	71.62
421.839	70.62
422.062	82.62
422.285	66.62
422.507	79.62
422.73	77.62
422.953	66.62
423.175	94.62
423.398	70.62
423.621	79.62
423.843	66.62
424.066	70.62
424.288	80.62
424.511	68.62
424.733	83.62
424.956	82.62
425.178	80.62
425.401	95.62
425.623	90.62
425.846	78.62
426.068	87.62
426.291	93.62
426.513	80.62
426.735	92.62
426.958	82.62
427.18	90.62
427.402	82.62
427.625	84.62
427.847	81.62
428.069	80.62
428.292	86.62
428.514	82.62
428.736	76.62
428.958	84.62
429.181	72.62
429.403	75.62
429.625	87.62
429.847	65.62
430.069	81.62
430.292	83.62
430.514	88.62
430.736	92.62
430.958	74.62
431.18	78.62
431.402	77.62
431.624	74.62
431.846	85.62
432.068	88.62
432.29	86.62
432.512	81.62
432.734	80.62
432.956	79.62
433.178	84.62
433.4	77.62
433.622	87.62
433.844	81.62
434.066	79.62
434.287	88.62
434.509	62.62
434.731	73.62
434.953	73.62
435.175	86.62
435.397	86.62
435.618	77.62
435.84	65.62
436.062	74.62
436.284	75.62
436.505	83.62
436.727	85.62
436.949	67.62
437.17	82.62
437.392	94.62
437.614	81.62
437.835	66.62
438.057	71.62
438.278	82.62
438.5	76.62
438.721	75.62
438.943	59.62
439.165	83.62
439.386	80.62
439.608	73.62
439.829	72.62
440.05	80.62
440.272	72.62
440.493	88.62
440.715	80.62
440.936	92.62
441.158	90.62
441.379	81.62
441.6	86.62
441.822	93.62
442.043	77.62
442.264	81.62
442.486	85.62
442.707	82.62
442.928	75.62
443.149	103.62
443.371	92.62
443.592	78.62
443.813	84.62
444.034	90.62
444.255	91.62
444.476	79.62
444.698	83.62
444.919	87.62
445.14	160.62
445.361	120.62
445.582	89.62
445.803	75.62
446.024	86.62
446.245	93.62
446.466	79.62
446.687	74.62
446.908	77.62
447.129	75.62
447.35	86.62
447.571	99.62
447.792	67.62
448.013	80.62
448.234	83.62
448.455	83.62
448.675	91.62
448.896	87.62
449.117	89.62
449.338	82.62
449.559	100.62
449.779	79.62
450	77.62
450.221	79.62
450.442	86.62
450.662	67.62
450.883	83.62
451.104	85.62
451.324	86.62
451.545	74.62
451.766	86.62
451.986	82.62
452.207	69.62
452.428	88.62
452.648	85.62
452.869	78.62
453.089	67.62
453.31	85.62
453.53	66.62
453.751	89.62
453.971	80.62
454.192	75.62
454.412	85.62
454.633	85.62
454.853	89.62
455.073	88.62
455.294	74.62
455.514	90.62
455.734	76.62
455.955	76.62
456.175	79.62
456.395	76.62
456.616	91.62
456.836	80.62
457.056	78.62
457.276	81.62
457.497	74.62
457.717	90.62
457.937	77.62
458.157	78.62
458.377	76.62
458.598	80.62
458.818	87.62
459.038	84.62
459.258	87.62
459.478	69.62
459.698	84.62
459.918	89.62
460.138	80.62
460.358	82.62
460.578	85.62
460.798	90.62
461.018	80.62
461.238	82.62
461.458	83.62
461.678	80.62
461.898	81.62
462.118	76.62
462.338	75.62
462.558	72.62
462.777	83.62
462.997	75.62
463.217	73.62
463.437	58.62
463.657	74.62
463.876	57.62
464.096	86.62
464.316	86.62
464.536	89.62
464.755	75.62
464.975	85.62
465.195	89.62
465.414	94.62
465.634	79.62
465.854	74.62
466.073	89.62
466.293	78.62
466.512	80.62
466.732	83.62
466.951	91.62
467.171	74.62
467.391	90.62
467.61	86.62
467.829	88.62
468.049	118.62
468.268	117.62
468.488	91.62
468.707	74.62
468.927	63.62
469.146	90.62
469.365	82.62
469.585	68.62
469.804	78.62
470.023	82.62
470.243	79.62
470.462	67.62
470.681	73.62
470.901	87.62
471.12	88.62
471.339	86.62
471.558	75.62
471.777	75.62
471.997	100.62
472.216	142.62
472.435	174.62
472.654	102.62
472.873	80.62
473.092	89.62
473.311	76.62
473.53	92.62
473.749	86.62
473.968	76.62
474.187	84.62
474.406	81.62
474.625	87.62
474.844	76.62
475.063	77.62
475.282	105.62
475.501	83.62
475.72	90.62
475.939	82.62
476.158	81.62
476.377	83.62
476.596	79.62
476.814	71.62
477.033	80.62
477.252	84.62
477.471	91.62
477.69	71.62
477.908	62.62
478.127	74.62
478.346	73.62
478.564	96.62
478.783	89.62
479.002	84.62
479.22	77.62
479.439	80.62
479.658	74.62
479.876	71.62
480.095	78.62
480.313	86.62
480.532	83.62
480.751	91.62
480.969	142.62
481.188	248.62
481.406	175.62
481.624	94.62
481.843	75.62
482.061	75.62
482.28	86.62
482.498	71.62
482.717	82.62
482.935	76.62
483.153	95.62
483.372	72.62
483.59	86.62
483.808	92.62
484.027	84.62
484.245	89.62
484.463	80.62
484.681	90.62
484.9	85.62
485.118	89.62
485.336	70.62
485.554	80.62
485.772	71.62
485.99	84.62
486.209	78.62
486.427	84.62
486.645	77.62
486.863	93.62
487.081	84.62
487.299	70.62
487.517	88.62
487.735	72.62
487.953	94.62
488.171	92.62
488.389	80.62
488.607	78.62
488.825	81.62
489.043	76.62
489.261	86.62
489.479	88.62
489.696	84.62
489.914	66.62
490.132	74.62
490.35	93.62
490.568	77.62
490.786	87.62
491.003	70.62
491.221	78.62
491.439	90.62
491.657	68.62
491.874	84.62
492.092	87.62
492.31	88.62
492.527	81.62
492.745	84.62
492.963	80.62
493.18	96.62
493.398	71.62
493.615	90.62
493.833	88.62
494.05	83.62
494.268	74.62
494.485	76.62
494.703	73.62
494.92	82.62
495.138	82.62
495.355	91.62
495.573	79.62
495.79	82.62
496.008	83.62
496.225	84.62
496.442	86.62
496.66	83.62
496.877	82.62
497.094	77.62
497.312	88.62
497.529	90.62
497.746	90.62
497.963	80.62
498.181	91.62
498.398	75.62
498.615	74.62
498.832	68.62
499.049	80.62
499.267	76.62
499.484	76.62
499.701	84.62
499.918	72.62
500.135	86.62
500.352	78.62
500.569	96.62
500.786	81.62
501.003	76.62
501.22	80.62
501.437	73.62
501.654	81.62
501.871	81.62
502.088	85.62
502.305	92.62
502.522	87.62
502.739	82.62
502.956	92.62
503.172	85.62
503.389	83.62
503.606	85.62
503.823	84.62
504.04	103.62
504.256	84.62
504.473	83.62
504.69	95.62
504.907	85.62
505.123	88.62
505.34	103.62
505.557	89.62
505.773	82.62
505.99	90.62
506.207	86.62
506.423	79.62
506.64	88.62
506.856	68.62
507.073	89.62
507.289	83.62
507.506	85.62
507.722	74.62
507.939	89.62
508.155	72.62
508.372	80.62
508.588	84.62
508.805	94.62
509.021	58.62
509.238	75.62
509.454	70.62
509.67	72.62
509.887	84.62
510.103	82.62
510.319	96.62
510.536	137.62
510.752	218.62
510.968	112.62
511.184	91.62
511.401	75.62
511.617	84.62
511.833	84.62
512.049	87.62
512.265	82.62
512.481	86.62
512.698	90.62
512.914	66.62
513.13	68.62
513.346	79.62
513.562	103.62
513.778	83.62
513.994	83.62
514.21	76.62
514.426	82.62
514.642	92.62
514.858	79.62
515.074	84.62
515.29	130.62
515.506	199.62
515.721	104.62
515.937	94.62
516.153	89.62
516.369	77.62
516.585	83.62
516.801	76.62
517.016	78.62
517.232	84.62
517.448	96.62
517.664	84.62
517.879	85.62
518.095	81.62
518.311	74.62
518.527	86.62
518.742	75.62
518.958	73.62
519.173	87.62
519.389	73.62
519.605	86.62
