Data from Penny_2_HRD10591_00003.txt Node
Date: Wed Nov 05 15:34:28 EST 2025
User: Yrep
Spectrometer: HR+D1059
Trigger mode: 1
Integration Time (sec): 1.000000E-1
Scans to average: 1
Electric dark correction enabled: true
Nonlinearity correction enabled: false
Boxcar width: 0
XAxis mode: Wavelengths
Number of Pixels in Spectrum: 2048
>>>>>Begin Spectral Data<<<<<
223.165	-23.06
223.4	-23.06
223.635	-23.06
223.869	-10.06
224.104	-23.06
224.338	-19.06
224.573	-2.06
224.808	-24.06
225.042	3.94
225.277	0.94
225.511	-5.06
225.746	13.94
225.98	-3.06
226.215	4.94
226.449	10.94
226.683	24.94
226.918	15.94
227.152	33.94
227.387	44.94
227.621	32.94
227.856	34.94
228.09	43.94
228.324	58.94
228.559	67.94
228.793	66.94
229.027	68.94
229.262	48.94
229.496	63.94
229.73	56.94
229.964	67.94
230.199	76.94
230.433	69.94
230.667	73.94
230.901	75.94
231.136	74.94
231.37	82.94
231.604	83.94
231.838	86.94
232.072	54.94
232.306	82.94
232.541	62.94
232.775	90.94
233.009	80.94
233.243	75.94
233.477	89.94
233.711	74.94
233.945	72.94
234.179	73.94
234.413	72.94
234.647	80.94
234.881	75.94
235.115	78.94
235.349	72.94
235.583	80.94
235.817	66.94
236.051	82.94
236.285	66.94
236.519	70.94
236.753	65.94
236.987	89.94
237.221	80.94
237.455	90.94
237.689	64.94
237.922	83.94
238.156	78.94
238.39	69.94
238.624	80.94
238.858	76.94
239.091	68.94
239.325	83.94
239.559	71.94
239.793	76.94
240.027	82.94
240.26	88.94
240.494	72.94
240.728	63.94
240.961	70.94
241.195	95.94
241.429	66.94
241.662	81.94
241.896	66.94
242.13	96.94
242.363	77.94
242.597	70.94
242.83	78.94
243.064	67.94
243.298	76.94
243.531	83.94
243.765	79.94
243.998	75.94
244.232	75.94
244.465	73.94
244.699	71.94
244.932	80.94
245.166	72.94
245.399	88.94
245.633	80.94
245.866	68.94
246.099	69.94
246.333	90.94
246.566	74.94
246.8	81.94
247.033	80.94
247.266	82.94
247.5	88.94
247.733	94.94
247.966	82.94
248.2	78.94
248.433	64.94
248.666	72.94
248.899	63.94
249.133	72.94
249.366	85.94
249.599	90.94
249.832	72.94
250.066	76.94
250.299	76.94
250.532	80.94
250.765	74.94
250.998	78.94
251.231	80.94
251.465	86.94
251.698	82.94
251.931	73.94
252.164	86.94
252.397	83.94
252.63	83.94
252.863	79.94
253.096	79.94
253.329	86.94
253.562	76.94
253.795	84.94
254.028	70.94
254.261	80.94
254.494	68.94
254.727	87.94
254.96	86.94
255.193	78.94
255.426	75.94
255.659	82.94
255.892	89.94
256.124	76.94
256.357	86.94
256.59	76.94
256.823	77.94
257.056	80.94
257.289	72.94
257.521	86.94
257.754	78.94
257.987	82.94
258.22	92.94
258.452	77.94
258.685	60.94
258.918	85.94
259.151	77.94
259.383	73.94
259.616	91.94
259.849	79.94
260.081	86.94
260.314	83.94
260.547	96.94
260.779	83.94
261.012	90.94
261.244	64.94
261.477	83.94
261.71	75.94
261.942	80.94
262.175	86.94
262.407	86.94
262.64	72.94
262.872	90.94
263.105	88.94
263.337	96.94
263.57	72.94
263.802	81.94
264.035	84.94
264.267	86.94
264.499	89.94
264.732	84.94
264.964	81.94
265.197	77.94
265.429	74.94
265.661	80.94
265.894	86.94
266.126	83.94
266.358	79.94
266.591	83.94
266.823	70.94
267.055	76.94
267.287	77.94
267.52	69.94
267.752	73.94
267.984	79.94
268.216	74.94
268.448	88.94
268.681	91.94
268.913	81.94
269.145	82.94
269.377	72.94
269.609	96.94
269.841	78.94
270.073	81.94
270.306	76.94
270.538	84.94
270.77	90.94
271.002	75.94
271.234	73.94
271.466	87.94
271.698	90.94
271.93	88.94
272.162	88.94
272.394	82.94
272.626	72.94
272.858	92.94
273.09	88.94
273.322	92.94
273.553	55.94
273.785	77.94
274.017	89.94
274.249	81.94
274.481	93.94
274.713	76.94
274.945	72.94
275.176	90.94
275.408	93.94
275.64	96.94
275.872	94.94
276.104	92.94
276.335	82.94
276.567	73.94
276.799	89.94
277.031	98.94
277.262	89.94
277.494	90.94
277.726	88.94
277.957	87.94
278.189	81.94
278.421	97.94
278.652	81.94
278.884	70.94
279.115	80.94
279.347	71.94
279.579	84.94
279.81	86.94
280.042	89.94
280.273	91.94
280.505	82.94
280.736	84.94
280.968	80.94
281.199	72.94
281.431	76.94
281.662	72.94
281.894	88.94
282.125	83.94
282.356	82.94
282.588	75.94
282.819	81.94
283.051	85.94
283.282	93.94
283.513	79.94
283.745	91.94
283.976	80.94
284.207	75.94
284.439	82.94
284.67	78.94
284.901	80.94
285.132	84.94
285.364	88.94
285.595	83.94
285.826	71.94
286.057	85.94
286.288	80.94
286.52	80.94
286.751	88.94
286.982	87.94
287.213	84.94
287.444	86.94
287.675	85.94
287.906	98.94
288.138	79.94
288.369	98.94
288.6	93.94
288.831	88.94
289.062	76.94
289.293	69.94
289.524	96.94
289.755	74.94
289.986	89.94
290.217	90.94
290.448	85.94
290.679	80.94
290.91	82.94
291.141	82.94
291.371	77.94
291.602	76.94
291.833	77.94
292.064	81.94
292.295	88.94
292.526	83.94
292.757	86.94
292.987	92.94
293.218	93.94
293.449	66.94
293.68	75.94
293.91	104.94
294.141	99.94
294.372	78.94
294.603	74.94
294.833	82.94
295.064	81.94
295.295	72.94
295.525	79.94
295.756	82.94
295.987	84.94
296.217	96.94
296.448	83.94
296.679	94.94
296.909	96.94
297.14	112.94
297.37	86.94
297.601	99.94
297.831	61.94
298.062	83.94
298.292	77.94
298.523	91.94
298.753	68.94
298.984	82.94
299.214	95.94
299.445	88.94
299.675	96.94
299.905	72.94
300.136	78.94
300.366	89.94
300.597	98.94
300.827	83.94
301.057	80.94
301.288	74.94
301.518	82.94
301.748	82.94
301.979	102.94
302.209	98.94
302.439	84.94
302.669	93.94
302.9	86.94
303.13	95.94
303.36	80.94
303.59	75.94
303.82	97.94
304.051	88.94
304.281	77.94
304.511	77.94
304.741	83.94
304.971	90.94
305.201	93.94
305.431	85.94
305.661	77.94
305.891	80.94
306.121	79.94
306.352	90.94
306.582	88.94
306.812	86.94
307.042	89.94
307.272	100.94
307.502	76.94
307.731	64.94
307.961	80.94
308.191	70.94
308.421	96.94
308.651	88.94
308.881	66.94
309.111	100.94
309.341	79.94
309.571	83.94
309.8	90.94
310.03	84.94
310.26	102.94
310.49	91.94
310.72	86.94
310.949	89.94
311.179	66.94
311.409	99.94
311.639	81.94
311.868	89.94
312.098	100.94
312.328	86.94
312.557	88.94
312.787	102.94
313.017	107.94
313.246	66.94
313.476	84.94
313.706	79.94
313.935	72.94
314.165	73.94
314.394	90.94
314.624	83.94
314.853	103.94
315.083	80.94
315.312	76.94
315.542	75.94
315.771	89.94
316.001	69.94
316.23	84.94
316.46	83.94
316.689	68.94
316.919	76.94
317.148	87.94
317.377	82.94
317.607	84.94
317.836	80.94
318.065	73.94
318.295	90.94
318.524	85.94
318.753	91.94
318.983	82.94
319.212	83.94
319.441	77.94
319.67	71.94
319.9	90.94
320.129	73.94
320.358	75.94
320.587	81.94
320.816	94.94
321.046	76.94
321.275	88.94
321.504	82.94
321.733	90.94
321.962	77.94
322.191	77.94
322.42	83.94
322.649	83.94
322.878	80.94
323.108	89.94
323.337	74.94
323.566	85.94
323.795	94.94
324.024	85.94
324.253	102.94
324.482	122.94
324.71	135.94
324.939	141.94
325.168	99.94
325.397	74.94
325.626	95.94
325.855	82.94
326.084	88.94
326.313	90.94
326.542	99.94
326.77	88.94
326.999	110.94
327.228	116.94
327.457	133.94
327.686	122.94
327.914	92.94
328.143	114.94
328.372	97.94
328.6	88.94
328.829	83.94
329.058	96.94
329.287	82.94
329.515	75.94
329.744	96.94
329.972	106.94
330.201	103.94
330.43	112.94
330.658	95.94
330.887	86.94
331.115	89.94
331.344	78.94
331.572	75.94
331.801	86.94
332.03	90.94
332.258	96.94
332.486	87.94
332.715	76.94
332.943	82.94
333.172	89.94
333.4	86.94
333.629	83.94
333.857	89.94
334.085	92.94
334.314	105.94
334.542	138.94
334.771	115.94
334.999	100.94
335.227	89.94
335.455	100.94
335.684	94.94
335.912	92.94
336.14	84.94
336.369	101.94
336.597	75.94
336.825	85.94
337.053	78.94
337.281	81.94
337.51	83.94
337.738	75.94
337.966	80.94
338.194	85.94
338.422	71.94
338.65	100.94
338.878	80.94
339.106	77.94
339.334	83.94
339.562	77.94
339.79	72.94
340.018	74.94
340.246	80.94
340.474	79.94
340.702	87.94
340.93	78.94
341.158	90.94
341.386	86.94
341.614	73.94
341.842	83.94
342.07	84.94
342.298	96.94
342.526	91.94
342.754	90.94
342.981	75.94
343.209	75.94
343.437	86.94
343.665	82.94
343.893	67.94
344.12	87.94
344.348	85.94
344.576	77.94
344.804	76.94
345.031	77.94
345.259	77.94
345.487	86.94
345.714	100.94
345.942	91.94
346.17	92.94
346.397	82.94
346.625	78.94
346.853	74.94
347.08	79.94
347.308	76.94
347.535	94.94
347.763	82.94
347.99	91.94
348.218	98.94
348.445	80.94
348.673	77.94
348.9	82.94
349.128	91.94
349.355	71.94
349.583	84.94
349.81	76.94
350.037	74.94
350.265	83.94
350.492	84.94
350.72	85.94
350.947	89.94
351.174	95.94
351.402	79.94
351.629	82.94
351.856	87.94
352.083	78.94
352.311	90.94
352.538	80.94
352.765	92.94
352.992	99.94
353.22	79.94
353.447	94.94
353.674	92.94
353.901	93.94
354.128	78.94
354.355	67.94
354.583	88.94
354.81	72.94
355.037	84.94
355.264	80.94
355.491	89.94
355.718	83.94
355.945	83.94
356.172	74.94
356.399	81.94
356.626	78.94
356.853	74.94
357.08	68.94
357.307	75.94
357.534	75.94
357.761	84.94
357.988	89.94
358.215	81.94
358.441	80.94
358.668	76.94
358.895	82.94
359.122	75.94
359.349	76.94
359.576	80.94
359.802	92.94
360.029	90.94
360.256	94.94
360.483	84.94
360.709	71.94
360.936	90.94
361.163	76.94
361.39	86.94
361.616	84.94
361.843	75.94
362.07	70.94
362.296	79.94
362.523	88.94
362.749	63.94
362.976	79.94
363.203	85.94
363.429	90.94
363.656	92.94
363.882	85.94
364.109	82.94
364.335	80.94
364.562	79.94
364.788	81.94
365.015	76.94
365.241	77.94
365.468	96.94
365.694	80.94
365.92	81.94
366.147	86.94
366.373	73.94
366.599	84.94
366.826	76.94
367.052	85.94
367.278	79.94
367.505	76.94
367.731	82.94
367.957	75.94
368.184	74.94
368.41	84.94
368.636	88.94
368.862	85.94
369.089	91.94
369.315	89.94
369.541	83.94
369.767	85.94
369.993	87.94
370.219	80.94
370.445	78.94
370.672	87.94
370.898	69.94
371.124	74.94
371.35	82.94
371.576	85.94
371.802	80.94
372.028	81.94
372.254	80.94
372.48	73.94
372.706	81.94
372.932	76.94
373.158	104.94
373.384	100.94
373.61	84.94
373.835	75.94
374.061	68.94
374.287	80.94
374.513	68.94
374.739	74.94
374.965	86.94
375.191	68.94
375.416	96.94
375.642	89.94
375.868	72.94
376.094	70.94
376.319	86.94
376.545	70.94
376.771	81.94
376.997	84.94
377.222	84.94
377.448	75.94
377.674	90.94
377.899	70.94
378.125	67.94
378.35	80.94
378.576	82.94
378.802	70.94
379.027	76.94
379.253	73.94
379.478	90.94
379.704	82.94
379.929	79.94
380.155	68.94
380.38	89.94
380.606	77.94
380.831	86.94
381.057	98.94
381.282	72.94
381.507	82.94
381.733	78.94
381.958	84.94
382.184	63.94
382.409	64.94
382.634	75.94
382.86	83.94
383.085	77.94
383.31	76.94
383.535	86.94
383.761	75.94
383.986	85.94
384.211	84.94
384.436	71.94
384.662	83.94
384.887	80.94
385.112	70.94
385.337	85.94
385.562	79.94
385.787	75.94
386.013	90.94
386.238	86.94
386.463	74.94
386.688	82.94
386.913	82.94
387.138	106.94
387.363	91.94
387.588	77.94
387.813	77.94
388.038	84.94
388.263	98.94
388.488	82.94
388.713	73.94
388.938	81.94
389.163	87.94
389.387	98.94
389.612	83.94
389.837	73.94
390.062	82.94
390.287	82.94
390.512	72.94
390.736	82.94
390.961	84.94
391.186	79.94
391.411	76.94
391.636	72.94
391.86	79.94
392.085	90.94
392.31	85.94
392.534	73.94
392.759	85.94
392.984	96.94
393.208	95.94
393.433	90.94
393.658	85.94
393.882	86.94
394.107	83.94
394.331	82.94
394.556	81.94
394.78	78.94
395.005	80.94
395.229	79.94
395.454	93.94
395.678	66.94
395.903	67.94
396.127	74.94
396.352	75.94
396.576	79.94
396.801	83.94
397.025	89.94
397.249	80.94
397.474	76.94
397.698	71.94
397.922	76.94
398.147	79.94
398.371	83.94
398.595	84.94
398.82	85.94
399.044	86.94
399.268	78.94
399.492	77.94
399.717	83.94
399.941	74.94
400.165	72.94
400.389	79.94
400.613	82.94
400.837	68.94
401.062	64.94
401.286	71.94
401.51	84.94
401.734	84.94
401.958	95.94
402.182	89.94
402.406	98.94
402.63	86.94
402.854	78.94
403.078	79.94
403.302	80.94
403.526	89.94
403.75	91.94
403.974	91.94
404.198	90.94
404.422	69.94
404.645	71.94
404.869	75.94
405.093	65.94
405.317	90.94
405.541	86.94
405.765	78.94
405.988	88.94
406.212	94.94
406.436	104.94
406.66	97.94
406.883	84.94
407.107	80.94
407.331	77.94
407.555	98.94
407.778	83.94
408.002	83.94
408.226	77.94
408.449	71.94
408.673	72.94
408.896	79.94
409.12	80.94
409.344	74.94
409.567	86.94
409.791	96.94
410.014	74.94
410.238	71.94
410.461	75.94
410.685	83.94
410.908	78.94
411.132	83.94
411.355	77.94
411.578	84.94
411.802	81.94
412.025	81.94
412.249	84.94
412.472	68.94
412.695	75.94
412.919	72.94
413.142	92.94
413.365	76.94
413.589	73.94
413.812	78.94
414.035	66.94
414.258	71.94
414.482	67.94
414.705	83.94
414.928	94.94
415.151	70.94
415.374	74.94
415.597	80.94
415.821	80.94
416.044	87.94
416.267	86.94
416.49	79.94
416.713	83.94
416.936	69.94
417.159	76.94
417.382	79.94
417.605	98.94
417.828	85.94
418.051	68.94
418.274	76.94
418.497	90.94
418.72	59.94
418.943	80.94
419.166	72.94
419.389	72.94
419.611	68.94
419.834	84.94
420.057	84.94
420.28	75.94
420.503	78.94
420.726	72.94
420.948	62.94
421.171	86.94
421.394	80.94
421.617	68.94
421.839	80.94
422.062	74.94
422.285	75.94
422.507	74.94
422.73	80.94
422.953	70.94
423.175	88.94
423.398	75.94
423.621	77.94
423.843	78.94
424.066	85.94
424.288	90.94
424.511	78.94
424.733	68.94
424.956	84.94
425.178	90.94
425.401	78.94
425.623	82.94
425.846	91.94
426.068	82.94
426.291	65.94
426.513	74.94
426.735	74.94
426.958	71.94
427.18	82.94
427.402	77.94
427.625	81.94
427.847	85.94
428.069	88.94
428.292	83.94
428.514	76.94
428.736	81.94
428.958	83.94
429.181	83.94
429.403	74.94
429.625	97.94
429.847	68.94
430.069	77.94
430.292	83.94
430.514	88.94
430.736	84.94
430.958	63.94
431.18	50.94
431.402	77.94
431.624	80.94
431.846	76.94
432.068	76.94
432.29	80.94
432.512	80.94
432.734	71.94
432.956	87.94
433.178	71.94
433.4	89.94
433.622	85.94
433.844	81.94
434.066	75.94
434.287	84.94
434.509	80.94
434.731	83.94
434.953	81.94
435.175	74.94
435.397	76.94
435.618	82.94
435.84	88.94
436.062	70.94
436.284	76.94
436.505	78.94
436.727	84.94
436.949	84.94
437.17	70.94
437.392	78.94
437.614	84.94
437.835	68.94
438.057	80.94
438.278	74.94
438.5	72.94
438.721	91.94
438.943	79.94
439.165	89.94
439.386	71.94
439.608	74.94
439.829	91.94
440.05	86.94
440.272	79.94
440.493	76.94
440.715	77.94
440.936	82.94
441.158	70.94
441.379	79.94
441.6	87.94
441.822	80.94
442.043	79.94
442.264	75.94
442.486	84.94
442.707	78.94
442.928	75.94
443.149	82.94
443.371	78.94
443.592	82.94
443.813	70.94
444.034	89.94
444.255	88.94
444.476	86.94
444.698	83.94
444.919	91.94
445.14	145.94
445.361	122.94
445.582	92.94
445.803	79.94
446.024	91.94
446.245	90.94
446.466	74.94
446.687	92.94
446.908	80.94
447.129	68.94
447.35	80.94
447.571	77.94
447.792	82.94
448.013	87.94
448.234	90.94
448.455	83.94
448.675	90.94
448.896	73.94
449.117	70.94
449.338	70.94
449.559	75.94
449.779	73.94
450	79.94
450.221	88.94
450.442	74.94
450.662	71.94
450.883	86.94
451.104	70.94
451.324	76.94
451.545	72.94
451.766	76.94
451.986	82.94
452.207	98.94
452.428	70.94
452.648	75.94
452.869	83.94
453.089	75.94
453.31	88.94
453.53	77.94
453.751	71.94
453.971	87.94
454.192	87.94
454.412	91.94
454.633	91.94
454.853	84.94
455.073	65.94
455.294	80.94
455.514	89.94
455.734	78.94
455.955	70.94
456.175	66.94
456.395	66.94
456.616	70.94
456.836	87.94
457.056	85.94
457.276	78.94
457.497	76.94
457.717	75.94
457.937	87.94
458.157	75.94
458.377	80.94
458.598	88.94
458.818	86.94
459.038	79.94
459.258	86.94
459.478	79.94
459.698	70.94
459.918	76.94
460.138	84.94
460.358	86.94
460.578	82.94
460.798	77.94
461.018	90.94
461.238	80.94
461.458	63.94
461.678	87.94
461.898	83.94
462.118	76.94
462.338	74.94
462.558	75.94
462.777	80.94
462.997	68.94
463.217	69.94
463.437	67.94
463.657	83.94
463.876	88.94
464.096	76.94
464.316	63.94
464.536	87.94
464.755	62.94
464.975	96.94
465.195	81.94
465.414	96.94
465.634	74.94
465.854	86.94
466.073	78.94
466.293	86.94
466.512	74.94
466.732	76.94
466.951	82.94
467.171	88.94
467.391	84.94
467.61	89.94
467.829	84.94
468.049	95.94
468.268	100.94
468.488	87.94
468.707	78.94
468.927	82.94
469.146	98.94
469.365	82.94
469.585	82.94
469.804	79.94
470.023	91.94
470.243	71.94
470.462	74.94
470.681	74.94
470.901	87.94
471.12	87.94
471.339	83.94
471.558	78.94
471.777	78.94
471.997	80.94
472.216	131.94
472.435	152.94
472.654	95.94
472.873	91.94
473.092	66.94
473.311	84.94
473.53	83.94
473.749	86.94
473.968	80.94
474.187	88.94
474.406	80.94
474.625	91.94
474.844	74.94
475.063	84.94
475.282	96.94
475.501	89.94
475.72	84.94
475.939	74.94
476.158	82.94
476.377	74.94
476.596	61.94
476.814	92.94
477.033	82.94
477.252	75.94
477.471	75.94
477.69	83.94
477.908	76.94
478.127	99.94
478.346	84.94
478.564	71.94
478.783	93.94
479.002	72.94
479.22	72.94
479.439	91.94
479.658	82.94
479.876	81.94
480.095	76.94
480.313	88.94
480.532	85.94
480.751	97.94
480.969	129.94
481.188	209.94
481.406	127.94
481.624	90.94
481.843	82.94
482.061	79.94
482.28	72.94
482.498	65.94
482.717	86.94
482.935	84.94
483.153	81.94
483.372	72.94
483.59	67.94
483.808	82.94
484.027	89.94
484.245	73.94
484.463	72.94
484.681	89.94
484.9	71.94
485.118	81.94
485.336	87.94
485.554	74.94
485.772	74.94
485.99	68.94
486.209	89.94
486.427	90.94
486.645	84.94
486.863	84.94
487.081	86.94
487.299	76.94
487.517	79.94
487.735	90.94
487.953	85.94
488.171	80.94
488.389	95.94
488.607	90.94
488.825	68.94
489.043	77.94
489.261	91.94
489.479	86.94
489.696	88.94
489.914	94.94
490.132	82.94
490.35	79.94
490.568	92.94
490.786	81.94
491.003	71.94
491.221	80.94
491.439	83.94
491.657	80.94
491.874	75.94
492.092	94.94
492.31	78.94
492.527	70.94
492.745	75.94
492.963	77.94
493.18	94.94
493.398	88.94
493.615	81.94
493.833	86.94
494.05	78.94
494.268	68.94
494.485	80.94
494.703	85.94
494.92	66.94
495.138	90.94
495.355	75.94
495.573	68.94
495.79	76.94
496.008	83.94
496.225	87.94
496.442	77.94
496.66	86.94
496.877	90.94
497.094	86.94
497.312	71.94
497.529	86.94
497.746	78.94
497.963	84.94
498.181	69.94
498.398	83.94
498.615	90.94
498.832	83.94
499.049	76.94
499.267	82.94
499.484	90.94
499.701	87.94
499.918	79.94
500.135	81.94
500.352	89.94
500.569	85.94
500.786	88.94
501.003	85.94
501.22	76.94
501.437	74.94
501.654	99.94
501.871	87.94
502.088	84.94
502.305	82.94
502.522	81.94
502.739	82.94
502.956	80.94
503.172	83.94
503.389	74.94
503.606	92.94
503.823	82.94
504.04	89.94
504.256	78.94
504.473	86.94
504.69	89.94
504.907	89.94
505.123	82.94
505.34	84.94
505.557	77.94
505.773	84.94
505.99	77.94
506.207	89.94
506.423	84.94
506.64	90.94
506.856	86.94
507.073	89.94
507.289	82.94
507.506	73.94
507.722	87.94
507.939	69.94
508.155	79.94
508.372	79.94
508.588	92.94
508.805	76.94
509.021	88.94
509.238	84.94
509.454	83.94
509.67	80.94
509.887	85.94
510.103	91.94
510.319	97.94
510.536	146.94
510.752	212.94
510.968	119.94
511.184	96.94
511.401	79.94
511.617	96.94
511.833	82.94
512.049	71.94
512.265	80.94
512.481	84.94
512.698	71.94
512.914	90.94
513.13	82.94
513.346	83.94
513.562	72.94
513.778	87.94
513.994	83.94
514.21	87.94
514.426	86.94
514.642	102.94
514.858	79.94
515.074	96.94
515.29	121.94
515.506	188.94
515.721	107.94
515.937	72.94
516.153	73.94
516.369	81.94
516.585	81.94
516.801	70.94
517.016	80.94
517.232	78.94
517.448	79.94
517.664	88.94
517.879	78.94
518.095	73.94
518.311	82.94
518.527	81.94
518.742	82.94
518.958	78.94
519.173	75.94
519.389	74.94
519.605	97.94
