Data from Mixnoheat3_HRD10591_00007.txt Node
Date: Fri Dec 27 15:01:31 EST 2024
User: Yrep
Spectrometer: HR+D1059
Trigger mode: 1
Integration Time (sec): 1.000000E-1
Scans to average: 1
Electric dark correction enabled: true
Nonlinearity correction enabled: false
Boxcar width: 0
XAxis mode: Wavelengths
Number of Pixels in Spectrum: 2048
>>>>>Begin Spectral Data<<<<<
223.165	-27.38
223.4	-27.38
223.635	-27.38
223.869	-15.38
224.104	6.62
224.338	1.62
224.573	-7.38
224.808	-17.38
225.042	-16.38
225.277	-15.38
225.511	6.62
225.746	-0.38
225.98	-0.38
226.215	5.62
226.449	7.62
226.683	27.62
226.918	18.62
227.152	25.62
227.387	36.62
227.621	39.62
227.856	40.62
228.09	44.62
228.324	44.62
228.559	45.62
228.793	62.62
229.027	60.62
229.262	65.62
229.496	55.62
229.73	62.62
229.964	68.62
230.199	70.62
230.433	75.62
230.667	70.62
230.901	82.62
231.136	62.62
231.37	83.62
231.604	85.62
231.838	70.62
232.072	79.62
232.306	79.62
232.541	87.62
232.775	69.62
233.009	77.62
233.243	98.62
233.477	71.62
233.711	86.62
233.945	65.62
234.179	74.62
234.413	77.62
234.647	70.62
234.881	83.62
235.115	67.62
235.349	77.62
235.583	78.62
235.817	63.62
236.051	84.62
236.285	78.62
236.519	76.62
236.753	73.62
236.987	82.62
237.221	82.62
237.455	84.62
237.689	80.62
237.922	77.62
238.156	79.62
238.39	80.62
238.624	64.62
238.858	76.62
239.091	85.62
239.325	76.62
239.559	76.62
239.793	69.62
240.027	72.62
240.26	75.62
240.494	56.62
240.728	70.62
240.961	74.62
241.195	82.62
241.429	77.62
241.662	68.62
241.896	78.62
242.13	75.62
242.363	70.62
242.597	71.62
242.83	66.62
243.064	71.62
243.298	83.62
243.531	73.62
243.765	83.62
243.998	71.62
244.232	82.62
244.465	81.62
244.699	73.62
244.932	62.62
245.166	73.62
245.399	87.62
245.633	72.62
245.866	73.62
246.099	85.62
246.333	82.62
246.566	58.62
246.8	67.62
247.033	69.62
247.266	63.62
247.5	80.62
247.733	74.62
247.966	90.62
248.2	82.62
248.433	74.62
248.666	73.62
248.899	74.62
249.133	82.62
249.366	79.62
249.599	71.62
249.832	55.62
250.066	64.62
250.299	85.62
250.532	99.62
250.765	73.62
250.998	80.62
251.231	70.62
251.465	78.62
251.698	86.62
251.931	74.62
252.164	74.62
252.397	70.62
252.63	87.62
252.863	73.62
253.096	74.62
253.329	73.62
253.562	73.62
253.795	76.62
254.028	68.62
254.261	83.62
254.494	82.62
254.727	83.62
254.96	70.62
255.193	77.62
255.426	83.62
255.659	72.62
255.892	71.62
256.124	75.62
256.357	77.62
256.59	68.62
256.823	70.62
257.056	88.62
257.289	84.62
257.521	74.62
257.754	85.62
257.987	93.62
258.22	87.62
258.452	89.62
258.685	81.62
258.918	62.62
259.151	81.62
259.383	82.62
259.616	79.62
259.849	80.62
260.081	72.62
260.314	79.62
260.547	78.62
260.779	68.62
261.012	75.62
261.244	76.62
261.477	76.62
261.71	70.62
261.942	67.62
262.175	80.62
262.407	77.62
262.64	68.62
262.872	87.62
263.105	69.62
263.337	84.62
263.57	72.62
263.802	84.62
264.035	77.62
264.267	87.62
264.499	84.62
264.732	83.62
264.964	67.62
265.197	70.62
265.429	78.62
265.661	75.62
265.894	80.62
266.126	73.62
266.358	83.62
266.591	83.62
266.823	86.62
267.055	64.62
267.287	77.62
267.52	74.62
267.752	81.62
267.984	100.62
268.216	75.62
268.448	86.62
268.681	88.62
268.913	88.62
269.145	75.62
269.377	81.62
269.609	68.62
269.841	72.62
270.073	80.62
270.306	82.62
270.538	79.62
270.77	84.62
271.002	81.62
271.234	66.62
271.466	79.62
271.698	73.62
271.93	91.62
272.162	85.62
272.394	86.62
272.626	84.62
272.858	79.62
273.09	75.62
273.322	81.62
273.553	84.62
273.785	82.62
274.017	81.62
274.249	88.62
274.481	84.62
274.713	88.62
274.945	79.62
275.176	81.62
275.408	81.62
275.64	73.62
275.872	78.62
276.104	81.62
276.335	77.62
276.567	72.62
276.799	91.62
277.031	76.62
277.262	68.62
277.494	88.62
277.726	62.62
277.957	69.62
278.189	70.62
278.421	93.62
278.652	77.62
278.884	78.62
279.115	79.62
279.347	77.62
279.579	92.62
279.81	96.62
280.042	67.62
280.273	64.62
280.505	84.62
280.736	71.62
280.968	76.62
281.199	76.62
281.431	96.62
281.662	90.62
281.894	83.62
282.125	83.62
282.356	86.62
282.588	74.62
282.819	86.62
283.051	85.62
283.282	86.62
283.513	83.62
283.745	78.62
283.976	99.62
284.207	76.62
284.439	83.62
284.67	93.62
284.901	85.62
285.132	91.62
285.364	75.62
285.595	88.62
285.826	77.62
286.057	60.62
286.288	74.62
286.52	79.62
286.751	75.62
286.982	74.62
287.213	73.62
287.444	90.62
287.675	74.62
287.906	81.62
288.138	92.62
288.369	96.62
288.6	86.62
288.831	91.62
289.062	63.62
289.293	85.62
289.524	84.62
289.755	72.62
289.986	74.62
290.217	86.62
290.448	75.62
290.679	88.62
290.91	87.62
291.141	79.62
291.371	74.62
291.602	92.62
291.833	86.62
292.064	85.62
292.295	78.62
292.526	89.62
292.757	86.62
292.987	90.62
293.218	84.62
293.449	97.62
293.68	77.62
293.91	87.62
294.141	90.62
294.372	86.62
294.603	85.62
294.833	85.62
295.064	72.62
295.295	81.62
295.525	67.62
295.756	71.62
295.987	85.62
296.217	80.62
296.448	80.62
296.679	73.62
296.909	80.62
297.14	91.62
297.37	91.62
297.601	85.62
297.831	84.62
298.062	82.62
298.292	84.62
298.523	89.62
298.753	92.62
298.984	74.62
299.214	84.62
299.445	88.62
299.675	81.62
299.905	85.62
300.136	83.62
300.366	87.62
300.597	99.62
300.827	85.62
301.057	73.62
301.288	82.62
301.518	73.62
301.748	87.62
301.979	97.62
302.209	84.62
302.439	85.62
302.669	89.62
302.9	86.62
303.13	95.62
303.36	82.62
303.59	84.62
303.82	92.62
304.051	86.62
304.281	79.62
304.511	89.62
304.741	89.62
304.971	76.62
305.201	85.62
305.431	75.62
305.661	84.62
305.891	97.62
306.121	78.62
306.352	74.62
306.582	78.62
306.812	90.62
307.042	75.62
307.272	70.62
307.502	81.62
307.731	94.62
307.961	88.62
308.191	93.62
308.421	91.62
308.651	84.62
308.881	83.62
309.111	93.62
309.341	75.62
309.571	77.62
309.8	93.62
310.03	82.62
310.26	98.62
310.49	94.62
310.72	88.62
310.949	93.62
311.179	83.62
311.409	74.62
311.639	83.62
311.868	78.62
312.098	92.62
312.328	88.62
312.557	116.62
312.787	99.62
313.017	94.62
313.246	93.62
313.476	87.62
313.706	89.62
313.935	90.62
314.165	88.62
314.394	77.62
314.624	77.62
314.853	78.62
315.083	92.62
315.312	89.62
315.542	72.62
315.771	92.62
316.001	92.62
316.23	83.62
316.46	79.62
316.689	71.62
316.919	69.62
317.148	88.62
317.377	90.62
317.607	77.62
317.836	80.62
318.065	76.62
318.295	98.62
318.524	89.62
318.753	97.62
318.983	90.62
319.212	89.62
319.441	78.62
319.67	76.62
319.9	78.62
320.129	75.62
320.358	91.62
320.587	88.62
320.816	78.62
321.046	88.62
321.275	80.62
321.504	82.62
321.733	92.62
321.962	87.62
322.191	74.62
322.42	89.62
322.649	86.62
322.878	87.62
323.108	91.62
323.337	78.62
323.566	84.62
323.795	83.62
324.024	74.62
324.253	84.62
324.482	76.62
324.71	84.62
324.939	91.62
325.168	86.62
325.397	80.62
325.626	78.62
325.855	84.62
326.084	72.62
326.313	84.62
326.542	84.62
326.77	86.62
326.999	81.62
327.228	93.62
327.457	90.62
327.686	82.62
327.914	90.62
328.143	82.62
328.372	87.62
328.6	82.62
328.829	78.62
329.058	86.62
329.287	66.62
329.515	89.62
329.744	85.62
329.972	67.62
330.201	83.62
330.43	83.62
330.658	85.62
330.887	85.62
331.115	80.62
331.344	88.62
331.572	87.62
331.801	95.62
332.03	77.62
332.258	63.62
332.486	84.62
332.715	72.62
332.943	55.62
333.172	79.62
333.4	83.62
333.629	88.62
333.857	94.62
334.085	76.62
334.314	61.62
334.542	85.62
334.771	95.62
334.999	84.62
335.227	84.62
335.455	90.62
335.684	81.62
335.912	82.62
336.14	82.62
336.369	76.62
336.597	84.62
336.825	95.62
337.053	104.62
337.281	93.62
337.51	80.62
337.738	97.62
337.966	76.62
338.194	71.62
338.422	88.62
338.65	82.62
338.878	96.62
339.106	93.62
339.334	86.62
339.562	73.62
339.79	87.62
340.018	86.62
340.246	85.62
340.474	84.62
340.702	90.62
340.93	82.62
341.158	94.62
341.386	77.62
341.614	77.62
341.842	85.62
342.07	86.62
342.298	78.62
342.526	74.62
342.754	80.62
342.981	95.62
343.209	86.62
343.437	92.62
343.665	76.62
343.893	78.62
344.12	78.62
344.348	91.62
344.576	93.62
344.804	83.62
345.031	105.62
345.259	71.62
345.487	93.62
345.714	68.62
345.942	87.62
346.17	86.62
346.397	84.62
346.625	74.62
346.853	83.62
347.08	82.62
347.308	71.62
347.535	78.62
347.763	88.62
347.99	87.62
348.218	97.62
348.445	83.62
348.673	86.62
348.9	81.62
349.128	102.62
349.355	90.62
349.583	84.62
349.81	75.62
350.037	87.62
350.265	88.62
350.492	89.62
350.72	71.62
350.947	90.62
351.174	92.62
351.402	80.62
351.629	76.62
351.856	82.62
352.083	69.62
352.311	73.62
352.538	91.62
352.765	91.62
352.992	97.62
353.22	101.62
353.447	81.62
353.674	87.62
353.901	88.62
354.128	84.62
354.355	72.62
354.583	75.62
354.81	82.62
355.037	89.62
355.264	84.62
355.491	56.62
355.718	65.62
355.945	91.62
356.172	92.62
356.399	78.62
356.626	91.62
356.853	88.62
357.08	78.62
357.307	83.62
357.534	80.62
357.761	94.62
357.988	84.62
358.215	92.62
358.441	78.62
358.668	95.62
358.895	84.62
359.122	96.62
359.349	79.62
359.576	84.62
359.802	62.62
360.029	80.62
360.256	87.62
360.483	86.62
360.709	81.62
360.936	83.62
361.163	81.62
361.39	74.62
361.616	83.62
361.843	81.62
362.07	84.62
362.296	87.62
362.523	94.62
362.749	77.62
362.976	90.62
363.203	95.62
363.429	79.62
363.656	92.62
363.882	81.62
364.109	81.62
364.335	76.62
364.562	83.62
364.788	74.62
365.015	85.62
365.241	86.62
365.468	74.62
365.694	81.62
365.92	92.62
366.147	86.62
366.373	84.62
366.599	82.62
366.826	92.62
367.052	92.62
367.278	77.62
367.505	79.62
367.731	97.62
367.957	72.62
368.184	84.62
368.41	86.62
368.636	76.62
368.862	91.62
369.089	88.62
369.315	66.62
369.541	77.62
369.767	86.62
369.993	74.62
370.219	73.62
370.445	83.62
370.672	75.62
370.898	77.62
371.124	87.62
371.35	78.62
371.576	74.62
371.802	67.62
372.028	75.62
372.254	77.62
372.48	80.62
372.706	81.62
372.932	69.62
373.158	80.62
373.384	91.62
373.61	77.62
373.835	90.62
374.061	91.62
374.287	92.62
374.513	85.62
374.739	79.62
374.965	78.62
375.191	95.62
375.416	88.62
375.642	93.62
375.868	96.62
376.094	75.62
376.319	75.62
376.545	84.62
376.771	83.62
376.997	99.62
377.222	77.62
377.448	73.62
377.674	89.62
377.899	82.62
378.125	85.62
378.35	91.62
378.576	77.62
378.802	85.62
379.027	88.62
379.253	90.62
379.478	79.62
379.704	85.62
379.929	80.62
380.155	69.62
380.38	78.62
380.606	61.62
380.831	65.62
381.057	73.62
381.282	75.62
381.507	83.62
381.733	94.62
381.958	71.62
382.184	85.62
382.409	84.62
382.634	67.62
382.86	87.62
383.085	81.62
383.31	77.62
383.535	69.62
383.761	95.62
383.986	86.62
384.211	75.62
384.436	69.62
384.662	81.62
384.887	86.62
385.112	88.62
385.337	84.62
385.562	81.62
385.787	71.62
386.013	83.62
386.238	88.62
386.463	87.62
386.688	111.62
386.913	81.62
387.138	83.62
387.363	90.62
387.588	91.62
387.813	91.62
388.038	76.62
388.263	92.62
388.488	74.62
388.713	76.62
388.938	78.62
389.163	88.62
389.387	81.62
389.612	83.62
389.837	72.62
390.062	85.62
390.287	90.62
390.512	89.62
390.736	91.62
390.961	79.62
391.186	84.62
391.411	73.62
391.636	83.62
391.86	87.62
392.085	95.62
392.31	73.62
392.534	84.62
392.759	96.62
392.984	89.62
393.208	100.62
393.433	113.62
393.658	113.62
393.882	85.62
394.107	92.62
394.331	100.62
394.556	94.62
394.78	90.62
395.005	86.62
395.229	78.62
395.454	89.62
395.678	90.62
395.903	87.62
396.127	107.62
396.352	94.62
396.576	83.62
396.801	92.62
397.025	101.62
397.249	75.62
397.474	85.62
397.698	107.62
397.922	87.62
398.147	86.62
398.371	79.62
398.595	78.62
398.82	70.62
399.044	78.62
399.268	74.62
399.492	77.62
399.717	74.62
399.941	90.62
400.165	79.62
400.389	78.62
400.613	69.62
400.837	91.62
401.062	85.62
401.286	89.62
401.51	85.62
401.734	87.62
401.958	83.62
402.182	81.62
402.406	91.62
402.63	92.62
402.854	79.62
403.078	92.62
403.302	75.62
403.526	81.62
403.75	87.62
403.974	87.62
404.198	99.62
404.422	125.62
404.645	124.62
404.869	117.62
405.093	106.62
405.317	91.62
405.541	90.62
405.765	86.62
405.988	81.62
406.212	81.62
406.436	70.62
406.66	89.62
406.883	85.62
407.107	100.62
407.331	92.62
407.555	88.62
407.778	94.62
408.002	88.62
408.226	85.62
408.449	91.62
408.673	62.62
408.896	78.62
409.12	84.62
409.344	84.62
409.567	82.62
409.791	94.62
410.014	89.62
410.238	84.62
410.461	76.62
410.685	86.62
410.908	87.62
411.132	92.62
411.355	85.62
411.578	86.62
411.802	85.62
412.025	71.62
412.249	68.62
412.472	78.62
412.695	86.62
412.919	88.62
413.142	83.62
413.365	87.62
413.589	76.62
413.812	84.62
414.035	83.62
414.258	93.62
414.482	88.62
414.705	67.62
414.928	87.62
415.151	73.62
415.374	64.62
415.597	80.62
415.821	84.62
416.044	85.62
416.267	81.62
416.49	91.62
416.713	87.62
416.936	95.62
417.159	84.62
417.382	83.62
417.605	73.62
417.828	92.62
418.051	81.62
418.274	88.62
418.497	82.62
418.72	87.62
418.943	86.62
419.166	77.62
419.389	72.62
419.611	69.62
419.834	78.62
420.057	87.62
420.28	81.62
420.503	66.62
420.726	70.62
420.948	74.62
421.171	89.62
421.394	86.62
421.617	90.62
421.839	81.62
422.062	102.62
422.285	107.62
422.507	121.62
422.73	143.62
422.953	136.62
423.175	100.62
423.398	89.62
423.621	88.62
423.843	82.62
424.066	94.62
424.288	70.62
424.511	72.62
424.733	73.62
424.956	73.62
425.178	78.62
425.401	94.62
425.623	80.62
425.846	72.62
426.068	69.62
426.291	93.62
426.513	70.62
426.735	92.62
426.958	92.62
427.18	91.62
427.402	78.62
427.625	60.62
427.847	87.62
428.069	67.62
428.292	91.62
428.514	95.62
428.736	90.62
428.958	87.62
429.181	99.62
429.403	82.62
429.625	74.62
429.847	101.62
430.069	111.62
430.292	106.62
430.514	86.62
430.736	92.62
430.958	99.62
431.18	89.62
431.402	89.62
431.624	90.62
431.846	84.62
432.068	89.62
432.29	85.62
432.512	92.62
432.734	83.62
432.956	78.62
433.178	87.62
433.4	72.62
433.622	68.62
433.844	102.62
434.066	75.62
434.287	75.62
434.509	79.62
434.731	87.62
434.953	67.62
435.175	75.62
435.397	84.62
435.618	66.62
435.84	74.62
436.062	76.62
436.284	98.62
436.505	92.62
436.727	84.62
436.949	82.62
437.17	90.62
437.392	78.62
437.614	86.62
437.835	82.62
438.057	92.62
438.278	73.62
438.5	59.62
438.721	94.62
438.943	83.62
439.165	80.62
439.386	85.62
439.608	77.62
439.829	70.62
440.05	83.62
440.272	64.62
440.493	67.62
440.715	77.62
440.936	79.62
441.158	97.62
441.379	79.62
441.6	100.62
441.822	83.62
442.043	93.62
442.264	94.62
442.486	89.62
442.707	83.62
442.928	85.62
443.149	80.62
443.371	112.62
443.592	116.62
443.813	101.62
444.034	91.62
444.255	101.62
444.476	69.62
444.698	79.62
444.919	87.62
445.14	131.62
445.361	111.62
445.582	128.62
445.803	108.62
446.024	83.62
446.245	81.62
446.466	93.62
446.687	84.62
446.908	82.62
447.129	81.62
447.35	76.62
447.571	83.62
447.792	81.62
448.013	70.62
448.234	77.62
448.455	62.62
448.675	83.62
448.896	81.62
449.117	72.62
449.338	75.62
449.559	78.62
449.779	72.62
450	93.62
450.221	76.62
450.442	71.62
450.662	80.62
450.883	61.62
451.104	72.62
451.324	84.62
451.545	78.62
451.766	99.62
451.986	72.62
452.207	71.62
452.428	63.62
452.648	82.62
452.869	87.62
453.089	87.62
453.31	72.62
453.53	81.62
453.751	69.62
453.971	75.62
454.192	81.62
454.412	84.62
454.633	81.62
454.853	83.62
455.073	91.62
455.294	78.62
455.514	81.62
455.734	86.62
455.955	71.62
456.175	87.62
456.395	76.62
456.616	82.62
456.836	81.62
457.056	74.62
457.276	79.62
457.497	63.62
457.717	93.62
457.937	92.62
458.157	84.62
458.377	83.62
458.598	77.62
458.818	87.62
459.038	86.62
459.258	81.62
459.478	92.62
459.698	93.62
459.918	77.62
460.138	83.62
460.358	68.62
460.578	101.62
460.798	94.62
461.018	95.62
461.238	70.62
461.458	88.62
461.678	78.62
461.898	68.62
462.118	75.62
462.338	79.62
462.558	85.62
462.777	89.62
462.997	89.62
463.217	70.62
463.437	84.62
463.657	82.62
463.876	81.62
464.096	86.62
464.316	69.62
464.536	94.62
464.755	77.62
464.975	90.62
465.195	89.62
465.414	88.62
465.634	85.62
465.854	76.62
466.073	70.62
466.293	69.62
466.512	86.62
466.732	81.62
466.951	63.62
467.171	73.62
467.391	81.62
467.61	59.62
467.829	83.62
468.049	82.62
468.268	69.62
468.488	86.62
468.707	81.62
468.927	72.62
469.146	73.62
469.365	72.62
469.585	61.62
469.804	86.62
470.023	67.62
470.243	87.62
470.462	82.62
470.681	91.62
470.901	84.62
471.12	85.62
471.339	93.62
471.558	91.62
471.777	89.62
471.997	85.62
472.216	85.62
472.435	85.62
472.654	85.62
472.873	76.62
473.092	83.62
473.311	91.62
473.53	87.62
473.749	81.62
473.968	63.62
474.187	66.62
474.406	73.62
474.625	89.62
474.844	77.62
475.063	77.62
475.282	76.62
475.501	79.62
475.72	80.62
475.939	93.62
476.158	75.62
476.377	86.62
476.596	88.62
476.814	90.62
477.033	97.62
477.252	80.62
477.471	78.62
477.69	77.62
477.908	78.62
478.127	73.62
478.346	72.62
478.564	90.62
478.783	85.62
479.002	81.62
479.22	80.62
479.439	73.62
479.658	67.62
479.876	76.62
480.095	65.62
480.313	90.62
480.532	89.62
480.751	76.62
480.969	89.62
481.188	87.62
481.406	89.62
481.624	85.62
481.843	85.62
482.061	89.62
482.28	86.62
482.498	79.62
482.717	82.62
482.935	89.62
483.153	79.62
483.372	72.62
483.59	90.62
483.808	81.62
484.027	70.62
484.245	69.62
484.463	84.62
484.681	98.62
484.9	81.62
485.118	79.62
485.336	85.62
485.554	67.62
485.772	81.62
485.99	80.62
486.209	83.62
486.427	83.62
486.645	88.62
486.863	82.62
487.081	88.62
487.299	78.62
487.517	87.62
487.735	87.62
487.953	82.62
488.171	101.62
488.389	104.62
488.607	72.62
488.825	78.62
489.043	90.62
489.261	85.62
489.479	76.62
489.696	88.62
489.914	85.62
490.132	94.62
490.35	92.62
490.568	70.62
490.786	87.62
491.003	91.62
491.221	82.62
491.439	86.62
491.657	83.62
491.874	78.62
492.092	83.62
492.31	79.62
492.527	82.62
492.745	75.62
492.963	93.62
493.18	78.62
493.398	71.62
493.615	77.62
493.833	83.62
494.05	97.62
494.268	89.62
494.485	84.62
494.703	75.62
494.92	101.62
495.138	91.62
495.355	91.62
495.573	87.62
495.79	88.62
496.008	89.62
496.225	81.62
496.442	90.62
496.66	93.62
496.877	80.62
497.094	98.62
497.312	90.62
497.529	87.62
497.746	94.62
497.963	81.62
498.181	83.62
498.398	75.62
498.615	90.62
498.832	89.62
499.049	82.62
499.267	70.62
499.484	84.62
499.701	88.62
499.918	74.62
500.135	85.62
500.352	75.62
500.569	89.62
500.786	71.62
501.003	87.62
501.22	77.62
501.437	90.62
501.654	76.62
501.871	88.62
502.088	74.62
502.305	85.62
502.522	85.62
502.739	89.62
502.956	99.62
503.172	77.62
503.389	79.62
503.606	73.62
503.823	76.62
504.04	90.62
504.256	86.62
504.473	75.62
504.69	90.62
504.907	83.62
505.123	83.62
505.34	79.62
505.557	78.62
505.773	85.62
505.99	79.62
506.207	83.62
506.423	79.62
506.64	92.62
506.856	75.62
507.073	76.62
507.289	76.62
507.506	93.62
507.722	74.62
507.939	67.62
508.155	75.62
508.372	66.62
508.588	82.62
508.805	84.62
509.021	73.62
509.238	83.62
509.454	86.62
509.67	83.62
509.887	86.62
510.103	80.62
510.319	77.62
510.536	86.62
510.752	92.62
510.968	70.62
511.184	99.62
511.401	99.62
511.617	98.62
511.833	87.62
512.049	81.62
512.265	83.62
512.481	92.62
512.698	82.62
512.914	92.62
513.13	74.62
513.346	63.62
513.562	77.62
513.778	84.62
513.994	84.62
514.21	91.62
514.426	83.62
514.642	80.62
514.858	88.62
515.074	98.62
515.29	70.62
515.506	84.62
515.721	82.62
515.937	99.62
516.153	73.62
516.369	84.62
516.585	77.62
516.801	78.62
517.016	90.62
517.232	79.62
517.448	87.62
517.664	79.62
517.879	93.62
518.095	82.62
518.311	70.62
518.527	79.62
518.742	93.62
518.958	94.62
519.173	80.62
519.389	83.62
519.605	77.62
519.82	79.62
