Data from Mixnoheat3_HRD10591_00015.txt Node
Date: Fri Dec 27 15:01:39 EST 2024
User: Yrep
Spectrometer: HR+D1059
Trigger mode: 1
Integration Time (sec): 1.000000E-1
Scans to average: 1
Electric dark correction enabled: true
Nonlinearity correction enabled: false
Boxcar width: 0
XAxis mode: Wavelengths
Number of Pixels in Spectrum: 2048
>>>>>Begin Spectral Data<<<<<
223.165	-27.38
223.4	-27.38
223.635	-27.38
223.869	-10.38
224.104	-21.38
224.338	-8.38
224.573	-19.38
224.808	-20.38
225.042	-14.38
225.277	0.62
225.511	-6.38
225.746	9.62
225.98	11.62
226.215	10.62
226.449	22.62
226.683	18.62
226.918	24.62
227.152	29.62
227.387	27.62
227.621	32.62
227.856	33.62
228.09	37.62
228.324	46.62
228.559	67.62
228.793	51.62
229.027	55.62
229.262	68.62
229.496	47.62
229.73	52.62
229.964	72.62
230.199	77.62
230.433	65.62
230.667	87.62
230.901	71.62
231.136	83.62
231.37	82.62
231.604	81.62
231.838	74.62
232.072	79.62
232.306	71.62
232.541	75.62
232.775	81.62
233.009	76.62
233.243	56.62
233.477	89.62
233.711	71.62
233.945	64.62
234.179	73.62
234.413	72.62
234.647	84.62
234.881	80.62
235.115	76.62
235.349	70.62
235.583	73.62
235.817	62.62
236.051	68.62
236.285	72.62
236.519	72.62
236.753	68.62
236.987	83.62
237.221	78.62
237.455	64.62
237.689	68.62
237.922	67.62
238.156	57.62
238.39	79.62
238.624	66.62
238.858	57.62
239.091	83.62
239.325	79.62
239.559	78.62
239.793	74.62
240.027	77.62
240.26	64.62
240.494	76.62
240.728	72.62
240.961	86.62
241.195	74.62
241.429	80.62
241.662	75.62
241.896	91.62
242.13	63.62
242.363	73.62
242.597	81.62
242.83	58.62
243.064	74.62
243.298	75.62
243.531	70.62
243.765	73.62
243.998	71.62
244.232	76.62
244.465	85.62
244.699	72.62
244.932	76.62
245.166	99.62
245.399	82.62
245.633	76.62
245.866	81.62
246.099	69.62
246.333	71.62
246.566	68.62
246.8	71.62
247.033	77.62
247.266	60.62
247.5	79.62
247.733	78.62
247.966	69.62
248.2	77.62
248.433	79.62
248.666	71.62
248.899	73.62
249.133	74.62
249.366	63.62
249.599	70.62
249.832	68.62
250.066	71.62
250.299	60.62
250.532	64.62
250.765	65.62
250.998	73.62
251.231	62.62
251.465	71.62
251.698	69.62
251.931	76.62
252.164	78.62
252.397	75.62
252.63	73.62
252.863	76.62
253.096	57.62
253.329	84.62
253.562	82.62
253.795	64.62
254.028	89.62
254.261	55.62
254.494	51.62
254.727	67.62
254.96	56.62
255.193	88.62
255.426	88.62
255.659	75.62
255.892	72.62
256.124	82.62
256.357	85.62
256.59	74.62
256.823	76.62
257.056	75.62
257.289	86.62
257.521	64.62
257.754	83.62
257.987	70.62
258.22	83.62
258.452	60.62
258.685	89.62
258.918	68.62
259.151	81.62
259.383	76.62
259.616	77.62
259.849	80.62
260.081	65.62
260.314	62.62
260.547	76.62
260.779	75.62
261.012	74.62
261.244	53.62
261.477	75.62
261.71	77.62
261.942	70.62
262.175	76.62
262.407	79.62
262.64	82.62
262.872	65.62
263.105	73.62
263.337	80.62
263.57	85.62
263.802	61.62
264.035	89.62
264.267	76.62
264.499	75.62
264.732	78.62
264.964	91.62
265.197	87.62
265.429	69.62
265.661	80.62
265.894	69.62
266.126	89.62
266.358	84.62
266.591	74.62
266.823	66.62
267.055	68.62
267.287	74.62
267.52	89.62
267.752	66.62
267.984	80.62
268.216	73.62
268.448	76.62
268.681	88.62
268.913	82.62
269.145	86.62
269.377	67.62
269.609	79.62
269.841	66.62
270.073	82.62
270.306	90.62
270.538	76.62
270.77	63.62
271.002	79.62
271.234	91.62
271.466	77.62
271.698	81.62
271.93	88.62
272.162	78.62
272.394	81.62
272.626	68.62
272.858	77.62
273.09	97.62
273.322	70.62
273.553	71.62
273.785	81.62
274.017	62.62
274.249	78.62
274.481	86.62
274.713	78.62
274.945	73.62
275.176	73.62
275.408	72.62
275.64	71.62
275.872	73.62
276.104	64.62
276.335	81.62
276.567	68.62
276.799	77.62
277.031	79.62
277.262	81.62
277.494	74.62
277.726	83.62
277.957	82.62
278.189	64.62
278.421	84.62
278.652	75.62
278.884	76.62
279.115	67.62
279.347	86.62
279.579	89.62
279.81	81.62
280.042	88.62
280.273	79.62
280.505	72.62
280.736	83.62
280.968	89.62
281.199	84.62
281.431	82.62
281.662	81.62
281.894	86.62
282.125	87.62
282.356	73.62
282.588	89.62
282.819	72.62
283.051	75.62
283.282	74.62
283.513	83.62
283.745	73.62
283.976	90.62
284.207	77.62
284.439	83.62
284.67	75.62
284.901	79.62
285.132	82.62
285.364	72.62
285.595	89.62
285.826	62.62
286.057	72.62
286.288	79.62
286.52	85.62
286.751	89.62
286.982	71.62
287.213	72.62
287.444	86.62
287.675	81.62
287.906	76.62
288.138	87.62
288.369	85.62
288.6	71.62
288.831	67.62
289.062	85.62
289.293	79.62
289.524	83.62
289.755	78.62
289.986	84.62
290.217	79.62
290.448	88.62
290.679	81.62
290.91	64.62
291.141	64.62
291.371	82.62
291.602	81.62
291.833	88.62
292.064	73.62
292.295	80.62
292.526	72.62
292.757	78.62
292.987	92.62
293.218	70.62
293.449	77.62
293.68	78.62
293.91	89.62
294.141	98.62
294.372	79.62
294.603	73.62
294.833	76.62
295.064	75.62
295.295	85.62
295.525	86.62
295.756	78.62
295.987	87.62
296.217	75.62
296.448	79.62
296.679	78.62
296.909	89.62
297.14	75.62
297.37	76.62
297.601	90.62
297.831	76.62
298.062	80.62
298.292	65.62
298.523	77.62
298.753	96.62
298.984	83.62
299.214	82.62
299.445	87.62
299.675	88.62
299.905	62.62
300.136	77.62
300.366	77.62
300.597	73.62
300.827	80.62
301.057	80.62
301.288	74.62
301.518	82.62
301.748	67.62
301.979	99.62
302.209	73.62
302.439	80.62
302.669	75.62
302.9	79.62
303.13	82.62
303.36	91.62
303.59	85.62
303.82	63.62
304.051	73.62
304.281	71.62
304.511	65.62
304.741	59.62
304.971	82.62
305.201	80.62
305.431	75.62
305.661	88.62
305.891	90.62
306.121	74.62
306.352	82.62
306.582	86.62
306.812	69.62
307.042	73.62
307.272	78.62
307.502	85.62
307.731	79.62
307.961	97.62
308.191	81.62
308.421	88.62
308.651	84.62
308.881	84.62
309.111	76.62
309.341	85.62
309.571	95.62
309.8	95.62
310.03	71.62
310.26	76.62
310.49	74.62
310.72	86.62
310.949	85.62
311.179	73.62
311.409	76.62
311.639	76.62
311.868	85.62
312.098	72.62
312.328	97.62
312.557	76.62
312.787	91.62
313.017	87.62
313.246	85.62
313.476	86.62
313.706	79.62
313.935	84.62
314.165	73.62
314.394	85.62
314.624	83.62
314.853	90.62
315.083	81.62
315.312	77.62
315.542	70.62
315.771	76.62
316.001	61.62
316.23	71.62
316.46	78.62
316.689	99.62
316.919	76.62
317.148	81.62
317.377	68.62
317.607	83.62
317.836	77.62
318.065	84.62
318.295	83.62
318.524	97.62
318.753	85.62
318.983	88.62
319.212	85.62
319.441	81.62
319.67	64.62
319.9	77.62
320.129	80.62
320.358	81.62
320.587	69.62
320.816	85.62
321.046	79.62
321.275	95.62
321.504	79.62
321.733	83.62
321.962	66.62
322.191	92.62
322.42	85.62
322.649	77.62
322.878	78.62
323.108	79.62
323.337	81.62
323.566	79.62
323.795	81.62
324.024	79.62
324.253	80.62
324.482	86.62
324.71	82.62
324.939	77.62
325.168	74.62
325.397	84.62
325.626	89.62
325.855	89.62
326.084	78.62
326.313	72.62
326.542	68.62
326.77	69.62
326.999	81.62
327.228	80.62
327.457	85.62
327.686	84.62
327.914	79.62
328.143	85.62
328.372	80.62
328.6	83.62
328.829	76.62
329.058	81.62
329.287	87.62
329.515	63.62
329.744	75.62
329.972	76.62
330.201	76.62
330.43	84.62
330.658	89.62
330.887	81.62
331.115	66.62
331.344	79.62
331.572	102.62
331.801	83.62
332.03	84.62
332.258	77.62
332.486	86.62
332.715	92.62
332.943	89.62
333.172	76.62
333.4	88.62
333.629	89.62
333.857	89.62
334.085	79.62
334.314	84.62
334.542	77.62
334.771	65.62
334.999	77.62
335.227	68.62
335.455	73.62
335.684	81.62
335.912	82.62
336.14	86.62
336.369	81.62
336.597	77.62
336.825	86.62
337.053	69.62
337.281	84.62
337.51	79.62
337.738	84.62
337.966	72.62
338.194	72.62
338.422	72.62
338.65	69.62
338.878	80.62
339.106	73.62
339.334	80.62
339.562	71.62
339.79	86.62
340.018	83.62
340.246	90.62
340.474	86.62
340.702	90.62
340.93	82.62
341.158	93.62
341.386	93.62
341.614	83.62
341.842	74.62
342.07	84.62
342.298	68.62
342.526	96.62
342.754	75.62
342.981	75.62
343.209	77.62
343.437	98.62
343.665	59.62
343.893	86.62
344.12	90.62
344.348	80.62
344.576	83.62
344.804	73.62
345.031	79.62
345.259	88.62
345.487	76.62
345.714	65.62
345.942	75.62
346.17	60.62
346.397	74.62
346.625	81.62
346.853	67.62
347.08	87.62
347.308	84.62
347.535	82.62
347.763	70.62
347.99	75.62
348.218	79.62
348.445	89.62
348.673	83.62
348.9	77.62
349.128	92.62
349.355	89.62
349.583	92.62
349.81	70.62
350.037	72.62
350.265	78.62
350.492	74.62
350.72	84.62
350.947	66.62
351.174	69.62
351.402	86.62
351.629	90.62
351.856	81.62
352.083	76.62
352.311	82.62
352.538	77.62
352.765	79.62
352.992	89.62
353.22	87.62
353.447	83.62
353.674	70.62
353.901	78.62
354.128	93.62
354.355	82.62
354.583	73.62
354.81	77.62
355.037	75.62
355.264	66.62
355.491	87.62
355.718	76.62
355.945	80.62
356.172	83.62
356.399	74.62
356.626	71.62
356.853	73.62
357.08	89.62
357.307	73.62
357.534	86.62
357.761	67.62
357.988	72.62
358.215	81.62
358.441	87.62
358.668	65.62
358.895	88.62
359.122	72.62
359.349	89.62
359.576	79.62
359.802	80.62
360.029	66.62
360.256	90.62
360.483	80.62
360.709	87.62
360.936	84.62
361.163	69.62
361.39	79.62
361.616	81.62
361.843	89.62
362.07	75.62
362.296	69.62
362.523	84.62
362.749	90.62
362.976	78.62
363.203	81.62
363.429	86.62
363.656	87.62
363.882	78.62
364.109	97.62
364.335	76.62
364.562	66.62
364.788	75.62
365.015	82.62
365.241	78.62
365.468	87.62
365.694	78.62
365.92	76.62
366.147	82.62
366.373	81.62
366.599	76.62
366.826	86.62
367.052	69.62
367.278	79.62
367.505	73.62
367.731	86.62
367.957	81.62
368.184	89.62
368.41	73.62
368.636	79.62
368.862	92.62
369.089	70.62
369.315	77.62
369.541	88.62
369.767	81.62
369.993	92.62
370.219	81.62
370.445	85.62
370.672	79.62
370.898	86.62
371.124	74.62
371.35	82.62
371.576	67.62
371.802	84.62
372.028	97.62
372.254	75.62
372.48	74.62
372.706	70.62
372.932	91.62
373.158	88.62
373.384	89.62
373.61	75.62
373.835	76.62
374.061	76.62
374.287	82.62
374.513	95.62
374.739	95.62
374.965	88.62
375.191	79.62
375.416	78.62
375.642	76.62
375.868	86.62
376.094	79.62
376.319	77.62
376.545	72.62
376.771	73.62
376.997	82.62
377.222	79.62
377.448	82.62
377.674	85.62
377.899	80.62
378.125	81.62
378.35	88.62
378.576	66.62
378.802	80.62
379.027	98.62
379.253	80.62
379.478	78.62
379.704	87.62
379.929	80.62
380.155	78.62
380.38	86.62
380.606	76.62
380.831	84.62
381.057	85.62
381.282	84.62
381.507	76.62
381.733	74.62
381.958	78.62
382.184	62.62
382.409	71.62
382.634	81.62
382.86	71.62
383.085	83.62
383.31	87.62
383.535	99.62
383.761	81.62
383.986	69.62
384.211	65.62
384.436	78.62
384.662	73.62
384.887	79.62
385.112	75.62
385.337	79.62
385.562	86.62
385.787	88.62
386.013	96.62
386.238	70.62
386.463	71.62
386.688	103.62
386.913	76.62
387.138	83.62
387.363	61.62
387.588	76.62
387.813	90.62
388.038	80.62
388.263	75.62
388.488	71.62
388.713	84.62
388.938	79.62
389.163	79.62
389.387	77.62
389.612	65.62
389.837	79.62
390.062	71.62
390.287	72.62
390.512	80.62
390.736	86.62
390.961	79.62
391.186	64.62
391.411	73.62
391.636	83.62
391.86	79.62
392.085	82.62
392.31	83.62
392.534	78.62
392.759	91.62
392.984	87.62
393.208	107.62
393.433	91.62
393.658	98.62
393.882	81.62
394.107	82.62
394.331	82.62
394.556	86.62
394.78	96.62
395.005	86.62
395.229	65.62
395.454	87.62
395.678	76.62
395.903	87.62
396.127	83.62
396.352	80.62
396.576	87.62
396.801	107.62
397.025	117.62
397.249	83.62
397.474	84.62
397.698	79.62
397.922	83.62
398.147	80.62
398.371	88.62
398.595	68.62
398.82	67.62
399.044	84.62
399.268	88.62
399.492	84.62
399.717	74.62
399.941	60.62
400.165	71.62
400.389	81.62
400.613	73.62
400.837	88.62
401.062	64.62
401.286	76.62
401.51	80.62
401.734	71.62
401.958	80.62
402.182	88.62
402.406	88.62
402.63	86.62
402.854	76.62
403.078	87.62
403.302	94.62
403.526	94.62
403.75	79.62
403.974	84.62
404.198	101.62
404.422	109.62
404.645	121.62
404.869	111.62
405.093	87.62
405.317	77.62
405.541	87.62
405.765	89.62
405.988	83.62
406.212	75.62
406.436	60.62
406.66	87.62
406.883	84.62
407.107	70.62
407.331	93.62
407.555	88.62
407.778	82.62
408.002	64.62
408.226	99.62
408.449	76.62
408.673	78.62
408.896	84.62
409.12	72.62
409.344	82.62
409.567	75.62
409.791	81.62
410.014	87.62
410.238	84.62
410.461	73.62
410.685	90.62
410.908	63.62
411.132	74.62
411.355	85.62
411.578	74.62
411.802	80.62
412.025	91.62
412.249	90.62
412.472	82.62
412.695	80.62
412.919	68.62
413.142	78.62
413.365	77.62
413.589	67.62
413.812	86.62
414.035	88.62
414.258	83.62
414.482	89.62
414.705	100.62
414.928	82.62
415.151	63.62
415.374	65.62
415.597	81.62
415.821	86.62
416.044	80.62
416.267	86.62
416.49	88.62
416.713	82.62
416.936	71.62
417.159	74.62
417.382	75.62
417.605	77.62
417.828	78.62
418.051	83.62
418.274	72.62
418.497	79.62
418.72	79.62
418.943	98.62
419.166	75.62
419.389	61.62
419.611	87.62
419.834	74.62
420.057	76.62
420.28	90.62
420.503	83.62
420.726	76.62
420.948	88.62
421.171	65.62
421.394	88.62
421.617	85.62
421.839	99.62
422.062	80.62
422.285	96.62
422.507	109.62
422.73	146.62
422.953	141.62
423.175	99.62
423.398	74.62
423.621	74.62
423.843	71.62
424.066	69.62
424.288	79.62
424.511	98.62
424.733	60.62
424.956	89.62
425.178	83.62
425.401	80.62
425.623	81.62
425.846	84.62
426.068	79.62
426.291	78.62
426.513	70.62
426.735	74.62
426.958	75.62
427.18	74.62
427.402	59.62
427.625	80.62
427.847	86.62
428.069	95.62
428.292	86.62
428.514	79.62
428.736	78.62
428.958	87.62
429.181	96.62
429.403	84.62
429.625	83.62
429.847	97.62
430.069	101.62
430.292	103.62
430.514	96.62
430.736	75.62
430.958	83.62
431.18	74.62
431.402	75.62
431.624	86.62
431.846	92.62
432.068	93.62
432.29	82.62
432.512	69.62
432.734	80.62
432.956	85.62
433.178	88.62
433.4	89.62
433.622	77.62
433.844	75.62
434.066	73.62
434.287	75.62
434.509	84.62
434.731	70.62
434.953	82.62
435.175	75.62
435.397	79.62
435.618	82.62
435.84	62.62
436.062	99.62
436.284	88.62
436.505	86.62
436.727	73.62
436.949	71.62
437.17	87.62
437.392	78.62
437.614	89.62
437.835	83.62
438.057	82.62
438.278	66.62
438.5	84.62
438.721	77.62
438.943	85.62
439.165	82.62
439.386	80.62
439.608	75.62
439.829	85.62
440.05	88.62
440.272	65.62
440.493	76.62
440.715	76.62
440.936	86.62
441.158	88.62
441.379	80.62
441.6	70.62
441.822	72.62
442.043	90.62
442.264	77.62
442.486	106.62
442.707	99.62
442.928	90.62
443.149	93.62
443.371	93.62
443.592	109.62
443.813	104.62
444.034	82.62
444.255	77.62
444.476	82.62
444.698	67.62
444.919	85.62
445.14	148.62
445.361	120.62
445.582	108.62
445.803	114.62
446.024	97.62
446.245	83.62
446.466	77.62
446.687	70.62
446.908	86.62
447.129	70.62
447.35	79.62
447.571	75.62
447.792	87.62
448.013	90.62
448.234	66.62
448.455	82.62
448.675	76.62
448.896	79.62
449.117	79.62
449.338	79.62
449.559	71.62
449.779	80.62
450	69.62
450.221	76.62
450.442	73.62
450.662	76.62
450.883	80.62
451.104	80.62
451.324	75.62
451.545	72.62
451.766	83.62
451.986	69.62
452.207	77.62
452.428	72.62
452.648	69.62
452.869	72.62
453.089	81.62
453.31	82.62
453.53	88.62
453.751	90.62
453.971	88.62
454.192	75.62
454.412	87.62
454.633	88.62
454.853	81.62
455.073	70.62
455.294	69.62
455.514	76.62
455.734	80.62
455.955	74.62
456.175	79.62
456.395	84.62
456.616	87.62
456.836	91.62
457.056	66.62
457.276	75.62
457.497	80.62
457.717	80.62
457.937	81.62
458.157	96.62
458.377	80.62
458.598	81.62
458.818	87.62
459.038	69.62
459.258	89.62
459.478	80.62
459.698	75.62
459.918	75.62
460.138	82.62
460.358	83.62
460.578	80.62
460.798	99.62
461.018	74.62
461.238	75.62
461.458	79.62
461.678	77.62
461.898	73.62
462.118	85.62
462.338	81.62
462.558	85.62
462.777	79.62
462.997	69.62
463.217	79.62
463.437	59.62
463.657	68.62
463.876	86.62
464.096	79.62
464.316	79.62
464.536	81.62
464.755	82.62
464.975	77.62
465.195	82.62
465.414	71.62
465.634	74.62
465.854	83.62
466.073	81.62
466.293	74.62
466.512	76.62
466.732	71.62
466.951	83.62
467.171	74.62
467.391	73.62
467.61	73.62
467.829	75.62
468.049	88.62
468.268	83.62
468.488	78.62
468.707	80.62
468.927	80.62
469.146	77.62
469.365	63.62
469.585	79.62
469.804	70.62
470.023	82.62
470.243	71.62
470.462	87.62
470.681	85.62
470.901	75.62
471.12	74.62
471.339	95.62
471.558	75.62
471.777	91.62
471.997	87.62
472.216	69.62
472.435	72.62
472.654	83.62
472.873	90.62
473.092	73.62
473.311	86.62
473.53	55.62
473.749	80.62
473.968	78.62
474.187	77.62
474.406	85.62
474.625	88.62
474.844	83.62
475.063	86.62
475.282	83.62
475.501	78.62
475.72	81.62
475.939	83.62
476.158	77.62
476.377	75.62
476.596	71.62
476.814	76.62
477.033	75.62
477.252	87.62
477.471	79.62
477.69	82.62
477.908	103.62
478.127	81.62
478.346	69.62
478.564	67.62
478.783	75.62
479.002	95.62
479.22	77.62
479.439	90.62
479.658	73.62
479.876	87.62
480.095	71.62
480.313	72.62
480.532	77.62
480.751	67.62
480.969	85.62
481.188	82.62
481.406	74.62
481.624	76.62
481.843	75.62
482.061	69.62
482.28	88.62
482.498	89.62
482.717	73.62
482.935	70.62
483.153	67.62
483.372	83.62
483.59	85.62
483.808	76.62
484.027	78.62
484.245	85.62
484.463	80.62
484.681	83.62
484.9	84.62
485.118	70.62
485.336	71.62
485.554	82.62
485.772	87.62
485.99	79.62
486.209	81.62
486.427	82.62
486.645	88.62
486.863	91.62
487.081	85.62
487.299	77.62
487.517	89.62
487.735	91.62
487.953	92.62
488.171	88.62
488.389	81.62
488.607	75.62
488.825	81.62
489.043	83.62
489.261	83.62
489.479	79.62
489.696	88.62
489.914	102.62
490.132	71.62
490.35	77.62
490.568	93.62
490.786	71.62
491.003	81.62
491.221	77.62
491.439	71.62
491.657	80.62
491.874	72.62
492.092	78.62
492.31	85.62
492.527	71.62
492.745	76.62
492.963	74.62
493.18	80.62
493.398	92.62
493.615	77.62
493.833	84.62
494.05	79.62
494.268	80.62
494.485	77.62
494.703	81.62
494.92	74.62
495.138	77.62
495.355	79.62
495.573	81.62
495.79	88.62
496.008	90.62
496.225	91.62
496.442	80.62
496.66	90.62
496.877	84.62
497.094	85.62
497.312	71.62
497.529	74.62
497.746	77.62
497.963	72.62
498.181	83.62
498.398	74.62
498.615	86.62
498.832	71.62
499.049	87.62
499.267	63.62
499.484	80.62
499.701	89.62
499.918	97.62
500.135	85.62
500.352	75.62
500.569	78.62
500.786	90.62
501.003	90.62
501.22	90.62
501.437	87.62
501.654	81.62
501.871	83.62
502.088	82.62
502.305	90.62
502.522	73.62
502.739	79.62
502.956	83.62
503.172	85.62
503.389	77.62
503.606	81.62
503.823	80.62
504.04	86.62
504.256	81.62
504.473	82.62
504.69	95.62
504.907	90.62
505.123	93.62
505.34	87.62
505.557	78.62
505.773	87.62
505.99	85.62
506.207	87.62
506.423	84.62
506.64	81.62
506.856	76.62
507.073	82.62
507.289	82.62
507.506	93.62
507.722	83.62
507.939	81.62
508.155	71.62
508.372	78.62
508.588	83.62
508.805	91.62
509.021	81.62
509.238	72.62
509.454	83.62
509.67	74.62
509.887	93.62
510.103	86.62
510.319	77.62
510.536	75.62
510.752	65.62
510.968	71.62
511.184	86.62
511.401	74.62
511.617	74.62
511.833	83.62
512.049	86.62
512.265	83.62
512.481	85.62
512.698	77.62
512.914	92.62
513.13	84.62
513.346	84.62
513.562	81.62
513.778	79.62
513.994	70.62
514.21	82.62
514.426	99.62
514.642	77.62
514.858	81.62
515.074	87.62
515.29	86.62
515.506	76.62
515.721	81.62
515.937	79.62
516.153	74.62
516.369	81.62
516.585	88.62
516.801	79.62
517.016	89.62
517.232	76.62
517.448	83.62
517.664	74.62
517.879	77.62
518.095	67.62
518.311	80.62
518.527	78.62
518.742	88.62
518.958	72.62
519.173	83.62
519.389	71.62
519.605	75.62
519.82	65.62
