Data from Mixnoheat3_HRD10591_00006.txt Node
Date: Fri Dec 27 15:01:30 EST 2024
User: Yrep
Spectrometer: HR+D1059
Trigger mode: 1
Integration Time (sec): 1.000000E-1
Scans to average: 1
Electric dark correction enabled: true
Nonlinearity correction enabled: false
Boxcar width: 0
XAxis mode: Wavelengths
Number of Pixels in Spectrum: 2048
>>>>>Begin Spectral Data<<<<<
223.165	-30.5
223.4	-30.5
223.635	-30.5
223.869	-15.5
224.104	-22.5
224.338	-10.5
224.573	-5.5
224.808	-11.5
225.042	-8.5
225.277	-20.5
225.511	-11.5
225.746	0.5
225.98	12.5
226.215	7.5
226.449	8.5
226.683	27.5
226.918	36.5
227.152	43.5
227.387	34.5
227.621	21.5
227.856	42.5
228.09	38.5
228.324	39.5
228.559	60.5
228.793	54.5
229.027	54.5
229.262	59.5
229.496	57.5
229.73	60.5
229.964	65.5
230.199	60.5
230.433	68.5
230.667	66.5
230.901	72.5
231.136	80.5
231.37	89.5
231.604	90.5
231.838	83.5
232.072	79.5
232.306	90.5
232.541	97.5
232.775	90.5
233.009	83.5
233.243	82.5
233.477	67.5
233.711	80.5
233.945	66.5
234.179	73.5
234.413	81.5
234.647	88.5
234.881	74.5
235.115	73.5
235.349	71.5
235.583	60.5
235.817	74.5
236.051	69.5
236.285	77.5
236.519	76.5
236.753	69.5
236.987	66.5
237.221	74.5
237.455	84.5
237.689	64.5
237.922	69.5
238.156	66.5
238.39	81.5
238.624	71.5
238.858	70.5
239.091	75.5
239.325	69.5
239.559	74.5
239.793	75.5
240.027	70.5
240.26	79.5
240.494	74.5
240.728	70.5
240.961	83.5
241.195	66.5
241.429	76.5
241.662	80.5
241.896	82.5
242.13	59.5
242.363	56.5
242.597	75.5
242.83	77.5
243.064	75.5
243.298	74.5
243.531	77.5
243.765	64.5
243.998	60.5
244.232	72.5
244.465	80.5
244.699	95.5
244.932	64.5
245.166	59.5
245.399	67.5
245.633	76.5
245.866	84.5
246.099	82.5
246.333	71.5
246.566	69.5
246.8	65.5
247.033	68.5
247.266	85.5
247.5	72.5
247.733	65.5
247.966	74.5
248.2	88.5
248.433	81.5
248.666	72.5
248.899	68.5
249.133	71.5
249.366	94.5
249.599	81.5
249.832	80.5
250.066	94.5
250.299	67.5
250.532	67.5
250.765	74.5
250.998	64.5
251.231	78.5
251.465	59.5
251.698	82.5
251.931	76.5
252.164	95.5
252.397	77.5
252.63	63.5
252.863	77.5
253.096	83.5
253.329	81.5
253.562	80.5
253.795	80.5
254.028	82.5
254.261	76.5
254.494	77.5
254.727	80.5
254.96	76.5
255.193	79.5
255.426	73.5
255.659	85.5
255.892	90.5
256.124	74.5
256.357	91.5
256.59	79.5
256.823	78.5
257.056	84.5
257.289	77.5
257.521	72.5
257.754	67.5
257.987	78.5
258.22	76.5
258.452	84.5
258.685	63.5
258.918	79.5
259.151	70.5
259.383	78.5
259.616	68.5
259.849	70.5
260.081	67.5
260.314	77.5
260.547	59.5
260.779	81.5
261.012	78.5
261.244	74.5
261.477	67.5
261.71	78.5
261.942	69.5
262.175	81.5
262.407	81.5
262.64	73.5
262.872	89.5
263.105	66.5
263.337	74.5
263.57	86.5
263.802	72.5
264.035	79.5
264.267	70.5
264.499	67.5
264.732	85.5
264.964	72.5
265.197	90.5
265.429	76.5
265.661	76.5
265.894	92.5
266.126	81.5
266.358	77.5
266.591	87.5
266.823	82.5
267.055	87.5
267.287	83.5
267.52	67.5
267.752	84.5
267.984	76.5
268.216	77.5
268.448	78.5
268.681	77.5
268.913	79.5
269.145	81.5
269.377	76.5
269.609	72.5
269.841	76.5
270.073	64.5
270.306	79.5
270.538	90.5
270.77	76.5
271.002	86.5
271.234	65.5
271.466	80.5
271.698	73.5
271.93	78.5
272.162	70.5
272.394	88.5
272.626	75.5
272.858	78.5
273.09	68.5
273.322	78.5
273.553	84.5
273.785	84.5
274.017	73.5
274.249	77.5
274.481	81.5
274.713	83.5
274.945	87.5
275.176	89.5
275.408	77.5
275.64	78.5
275.872	86.5
276.104	71.5
276.335	93.5
276.567	82.5
276.799	84.5
277.031	72.5
277.262	66.5
277.494	89.5
277.726	84.5
277.957	89.5
278.189	91.5
278.421	75.5
278.652	83.5
278.884	88.5
279.115	81.5
279.347	79.5
279.579	75.5
279.81	78.5
280.042	69.5
280.273	80.5
280.505	78.5
280.736	71.5
280.968	83.5
281.199	87.5
281.431	88.5
281.662	81.5
281.894	81.5
282.125	73.5
282.356	80.5
282.588	79.5
282.819	87.5
283.051	79.5
283.282	80.5
283.513	84.5
283.745	98.5
283.976	80.5
284.207	81.5
284.439	78.5
284.67	96.5
284.901	70.5
285.132	88.5
285.364	77.5
285.595	75.5
285.826	81.5
286.057	86.5
286.288	93.5
286.52	92.5
286.751	80.5
286.982	79.5
287.213	77.5
287.444	80.5
287.675	81.5
287.906	74.5
288.138	86.5
288.369	99.5
288.6	79.5
288.831	87.5
289.062	64.5
289.293	84.5
289.524	66.5
289.755	85.5
289.986	81.5
290.217	85.5
290.448	79.5
290.679	77.5
290.91	81.5
291.141	86.5
291.371	88.5
291.602	86.5
291.833	69.5
292.064	84.5
292.295	82.5
292.526	77.5
292.757	77.5
292.987	88.5
293.218	78.5
293.449	87.5
293.68	86.5
293.91	74.5
294.141	78.5
294.372	71.5
294.603	85.5
294.833	86.5
295.064	82.5
295.295	75.5
295.525	71.5
295.756	75.5
295.987	98.5
296.217	82.5
296.448	86.5
296.679	103.5
296.909	87.5
297.14	74.5
297.37	88.5
297.601	93.5
297.831	77.5
298.062	76.5
298.292	74.5
298.523	92.5
298.753	82.5
298.984	88.5
299.214	84.5
299.445	100.5
299.675	76.5
299.905	86.5
300.136	86.5
300.366	78.5
300.597	79.5
300.827	86.5
301.057	81.5
301.288	83.5
301.518	90.5
301.748	89.5
301.979	98.5
302.209	81.5
302.439	69.5
302.669	75.5
302.9	77.5
303.13	73.5
303.36	67.5
303.59	86.5
303.82	81.5
304.051	87.5
304.281	83.5
304.511	84.5
304.741	78.5
304.971	77.5
305.201	102.5
305.431	80.5
305.661	73.5
305.891	96.5
306.121	83.5
306.352	85.5
306.582	74.5
306.812	89.5
307.042	69.5
307.272	91.5
307.502	94.5
307.731	78.5
307.961	72.5
308.191	89.5
308.421	66.5
308.651	77.5
308.881	75.5
309.111	98.5
309.341	75.5
309.571	89.5
309.8	82.5
310.03	88.5
310.26	96.5
310.49	92.5
310.72	80.5
310.949	75.5
311.179	68.5
311.409	81.5
311.639	76.5
311.868	80.5
312.098	95.5
312.328	73.5
312.557	68.5
312.787	90.5
313.017	92.5
313.246	73.5
313.476	96.5
313.706	74.5
313.935	83.5
314.165	89.5
314.394	94.5
314.624	67.5
314.853	68.5
315.083	88.5
315.312	84.5
315.542	82.5
315.771	82.5
316.001	80.5
316.23	76.5
316.46	81.5
316.689	88.5
316.919	80.5
317.148	75.5
317.377	83.5
317.607	89.5
317.836	85.5
318.065	96.5
318.295	80.5
318.524	91.5
318.753	86.5
318.983	83.5
319.212	85.5
319.441	70.5
319.67	97.5
319.9	58.5
320.129	85.5
320.358	82.5
320.587	99.5
320.816	93.5
321.046	69.5
321.275	74.5
321.504	70.5
321.733	88.5
321.962	75.5
322.191	81.5
322.42	82.5
322.649	78.5
322.878	66.5
323.108	81.5
323.337	86.5
323.566	85.5
323.795	74.5
324.024	76.5
324.253	70.5
324.482	84.5
324.71	87.5
324.939	68.5
325.168	77.5
325.397	75.5
325.626	77.5
325.855	72.5
326.084	90.5
326.313	92.5
326.542	66.5
326.77	84.5
326.999	72.5
327.228	88.5
327.457	80.5
327.686	84.5
327.914	81.5
328.143	86.5
328.372	73.5
328.6	78.5
328.829	79.5
329.058	71.5
329.287	81.5
329.515	94.5
329.744	91.5
329.972	101.5
330.201	92.5
330.43	74.5
330.658	75.5
330.887	91.5
331.115	67.5
331.344	93.5
331.572	75.5
331.801	80.5
332.03	84.5
332.258	93.5
332.486	89.5
332.715	85.5
332.943	94.5
333.172	80.5
333.4	84.5
333.629	96.5
333.857	92.5
334.085	99.5
334.314	85.5
334.542	83.5
334.771	82.5
334.999	91.5
335.227	89.5
335.455	93.5
335.684	81.5
335.912	71.5
336.14	88.5
336.369	94.5
336.597	81.5
336.825	82.5
337.053	83.5
337.281	82.5
337.51	76.5
337.738	81.5
337.966	75.5
338.194	90.5
338.422	82.5
338.65	86.5
338.878	88.5
339.106	85.5
339.334	85.5
339.562	73.5
339.79	73.5
340.018	74.5
340.246	101.5
340.474	73.5
340.702	70.5
340.93	81.5
341.158	89.5
341.386	76.5
341.614	74.5
341.842	76.5
342.07	85.5
342.298	72.5
342.526	96.5
342.754	91.5
342.981	70.5
343.209	71.5
343.437	88.5
343.665	71.5
343.893	69.5
344.12	95.5
344.348	81.5
344.576	74.5
344.804	91.5
345.031	77.5
345.259	86.5
345.487	82.5
345.714	70.5
345.942	75.5
346.17	87.5
346.397	82.5
346.625	78.5
346.853	71.5
347.08	76.5
347.308	87.5
347.535	87.5
347.763	88.5
347.99	84.5
348.218	81.5
348.445	73.5
348.673	88.5
348.9	75.5
349.128	84.5
349.355	90.5
349.583	80.5
349.81	76.5
350.037	78.5
350.265	80.5
350.492	84.5
350.72	85.5
350.947	76.5
351.174	95.5
351.402	70.5
351.629	78.5
351.856	93.5
352.083	96.5
352.311	86.5
352.538	76.5
352.765	76.5
352.992	86.5
353.22	84.5
353.447	96.5
353.674	89.5
353.901	87.5
354.128	84.5
354.355	82.5
354.583	85.5
354.81	84.5
355.037	91.5
355.264	83.5
355.491	84.5
355.718	84.5
355.945	68.5
356.172	89.5
356.399	74.5
356.626	83.5
356.853	89.5
357.08	88.5
357.307	90.5
357.534	77.5
357.761	72.5
357.988	84.5
358.215	90.5
358.441	77.5
358.668	81.5
358.895	71.5
359.122	96.5
359.349	94.5
359.576	75.5
359.802	72.5
360.029	89.5
360.256	80.5
360.483	82.5
360.709	92.5
360.936	87.5
361.163	80.5
361.39	80.5
361.616	73.5
361.843	77.5
362.07	83.5
362.296	74.5
362.523	87.5
362.749	89.5
362.976	93.5
363.203	109.5
363.429	90.5
363.656	87.5
363.882	82.5
364.109	91.5
364.335	96.5
364.562	91.5
364.788	92.5
365.015	85.5
365.241	73.5
365.468	92.5
365.694	81.5
365.92	72.5
366.147	86.5
366.373	80.5
366.599	61.5
366.826	92.5
367.052	85.5
367.278	76.5
367.505	72.5
367.731	81.5
367.957	93.5
368.184	89.5
368.41	56.5
368.636	95.5
368.862	86.5
369.089	87.5
369.315	92.5
369.541	79.5
369.767	83.5
369.993	82.5
370.219	87.5
370.445	85.5
370.672	87.5
370.898	78.5
371.124	90.5
371.35	88.5
371.576	82.5
371.802	83.5
372.028	84.5
372.254	76.5
372.48	78.5
372.706	69.5
372.932	94.5
373.158	99.5
373.384	98.5
373.61	88.5
373.835	86.5
374.061	99.5
374.287	73.5
374.513	76.5
374.739	89.5
374.965	70.5
375.191	77.5
375.416	93.5
375.642	73.5
375.868	93.5
376.094	88.5
376.319	83.5
376.545	79.5
376.771	67.5
376.997	76.5
377.222	102.5
377.448	95.5
377.674	88.5
377.899	73.5
378.125	87.5
378.35	79.5
378.576	84.5
378.802	83.5
379.027	96.5
379.253	101.5
379.478	76.5
379.704	95.5
379.929	93.5
380.155	77.5
380.38	79.5
380.606	70.5
380.831	81.5
381.057	83.5
381.282	84.5
381.507	97.5
381.733	86.5
381.958	77.5
382.184	89.5
382.409	78.5
382.634	104.5
382.86	64.5
383.085	88.5
383.31	79.5
383.535	85.5
383.761	96.5
383.986	88.5
384.211	91.5
384.436	67.5
384.662	82.5
384.887	70.5
385.112	86.5
385.337	74.5
385.562	92.5
385.787	82.5
386.013	78.5
386.238	72.5
386.463	77.5
386.688	84.5
386.913	74.5
387.138	71.5
387.363	77.5
387.588	80.5
387.813	82.5
388.038	88.5
388.263	92.5
388.488	77.5
388.713	83.5
388.938	68.5
389.163	70.5
389.387	82.5
389.612	88.5
389.837	78.5
390.062	82.5
390.287	85.5
390.512	70.5
390.736	65.5
390.961	83.5
391.186	81.5
391.411	80.5
391.636	81.5
391.86	69.5
392.085	69.5
392.31	80.5
392.534	82.5
392.759	89.5
392.984	90.5
393.208	118.5
393.433	124.5
393.658	107.5
393.882	81.5
394.107	85.5
394.331	91.5
394.556	90.5
394.78	94.5
395.005	84.5
395.229	87.5
395.454	83.5
395.678	87.5
395.903	99.5
396.127	104.5
396.352	106.5
396.576	97.5
396.801	118.5
397.025	148.5
397.249	101.5
397.474	91.5
397.698	74.5
397.922	79.5
398.147	76.5
398.371	77.5
398.595	85.5
398.82	81.5
399.044	84.5
399.268	75.5
399.492	87.5
399.717	82.5
399.941	66.5
400.165	83.5
400.389	90.5
400.613	77.5
400.837	73.5
401.062	77.5
401.286	74.5
401.51	92.5
401.734	82.5
401.958	69.5
402.182	83.5
402.406	89.5
402.63	81.5
402.854	86.5
403.078	80.5
403.302	74.5
403.526	91.5
403.75	85.5
403.974	94.5
404.198	104.5
404.422	133.5
404.645	150.5
404.869	129.5
405.093	99.5
405.317	84.5
405.541	85.5
405.765	87.5
405.988	86.5
406.212	81.5
406.436	79.5
406.66	91.5
406.883	85.5
407.107	83.5
407.331	81.5
407.555	78.5
407.778	90.5
408.002	91.5
408.226	79.5
408.449	67.5
408.673	77.5
408.896	71.5
409.12	87.5
409.344	78.5
409.567	77.5
409.791	76.5
410.014	74.5
410.238	83.5
410.461	84.5
410.685	64.5
410.908	75.5
411.132	74.5
411.355	74.5
411.578	97.5
411.802	80.5
412.025	76.5
412.249	78.5
412.472	73.5
412.695	76.5
412.919	83.5
413.142	83.5
413.365	80.5
413.589	75.5
413.812	86.5
414.035	89.5
414.258	80.5
414.482	73.5
414.705	81.5
414.928	70.5
415.151	75.5
415.374	85.5
415.597	93.5
415.821	75.5
416.044	82.5
416.267	80.5
416.49	89.5
416.713	86.5
416.936	81.5
417.159	88.5
417.382	75.5
417.605	80.5
417.828	79.5
418.051	81.5
418.274	92.5
418.497	80.5
418.72	85.5
418.943	86.5
419.166	79.5
419.389	82.5
419.611	97.5
419.834	72.5
420.057	85.5
420.28	88.5
420.503	100.5
420.726	86.5
420.948	86.5
421.171	82.5
421.394	98.5
421.617	92.5
421.839	99.5
422.062	101.5
422.285	112.5
422.507	158.5
422.73	188.5
422.953	174.5
423.175	114.5
423.398	95.5
423.621	88.5
423.843	81.5
424.066	85.5
424.288	80.5
424.511	89.5
424.733	85.5
424.956	90.5
425.178	73.5
425.401	73.5
425.623	86.5
425.846	78.5
426.068	94.5
426.291	92.5
426.513	69.5
426.735	79.5
426.958	77.5
427.18	84.5
427.402	93.5
427.625	66.5
427.847	82.5
428.069	101.5
428.292	103.5
428.514	102.5
428.736	89.5
428.958	108.5
429.181	100.5
429.403	75.5
429.625	91.5
429.847	82.5
430.069	107.5
430.292	130.5
430.514	109.5
430.736	104.5
430.958	112.5
431.18	83.5
431.402	90.5
431.624	82.5
431.846	89.5
432.068	91.5
432.29	85.5
432.512	92.5
432.734	73.5
432.956	88.5
433.178	107.5
433.4	92.5
433.622	79.5
433.844	78.5
434.066	90.5
434.287	76.5
434.509	90.5
434.731	91.5
434.953	84.5
435.175	68.5
435.397	78.5
435.618	69.5
435.84	92.5
436.062	84.5
436.284	84.5
436.505	83.5
436.727	79.5
436.949	74.5
437.17	72.5
437.392	65.5
437.614	76.5
437.835	92.5
438.057	80.5
438.278	78.5
438.5	78.5
438.721	76.5
438.943	76.5
439.165	91.5
439.386	91.5
439.608	89.5
439.829	94.5
440.05	80.5
440.272	84.5
440.493	88.5
440.715	83.5
440.936	88.5
441.158	76.5
441.379	77.5
441.6	97.5
441.822	72.5
442.043	85.5
442.264	92.5
442.486	88.5
442.707	90.5
442.928	101.5
443.149	88.5
443.371	99.5
443.592	137.5
443.813	128.5
444.034	89.5
444.255	87.5
444.476	84.5
444.698	84.5
444.919	77.5
445.14	134.5
445.361	127.5
445.582	165.5
445.803	136.5
446.024	88.5
446.245	84.5
446.466	76.5
446.687	80.5
446.908	90.5
447.129	93.5
447.35	82.5
447.571	89.5
447.792	99.5
448.013	83.5
448.234	84.5
448.455	84.5
448.675	80.5
448.896	88.5
449.117	66.5
449.338	77.5
449.559	75.5
449.779	85.5
450	77.5
450.221	76.5
450.442	75.5
450.662	84.5
450.883	70.5
451.104	81.5
451.324	92.5
451.545	69.5
451.766	72.5
451.986	82.5
452.207	82.5
452.428	65.5
452.648	85.5
452.869	100.5
453.089	85.5
453.31	68.5
453.53	83.5
453.751	74.5
453.971	66.5
454.192	70.5
454.412	75.5
454.633	82.5
454.853	76.5
455.073	65.5
455.294	94.5
455.514	89.5
455.734	90.5
455.955	85.5
456.175	83.5
456.395	85.5
456.616	82.5
456.836	67.5
457.056	65.5
457.276	101.5
457.497	64.5
457.717	75.5
457.937	82.5
458.157	93.5
458.377	75.5
458.598	83.5
458.818	91.5
459.038	76.5
459.258	100.5
459.478	86.5
459.698	91.5
459.918	90.5
460.138	89.5
460.358	67.5
460.578	84.5
460.798	110.5
461.018	99.5
461.238	96.5
461.458	63.5
461.678	61.5
461.898	70.5
462.118	91.5
462.338	82.5
462.558	80.5
462.777	79.5
462.997	79.5
463.217	83.5
463.437	98.5
463.657	86.5
463.876	73.5
464.096	84.5
464.316	71.5
464.536	79.5
464.755	84.5
464.975	79.5
465.195	94.5
465.414	88.5
465.634	89.5
465.854	76.5
466.073	82.5
466.293	76.5
466.512	76.5
466.732	69.5
466.951	71.5
467.171	67.5
467.391	83.5
467.61	71.5
467.829	99.5
468.049	76.5
468.268	86.5
468.488	82.5
468.707	81.5
468.927	101.5
469.146	64.5
469.365	80.5
469.585	81.5
469.804	75.5
470.023	81.5
470.243	75.5
470.462	94.5
470.681	75.5
470.901	73.5
471.12	64.5
471.339	90.5
471.558	84.5
471.777	80.5
471.997	87.5
472.216	87.5
472.435	69.5
472.654	89.5
472.873	88.5
473.092	88.5
473.311	90.5
473.53	72.5
473.749	78.5
473.968	95.5
474.187	84.5
474.406	76.5
474.625	69.5
474.844	81.5
475.063	91.5
475.282	96.5
475.501	66.5
475.72	77.5
475.939	85.5
476.158	83.5
476.377	80.5
476.596	86.5
476.814	91.5
477.033	72.5
477.252	72.5
477.471	82.5
477.69	84.5
477.908	90.5
478.127	73.5
478.346	87.5
478.564	88.5
478.783	80.5
479.002	73.5
479.22	77.5
479.439	78.5
479.658	82.5
479.876	76.5
480.095	69.5
480.313	84.5
480.532	77.5
480.751	85.5
480.969	88.5
481.188	94.5
481.406	81.5
481.624	87.5
481.843	96.5
482.061	85.5
482.28	74.5
482.498	84.5
482.717	72.5
482.935	85.5
483.153	91.5
483.372	99.5
483.59	90.5
483.808	64.5
484.027	83.5
484.245	89.5
484.463	83.5
484.681	87.5
484.9	77.5
485.118	84.5
485.336	86.5
485.554	77.5
485.772	86.5
485.99	85.5
486.209	81.5
486.427	85.5
486.645	80.5
486.863	73.5
487.081	86.5
487.299	103.5
487.517	80.5
487.735	90.5
487.953	114.5
488.171	100.5
488.389	99.5
488.607	83.5
488.825	84.5
489.043	74.5
489.261	84.5
489.479	91.5
489.696	85.5
489.914	90.5
490.132	87.5
490.35	100.5
490.568	86.5
490.786	72.5
491.003	79.5
491.221	76.5
491.439	77.5
491.657	89.5
491.874	96.5
492.092	81.5
492.31	102.5
492.527	92.5
492.745	91.5
492.963	85.5
493.18	80.5
493.398	77.5
493.615	89.5
493.833	92.5
494.05	88.5
494.268	78.5
494.485	85.5
494.703	82.5
494.92	85.5
495.138	81.5
495.355	84.5
495.573	74.5
495.79	86.5
496.008	76.5
496.225	80.5
496.442	87.5
496.66	99.5
496.877	75.5
497.094	81.5
497.312	80.5
497.529	90.5
497.746	77.5
497.963	75.5
498.181	82.5
498.398	86.5
498.615	75.5
498.832	86.5
499.049	77.5
499.267	88.5
499.484	84.5
499.701	78.5
499.918	83.5
500.135	89.5
500.352	90.5
500.569	81.5
500.786	80.5
501.003	81.5
501.22	90.5
501.437	87.5
501.654	82.5
501.871	78.5
502.088	75.5
502.305	77.5
502.522	80.5
502.739	78.5
502.956	99.5
503.172	101.5
503.389	105.5
503.606	81.5
503.823	68.5
504.04	95.5
504.256	98.5
504.473	104.5
504.69	93.5
504.907	87.5
505.123	76.5
505.34	76.5
505.557	73.5
505.773	78.5
505.99	80.5
506.207	79.5
506.423	75.5
506.64	89.5
506.856	79.5
507.073	78.5
507.289	81.5
507.506	85.5
507.722	78.5
507.939	80.5
508.155	86.5
508.372	99.5
508.588	86.5
508.805	73.5
509.021	78.5
509.238	77.5
509.454	84.5
509.67	89.5
509.887	86.5
510.103	84.5
510.319	79.5
510.536	89.5
510.752	82.5
510.968	74.5
511.184	74.5
511.401	91.5
511.617	74.5
511.833	86.5
512.049	82.5
512.265	93.5
512.481	86.5
512.698	104.5
512.914	95.5
513.13	99.5
513.346	83.5
513.562	86.5
513.778	84.5
513.994	86.5
514.21	86.5
514.426	87.5
514.642	87.5
514.858	76.5
515.074	92.5
515.29	88.5
515.506	89.5
515.721	76.5
515.937	77.5
516.153	96.5
516.369	82.5
516.585	81.5
516.801	83.5
517.016	76.5
517.232	81.5
517.448	82.5
517.664	78.5
517.879	82.5
518.095	86.5
518.311	81.5
518.527	98.5
518.742	91.5
518.958	90.5
519.173	116.5
519.389	100.5
519.605	96.5
519.82	72.5
520.036	89.5
520.251	88.5
520.467	83.5
520.682	89.5
520.898	81.5
521.113	83.5
521.329	93.5
521.544	74.5
521.76	89.5
521.975	94.5
522.19	71.5
522.406	76.5
522.621	72.5
522.836	89.5
523.052	95.5
523.267	78.5
523.482	90.5
523.698	75.5
523.913	73.5
524.128	72.5
524.343	83.5
524.559	98.5
524.774	84.5
524.989	78.5
525.204	88.5
525.419	85.5
525.634	99.5
525.849	94.5
526.064	84.5
526.28	112.5
526.495	144.5
526.71	133.5
526.925	127.5
527.14	166.5
527.355	146.5
527.57	102.5
527.785	88.5
527.999	85.5
528.214	89.5
528.429	95.5
528.644	68.5
528.859	82.5
529.074	91.5
529.289	86.5
529.503	82.5
529.718	92.5
529.933	80.5
530.148	85.5
530.363	78.5
530.577	82.5
530.792	81.5
531.007	88.5
531.221	86.5
531.436	74.5
531.651	83.5
531.865	85.5
532.08	72.5
532.295	88.5
532.509	91.5
532.724	93.5
532.938	82.5
533.153	89.5
533.367	96.5
533.582	92.5
533.796	71.5
534.011	89.5
534.225	87.5
534.44	97.5
534.654	96.5
534.868	105.5
535.083	114.5
535.297	101.5
535.511	99.5
535.726	88.5
535.94	80.5
536.154	82.5
536.369	83.5
536.583	85.5
536.797	90.5
537.011	90.5
537.225	78.5
537.44	76.5
537.654	88.5
537.868	83.5
538.082	87.5
538.296	72.5
538.51	101.5
538.724	80.5
538.938	81.5
539.153	87.5
539.367	90.5
539.581	90.5
