Data from Mixnoheat3_HRD10591_00012.txt Node
Date: Fri Dec 27 15:01:36 EST 2024
User: Yrep
Spectrometer: HR+D1059
Trigger mode: 1
Integration Time (sec): 1.000000E-1
Scans to average: 1
Electric dark correction enabled: true
Nonlinearity correction enabled: false
Boxcar width: 0
XAxis mode: Wavelengths
Number of Pixels in Spectrum: 2048
>>>>>Begin Spectral Data<<<<<
223.165	-31.62
223.4	-31.62
223.635	-31.62
223.869	-9.62
224.104	-33.62
224.338	-5.62
224.573	-9.62
224.808	-13.62
225.042	0.38
225.277	-19.62
225.511	0.38
225.746	10.38
225.98	10.38
226.215	-5.62
226.449	15.38
226.683	22.38
226.918	36.38
227.152	33.38
227.387	38.38
227.621	40.38
227.856	43.38
228.09	49.38
228.324	48.38
228.559	59.38
228.793	71.38
229.027	57.38
229.262	65.38
229.496	68.38
229.73	83.38
229.964	76.38
230.199	86.38
230.433	79.38
230.667	88.38
230.901	61.38
231.136	97.38
231.37	72.38
231.604	75.38
231.838	84.38
232.072	92.38
232.306	96.38
232.541	84.38
232.775	103.38
233.009	94.38
233.243	86.38
233.477	94.38
233.711	101.38
233.945	84.38
234.179	85.38
234.413	88.38
234.647	70.38
234.881	82.38
235.115	105.38
235.349	86.38
235.583	75.38
235.817	78.38
236.051	81.38
236.285	74.38
236.519	88.38
236.753	82.38
236.987	75.38
237.221	86.38
237.455	72.38
237.689	77.38
237.922	81.38
238.156	62.38
238.39	68.38
238.624	80.38
238.858	73.38
239.091	85.38
239.325	76.38
239.559	78.38
239.793	77.38
240.027	74.38
240.26	78.38
240.494	79.38
240.728	93.38
240.961	95.38
241.195	86.38
241.429	76.38
241.662	78.38
241.896	85.38
242.13	100.38
242.363	62.38
242.597	86.38
242.83	89.38
243.064	94.38
243.298	79.38
243.531	76.38
243.765	84.38
243.998	79.38
244.232	92.38
244.465	76.38
244.699	77.38
244.932	73.38
245.166	96.38
245.399	84.38
245.633	74.38
245.866	70.38
246.099	73.38
246.333	87.38
246.566	81.38
246.8	71.38
247.033	92.38
247.266	91.38
247.5	74.38
247.733	79.38
247.966	87.38
248.2	85.38
248.433	76.38
248.666	88.38
248.899	78.38
249.133	89.38
249.366	93.38
249.599	79.38
249.832	74.38
250.066	92.38
250.299	78.38
250.532	86.38
250.765	71.38
250.998	78.38
251.231	82.38
251.465	88.38
251.698	73.38
251.931	84.38
252.164	73.38
252.397	73.38
252.63	86.38
252.863	76.38
253.096	79.38
253.329	88.38
253.562	78.38
253.795	67.38
254.028	77.38
254.261	92.38
254.494	83.38
254.727	91.38
254.96	79.38
255.193	81.38
255.426	82.38
255.659	77.38
255.892	80.38
256.124	75.38
256.357	71.38
256.59	80.38
256.823	88.38
257.056	84.38
257.289	76.38
257.521	83.38
257.754	76.38
257.987	86.38
258.22	82.38
258.452	81.38
258.685	89.38
258.918	87.38
259.151	81.38
259.383	93.38
259.616	79.38
259.849	88.38
260.081	77.38
260.314	65.38
260.547	83.38
260.779	98.38
261.012	88.38
261.244	94.38
261.477	94.38
261.71	85.38
261.942	90.38
262.175	87.38
262.407	88.38
262.64	92.38
262.872	75.38
263.105	88.38
263.337	97.38
263.57	89.38
263.802	100.38
264.035	93.38
264.267	85.38
264.499	82.38
264.732	82.38
264.964	91.38
265.197	101.38
265.429	93.38
265.661	76.38
265.894	76.38
266.126	96.38
266.358	85.38
266.591	92.38
266.823	82.38
267.055	87.38
267.287	83.38
267.52	87.38
267.752	84.38
267.984	80.38
268.216	79.38
268.448	77.38
268.681	81.38
268.913	96.38
269.145	86.38
269.377	81.38
269.609	84.38
269.841	95.38
270.073	94.38
270.306	92.38
270.538	90.38
270.77	77.38
271.002	84.38
271.234	86.38
271.466	94.38
271.698	88.38
271.93	101.38
272.162	81.38
272.394	82.38
272.626	85.38
272.858	81.38
273.09	84.38
273.322	84.38
273.553	81.38
273.785	100.38
274.017	82.38
274.249	84.38
274.481	82.38
274.713	92.38
274.945	83.38
275.176	90.38
275.408	95.38
275.64	88.38
275.872	95.38
276.104	88.38
276.335	78.38
276.567	73.38
276.799	72.38
277.031	79.38
277.262	92.38
277.494	86.38
277.726	83.38
277.957	87.38
278.189	87.38
278.421	88.38
278.652	82.38
278.884	102.38
279.115	84.38
279.347	102.38
279.579	88.38
279.81	73.38
280.042	98.38
280.273	96.38
280.505	99.38
280.736	80.38
280.968	78.38
281.199	82.38
281.431	89.38
281.662	80.38
281.894	85.38
282.125	104.38
282.356	74.38
282.588	87.38
282.819	92.38
283.051	76.38
283.282	98.38
283.513	87.38
283.745	76.38
283.976	78.38
284.207	87.38
284.439	87.38
284.67	78.38
284.901	92.38
285.132	85.38
285.364	72.38
285.595	94.38
285.826	88.38
286.057	89.38
286.288	91.38
286.52	93.38
286.751	87.38
286.982	88.38
287.213	79.38
287.444	84.38
287.675	94.38
287.906	92.38
288.138	88.38
288.369	89.38
288.6	79.38
288.831	84.38
289.062	95.38
289.293	86.38
289.524	88.38
289.755	83.38
289.986	85.38
290.217	79.38
290.448	87.38
290.679	85.38
290.91	84.38
291.141	92.38
291.371	86.38
291.602	83.38
291.833	92.38
292.064	85.38
292.295	90.38
292.526	86.38
292.757	86.38
292.987	93.38
293.218	84.38
293.449	90.38
293.68	89.38
293.91	92.38
294.141	84.38
294.372	95.38
294.603	85.38
294.833	79.38
295.064	100.38
295.295	93.38
295.525	95.38
295.756	90.38
295.987	86.38
296.217	91.38
296.448	80.38
296.679	83.38
296.909	81.38
297.14	87.38
297.37	85.38
297.601	77.38
297.831	93.38
298.062	100.38
298.292	97.38
298.523	103.38
298.753	93.38
298.984	84.38
299.214	95.38
299.445	81.38
299.675	89.38
299.905	90.38
300.136	82.38
300.366	95.38
300.597	90.38
300.827	86.38
301.057	102.38
301.288	92.38
301.518	83.38
301.748	88.38
301.979	97.38
302.209	88.38
302.439	75.38
302.669	84.38
302.9	98.38
303.13	90.38
303.36	88.38
303.59	71.38
303.82	86.38
304.051	91.38
304.281	100.38
304.511	89.38
304.741	94.38
304.971	81.38
305.201	97.38
305.431	85.38
305.661	78.38
305.891	91.38
306.121	97.38
306.352	82.38
306.582	68.38
306.812	76.38
307.042	96.38
307.272	83.38
307.502	94.38
307.731	94.38
307.961	84.38
308.191	103.38
308.421	80.38
308.651	79.38
308.881	100.38
309.111	95.38
309.341	97.38
309.571	93.38
309.8	86.38
310.03	90.38
310.26	88.38
310.49	77.38
310.72	89.38
310.949	86.38
311.179	87.38
311.409	92.38
311.639	94.38
311.868	88.38
312.098	85.38
312.328	86.38
312.557	80.38
312.787	87.38
313.017	92.38
313.246	89.38
313.476	92.38
313.706	99.38
313.935	95.38
314.165	88.38
314.394	78.38
314.624	80.38
314.853	84.38
315.083	96.38
315.312	86.38
315.542	90.38
315.771	73.38
316.001	91.38
316.23	89.38
316.46	95.38
316.689	97.38
316.919	100.38
317.148	87.38
317.377	86.38
317.607	90.38
317.836	75.38
318.065	94.38
318.295	93.38
318.524	88.38
318.753	84.38
318.983	92.38
319.212	103.38
319.441	94.38
319.67	95.38
319.9	82.38
320.129	102.38
320.358	94.38
320.587	87.38
320.816	79.38
321.046	89.38
321.275	88.38
321.504	97.38
321.733	95.38
321.962	87.38
322.191	90.38
322.42	87.38
322.649	94.38
322.878	91.38
323.108	87.38
323.337	93.38
323.566	93.38
323.795	85.38
324.024	88.38
324.253	83.38
324.482	89.38
324.71	94.38
324.939	97.38
325.168	78.38
325.397	85.38
325.626	104.38
325.855	93.38
326.084	87.38
326.313	105.38
326.542	88.38
326.77	105.38
326.999	87.38
327.228	95.38
327.457	82.38
327.686	93.38
327.914	82.38
328.143	84.38
328.372	81.38
328.6	90.38
328.829	78.38
329.058	82.38
329.287	103.38
329.515	83.38
329.744	90.38
329.972	84.38
330.201	81.38
330.43	94.38
330.658	106.38
330.887	94.38
331.115	92.38
331.344	80.38
331.572	87.38
331.801	89.38
332.03	83.38
332.258	93.38
332.486	89.38
332.715	94.38
332.943	87.38
333.172	92.38
333.4	90.38
333.629	91.38
333.857	85.38
334.085	87.38
334.314	90.38
334.542	97.38
334.771	104.38
334.999	93.38
335.227	94.38
335.455	90.38
335.684	84.38
335.912	85.38
336.14	85.38
336.369	83.38
336.597	91.38
336.825	85.38
337.053	88.38
337.281	100.38
337.51	96.38
337.738	102.38
337.966	79.38
338.194	80.38
338.422	81.38
338.65	93.38
338.878	94.38
339.106	94.38
339.334	90.38
339.562	100.38
339.79	92.38
340.018	87.38
340.246	87.38
340.474	91.38
340.702	101.38
340.93	86.38
341.158	97.38
341.386	91.38
341.614	87.38
341.842	83.38
342.07	93.38
342.298	80.38
342.526	96.38
342.754	90.38
342.981	84.38
343.209	86.38
343.437	102.38
343.665	84.38
343.893	81.38
344.12	87.38
344.348	84.38
344.576	97.38
344.804	95.38
345.031	91.38
345.259	75.38
345.487	92.38
345.714	85.38
345.942	94.38
346.17	93.38
346.397	88.38
346.625	90.38
346.853	83.38
347.08	88.38
347.308	89.38
347.535	82.38
347.763	78.38
347.99	72.38
348.218	89.38
348.445	98.38
348.673	98.38
348.9	82.38
349.128	92.38
349.355	71.38
349.583	92.38
349.81	88.38
350.037	112.38
350.265	96.38
350.492	80.38
350.72	86.38
350.947	92.38
351.174	90.38
351.402	89.38
351.629	90.38
351.856	86.38
352.083	97.38
352.311	105.38
352.538	85.38
352.765	101.38
352.992	94.38
353.22	91.38
353.447	100.38
353.674	80.38
353.901	96.38
354.128	92.38
354.355	82.38
354.583	97.38
354.81	94.38
355.037	94.38
355.264	86.38
355.491	92.38
355.718	93.38
355.945	66.38
356.172	79.38
356.399	98.38
356.626	88.38
356.853	94.38
357.08	77.38
357.307	93.38
357.534	91.38
357.761	75.38
357.988	87.38
358.215	92.38
358.441	88.38
358.668	82.38
358.895	92.38
359.122	100.38
359.349	80.38
359.576	96.38
359.802	89.38
360.029	82.38
360.256	99.38
360.483	100.38
360.709	85.38
360.936	103.38
361.163	93.38
361.39	91.38
361.616	80.38
361.843	84.38
362.07	82.38
362.296	85.38
362.523	92.38
362.749	90.38
362.976	84.38
363.203	112.38
363.429	87.38
363.656	90.38
363.882	89.38
364.109	106.38
364.335	86.38
364.562	90.38
364.788	96.38
365.015	81.38
365.241	88.38
365.468	84.38
365.694	81.38
365.92	81.38
366.147	88.38
366.373	90.38
366.599	100.38
366.826	87.38
367.052	91.38
367.278	103.38
367.505	82.38
367.731	106.38
367.957	82.38
368.184	84.38
368.41	80.38
368.636	90.38
368.862	82.38
369.089	87.38
369.315	95.38
369.541	93.38
369.767	84.38
369.993	90.38
370.219	93.38
370.445	81.38
370.672	98.38
370.898	98.38
371.124	89.38
371.35	85.38
371.576	97.38
371.802	92.38
372.028	88.38
372.254	84.38
372.48	80.38
372.706	83.38
372.932	81.38
373.158	88.38
373.384	93.38
373.61	95.38
373.835	75.38
374.061	91.38
374.287	82.38
374.513	88.38
374.739	100.38
374.965	86.38
375.191	78.38
375.416	94.38
375.642	94.38
375.868	84.38
376.094	88.38
376.319	104.38
376.545	92.38
376.771	85.38
376.997	71.38
377.222	83.38
377.448	89.38
377.674	102.38
377.899	84.38
378.125	90.38
378.35	79.38
378.576	86.38
378.802	90.38
379.027	93.38
379.253	87.38
379.478	84.38
379.704	86.38
379.929	79.38
380.155	82.38
380.38	98.38
380.606	96.38
380.831	92.38
381.057	93.38
381.282	78.38
381.507	88.38
381.733	84.38
381.958	75.38
382.184	90.38
382.409	90.38
382.634	90.38
382.86	79.38
383.085	100.38
383.31	92.38
383.535	87.38
383.761	84.38
383.986	85.38
384.211	89.38
384.436	99.38
384.662	84.38
384.887	77.38
385.112	87.38
385.337	97.38
385.562	89.38
385.787	90.38
386.013	109.38
386.238	78.38
386.463	75.38
386.688	113.38
386.913	74.38
387.138	83.38
387.363	94.38
387.588	93.38
387.813	103.38
388.038	80.38
388.263	87.38
388.488	86.38
388.713	77.38
388.938	96.38
389.163	89.38
389.387	97.38
389.612	97.38
389.837	89.38
390.062	85.38
390.287	83.38
390.512	76.38
390.736	80.38
390.961	86.38
391.186	81.38
391.411	78.38
391.636	96.38
391.86	81.38
392.085	82.38
392.31	70.38
392.534	82.38
392.759	87.38
392.984	93.38
393.208	110.38
393.433	130.38
393.658	112.38
393.882	96.38
394.107	96.38
394.331	85.38
394.556	94.38
394.78	96.38
395.005	86.38
395.229	93.38
395.454	98.38
395.678	97.38
395.903	101.38
396.127	102.38
396.352	101.38
396.576	87.38
396.801	93.38
397.025	103.38
397.249	76.38
397.474	88.38
397.698	84.38
397.922	82.38
398.147	95.38
398.371	82.38
398.595	78.38
398.82	84.38
399.044	92.38
399.268	96.38
399.492	94.38
399.717	87.38
399.941	84.38
400.165	86.38
400.389	87.38
400.613	80.38
400.837	99.38
401.062	90.38
401.286	72.38
401.51	93.38
401.734	85.38
401.958	83.38
402.182	88.38
402.406	91.38
402.63	89.38
402.854	87.38
403.078	81.38
403.302	87.38
403.526	93.38
403.75	97.38
403.974	85.38
404.198	107.38
404.422	125.38
404.645	148.38
404.869	117.38
405.093	96.38
405.317	105.38
405.541	90.38
405.765	102.38
405.988	84.38
406.212	87.38
406.436	90.38
406.66	97.38
406.883	76.38
407.107	84.38
407.331	78.38
407.555	91.38
407.778	84.38
408.002	89.38
408.226	85.38
408.449	98.38
408.673	79.38
408.896	82.38
409.12	85.38
409.344	86.38
409.567	76.38
409.791	85.38
410.014	94.38
410.238	73.38
410.461	94.38
410.685	92.38
410.908	71.38
411.132	89.38
411.355	90.38
411.578	84.38
411.802	82.38
412.025	82.38
412.249	84.38
412.472	78.38
412.695	90.38
412.919	79.38
413.142	88.38
413.365	91.38
413.589	73.38
413.812	75.38
414.035	76.38
414.258	87.38
414.482	82.38
414.705	83.38
414.928	87.38
415.151	97.38
415.374	80.38
415.597	79.38
415.821	91.38
416.044	78.38
416.267	88.38
416.49	87.38
416.713	95.38
416.936	86.38
417.159	105.38
417.382	77.38
417.605	78.38
417.828	104.38
418.051	88.38
418.274	89.38
418.497	78.38
418.72	87.38
418.943	81.38
419.166	93.38
419.389	85.38
419.611	102.38
419.834	77.38
420.057	70.38
420.28	85.38
420.503	88.38
420.726	92.38
420.948	95.38
421.171	79.38
421.394	78.38
421.617	95.38
421.839	86.38
422.062	89.38
422.285	90.38
422.507	125.38
422.73	154.38
422.953	146.38
423.175	124.38
423.398	100.38
423.621	95.38
423.843	95.38
424.066	76.38
424.288	96.38
424.511	99.38
424.733	87.38
424.956	78.38
425.178	86.38
425.401	80.38
425.623	78.38
425.846	87.38
426.068	89.38
426.291	80.38
426.513	84.38
426.735	83.38
426.958	76.38
427.18	90.38
427.402	84.38
427.625	82.38
427.847	82.38
428.069	87.38
428.292	113.38
428.514	96.38
428.736	97.38
428.958	100.38
429.181	95.38
429.403	76.38
429.625	91.38
429.847	92.38
430.069	109.38
430.292	102.38
430.514	105.38
430.736	92.38
430.958	88.38
431.18	83.38
431.402	90.38
431.624	86.38
431.846	89.38
432.068	98.38
432.29	82.38
432.512	79.38
432.734	93.38
432.956	94.38
433.178	90.38
433.4	82.38
433.622	86.38
433.844	91.38
434.066	91.38
434.287	79.38
434.509	74.38
434.731	93.38
434.953	79.38
435.175	89.38
435.397	77.38
435.618	88.38
435.84	92.38
436.062	84.38
436.284	103.38
436.505	95.38
436.727	94.38
436.949	88.38
437.17	76.38
437.392	81.38
437.614	77.38
437.835	70.38
438.057	82.38
438.278	89.38
438.5	87.38
438.721	90.38
438.943	79.38
439.165	78.38
439.386	80.38
439.608	94.38
439.829	89.38
440.05	87.38
440.272	87.38
440.493	86.38
440.715	82.38
440.936	70.38
441.158	89.38
441.379	70.38
441.6	102.38
441.822	92.38
442.043	89.38
442.264	85.38
442.486	94.38
442.707	100.38
442.928	86.38
443.149	78.38
443.371	106.38
443.592	105.38
443.813	105.38
444.034	89.38
444.255	91.38
444.476	96.38
444.698	92.38
444.919	91.38
445.14	128.38
445.361	132.38
445.582	134.38
445.803	112.38
446.024	81.38
446.245	95.38
446.466	82.38
446.687	84.38
446.908	83.38
447.129	79.38
447.35	77.38
447.571	94.38
447.792	72.38
448.013	74.38
448.234	82.38
448.455	92.38
448.675	80.38
448.896	84.38
449.117	88.38
449.338	87.38
449.559	77.38
449.779	68.38
450	73.38
450.221	76.38
450.442	84.38
450.662	89.38
450.883	70.38
451.104	88.38
451.324	82.38
451.545	81.38
451.766	83.38
451.986	100.38
452.207	86.38
452.428	80.38
452.648	83.38
452.869	86.38
453.089	92.38
453.31	90.38
453.53	80.38
453.751	78.38
453.971	87.38
454.192	93.38
454.412	87.38
454.633	82.38
454.853	80.38
455.073	76.38
455.294	79.38
455.514	80.38
455.734	86.38
455.955	87.38
456.175	84.38
456.395	93.38
456.616	95.38
456.836	84.38
457.056	100.38
457.276	87.38
457.497	78.38
457.717	78.38
457.937	78.38
458.157	98.38
458.377	81.38
458.598	83.38
458.818	90.38
459.038	76.38
459.258	94.38
459.478	81.38
459.698	85.38
459.918	80.38
460.138	63.38
460.358	80.38
460.578	99.38
460.798	103.38
461.018	95.38
461.238	108.38
461.458	95.38
461.678	87.38
461.898	93.38
462.118	92.38
462.338	88.38
462.558	77.38
462.777	92.38
462.997	98.38
463.217	89.38
463.437	85.38
463.657	75.38
463.876	84.38
464.096	73.38
464.316	80.38
464.536	90.38
464.755	87.38
464.975	77.38
465.195	97.38
465.414	87.38
465.634	98.38
465.854	88.38
466.073	87.38
466.293	103.38
466.512	74.38
466.732	95.38
466.951	77.38
467.171	85.38
467.391	93.38
467.61	82.38
467.829	84.38
468.049	92.38
468.268	80.38
468.488	95.38
468.707	82.38
468.927	93.38
469.146	74.38
469.365	98.38
469.585	98.38
469.804	85.38
470.023	73.38
470.243	95.38
470.462	94.38
470.681	79.38
470.901	78.38
471.12	92.38
471.339	85.38
471.558	95.38
471.777	85.38
471.997	85.38
472.216	95.38
472.435	99.38
472.654	90.38
472.873	92.38
473.092	75.38
473.311	85.38
473.53	94.38
473.749	79.38
473.968	93.38
474.187	76.38
474.406	83.38
474.625	88.38
474.844	82.38
475.063	82.38
475.282	90.38
475.501	85.38
475.72	84.38
475.939	88.38
476.158	89.38
476.377	77.38
476.596	76.38
476.814	85.38
477.033	82.38
477.252	81.38
477.471	73.38
477.69	87.38
477.908	91.38
478.127	87.38
478.346	81.38
478.564	82.38
478.783	73.38
479.002	89.38
479.22	74.38
479.439	98.38
479.658	93.38
479.876	88.38
480.095	84.38
480.313	84.38
480.532	89.38
480.751	88.38
480.969	78.38
481.188	72.38
481.406	94.38
481.624	93.38
481.843	78.38
482.061	77.38
482.28	89.38
482.498	91.38
482.717	93.38
482.935	94.38
483.153	80.38
483.372	81.38
483.59	87.38
483.808	90.38
484.027	97.38
484.245	90.38
484.463	89.38
484.681	97.38
484.9	90.38
485.118	93.38
485.336	91.38
485.554	83.38
485.772	78.38
485.99	91.38
486.209	95.38
486.427	96.38
486.645	78.38
486.863	70.38
487.081	92.38
487.299	90.38
487.517	96.38
487.735	94.38
487.953	98.38
488.171	82.38
488.389	90.38
488.607	94.38
488.825	89.38
489.043	101.38
489.261	88.38
489.479	90.38
489.696	96.38
489.914	92.38
490.132	89.38
490.35	101.38
490.568	89.38
490.786	103.38
491.003	83.38
491.221	93.38
491.439	91.38
491.657	90.38
491.874	94.38
492.092	96.38
492.31	94.38
492.527	77.38
492.745	83.38
492.963	87.38
493.18	82.38
493.398	76.38
493.615	86.38
493.833	77.38
494.05	99.38
494.268	90.38
494.485	79.38
494.703	84.38
494.92	80.38
495.138	93.38
495.355	89.38
495.573	96.38
495.79	85.38
496.008	94.38
496.225	85.38
496.442	105.38
496.66	110.38
496.877	97.38
497.094	98.38
497.312	81.38
497.529	86.38
497.746	80.38
497.963	90.38
498.181	91.38
498.398	90.38
498.615	78.38
498.832	91.38
499.049	89.38
499.267	81.38
499.484	85.38
499.701	84.38
499.918	83.38
500.135	78.38
500.352	79.38
500.569	83.38
500.786	92.38
501.003	101.38
501.22	92.38
501.437	92.38
501.654	91.38
501.871	90.38
502.088	96.38
502.305	78.38
502.522	79.38
502.739	89.38
502.956	80.38
503.172	101.38
503.389	91.38
503.606	97.38
503.823	88.38
504.04	92.38
504.256	80.38
504.473	90.38
504.69	84.38
504.907	100.38
505.123	91.38
505.34	97.38
505.557	85.38
505.773	101.38
505.99	76.38
506.207	90.38
506.423	81.38
506.64	87.38
506.856	85.38
507.073	91.38
507.289	92.38
507.506	81.38
507.722	95.38
507.939	87.38
508.155	90.38
508.372	110.38
508.588	108.38
508.805	92.38
509.021	86.38
509.238	80.38
509.454	93.38
509.67	78.38
509.887	66.38
510.103	82.38
510.319	101.38
510.536	86.38
510.752	79.38
510.968	91.38
511.184	91.38
511.401	92.38
511.617	96.38
511.833	89.38
512.049	93.38
512.265	96.38
512.481	89.38
512.698	87.38
512.914	84.38
513.13	79.38
513.346	85.38
513.562	81.38
513.778	89.38
513.994	94.38
514.21	94.38
514.426	85.38
514.642	93.38
514.858	90.38
515.074	88.38
515.29	99.38
515.506	84.38
515.721	95.38
515.937	106.38
516.153	76.38
516.369	88.38
516.585	95.38
516.801	78.38
517.016	80.38
517.232	85.38
517.448	95.38
517.664	88.38
517.879	95.38
518.095	95.38
518.311	96.38
518.527	102.38
518.742	68.38
