Data from Mixnoheat3_HRD10591_00003.txt Node
Date: Fri Dec 27 15:01:27 EST 2024
User: Yrep
Spectrometer: HR+D1059
Trigger mode: 1
Integration Time (sec): 1.000000E-1
Scans to average: 1
Electric dark correction enabled: true
Nonlinearity correction enabled: false
Boxcar width: 0
XAxis mode: Wavelengths
Number of Pixels in Spectrum: 2048
>>>>>Begin Spectral Data<<<<<
223.165	-7.88
223.4	-7.88
223.635	-7.88
223.869	-27.88
224.104	-14.88
224.338	-10.88
224.573	-10.88
224.808	-14.88
225.042	-17.88
225.277	-3.88
225.511	-14.88
225.746	9.12
225.98	16.12
226.215	13.12
226.449	25.12
226.683	9.12
226.918	23.12
227.152	28.12
227.387	30.12
227.621	26.12
227.856	56.12
228.09	41.12
228.324	56.12
228.559	47.12
228.793	64.12
229.027	66.12
229.262	71.12
229.496	68.12
229.73	60.12
229.964	60.12
230.199	73.12
230.433	78.12
230.667	69.12
230.901	76.12
231.136	78.12
231.37	83.12
231.604	88.12
231.838	82.12
232.072	97.12
232.306	72.12
232.541	73.12
232.775	72.12
233.009	85.12
233.243	76.12
233.477	73.12
233.711	82.12
233.945	78.12
234.179	74.12
234.413	83.12
234.647	86.12
234.881	82.12
235.115	81.12
235.349	79.12
235.583	75.12
235.817	77.12
236.051	71.12
236.285	70.12
236.519	67.12
236.753	70.12
236.987	85.12
237.221	75.12
237.455	72.12
237.689	78.12
237.922	70.12
238.156	66.12
238.39	66.12
238.624	65.12
238.858	91.12
239.091	79.12
239.325	80.12
239.559	91.12
239.793	86.12
240.027	80.12
240.26	78.12
240.494	78.12
240.728	66.12
240.961	69.12
241.195	72.12
241.429	75.12
241.662	68.12
241.896	67.12
242.13	74.12
242.363	78.12
242.597	68.12
242.83	90.12
243.064	82.12
243.298	66.12
243.531	75.12
243.765	56.12
243.998	73.12
244.232	82.12
244.465	76.12
244.699	81.12
244.932	91.12
245.166	73.12
245.399	87.12
245.633	66.12
245.866	62.12
246.099	71.12
246.333	73.12
246.566	73.12
246.8	84.12
247.033	77.12
247.266	69.12
247.5	84.12
247.733	76.12
247.966	61.12
248.2	81.12
248.433	62.12
248.666	66.12
248.899	57.12
249.133	70.12
249.366	88.12
249.599	89.12
249.832	83.12
250.066	88.12
250.299	73.12
250.532	83.12
250.765	87.12
250.998	88.12
251.231	59.12
251.465	66.12
251.698	87.12
251.931	88.12
252.164	84.12
252.397	70.12
252.63	84.12
252.863	82.12
253.096	71.12
253.329	82.12
253.562	75.12
253.795	87.12
254.028	73.12
254.261	72.12
254.494	68.12
254.727	74.12
254.96	69.12
255.193	85.12
255.426	83.12
255.659	81.12
255.892	79.12
256.124	69.12
256.357	82.12
256.59	84.12
256.823	77.12
257.056	83.12
257.289	78.12
257.521	88.12
257.754	87.12
257.987	80.12
258.22	78.12
258.452	73.12
258.685	80.12
258.918	83.12
259.151	63.12
259.383	74.12
259.616	90.12
259.849	89.12
260.081	89.12
260.314	86.12
260.547	83.12
260.779	88.12
261.012	77.12
261.244	83.12
261.477	87.12
261.71	83.12
261.942	70.12
262.175	76.12
262.407	77.12
262.64	87.12
262.872	83.12
263.105	89.12
263.337	73.12
263.57	74.12
263.802	87.12
264.035	84.12
264.267	83.12
264.499	73.12
264.732	77.12
264.964	70.12
265.197	80.12
265.429	86.12
265.661	84.12
265.894	87.12
266.126	86.12
266.358	81.12
266.591	77.12
266.823	74.12
267.055	81.12
267.287	77.12
267.52	80.12
267.752	64.12
267.984	69.12
268.216	82.12
268.448	77.12
268.681	79.12
268.913	78.12
269.145	88.12
269.377	80.12
269.609	71.12
269.841	76.12
270.073	77.12
270.306	72.12
270.538	78.12
270.77	82.12
271.002	86.12
271.234	82.12
271.466	86.12
271.698	89.12
271.93	84.12
272.162	81.12
272.394	83.12
272.626	74.12
272.858	84.12
273.09	75.12
273.322	82.12
273.553	77.12
273.785	85.12
274.017	91.12
274.249	72.12
274.481	77.12
274.713	72.12
274.945	91.12
275.176	78.12
275.408	78.12
275.64	80.12
275.872	67.12
276.104	85.12
276.335	93.12
276.567	66.12
276.799	76.12
277.031	75.12
277.262	79.12
277.494	91.12
277.726	84.12
277.957	69.12
278.189	81.12
278.421	77.12
278.652	84.12
278.884	83.12
279.115	75.12
279.347	84.12
279.579	101.12
279.81	71.12
280.042	89.12
280.273	79.12
280.505	64.12
280.736	81.12
280.968	80.12
281.199	84.12
281.431	88.12
281.662	90.12
281.894	94.12
282.125	71.12
282.356	69.12
282.588	83.12
282.819	90.12
283.051	62.12
283.282	89.12
283.513	83.12
283.745	82.12
283.976	69.12
284.207	74.12
284.439	70.12
284.67	82.12
284.901	79.12
285.132	89.12
285.364	89.12
285.595	97.12
285.826	77.12
286.057	83.12
286.288	87.12
286.52	91.12
286.751	86.12
286.982	88.12
287.213	90.12
287.444	82.12
287.675	78.12
287.906	83.12
288.138	74.12
288.369	87.12
288.6	75.12
288.831	88.12
289.062	80.12
289.293	75.12
289.524	78.12
289.755	87.12
289.986	82.12
290.217	74.12
290.448	66.12
290.679	77.12
290.91	84.12
291.141	77.12
291.371	72.12
291.602	83.12
291.833	90.12
292.064	72.12
292.295	86.12
292.526	80.12
292.757	76.12
292.987	77.12
293.218	73.12
293.449	79.12
293.68	87.12
293.91	76.12
294.141	87.12
294.372	89.12
294.603	89.12
294.833	89.12
295.064	100.12
295.295	72.12
295.525	86.12
295.756	82.12
295.987	77.12
296.217	76.12
296.448	79.12
296.679	94.12
296.909	100.12
297.14	91.12
297.37	87.12
297.601	79.12
297.831	80.12
298.062	70.12
298.292	87.12
298.523	86.12
298.753	79.12
298.984	89.12
299.214	84.12
299.445	91.12
299.675	82.12
299.905	87.12
300.136	77.12
300.366	87.12
300.597	83.12
300.827	72.12
301.057	81.12
301.288	90.12
301.518	78.12
301.748	91.12
301.979	101.12
302.209	72.12
302.439	91.12
302.669	76.12
302.9	83.12
303.13	94.12
303.36	86.12
303.59	95.12
303.82	90.12
304.051	81.12
304.281	89.12
304.511	72.12
304.741	83.12
304.971	75.12
305.201	89.12
305.431	85.12
305.661	79.12
305.891	79.12
306.121	84.12
306.352	75.12
306.582	87.12
306.812	84.12
307.042	94.12
307.272	66.12
307.502	75.12
307.731	80.12
307.961	77.12
308.191	75.12
308.421	99.12
308.651	93.12
308.881	84.12
309.111	77.12
309.341	82.12
309.571	78.12
309.8	71.12
310.03	82.12
310.26	95.12
310.49	95.12
310.72	78.12
310.949	78.12
311.179	87.12
311.409	83.12
311.639	74.12
311.868	105.12
312.098	74.12
312.328	79.12
312.557	82.12
312.787	69.12
313.017	85.12
313.246	70.12
313.476	81.12
313.706	63.12
313.935	74.12
314.165	82.12
314.394	105.12
314.624	76.12
314.853	95.12
315.083	94.12
315.312	86.12
315.542	95.12
315.771	73.12
316.001	88.12
316.23	82.12
316.46	75.12
316.689	86.12
316.919	94.12
317.148	76.12
317.377	97.12
317.607	92.12
317.836	82.12
318.065	81.12
318.295	87.12
318.524	73.12
318.753	69.12
318.983	81.12
319.212	82.12
319.441	82.12
319.67	79.12
319.9	73.12
320.129	71.12
320.358	82.12
320.587	83.12
320.816	82.12
321.046	82.12
321.275	63.12
321.504	64.12
321.733	87.12
321.962	88.12
322.191	85.12
322.42	89.12
322.649	77.12
322.878	73.12
323.108	72.12
323.337	77.12
323.566	90.12
323.795	93.12
324.024	73.12
324.253	82.12
324.482	79.12
324.71	92.12
324.939	92.12
325.168	90.12
325.397	87.12
325.626	77.12
325.855	87.12
326.084	74.12
326.313	71.12
326.542	78.12
326.77	106.12
326.999	88.12
327.228	79.12
327.457	78.12
327.686	78.12
327.914	92.12
328.143	82.12
328.372	74.12
328.6	84.12
328.829	82.12
329.058	72.12
329.287	80.12
329.515	77.12
329.744	81.12
329.972	79.12
330.201	91.12
330.43	74.12
330.658	82.12
330.887	74.12
331.115	74.12
331.344	78.12
331.572	90.12
331.801	93.12
332.03	82.12
332.258	74.12
332.486	74.12
332.715	93.12
332.943	56.12
333.172	78.12
333.4	79.12
333.629	92.12
333.857	83.12
334.085	77.12
334.314	77.12
334.542	87.12
334.771	69.12
334.999	87.12
335.227	97.12
335.455	77.12
335.684	87.12
335.912	93.12
336.14	81.12
336.369	82.12
336.597	84.12
336.825	82.12
337.053	83.12
337.281	76.12
337.51	83.12
337.738	100.12
337.966	78.12
338.194	77.12
338.422	86.12
338.65	71.12
338.878	70.12
339.106	84.12
339.334	88.12
339.562	83.12
339.79	86.12
340.018	77.12
340.246	76.12
340.474	74.12
340.702	85.12
340.93	84.12
341.158	80.12
341.386	78.12
341.614	71.12
341.842	90.12
342.07	90.12
342.298	88.12
342.526	81.12
342.754	76.12
342.981	83.12
343.209	81.12
343.437	103.12
343.665	73.12
343.893	78.12
344.12	83.12
344.348	86.12
344.576	82.12
344.804	82.12
345.031	86.12
345.259	89.12
345.487	85.12
345.714	86.12
345.942	91.12
346.17	89.12
346.397	68.12
346.625	88.12
346.853	85.12
347.08	80.12
347.308	90.12
347.535	71.12
347.763	68.12
347.99	88.12
348.218	85.12
348.445	71.12
348.673	67.12
348.9	81.12
349.128	86.12
349.355	79.12
349.583	76.12
349.81	82.12
350.037	88.12
350.265	89.12
350.492	84.12
350.72	75.12
350.947	75.12
351.174	86.12
351.402	82.12
351.629	85.12
351.856	76.12
352.083	75.12
352.311	91.12
352.538	71.12
352.765	93.12
352.992	84.12
353.22	94.12
353.447	74.12
353.674	100.12
353.901	88.12
354.128	93.12
354.355	88.12
354.583	95.12
354.81	54.12
355.037	84.12
355.264	75.12
355.491	74.12
355.718	83.12
355.945	73.12
356.172	76.12
356.399	82.12
356.626	95.12
356.853	79.12
357.08	83.12
357.307	89.12
357.534	82.12
357.761	90.12
357.988	82.12
358.215	89.12
358.441	87.12
358.668	82.12
358.895	74.12
359.122	73.12
359.349	77.12
359.576	82.12
359.802	81.12
360.029	86.12
360.256	94.12
360.483	93.12
360.709	70.12
360.936	89.12
361.163	82.12
361.39	85.12
361.616	84.12
361.843	93.12
362.07	90.12
362.296	77.12
362.523	84.12
362.749	89.12
362.976	94.12
363.203	92.12
363.429	83.12
363.656	94.12
363.882	98.12
364.109	101.12
364.335	95.12
364.562	96.12
364.788	83.12
365.015	94.12
365.241	90.12
365.468	78.12
365.694	90.12
365.92	85.12
366.147	73.12
366.373	85.12
366.599	81.12
366.826	60.12
367.052	85.12
367.278	86.12
367.505	90.12
367.731	78.12
367.957	81.12
368.184	74.12
368.41	78.12
368.636	102.12
368.862	89.12
369.089	96.12
369.315	93.12
369.541	73.12
369.767	84.12
369.993	76.12
370.219	74.12
370.445	74.12
370.672	72.12
370.898	78.12
371.124	91.12
371.35	83.12
371.576	93.12
371.802	78.12
372.028	85.12
372.254	99.12
372.48	77.12
372.706	105.12
372.932	87.12
373.158	71.12
373.384	91.12
373.61	81.12
373.835	80.12
374.061	90.12
374.287	80.12
374.513	71.12
374.739	83.12
374.965	90.12
375.191	89.12
375.416	79.12
375.642	79.12
375.868	78.12
376.094	73.12
376.319	87.12
376.545	84.12
376.771	81.12
376.997	90.12
377.222	91.12
377.448	82.12
377.674	85.12
377.899	90.12
378.125	81.12
378.35	86.12
378.576	82.12
378.802	73.12
379.027	77.12
379.253	79.12
379.478	74.12
379.704	76.12
379.929	88.12
380.155	83.12
380.38	75.12
380.606	98.12
380.831	85.12
381.057	86.12
381.282	93.12
381.507	87.12
381.733	78.12
381.958	83.12
382.184	81.12
382.409	83.12
382.634	85.12
382.86	93.12
383.085	83.12
383.31	71.12
383.535	79.12
383.761	77.12
383.986	84.12
384.211	92.12
384.436	78.12
384.662	80.12
384.887	69.12
385.112	88.12
385.337	77.12
385.562	75.12
385.787	77.12
386.013	89.12
386.238	91.12
386.463	75.12
386.688	93.12
386.913	87.12
387.138	93.12
387.363	94.12
387.588	98.12
387.813	70.12
388.038	98.12
388.263	92.12
388.488	75.12
388.713	78.12
388.938	83.12
389.163	83.12
389.387	85.12
389.612	73.12
389.837	77.12
390.062	84.12
390.287	79.12
390.512	85.12
390.736	75.12
390.961	83.12
391.186	92.12
391.411	84.12
391.636	89.12
391.86	84.12
392.085	92.12
392.31	80.12
392.534	94.12
392.759	97.12
392.984	117.12
393.208	131.12
393.433	161.12
393.658	138.12
393.882	107.12
394.107	93.12
394.331	102.12
394.556	87.12
394.78	93.12
395.005	94.12
395.229	84.12
395.454	93.12
395.678	84.12
395.903	83.12
396.127	103.12
396.352	115.12
396.576	97.12
396.801	128.12
397.025	131.12
397.249	100.12
397.474	101.12
397.698	84.12
397.922	90.12
398.147	84.12
398.371	78.12
398.595	78.12
398.82	79.12
399.044	88.12
399.268	89.12
399.492	81.12
399.717	87.12
399.941	85.12
400.165	76.12
400.389	72.12
400.613	82.12
400.837	78.12
401.062	96.12
401.286	81.12
401.51	89.12
401.734	81.12
401.958	78.12
402.182	69.12
402.406	80.12
402.63	74.12
402.854	86.12
403.078	86.12
403.302	96.12
403.526	80.12
403.75	88.12
403.974	94.12
404.198	116.12
404.422	139.12
404.645	161.12
404.869	143.12
405.093	110.12
405.317	91.12
405.541	88.12
405.765	84.12
405.988	83.12
406.212	86.12
406.436	80.12
406.66	77.12
406.883	83.12
407.107	86.12
407.331	82.12
407.555	79.12
407.778	85.12
408.002	97.12
408.226	88.12
408.449	66.12
408.673	75.12
408.896	89.12
409.12	74.12
409.344	81.12
409.567	81.12
409.791	93.12
410.014	79.12
410.238	74.12
410.461	77.12
410.685	68.12
410.908	72.12
411.132	71.12
411.355	71.12
411.578	67.12
411.802	78.12
412.025	80.12
412.249	81.12
412.472	71.12
412.695	70.12
412.919	85.12
413.142	72.12
413.365	87.12
413.589	87.12
413.812	74.12
414.035	69.12
414.258	88.12
414.482	78.12
414.705	86.12
414.928	84.12
415.151	77.12
415.374	95.12
415.597	82.12
415.821	79.12
416.044	89.12
416.267	80.12
416.49	89.12
416.713	76.12
416.936	78.12
417.159	81.12
417.382	86.12
417.605	93.12
417.828	86.12
418.051	69.12
418.274	81.12
418.497	81.12
418.72	88.12
418.943	81.12
419.166	71.12
419.389	72.12
419.611	79.12
419.834	81.12
420.057	90.12
420.28	92.12
420.503	87.12
420.726	93.12
420.948	78.12
421.171	75.12
421.394	85.12
421.617	113.12
421.839	90.12
422.062	100.12
422.285	116.12
422.507	166.12
422.73	198.12
422.953	190.12
423.175	127.12
423.398	108.12
423.621	106.12
423.843	81.12
424.066	83.12
424.288	81.12
424.511	77.12
424.733	87.12
424.956	98.12
425.178	79.12
425.401	81.12
425.623	83.12
425.846	82.12
426.068	83.12
426.291	86.12
426.513	92.12
426.735	82.12
426.958	90.12
427.18	74.12
427.402	74.12
427.625	83.12
427.847	78.12
428.069	98.12
428.292	95.12
428.514	119.12
428.736	107.12
428.958	95.12
429.181	109.12
429.403	86.12
429.625	76.12
429.847	104.12
430.069	134.12
430.292	139.12
430.514	125.12
430.736	103.12
430.958	109.12
431.18	99.12
431.402	92.12
431.624	97.12
431.846	107.12
432.068	103.12
432.29	100.12
432.512	75.12
432.734	93.12
432.956	90.12
433.178	97.12
433.4	88.12
433.622	75.12
433.844	83.12
434.066	79.12
434.287	75.12
434.509	76.12
434.731	88.12
434.953	87.12
435.175	77.12
435.397	77.12
435.618	70.12
435.84	77.12
436.062	84.12
436.284	88.12
436.505	74.12
436.727	87.12
436.949	78.12
437.17	92.12
437.392	80.12
437.614	73.12
437.835	76.12
438.057	80.12
438.278	94.12
438.5	85.12
438.721	71.12
438.943	75.12
439.165	79.12
439.386	94.12
439.608	94.12
439.829	85.12
440.05	92.12
440.272	91.12
440.493	94.12
440.715	82.12
440.936	86.12
441.158	91.12
441.379	89.12
441.6	80.12
441.822	77.12
442.043	88.12
442.264	85.12
442.486	94.12
442.707	112.12
442.928	97.12
443.149	92.12
443.371	117.12
443.592	166.12
443.813	142.12
444.034	93.12
444.255	82.12
444.476	99.12
444.698	91.12
444.919	84.12
445.14	135.12
445.361	157.12
445.582	191.12
445.803	157.12
446.024	98.12
446.245	101.12
446.466	88.12
446.687	86.12
446.908	69.12
447.129	100.12
447.35	83.12
447.571	94.12
447.792	88.12
448.013	68.12
448.234	78.12
448.455	61.12
448.675	95.12
448.896	76.12
449.117	85.12
449.338	74.12
449.559	83.12
449.779	78.12
450	79.12
450.221	77.12
450.442	73.12
450.662	75.12
450.883	81.12
451.104	77.12
451.324	79.12
451.545	86.12
451.766	87.12
451.986	91.12
452.207	80.12
452.428	105.12
452.648	85.12
452.869	82.12
453.089	81.12
453.31	74.12
453.53	86.12
453.751	77.12
453.971	91.12
454.192	73.12
454.412	85.12
454.633	80.12
454.853	95.12
455.073	91.12
455.294	63.12
455.514	99.12
455.734	89.12
455.955	71.12
456.175	77.12
456.395	91.12
456.616	83.12
456.836	76.12
457.056	77.12
457.276	86.12
457.497	76.12
457.717	97.12
457.937	89.12
458.157	93.12
458.377	97.12
458.598	85.12
458.818	101.12
459.038	85.12
459.258	80.12
459.478	81.12
459.698	69.12
459.918	87.12
460.138	81.12
460.358	73.12
460.578	87.12
460.798	110.12
461.018	115.12
461.238	74.12
461.458	78.12
461.678	74.12
461.898	72.12
462.118	80.12
462.338	81.12
462.558	86.12
462.777	89.12
462.997	75.12
463.217	74.12
463.437	83.12
463.657	60.12
463.876	86.12
464.096	81.12
464.316	85.12
464.536	78.12
464.755	86.12
464.975	87.12
465.195	94.12
465.414	77.12
465.634	86.12
465.854	81.12
466.073	92.12
466.293	91.12
466.512	95.12
466.732	90.12
466.951	87.12
467.171	101.12
467.391	94.12
467.61	82.12
467.829	79.12
468.049	82.12
468.268	86.12
468.488	94.12
468.707	84.12
468.927	88.12
469.146	90.12
469.365	79.12
469.585	84.12
469.804	81.12
470.023	80.12
470.243	82.12
470.462	97.12
470.681	85.12
470.901	68.12
471.12	71.12
471.339	83.12
471.558	90.12
471.777	101.12
471.997	81.12
472.216	92.12
472.435	88.12
472.654	98.12
472.873	85.12
473.092	82.12
473.311	82.12
473.53	85.12
473.749	77.12
473.968	90.12
474.187	83.12
474.406	90.12
474.625	83.12
474.844	88.12
475.063	89.12
475.282	85.12
475.501	82.12
475.72	90.12
475.939	98.12
476.158	91.12
476.377	82.12
476.596	89.12
476.814	87.12
477.033	88.12
477.252	87.12
477.471	75.12
477.69	78.12
477.908	86.12
478.127	70.12
478.346	68.12
478.564	85.12
478.783	84.12
479.002	85.12
479.22	75.12
479.439	77.12
479.658	76.12
479.876	94.12
480.095	87.12
480.313	90.12
480.532	98.12
480.751	89.12
480.969	75.12
481.188	93.12
481.406	97.12
481.624	90.12
481.843	97.12
482.061	76.12
482.28	75.12
482.498	90.12
482.717	83.12
482.935	91.12
483.153	89.12
483.372	83.12
483.59	91.12
483.808	95.12
484.027	105.12
484.245	89.12
484.463	79.12
484.681	90.12
484.9	98.12
485.118	95.12
485.336	94.12
485.554	72.12
485.772	73.12
485.99	92.12
486.209	90.12
486.427	64.12
486.645	79.12
486.863	96.12
487.081	75.12
487.299	91.12
487.517	90.12
487.735	98.12
487.953	117.12
488.171	103.12
488.389	83.12
488.607	79.12
488.825	84.12
489.043	85.12
489.261	92.12
489.479	85.12
489.696	101.12
489.914	88.12
490.132	75.12
490.35	80.12
490.568	81.12
490.786	101.12
491.003	85.12
491.221	97.12
491.439	93.12
491.657	86.12
491.874	86.12
492.092	84.12
492.31	86.12
492.527	78.12
492.745	91.12
492.963	97.12
493.18	87.12
493.398	85.12
493.615	76.12
493.833	78.12
494.05	87.12
494.268	99.12
494.485	87.12
494.703	85.12
494.92	88.12
495.138	79.12
495.355	89.12
495.573	88.12
495.79	86.12
496.008	94.12
496.225	91.12
496.442	100.12
496.66	95.12
496.877	83.12
497.094	92.12
497.312	78.12
497.529	92.12
497.746	81.12
497.963	84.12
498.181	105.12
498.398	79.12
498.615	91.12
498.832	67.12
499.049	85.12
499.267	94.12
499.484	91.12
499.701	74.12
499.918	87.12
500.135	78.12
500.352	98.12
500.569	102.12
500.786	105.12
501.003	80.12
501.22	83.12
501.437	90.12
501.654	82.12
501.871	85.12
502.088	99.12
502.305	73.12
502.522	88.12
502.739	98.12
502.956	85.12
503.172	82.12
503.389	78.12
503.606	79.12
503.823	88.12
504.04	92.12
504.256	101.12
504.473	97.12
504.69	88.12
504.907	97.12
505.123	83.12
505.34	86.12
505.557	89.12
505.773	76.12
505.99	85.12
506.207	85.12
506.423	76.12
506.64	75.12
506.856	75.12
507.073	90.12
507.289	82.12
507.506	103.12
507.722	78.12
507.939	91.12
508.155	85.12
508.372	85.12
508.588	88.12
508.805	77.12
509.021	82.12
509.238	80.12
509.454	92.12
509.67	86.12
509.887	76.12
510.103	86.12
510.319	92.12
510.536	90.12
510.752	85.12
510.968	99.12
511.184	69.12
511.401	83.12
511.617	84.12
511.833	81.12
512.049	85.12
512.265	92.12
512.481	88.12
512.698	77.12
512.914	89.12
513.13	81.12
513.346	88.12
513.562	97.12
513.778	96.12
513.994	86.12
514.21	85.12
514.426	75.12
514.642	93.12
514.858	102.12
515.074	105.12
515.29	95.12
515.506	100.12
515.721	85.12
515.937	80.12
516.153	83.12
516.369	72.12
516.585	100.12
516.801	81.12
517.016	90.12
517.232	86.12
517.448	85.12
517.664	85.12
517.879	73.12
518.095	84.12
518.311	90.12
518.527	93.12
518.742	99.12
518.958	110.12
519.173	92.12
