Data from Mixnoheat3_HRD10591_00016.txt Node
Date: Fri Dec 27 15:01:40 EST 2024
User: Yrep
Spectrometer: HR+D1059
Trigger mode: 1
Integration Time (sec): 1.000000E-1
Scans to average: 1
Electric dark correction enabled: true
Nonlinearity correction enabled: false
Boxcar width: 0
XAxis mode: Wavelengths
Number of Pixels in Spectrum: 2048
>>>>>Begin Spectral Data<<<<<
223.165	-28.56
223.4	-28.56
223.635	-28.56
223.869	-15.56
224.104	-19.56
224.338	-9.56
224.573	-18.56
224.808	-19.56
225.042	-2.56
225.277	-10.56
225.511	-5.56
225.746	8.44
225.98	5.44
226.215	13.44
226.449	24.44
226.683	25.44
226.918	34.44
227.152	18.44
227.387	31.44
227.621	36.44
227.856	32.44
228.09	48.44
228.324	61.44
228.559	56.44
228.793	68.44
229.027	74.44
229.262	61.44
229.496	61.44
229.73	72.44
229.964	70.44
230.199	68.44
230.433	84.44
230.667	79.44
230.901	69.44
231.136	72.44
231.37	74.44
231.604	72.44
231.838	68.44
232.072	86.44
232.306	79.44
232.541	75.44
232.775	89.44
233.009	79.44
233.243	84.44
233.477	84.44
233.711	84.44
233.945	97.44
234.179	92.44
234.413	65.44
234.647	76.44
234.881	75.44
235.115	80.44
235.349	74.44
235.583	81.44
235.817	84.44
236.051	86.44
236.285	66.44
236.519	78.44
236.753	81.44
236.987	78.44
237.221	89.44
237.455	73.44
237.689	76.44
237.922	76.44
238.156	73.44
238.39	89.44
238.624	82.44
238.858	71.44
239.091	66.44
239.325	72.44
239.559	68.44
239.793	83.44
240.027	76.44
240.26	90.44
240.494	90.44
240.728	73.44
240.961	73.44
241.195	88.44
241.429	82.44
241.662	84.44
241.896	84.44
242.13	73.44
242.363	65.44
242.597	73.44
242.83	62.44
243.064	82.44
243.298	85.44
243.531	81.44
243.765	73.44
243.998	76.44
244.232	70.44
244.465	72.44
244.699	68.44
244.932	70.44
245.166	65.44
245.399	79.44
245.633	75.44
245.866	82.44
246.099	77.44
246.333	82.44
246.566	82.44
246.8	83.44
247.033	83.44
247.266	67.44
247.5	69.44
247.733	74.44
247.966	76.44
248.2	86.44
248.433	73.44
248.666	81.44
248.899	70.44
249.133	75.44
249.366	76.44
249.599	70.44
249.832	82.44
250.066	77.44
250.299	67.44
250.532	86.44
250.765	82.44
250.998	73.44
251.231	77.44
251.465	77.44
251.698	72.44
251.931	90.44
252.164	81.44
252.397	74.44
252.63	69.44
252.863	94.44
253.096	69.44
253.329	90.44
253.562	84.44
253.795	82.44
254.028	87.44
254.261	74.44
254.494	72.44
254.727	88.44
254.96	82.44
255.193	64.44
255.426	70.44
255.659	76.44
255.892	84.44
256.124	75.44
256.357	85.44
256.59	78.44
256.823	79.44
257.056	79.44
257.289	77.44
257.521	79.44
257.754	72.44
257.987	60.44
258.22	90.44
258.452	72.44
258.685	74.44
258.918	74.44
259.151	74.44
259.383	60.44
259.616	69.44
259.849	82.44
260.081	87.44
260.314	81.44
260.547	77.44
260.779	77.44
261.012	79.44
261.244	82.44
261.477	77.44
261.71	84.44
261.942	91.44
262.175	90.44
262.407	80.44
262.64	74.44
262.872	87.44
263.105	84.44
263.337	100.44
263.57	70.44
263.802	80.44
264.035	84.44
264.267	91.44
264.499	82.44
264.732	70.44
264.964	93.44
265.197	79.44
265.429	87.44
265.661	92.44
265.894	77.44
266.126	91.44
266.358	102.44
266.591	79.44
266.823	85.44
267.055	75.44
267.287	82.44
267.52	72.44
267.752	82.44
267.984	88.44
268.216	82.44
268.448	78.44
268.681	82.44
268.913	89.44
269.145	105.44
269.377	91.44
269.609	74.44
269.841	78.44
270.073	74.44
270.306	89.44
270.538	84.44
270.77	88.44
271.002	85.44
271.234	82.44
271.466	80.44
271.698	83.44
271.93	84.44
272.162	80.44
272.394	65.44
272.626	82.44
272.858	70.44
273.09	82.44
273.322	88.44
273.553	84.44
273.785	81.44
274.017	92.44
274.249	81.44
274.481	84.44
274.713	70.44
274.945	85.44
275.176	91.44
275.408	85.44
275.64	89.44
275.872	88.44
276.104	84.44
276.335	87.44
276.567	71.44
276.799	68.44
277.031	82.44
277.262	77.44
277.494	85.44
277.726	79.44
277.957	85.44
278.189	76.44
278.421	76.44
278.652	86.44
278.884	87.44
279.115	76.44
279.347	81.44
279.579	68.44
279.81	92.44
280.042	84.44
280.273	94.44
280.505	82.44
280.736	96.44
280.968	70.44
281.199	73.44
281.431	88.44
281.662	91.44
281.894	88.44
282.125	80.44
282.356	74.44
282.588	93.44
282.819	83.44
283.051	75.44
283.282	90.44
283.513	84.44
283.745	75.44
283.976	75.44
284.207	68.44
284.439	94.44
284.67	79.44
284.901	82.44
285.132	76.44
285.364	91.44
285.595	84.44
285.826	81.44
286.057	91.44
286.288	99.44
286.52	96.44
286.751	87.44
286.982	85.44
287.213	87.44
287.444	79.44
287.675	80.44
287.906	80.44
288.138	77.44
288.369	100.44
288.6	88.44
288.831	92.44
289.062	69.44
289.293	103.44
289.524	69.44
289.755	90.44
289.986	82.44
290.217	83.44
290.448	73.44
290.679	80.44
290.91	86.44
291.141	84.44
291.371	82.44
291.602	79.44
291.833	84.44
292.064	76.44
292.295	91.44
292.526	68.44
292.757	73.44
292.987	79.44
293.218	91.44
293.449	80.44
293.68	86.44
293.91	83.44
294.141	86.44
294.372	80.44
294.603	100.44
294.833	89.44
295.064	65.44
295.295	88.44
295.525	80.44
295.756	96.44
295.987	80.44
296.217	84.44
296.448	89.44
296.679	91.44
296.909	94.44
297.14	75.44
297.37	65.44
297.601	70.44
297.831	64.44
298.062	68.44
298.292	73.44
298.523	93.44
298.753	99.44
298.984	93.44
299.214	98.44
299.445	88.44
299.675	87.44
299.905	79.44
300.136	81.44
300.366	76.44
300.597	85.44
300.827	89.44
301.057	76.44
301.288	84.44
301.518	82.44
301.748	83.44
301.979	93.44
302.209	90.44
302.439	95.44
302.669	90.44
302.9	83.44
303.13	74.44
303.36	89.44
303.59	85.44
303.82	87.44
304.051	85.44
304.281	96.44
304.511	81.44
304.741	98.44
304.971	73.44
305.201	84.44
305.431	77.44
305.661	83.44
305.891	79.44
306.121	91.44
306.352	90.44
306.582	79.44
306.812	98.44
307.042	101.44
307.272	70.44
307.502	81.44
307.731	83.44
307.961	76.44
308.191	87.44
308.421	86.44
308.651	85.44
308.881	88.44
309.111	94.44
309.341	78.44
309.571	88.44
309.8	85.44
310.03	79.44
310.26	86.44
310.49	90.44
310.72	82.44
310.949	78.44
311.179	86.44
311.409	79.44
311.639	79.44
311.868	76.44
312.098	80.44
312.328	96.44
312.557	78.44
312.787	80.44
313.017	75.44
313.246	72.44
313.476	77.44
313.706	79.44
313.935	89.44
314.165	81.44
314.394	74.44
314.624	78.44
314.853	85.44
315.083	85.44
315.312	83.44
315.542	93.44
315.771	75.44
316.001	77.44
316.23	88.44
316.46	83.44
316.689	88.44
316.919	83.44
317.148	83.44
317.377	82.44
317.607	77.44
317.836	93.44
318.065	65.44
318.295	86.44
318.524	87.44
318.753	79.44
318.983	82.44
319.212	84.44
319.441	80.44
319.67	82.44
319.9	91.44
320.129	81.44
320.358	74.44
320.587	89.44
320.816	83.44
321.046	85.44
321.275	65.44
321.504	89.44
321.733	84.44
321.962	82.44
322.191	77.44
322.42	85.44
322.649	74.44
322.878	93.44
323.108	97.44
323.337	81.44
323.566	85.44
323.795	74.44
324.024	82.44
324.253	86.44
324.482	87.44
324.71	88.44
324.939	84.44
325.168	90.44
325.397	103.44
325.626	89.44
325.855	82.44
326.084	87.44
326.313	82.44
326.542	81.44
326.77	84.44
326.999	93.44
327.228	77.44
327.457	70.44
327.686	91.44
327.914	75.44
328.143	73.44
328.372	85.44
328.6	96.44
328.829	88.44
329.058	68.44
329.287	87.44
329.515	75.44
329.744	94.44
329.972	81.44
330.201	85.44
330.43	91.44
330.658	60.44
330.887	88.44
331.115	83.44
331.344	90.44
331.572	90.44
331.801	75.44
332.03	78.44
332.258	64.44
332.486	87.44
332.715	84.44
332.943	99.44
333.172	72.44
333.4	92.44
333.629	86.44
333.857	86.44
334.085	83.44
334.314	87.44
334.542	83.44
334.771	76.44
334.999	76.44
335.227	95.44
335.455	80.44
335.684	86.44
335.912	92.44
336.14	87.44
336.369	93.44
336.597	76.44
336.825	73.44
337.053	88.44
337.281	89.44
337.51	81.44
337.738	86.44
337.966	81.44
338.194	90.44
338.422	75.44
338.65	89.44
338.878	87.44
339.106	91.44
339.334	90.44
339.562	83.44
339.79	85.44
340.018	83.44
340.246	81.44
340.474	91.44
340.702	73.44
340.93	90.44
341.158	93.44
341.386	85.44
341.614	77.44
341.842	83.44
342.07	82.44
342.298	67.44
342.526	84.44
342.754	98.44
342.981	76.44
343.209	86.44
343.437	90.44
343.665	97.44
343.893	90.44
344.12	89.44
344.348	81.44
344.576	80.44
344.804	95.44
345.031	96.44
345.259	66.44
345.487	77.44
345.714	76.44
345.942	91.44
346.17	93.44
346.397	103.44
346.625	91.44
346.853	76.44
347.08	90.44
347.308	80.44
347.535	68.44
347.763	76.44
347.99	69.44
348.218	96.44
348.445	82.44
348.673	80.44
348.9	76.44
349.128	77.44
349.355	95.44
349.583	96.44
349.81	75.44
350.037	82.44
350.265	86.44
350.492	89.44
350.72	85.44
350.947	91.44
351.174	82.44
351.402	82.44
351.629	98.44
351.856	85.44
352.083	89.44
352.311	73.44
352.538	84.44
352.765	88.44
352.992	87.44
353.22	99.44
353.447	72.44
353.674	84.44
353.901	79.44
354.128	91.44
354.355	78.44
354.583	83.44
354.81	101.44
355.037	82.44
355.264	90.44
355.491	87.44
355.718	86.44
355.945	80.44
356.172	87.44
356.399	89.44
356.626	85.44
356.853	90.44
357.08	96.44
357.307	72.44
357.534	94.44
357.761	72.44
357.988	88.44
358.215	82.44
358.441	81.44
358.668	88.44
358.895	85.44
359.122	83.44
359.349	97.44
359.576	88.44
359.802	86.44
360.029	80.44
360.256	81.44
360.483	83.44
360.709	76.44
360.936	89.44
361.163	92.44
361.39	60.44
361.616	95.44
361.843	83.44
362.07	81.44
362.296	90.44
362.523	75.44
362.749	77.44
362.976	83.44
363.203	84.44
363.429	80.44
363.656	75.44
363.882	96.44
364.109	86.44
364.335	91.44
364.562	75.44
364.788	96.44
365.015	80.44
365.241	79.44
365.468	80.44
365.694	76.44
365.92	75.44
366.147	87.44
366.373	92.44
366.599	72.44
366.826	80.44
367.052	98.44
367.278	79.44
367.505	88.44
367.731	78.44
367.957	81.44
368.184	77.44
368.41	81.44
368.636	79.44
368.862	81.44
369.089	77.44
369.315	96.44
369.541	77.44
369.767	86.44
369.993	86.44
370.219	96.44
370.445	80.44
370.672	72.44
370.898	81.44
371.124	80.44
371.35	78.44
371.576	81.44
371.802	93.44
372.028	80.44
372.254	90.44
372.48	85.44
372.706	98.44
372.932	84.44
373.158	88.44
373.384	89.44
373.61	90.44
373.835	77.44
374.061	82.44
374.287	77.44
374.513	77.44
374.739	89.44
374.965	89.44
375.191	84.44
375.416	77.44
375.642	87.44
375.868	85.44
376.094	88.44
376.319	84.44
376.545	79.44
376.771	86.44
376.997	77.44
377.222	86.44
377.448	88.44
377.674	72.44
377.899	74.44
378.125	85.44
378.35	92.44
378.576	79.44
378.802	94.44
379.027	70.44
379.253	87.44
379.478	81.44
379.704	80.44
379.929	91.44
380.155	72.44
380.38	84.44
380.606	85.44
380.831	93.44
381.057	78.44
381.282	86.44
381.507	76.44
381.733	85.44
381.958	88.44
382.184	70.44
382.409	72.44
382.634	92.44
382.86	85.44
383.085	75.44
383.31	77.44
383.535	87.44
383.761	71.44
383.986	75.44
384.211	81.44
384.436	93.44
384.662	88.44
384.887	86.44
385.112	76.44
385.337	90.44
385.562	77.44
385.787	88.44
386.013	80.44
386.238	82.44
386.463	79.44
386.688	93.44
386.913	101.44
387.138	81.44
387.363	78.44
387.588	72.44
387.813	71.44
388.038	87.44
388.263	82.44
388.488	87.44
388.713	85.44
388.938	79.44
389.163	84.44
389.387	90.44
389.612	76.44
389.837	88.44
390.062	81.44
390.287	86.44
390.512	65.44
390.736	84.44
390.961	78.44
391.186	89.44
391.411	78.44
391.636	75.44
391.86	79.44
392.085	97.44
392.31	76.44
392.534	82.44
392.759	70.44
392.984	100.44
393.208	93.44
393.433	100.44
393.658	107.44
393.882	91.44
394.107	83.44
394.331	72.44
394.556	81.44
394.78	88.44
395.005	90.44
395.229	80.44
395.454	89.44
395.678	92.44
395.903	89.44
396.127	109.44
396.352	110.44
396.576	80.44
396.801	96.44
397.025	104.44
397.249	80.44
397.474	86.44
397.698	88.44
397.922	89.44
398.147	103.44
398.371	76.44
398.595	87.44
398.82	70.44
399.044	86.44
399.268	81.44
399.492	78.44
399.717	96.44
399.941	78.44
400.165	88.44
400.389	85.44
400.613	69.44
400.837	69.44
401.062	89.44
401.286	80.44
401.51	68.44
401.734	66.44
401.958	82.44
402.182	75.44
402.406	83.44
402.63	88.44
402.854	84.44
403.078	92.44
403.302	81.44
403.526	83.44
403.75	93.44
403.974	96.44
404.198	83.44
404.422	116.44
404.645	114.44
404.869	116.44
405.093	108.44
405.317	82.44
405.541	83.44
405.765	73.44
405.988	73.44
406.212	76.44
406.436	65.44
406.66	93.44
406.883	89.44
407.107	93.44
407.331	91.44
407.555	89.44
407.778	87.44
408.002	99.44
408.226	89.44
408.449	75.44
408.673	71.44
408.896	81.44
409.12	87.44
409.344	81.44
409.567	75.44
409.791	68.44
410.014	77.44
410.238	78.44
410.461	81.44
410.685	86.44
410.908	90.44
411.132	90.44
411.355	72.44
411.578	80.44
411.802	76.44
412.025	82.44
412.249	73.44
412.472	78.44
412.695	81.44
412.919	88.44
413.142	63.44
413.365	79.44
413.589	83.44
413.812	72.44
414.035	85.44
414.258	75.44
414.482	69.44
414.705	79.44
414.928	71.44
415.151	84.44
415.374	93.44
415.597	84.44
415.821	92.44
416.044	88.44
416.267	82.44
416.49	90.44
416.713	74.44
416.936	74.44
417.159	96.44
417.382	83.44
417.605	96.44
417.828	85.44
418.051	88.44
418.274	82.44
418.497	97.44
418.72	78.44
418.943	79.44
419.166	82.44
419.389	79.44
419.611	76.44
419.834	83.44
420.057	70.44
420.28	71.44
420.503	90.44
420.726	70.44
420.948	87.44
421.171	82.44
421.394	82.44
421.617	76.44
421.839	86.44
422.062	102.44
422.285	95.44
422.507	102.44
422.73	144.44
422.953	128.44
423.175	89.44
423.398	91.44
423.621	73.44
423.843	89.44
424.066	68.44
424.288	77.44
424.511	66.44
424.733	72.44
424.956	90.44
425.178	85.44
425.401	65.44
425.623	78.44
425.846	76.44
426.068	78.44
426.291	88.44
426.513	81.44
426.735	83.44
426.958	84.44
427.18	84.44
427.402	71.44
427.625	87.44
427.847	89.44
428.069	87.44
428.292	106.44
428.514	98.44
428.736	71.44
428.958	96.44
429.181	88.44
429.403	82.44
429.625	88.44
429.847	85.44
430.069	92.44
430.292	114.44
430.514	82.44
430.736	82.44
430.958	88.44
431.18	84.44
431.402	95.44
431.624	104.44
431.846	78.44
432.068	80.44
432.29	102.44
432.512	91.44
432.734	78.44
432.956	85.44
433.178	71.44
433.4	73.44
433.622	83.44
433.844	85.44
434.066	91.44
434.287	74.44
434.509	84.44
434.731	85.44
434.953	85.44
435.175	77.44
435.397	81.44
435.618	72.44
435.84	71.44
436.062	107.44
436.284	82.44
436.505	77.44
436.727	83.44
436.949	81.44
437.17	68.44
437.392	85.44
437.614	83.44
437.835	79.44
438.057	85.44
438.278	83.44
438.5	83.44
438.721	94.44
438.943	90.44
439.165	77.44
439.386	82.44
439.608	77.44
439.829	72.44
440.05	83.44
440.272	77.44
440.493	75.44
440.715	85.44
440.936	85.44
441.158	75.44
441.379	74.44
441.6	73.44
441.822	91.44
442.043	73.44
442.264	69.44
442.486	95.44
442.707	77.44
442.928	80.44
443.149	84.44
443.371	99.44
443.592	96.44
443.813	104.44
444.034	82.44
444.255	92.44
444.476	78.44
444.698	75.44
444.919	85.44
445.14	134.44
445.361	122.44
445.582	118.44
445.803	105.44
446.024	87.44
446.245	86.44
446.466	89.44
446.687	70.44
446.908	90.44
447.129	86.44
447.35	88.44
447.571	84.44
447.792	79.44
448.013	73.44
448.234	69.44
448.455	73.44
448.675	62.44
448.896	68.44
449.117	81.44
449.338	92.44
449.559	85.44
449.779	79.44
450	79.44
450.221	85.44
450.442	73.44
450.662	68.44
450.883	70.44
451.104	85.44
451.324	86.44
451.545	78.44
451.766	77.44
451.986	81.44
452.207	83.44
452.428	84.44
452.648	84.44
452.869	75.44
453.089	71.44
453.31	78.44
453.53	97.44
453.751	70.44
453.971	76.44
454.192	77.44
454.412	84.44
454.633	74.44
454.853	87.44
455.073	70.44
455.294	78.44
455.514	81.44
455.734	84.44
455.955	72.44
456.175	72.44
456.395	56.44
456.616	91.44
456.836	77.44
457.056	75.44
457.276	80.44
457.497	82.44
457.717	83.44
457.937	89.44
458.157	71.44
458.377	73.44
458.598	80.44
458.818	84.44
459.038	90.44
459.258	83.44
459.478	83.44
459.698	70.44
459.918	78.44
460.138	73.44
460.358	101.44
460.578	77.44
460.798	96.44
461.018	80.44
461.238	81.44
461.458	77.44
461.678	66.44
461.898	88.44
462.118	96.44
462.338	86.44
462.558	96.44
462.777	70.44
462.997	84.44
463.217	83.44
463.437	77.44
463.657	82.44
463.876	82.44
464.096	78.44
464.316	80.44
464.536	77.44
464.755	82.44
464.975	84.44
465.195	92.44
465.414	76.44
465.634	76.44
465.854	83.44
466.073	90.44
466.293	82.44
466.512	82.44
466.732	77.44
466.951	83.44
467.171	88.44
467.391	74.44
467.61	83.44
467.829	80.44
468.049	82.44
468.268	85.44
468.488	71.44
468.707	70.44
468.927	83.44
469.146	88.44
469.365	86.44
469.585	87.44
469.804	96.44
470.023	93.44
470.243	84.44
470.462	77.44
470.681	76.44
470.901	72.44
471.12	86.44
471.339	75.44
471.558	88.44
471.777	85.44
471.997	81.44
472.216	97.44
472.435	89.44
472.654	85.44
472.873	85.44
473.092	74.44
473.311	90.44
473.53	82.44
473.749	83.44
473.968	86.44
474.187	81.44
474.406	88.44
474.625	77.44
474.844	76.44
475.063	78.44
475.282	87.44
475.501	71.44
475.72	80.44
475.939	81.44
476.158	68.44
476.377	84.44
476.596	89.44
476.814	70.44
477.033	89.44
477.252	90.44
477.471	85.44
477.69	82.44
477.908	88.44
478.127	81.44
478.346	86.44
478.564	88.44
478.783	79.44
479.002	84.44
479.22	74.44
479.439	85.44
479.658	91.44
479.876	77.44
480.095	84.44
480.313	89.44
480.532	97.44
480.751	78.44
480.969	86.44
481.188	86.44
481.406	78.44
481.624	86.44
481.843	77.44
482.061	76.44
482.28	80.44
482.498	80.44
482.717	86.44
482.935	87.44
483.153	83.44
483.372	71.44
483.59	94.44
483.808	84.44
484.027	80.44
484.245	97.44
484.463	94.44
484.681	92.44
484.9	72.44
485.118	92.44
485.336	79.44
485.554	92.44
485.772	91.44
485.99	76.44
486.209	88.44
486.427	78.44
486.645	74.44
486.863	98.44
487.081	92.44
487.299	81.44
487.517	81.44
487.735	67.44
487.953	97.44
488.171	94.44
488.389	85.44
488.607	81.44
488.825	82.44
489.043	77.44
489.261	78.44
489.479	78.44
489.696	89.44
489.914	87.44
490.132	86.44
490.35	92.44
490.568	92.44
490.786	83.44
491.003	98.44
491.221	84.44
491.439	85.44
491.657	90.44
491.874	86.44
492.092	94.44
492.31	87.44
492.527	76.44
492.745	73.44
492.963	78.44
493.18	90.44
493.398	79.44
493.615	87.44
493.833	88.44
494.05	82.44
494.268	88.44
494.485	94.44
494.703	81.44
494.92	78.44
495.138	70.44
495.355	86.44
495.573	88.44
495.79	82.44
496.008	84.44
496.225	79.44
496.442	77.44
496.66	89.44
496.877	84.44
497.094	98.44
497.312	96.44
497.529	93.44
497.746	104.44
497.963	93.44
498.181	81.44
498.398	87.44
498.615	91.44
498.832	85.44
499.049	92.44
499.267	93.44
499.484	92.44
499.701	96.44
499.918	87.44
500.135	76.44
500.352	69.44
500.569	86.44
500.786	92.44
501.003	97.44
501.22	69.44
501.437	93.44
501.654	85.44
501.871	78.44
502.088	80.44
502.305	72.44
502.522	84.44
502.739	89.44
502.956	100.44
503.172	79.44
503.389	99.44
503.606	88.44
503.823	93.44
504.04	101.44
504.256	87.44
504.473	91.44
504.69	78.44
504.907	89.44
505.123	92.44
505.34	84.44
505.557	89.44
505.773	100.44
505.99	76.44
506.207	85.44
506.423	96.44
506.64	81.44
506.856	93.44
507.073	87.44
507.289	89.44
507.506	78.44
507.722	73.44
507.939	76.44
508.155	99.44
508.372	88.44
508.588	80.44
508.805	79.44
509.021	91.44
509.238	93.44
509.454	86.44
509.67	72.44
509.887	81.44
510.103	90.44
510.319	86.44
510.536	79.44
510.752	76.44
510.968	88.44
511.184	87.44
511.401	97.44
511.617	80.44
511.833	99.44
512.049	85.44
512.265	92.44
512.481	78.44
512.698	96.44
512.914	95.44
513.13	84.44
513.346	74.44
513.562	87.44
513.778	74.44
513.994	83.44
514.21	82.44
514.426	85.44
514.642	101.44
514.858	82.44
515.074	74.44
515.29	80.44
515.506	88.44
515.721	80.44
515.937	89.44
516.153	95.44
516.369	71.44
516.585	74.44
516.801	76.44
517.016	86.44
517.232	90.44
517.448	85.44
517.664	92.44
517.879	72.44
518.095	88.44
518.311	81.44
518.527	89.44
518.742	83.44
518.958	90.44
519.173	85.44
519.389	80.44
519.605	86.44
