Data from Mixnoheat3_HRD10591_00017.txt Node
Date: Fri Dec 27 15:01:41 EST 2024
User: Yrep
Spectrometer: HR+D1059
Trigger mode: 1
Integration Time (sec): 1.000000E-1
Scans to average: 1
Electric dark correction enabled: true
Nonlinearity correction enabled: false
Boxcar width: 0
XAxis mode: Wavelengths
Number of Pixels in Spectrum: 2048
>>>>>Begin Spectral Data<<<<<
223.165	-16.62
223.4	-16.62
223.635	-16.62
223.869	-12.62
224.104	-28.62
224.338	-13.62
224.573	-20.62
224.808	-1.62
225.042	-17.62
225.277	-4.62
225.511	-1.62
225.746	7.38
225.98	2.38
226.215	6.38
226.449	22.38
226.683	21.38
226.918	33.38
227.152	24.38
227.387	43.38
227.621	44.38
227.856	58.38
228.09	48.38
228.324	48.38
228.559	60.38
228.793	68.38
229.027	53.38
229.262	69.38
229.496	71.38
229.73	67.38
229.964	65.38
230.199	74.38
230.433	60.38
230.667	85.38
230.901	79.38
231.136	79.38
231.37	83.38
231.604	93.38
231.838	75.38
232.072	72.38
232.306	82.38
232.541	86.38
232.775	81.38
233.009	68.38
233.243	82.38
233.477	86.38
233.711	91.38
233.945	82.38
234.179	84.38
234.413	83.38
234.647	76.38
234.881	81.38
235.115	65.38
235.349	86.38
235.583	85.38
235.817	73.38
236.051	63.38
236.285	73.38
236.519	73.38
236.753	78.38
236.987	85.38
237.221	77.38
237.455	76.38
237.689	74.38
237.922	82.38
238.156	68.38
238.39	81.38
238.624	71.38
238.858	72.38
239.091	65.38
239.325	78.38
239.559	71.38
239.793	79.38
240.027	90.38
240.26	92.38
240.494	71.38
240.728	73.38
240.961	80.38
241.195	75.38
241.429	70.38
241.662	65.38
241.896	66.38
242.13	73.38
242.363	65.38
242.597	60.38
242.83	66.38
243.064	86.38
243.298	71.38
243.531	65.38
243.765	64.38
243.998	66.38
244.232	79.38
244.465	91.38
244.699	75.38
244.932	73.38
245.166	84.38
245.399	76.38
245.633	71.38
245.866	94.38
246.099	74.38
246.333	81.38
246.566	74.38
246.8	75.38
247.033	73.38
247.266	65.38
247.5	67.38
247.733	75.38
247.966	87.38
248.2	66.38
248.433	71.38
248.666	71.38
248.899	86.38
249.133	78.38
249.366	72.38
249.599	81.38
249.832	71.38
250.066	83.38
250.299	75.38
250.532	81.38
250.765	68.38
250.998	88.38
251.231	63.38
251.465	63.38
251.698	72.38
251.931	71.38
252.164	65.38
252.397	82.38
252.63	78.38
252.863	73.38
253.096	89.38
253.329	88.38
253.562	51.38
253.795	66.38
254.028	82.38
254.261	88.38
254.494	61.38
254.727	66.38
254.96	59.38
255.193	71.38
255.426	64.38
255.659	75.38
255.892	81.38
256.124	69.38
256.357	60.38
256.59	80.38
256.823	79.38
257.056	83.38
257.289	81.38
257.521	73.38
257.754	79.38
257.987	75.38
258.22	73.38
258.452	66.38
258.685	74.38
258.918	78.38
259.151	75.38
259.383	82.38
259.616	78.38
259.849	74.38
260.081	73.38
260.314	68.38
260.547	80.38
260.779	68.38
261.012	76.38
261.244	87.38
261.477	94.38
261.71	79.38
261.942	88.38
262.175	76.38
262.407	71.38
262.64	87.38
262.872	72.38
263.105	78.38
263.337	89.38
263.57	86.38
263.802	76.38
264.035	83.38
264.267	74.38
264.499	90.38
264.732	75.38
264.964	82.38
265.197	72.38
265.429	70.38
265.661	79.38
265.894	75.38
266.126	68.38
266.358	81.38
266.591	80.38
266.823	86.38
267.055	79.38
267.287	71.38
267.52	67.38
267.752	71.38
267.984	82.38
268.216	79.38
268.448	74.38
268.681	61.38
268.913	78.38
269.145	88.38
269.377	78.38
269.609	88.38
269.841	70.38
270.073	75.38
270.306	83.38
270.538	71.38
270.77	78.38
271.002	79.38
271.234	82.38
271.466	71.38
271.698	79.38
271.93	70.38
272.162	75.38
272.394	78.38
272.626	77.38
272.858	86.38
273.09	90.38
273.322	75.38
273.553	81.38
273.785	82.38
274.017	68.38
274.249	81.38
274.481	91.38
274.713	75.38
274.945	70.38
275.176	68.38
275.408	92.38
275.64	80.38
275.872	82.38
276.104	82.38
276.335	98.38
276.567	87.38
276.799	66.38
277.031	90.38
277.262	87.38
277.494	85.38
277.726	93.38
277.957	73.38
278.189	83.38
278.421	76.38
278.652	86.38
278.884	91.38
279.115	81.38
279.347	68.38
279.579	69.38
279.81	66.38
280.042	86.38
280.273	83.38
280.505	66.38
280.736	79.38
280.968	91.38
281.199	90.38
281.431	74.38
281.662	89.38
281.894	78.38
282.125	90.38
282.356	79.38
282.588	66.38
282.819	77.38
283.051	76.38
283.282	89.38
283.513	92.38
283.745	74.38
283.976	78.38
284.207	78.38
284.439	72.38
284.67	68.38
284.901	83.38
285.132	74.38
285.364	87.38
285.595	90.38
285.826	90.38
286.057	90.38
286.288	82.38
286.52	93.38
286.751	74.38
286.982	83.38
287.213	84.38
287.444	80.38
287.675	99.38
287.906	86.38
288.138	102.38
288.369	102.38
288.6	81.38
288.831	80.38
289.062	80.38
289.293	88.38
289.524	96.38
289.755	82.38
289.986	78.38
290.217	81.38
290.448	81.38
290.679	78.38
290.91	80.38
291.141	77.38
291.371	81.38
291.602	75.38
291.833	86.38
292.064	82.38
292.295	84.38
292.526	81.38
292.757	86.38
292.987	85.38
293.218	74.38
293.449	86.38
293.68	91.38
293.91	80.38
294.141	94.38
294.372	72.38
294.603	80.38
294.833	87.38
295.064	75.38
295.295	80.38
295.525	90.38
295.756	84.38
295.987	85.38
296.217	74.38
296.448	77.38
296.679	73.38
296.909	85.38
297.14	83.38
297.37	88.38
297.601	74.38
297.831	72.38
298.062	79.38
298.292	64.38
298.523	83.38
298.753	87.38
298.984	91.38
299.214	86.38
299.445	79.38
299.675	73.38
299.905	79.38
300.136	80.38
300.366	80.38
300.597	72.38
300.827	90.38
301.057	96.38
301.288	90.38
301.518	88.38
301.748	95.38
301.979	102.38
302.209	80.38
302.439	79.38
302.669	83.38
302.9	83.38
303.13	77.38
303.36	92.38
303.59	87.38
303.82	82.38
304.051	94.38
304.281	90.38
304.511	96.38
304.741	86.38
304.971	82.38
305.201	94.38
305.431	86.38
305.661	76.38
305.891	85.38
306.121	98.38
306.352	78.38
306.582	80.38
306.812	74.38
307.042	88.38
307.272	86.38
307.502	75.38
307.731	88.38
307.961	89.38
308.191	71.38
308.421	82.38
308.651	74.38
308.881	80.38
309.111	86.38
309.341	83.38
309.571	79.38
309.8	73.38
310.03	76.38
310.26	79.38
310.49	90.38
310.72	79.38
310.949	67.38
311.179	90.38
311.409	93.38
311.639	80.38
311.868	86.38
312.098	91.38
312.328	89.38
312.557	81.38
312.787	90.38
313.017	83.38
313.246	82.38
313.476	74.38
313.706	88.38
313.935	83.38
314.165	92.38
314.394	89.38
314.624	77.38
314.853	86.38
315.083	72.38
315.312	83.38
315.542	88.38
315.771	81.38
316.001	83.38
316.23	86.38
316.46	73.38
316.689	82.38
316.919	63.38
317.148	81.38
317.377	77.38
317.607	72.38
317.836	75.38
318.065	76.38
318.295	84.38
318.524	83.38
318.753	70.38
318.983	75.38
319.212	90.38
319.441	80.38
319.67	79.38
319.9	83.38
320.129	69.38
320.358	87.38
320.587	76.38
320.816	77.38
321.046	85.38
321.275	79.38
321.504	81.38
321.733	80.38
321.962	94.38
322.191	86.38
322.42	82.38
322.649	80.38
322.878	80.38
323.108	79.38
323.337	91.38
323.566	65.38
323.795	92.38
324.024	79.38
324.253	81.38
324.482	84.38
324.71	66.38
324.939	83.38
325.168	71.38
325.397	89.38
325.626	87.38
325.855	85.38
326.084	93.38
326.313	54.38
326.542	79.38
326.77	70.38
326.999	82.38
327.228	80.38
327.457	76.38
327.686	78.38
327.914	90.38
328.143	81.38
328.372	86.38
328.6	80.38
328.829	89.38
329.058	85.38
329.287	94.38
329.515	64.38
329.744	88.38
329.972	81.38
330.201	83.38
330.43	92.38
330.658	80.38
330.887	81.38
331.115	79.38
331.344	70.38
331.572	83.38
331.801	89.38
332.03	85.38
332.258	84.38
332.486	84.38
332.715	71.38
332.943	94.38
333.172	70.38
333.4	88.38
333.629	73.38
333.857	81.38
334.085	91.38
334.314	86.38
334.542	80.38
334.771	90.38
334.999	94.38
335.227	68.38
335.455	86.38
335.684	88.38
335.912	84.38
336.14	85.38
336.369	81.38
336.597	86.38
336.825	70.38
337.053	85.38
337.281	92.38
337.51	81.38
337.738	85.38
337.966	88.38
338.194	83.38
338.422	78.38
338.65	85.38
338.878	84.38
339.106	75.38
339.334	82.38
339.562	83.38
339.79	94.38
340.018	68.38
340.246	82.38
340.474	74.38
340.702	98.38
340.93	74.38
341.158	85.38
341.386	69.38
341.614	91.38
341.842	80.38
342.07	94.38
342.298	75.38
342.526	68.38
342.754	78.38
342.981	80.38
343.209	91.38
343.437	88.38
343.665	72.38
343.893	75.38
344.12	89.38
344.348	94.38
344.576	91.38
344.804	76.38
345.031	76.38
345.259	81.38
345.487	98.38
345.714	79.38
345.942	78.38
346.17	65.38
346.397	78.38
346.625	84.38
346.853	79.38
347.08	85.38
347.308	95.38
347.535	87.38
347.763	82.38
347.99	78.38
348.218	83.38
348.445	80.38
348.673	87.38
348.9	84.38
349.128	69.38
349.355	71.38
349.583	89.38
349.81	81.38
350.037	71.38
350.265	70.38
350.492	85.38
350.72	76.38
350.947	74.38
351.174	100.38
351.402	82.38
351.629	83.38
351.856	83.38
352.083	83.38
352.311	88.38
352.538	83.38
352.765	89.38
352.992	94.38
353.22	97.38
353.447	90.38
353.674	87.38
353.901	80.38
354.128	81.38
354.355	87.38
354.583	81.38
354.81	88.38
355.037	74.38
355.264	91.38
355.491	96.38
355.718	83.38
355.945	69.38
356.172	88.38
356.399	78.38
356.626	81.38
356.853	81.38
357.08	85.38
357.307	89.38
357.534	86.38
357.761	81.38
357.988	69.38
358.215	93.38
358.441	97.38
358.668	87.38
358.895	85.38
359.122	85.38
359.349	76.38
359.576	85.38
359.802	87.38
360.029	88.38
360.256	87.38
360.483	84.38
360.709	76.38
360.936	84.38
361.163	79.38
361.39	83.38
361.616	71.38
361.843	86.38
362.07	82.38
362.296	96.38
362.523	80.38
362.749	80.38
362.976	87.38
363.203	88.38
363.429	81.38
363.656	80.38
363.882	83.38
364.109	87.38
364.335	82.38
364.562	68.38
364.788	91.38
365.015	95.38
365.241	65.38
365.468	86.38
365.694	76.38
365.92	91.38
366.147	72.38
366.373	79.38
366.599	77.38
366.826	76.38
367.052	82.38
367.278	75.38
367.505	70.38
367.731	84.38
367.957	72.38
368.184	89.38
368.41	82.38
368.636	89.38
368.862	90.38
369.089	72.38
369.315	83.38
369.541	77.38
369.767	86.38
369.993	82.38
370.219	78.38
370.445	91.38
370.672	74.38
370.898	77.38
371.124	87.38
371.35	87.38
371.576	83.38
371.802	86.38
372.028	81.38
372.254	82.38
372.48	88.38
372.706	83.38
372.932	78.38
373.158	65.38
373.384	78.38
373.61	86.38
373.835	78.38
374.061	81.38
374.287	76.38
374.513	79.38
374.739	83.38
374.965	86.38
375.191	86.38
375.416	96.38
375.642	86.38
375.868	74.38
376.094	71.38
376.319	77.38
376.545	81.38
376.771	85.38
376.997	87.38
377.222	82.38
377.448	82.38
377.674	81.38
377.899	91.38
378.125	75.38
378.35	89.38
378.576	86.38
378.802	76.38
379.027	82.38
379.253	89.38
379.478	73.38
379.704	79.38
379.929	79.38
380.155	85.38
380.38	83.38
380.606	82.38
380.831	83.38
381.057	85.38
381.282	76.38
381.507	84.38
381.733	85.38
381.958	72.38
382.184	80.38
382.409	76.38
382.634	83.38
382.86	84.38
383.085	86.38
383.31	92.38
383.535	73.38
383.761	85.38
383.986	82.38
384.211	78.38
384.436	84.38
384.662	61.38
384.887	79.38
385.112	66.38
385.337	72.38
385.562	78.38
385.787	74.38
386.013	65.38
386.238	87.38
386.463	86.38
386.688	95.38
386.913	82.38
387.138	73.38
387.363	76.38
387.588	89.38
387.813	87.38
388.038	87.38
388.263	90.38
388.488	81.38
388.713	74.38
388.938	78.38
389.163	76.38
389.387	71.38
389.612	82.38
389.837	86.38
390.062	82.38
390.287	74.38
390.512	81.38
390.736	75.38
390.961	85.38
391.186	88.38
391.411	86.38
391.636	68.38
391.86	87.38
392.085	99.38
392.31	74.38
392.534	84.38
392.759	87.38
392.984	87.38
393.208	100.38
393.433	110.38
393.658	93.38
393.882	81.38
394.107	97.38
394.331	88.38
394.556	87.38
394.78	81.38
395.005	87.38
395.229	82.38
395.454	86.38
395.678	85.38
395.903	75.38
396.127	93.38
396.352	88.38
396.576	80.38
396.801	84.38
397.025	100.38
397.249	74.38
397.474	75.38
397.698	74.38
397.922	67.38
398.147	75.38
398.371	78.38
398.595	70.38
398.82	83.38
399.044	92.38
399.268	78.38
399.492	82.38
399.717	79.38
399.941	82.38
400.165	91.38
400.389	78.38
400.613	76.38
400.837	94.38
401.062	84.38
401.286	91.38
401.51	88.38
401.734	88.38
401.958	66.38
402.182	75.38
402.406	65.38
402.63	72.38
402.854	94.38
403.078	73.38
403.302	82.38
403.526	78.38
403.75	91.38
403.974	92.38
404.198	116.38
404.422	110.38
404.645	121.38
404.869	111.38
405.093	93.38
405.317	92.38
405.541	89.38
405.765	85.38
405.988	78.38
406.212	78.38
406.436	87.38
406.66	89.38
406.883	80.38
407.107	66.38
407.331	83.38
407.555	90.38
407.778	76.38
408.002	68.38
408.226	70.38
408.449	73.38
408.673	91.38
408.896	86.38
409.12	78.38
409.344	81.38
409.567	79.38
409.791	82.38
410.014	75.38
410.238	84.38
410.461	81.38
410.685	80.38
410.908	81.38
411.132	86.38
411.355	87.38
411.578	80.38
411.802	78.38
412.025	76.38
412.249	91.38
412.472	89.38
412.695	94.38
412.919	86.38
413.142	75.38
413.365	91.38
413.589	67.38
413.812	74.38
414.035	78.38
414.258	74.38
414.482	93.38
414.705	70.38
414.928	89.38
415.151	78.38
415.374	62.38
415.597	71.38
415.821	76.38
416.044	78.38
416.267	85.38
416.49	76.38
416.713	71.38
416.936	81.38
417.159	74.38
417.382	80.38
417.605	80.38
417.828	99.38
418.051	79.38
418.274	84.38
418.497	84.38
418.72	75.38
418.943	96.38
419.166	83.38
419.389	85.38
419.611	80.38
419.834	80.38
420.057	74.38
420.28	77.38
420.503	70.38
420.726	84.38
420.948	73.38
421.171	87.38
421.394	71.38
421.617	73.38
421.839	71.38
422.062	98.38
422.285	84.38
422.507	119.38
422.73	136.38
422.953	127.38
423.175	107.38
423.398	101.38
423.621	73.38
423.843	71.38
424.066	73.38
424.288	71.38
424.511	88.38
424.733	84.38
424.956	93.38
425.178	76.38
425.401	83.38
425.623	82.38
425.846	77.38
426.068	82.38
426.291	88.38
426.513	77.38
426.735	87.38
426.958	82.38
427.18	84.38
427.402	84.38
427.625	79.38
427.847	92.38
428.069	83.38
428.292	88.38
428.514	81.38
428.736	94.38
428.958	84.38
429.181	100.38
429.403	88.38
429.625	85.38
429.847	91.38
430.069	98.38
430.292	99.38
430.514	84.38
430.736	82.38
430.958	102.38
431.18	78.38
431.402	80.38
431.624	68.38
431.846	86.38
432.068	87.38
432.29	72.38
432.512	91.38
432.734	92.38
432.956	97.38
433.178	88.38
433.4	72.38
433.622	82.38
433.844	91.38
434.066	75.38
434.287	80.38
434.509	84.38
434.731	80.38
434.953	84.38
435.175	85.38
435.397	80.38
435.618	74.38
435.84	95.38
436.062	84.38
436.284	94.38
436.505	93.38
436.727	89.38
436.949	88.38
437.17	82.38
437.392	62.38
437.614	76.38
437.835	84.38
438.057	72.38
438.278	82.38
438.5	84.38
438.721	82.38
438.943	91.38
439.165	75.38
439.386	83.38
439.608	85.38
439.829	82.38
440.05	79.38
440.272	76.38
440.493	65.38
440.715	84.38
440.936	94.38
441.158	78.38
441.379	80.38
441.6	70.38
441.822	71.38
442.043	80.38
442.264	83.38
442.486	94.38
442.707	88.38
442.928	76.38
443.149	90.38
443.371	95.38
443.592	119.38
443.813	90.38
444.034	72.38
444.255	99.38
444.476	80.38
444.698	84.38
444.919	76.38
445.14	137.38
445.361	114.38
445.582	108.38
445.803	90.38
446.024	95.38
446.245	82.38
446.466	79.38
446.687	92.38
446.908	83.38
447.129	88.38
447.35	88.38
447.571	90.38
447.792	83.38
448.013	84.38
448.234	86.38
448.455	81.38
448.675	67.38
448.896	82.38
449.117	82.38
449.338	86.38
449.559	80.38
449.779	80.38
450	93.38
450.221	84.38
450.442	67.38
450.662	80.38
450.883	83.38
451.104	74.38
451.324	91.38
451.545	77.38
451.766	82.38
451.986	84.38
452.207	85.38
452.428	81.38
452.648	85.38
452.869	87.38
453.089	67.38
453.31	72.38
453.53	74.38
453.751	79.38
453.971	75.38
454.192	91.38
454.412	76.38
454.633	88.38
454.853	66.38
455.073	75.38
455.294	76.38
455.514	77.38
455.734	84.38
455.955	75.38
456.175	94.38
456.395	82.38
456.616	85.38
456.836	89.38
457.056	92.38
457.276	64.38
457.497	80.38
457.717	85.38
457.937	82.38
458.157	84.38
458.377	94.38
458.598	78.38
458.818	68.38
459.038	82.38
459.258	75.38
459.478	84.38
459.698	80.38
459.918	77.38
460.138	76.38
460.358	84.38
460.578	87.38
460.798	69.38
461.018	85.38
461.238	98.38
461.458	73.38
461.678	76.38
461.898	76.38
462.118	92.38
462.338	80.38
462.558	88.38
462.777	84.38
462.997	79.38
463.217	82.38
463.437	71.38
463.657	87.38
463.876	69.38
464.096	88.38
464.316	73.38
464.536	75.38
464.755	99.38
464.975	80.38
465.195	81.38
465.414	80.38
465.634	77.38
465.854	87.38
466.073	77.38
466.293	73.38
466.512	73.38
466.732	81.38
466.951	91.38
467.171	82.38
467.391	92.38
467.61	76.38
467.829	77.38
468.049	95.38
468.268	76.38
468.488	82.38
468.707	80.38
468.927	72.38
469.146	88.38
469.365	89.38
469.585	68.38
469.804	85.38
470.023	71.38
470.243	71.38
470.462	71.38
470.681	74.38
470.901	80.38
471.12	80.38
471.339	86.38
471.558	66.38
471.777	76.38
471.997	79.38
472.216	83.38
472.435	77.38
472.654	78.38
472.873	84.38
473.092	80.38
473.311	99.38
473.53	68.38
473.749	95.38
473.968	97.38
474.187	90.38
474.406	78.38
474.625	84.38
474.844	80.38
475.063	86.38
475.282	84.38
475.501	71.38
475.72	88.38
475.939	83.38
476.158	87.38
476.377	86.38
476.596	74.38
476.814	83.38
477.033	85.38
477.252	90.38
477.471	83.38
477.69	87.38
477.908	65.38
478.127	82.38
478.346	77.38
478.564	83.38
478.783	83.38
479.002	85.38
479.22	73.38
479.439	78.38
479.658	75.38
479.876	73.38
480.095	75.38
480.313	88.38
480.532	79.38
480.751	80.38
480.969	78.38
481.188	91.38
481.406	83.38
481.624	86.38
481.843	86.38
482.061	74.38
482.28	81.38
482.498	74.38
482.717	89.38
482.935	83.38
483.153	80.38
483.372	95.38
483.59	87.38
483.808	79.38
484.027	89.38
484.245	81.38
484.463	74.38
484.681	79.38
484.9	71.38
485.118	81.38
485.336	84.38
485.554	72.38
485.772	90.38
485.99	84.38
486.209	89.38
486.427	88.38
486.645	81.38
486.863	78.38
487.081	78.38
487.299	78.38
487.517	71.38
487.735	91.38
487.953	82.38
488.171	85.38
488.389	64.38
488.607	79.38
488.825	67.38
489.043	85.38
489.261	92.38
489.479	79.38
489.696	72.38
489.914	79.38
490.132	91.38
490.35	65.38
490.568	91.38
490.786	96.38
491.003	79.38
491.221	68.38
491.439	89.38
491.657	70.38
491.874	83.38
492.092	80.38
492.31	86.38
492.527	94.38
492.745	82.38
492.963	90.38
493.18	77.38
493.398	94.38
493.615	86.38
493.833	74.38
494.05	83.38
494.268	104.38
494.485	83.38
494.703	80.38
494.92	92.38
495.138	87.38
495.355	90.38
495.573	92.38
495.79	75.38
496.008	96.38
496.225	92.38
496.442	88.38
496.66	86.38
496.877	80.38
497.094	87.38
497.312	91.38
497.529	83.38
497.746	87.38
497.963	83.38
498.181	78.38
498.398	75.38
498.615	94.38
498.832	75.38
499.049	91.38
499.267	79.38
499.484	84.38
499.701	94.38
499.918	87.38
500.135	77.38
500.352	84.38
500.569	77.38
500.786	72.38
501.003	88.38
501.22	82.38
501.437	100.38
501.654	82.38
501.871	74.38
502.088	84.38
502.305	83.38
502.522	88.38
502.739	74.38
502.956	88.38
503.172	76.38
503.389	83.38
503.606	84.38
503.823	78.38
504.04	88.38
504.256	95.38
504.473	80.38
504.69	74.38
504.907	88.38
505.123	62.38
505.34	66.38
505.557	83.38
505.773	88.38
505.99	67.38
506.207	74.38
506.423	86.38
506.64	85.38
506.856	77.38
507.073	74.38
507.289	84.38
507.506	78.38
507.722	84.38
507.939	99.38
508.155	76.38
508.372	82.38
508.588	77.38
508.805	94.38
509.021	68.38
509.238	92.38
509.454	84.38
509.67	82.38
509.887	87.38
510.103	79.38
510.319	105.38
510.536	92.38
510.752	83.38
510.968	81.38
511.184	91.38
511.401	90.38
511.617	93.38
511.833	83.38
512.049	69.38
512.265	89.38
512.481	84.38
512.698	82.38
512.914	93.38
513.13	86.38
513.346	86.38
513.562	69.38
513.778	87.38
513.994	91.38
514.21	85.38
514.426	92.38
514.642	76.38
514.858	87.38
515.074	81.38
515.29	76.38
515.506	83.38
515.721	89.38
515.937	75.38
516.153	86.38
516.369	77.38
516.585	73.38
516.801	80.38
517.016	86.38
517.232	70.38
517.448	86.38
517.664	75.38
517.879	81.38
518.095	89.38
518.311	77.38
518.527	80.38
518.742	89.38
518.958	86.38
519.173	93.38
519.389	81.38
519.605	92.38
519.82	83.38
