Data from Mixnoheat3_HRD10591_00004.txt Node
Date: Fri Dec 27 15:01:28 EST 2024
User: Yrep
Spectrometer: HR+D1059
Trigger mode: 1
Integration Time (sec): 1.000000E-1
Scans to average: 1
Electric dark correction enabled: true
Nonlinearity correction enabled: false
Boxcar width: 0
XAxis mode: Wavelengths
Number of Pixels in Spectrum: 2048
>>>>>Begin Spectral Data<<<<<
223.165	-22
223.4	-22
223.635	-22
223.869	-13
224.104	-23
224.338	-12
224.573	-14
224.808	-11
225.042	6
225.277	-14
225.511	2
225.746	16
225.98	4
226.215	6
226.449	21
226.683	5
226.918	13
227.152	36
227.387	28
227.621	39
227.856	52
228.09	50
228.324	49
228.559	58
228.793	53
229.027	60
229.262	70
229.496	55
229.73	86
229.964	72
230.199	57
230.433	82
230.667	80
230.901	83
231.136	81
231.37	96
231.604	85
231.838	75
232.072	74
232.306	75
232.541	79
232.775	75
233.009	82
233.243	82
233.477	66
233.711	66
233.945	73
234.179	75
234.413	84
234.647	80
234.881	79
235.115	80
235.349	80
235.583	66
235.817	93
236.051	74
236.285	80
236.519	77
236.753	88
236.987	85
237.221	78
237.455	72
237.689	75
237.922	66
238.156	86
238.39	85
238.624	79
238.858	86
239.091	65
239.325	69
239.559	54
239.793	68
240.027	78
240.26	88
240.494	82
240.728	64
240.961	76
241.195	75
241.429	75
241.662	53
241.896	73
242.13	76
242.363	73
242.597	78
242.83	72
243.064	80
243.298	88
243.531	74
243.765	73
243.998	82
244.232	72
244.465	67
244.699	94
244.932	82
245.166	66
245.399	91
245.633	76
245.866	83
246.099	78
246.333	71
246.566	68
246.8	72
247.033	74
247.266	93
247.5	76
247.733	89
247.966	74
248.2	81
248.433	59
248.666	70
248.899	74
249.133	73
249.366	82
249.599	77
249.832	74
250.066	92
250.299	85
250.532	68
250.765	68
250.998	76
251.231	74
251.465	68
251.698	81
251.931	77
252.164	69
252.397	62
252.63	70
252.863	62
253.096	69
253.329	77
253.562	58
253.795	83
254.028	61
254.261	85
254.494	77
254.727	77
254.96	75
255.193	77
255.426	62
255.659	67
255.892	89
256.124	75
256.357	91
256.59	68
256.823	66
257.056	78
257.289	81
257.521	68
257.754	86
257.987	91
258.22	80
258.452	84
258.685	88
258.918	82
259.151	66
259.383	49
259.616	73
259.849	86
260.081	92
260.314	92
260.547	73
260.779	93
261.012	84
261.244	78
261.477	72
261.71	94
261.942	72
262.175	75
262.407	84
262.64	82
262.872	86
263.105	76
263.337	80
263.57	65
263.802	74
264.035	77
264.267	77
264.499	68
264.732	71
264.964	84
265.197	82
265.429	77
265.661	88
265.894	85
266.126	82
266.358	70
266.591	88
266.823	82
267.055	78
267.287	68
267.52	77
267.752	85
267.984	80
268.216	74
268.448	77
268.681	84
268.913	76
269.145	87
269.377	84
269.609	68
269.841	88
270.073	75
270.306	79
270.538	93
270.77	83
271.002	88
271.234	70
271.466	92
271.698	83
271.93	78
272.162	94
272.394	86
272.626	88
272.858	78
273.09	76
273.322	78
273.553	88
273.785	87
274.017	78
274.249	75
274.481	77
274.713	81
274.945	77
275.176	75
275.408	84
275.64	90
275.872	77
276.104	101
276.335	79
276.567	84
276.799	90
277.031	92
277.262	73
277.494	78
277.726	96
277.957	91
278.189	66
278.421	76
278.652	81
278.884	82
279.115	89
279.347	91
279.579	81
279.81	80
280.042	89
280.273	75
280.505	91
280.736	96
280.968	86
281.199	74
281.431	88
281.662	86
281.894	83
282.125	88
282.356	85
282.588	67
282.819	85
283.051	83
283.282	77
283.513	82
283.745	70
283.976	85
284.207	85
284.439	85
284.67	84
284.901	86
285.132	81
285.364	89
285.595	85
285.826	98
286.057	76
286.288	76
286.52	90
286.751	77
286.982	92
287.213	82
287.444	92
287.675	93
287.906	83
288.138	76
288.369	79
288.6	84
288.831	86
289.062	100
289.293	80
289.524	80
289.755	80
289.986	73
290.217	90
290.448	80
290.679	72
290.91	77
291.141	97
291.371	82
291.602	70
291.833	88
292.064	90
292.295	72
292.526	80
292.757	91
292.987	99
293.218	80
293.449	96
293.68	82
293.91	96
294.141	85
294.372	68
294.603	82
294.833	79
295.064	85
295.295	70
295.525	81
295.756	95
295.987	91
296.217	79
296.448	89
296.679	84
296.909	81
297.14	78
297.37	84
297.601	80
297.831	74
298.062	79
298.292	84
298.523	89
298.753	92
298.984	81
299.214	72
299.445	82
299.675	88
299.905	87
300.136	86
300.366	86
300.597	88
300.827	82
301.057	76
301.288	80
301.518	97
301.748	74
301.979	105
302.209	68
302.439	78
302.669	85
302.9	73
303.13	85
303.36	85
303.59	88
303.82	67
304.051	89
304.281	91
304.511	91
304.741	87
304.971	86
305.201	99
305.431	74
305.661	86
305.891	71
306.121	84
306.352	91
306.582	71
306.812	78
307.042	88
307.272	69
307.502	75
307.731	74
307.961	90
308.191	89
308.421	67
308.651	77
308.881	71
309.111	75
309.341	85
309.571	79
309.8	76
310.03	80
310.26	82
310.49	76
310.72	78
310.949	88
311.179	85
311.409	92
311.639	81
311.868	75
312.098	78
312.328	88
312.557	84
312.787	104
313.017	86
313.246	80
313.476	66
313.706	72
313.935	83
314.165	99
314.394	80
314.624	82
314.853	77
315.083	85
315.312	76
315.542	88
315.771	90
316.001	93
316.23	87
316.46	86
316.689	90
316.919	84
317.148	97
317.377	85
317.607	90
317.836	84
318.065	85
318.295	100
318.524	75
318.753	87
318.983	86
319.212	80
319.441	78
319.67	101
319.9	92
320.129	66
320.358	86
320.587	78
320.816	82
321.046	80
321.275	77
321.504	80
321.733	79
321.962	82
322.191	79
322.42	85
322.649	77
322.878	101
323.108	100
323.337	84
323.566	89
323.795	92
324.024	80
324.253	69
324.482	90
324.71	90
324.939	92
325.168	97
325.397	72
325.626	66
325.855	79
326.084	70
326.313	83
326.542	82
326.77	82
326.999	91
327.228	96
327.457	76
327.686	96
327.914	77
328.143	74
328.372	84
328.6	84
328.829	81
329.058	91
329.287	82
329.515	78
329.744	87
329.972	84
330.201	78
330.43	89
330.658	66
330.887	89
331.115	94
331.344	85
331.572	76
331.801	95
332.03	86
332.258	69
332.486	80
332.715	88
332.943	87
333.172	81
333.4	87
333.629	77
333.857	87
334.085	88
334.314	78
334.542	94
334.771	92
334.999	85
335.227	89
335.455	84
335.684	94
335.912	70
336.14	73
336.369	84
336.597	95
336.825	84
337.053	91
337.281	80
337.51	90
337.738	94
337.966	87
338.194	85
338.422	86
338.65	81
338.878	91
339.106	85
339.334	98
339.562	89
339.79	95
340.018	85
340.246	80
340.474	86
340.702	88
340.93	85
341.158	88
341.386	70
341.614	81
341.842	84
342.07	62
342.298	76
342.526	97
342.754	89
342.981	75
343.209	85
343.437	103
343.665	75
343.893	87
344.12	80
344.348	95
344.576	100
344.804	93
345.031	91
345.259	85
345.487	94
345.714	82
345.942	91
346.17	96
346.397	88
346.625	92
346.853	78
347.08	85
347.308	91
347.535	66
347.763	87
347.99	86
348.218	106
348.445	96
348.673	86
348.9	87
349.128	85
349.355	78
349.583	90
349.81	82
350.037	92
350.265	89
350.492	85
350.72	96
350.947	84
351.174	103
351.402	78
351.629	85
351.856	92
352.083	88
352.311	93
352.538	90
352.765	91
352.992	87
353.22	87
353.447	88
353.674	83
353.901	87
354.128	93
354.355	78
354.583	81
354.81	86
355.037	84
355.264	86
355.491	78
355.718	104
355.945	88
356.172	96
356.399	68
356.626	98
356.853	84
357.08	84
357.307	91
357.534	73
357.761	90
357.988	76
358.215	96
358.441	80
358.668	68
358.895	88
359.122	80
359.349	89
359.576	86
359.802	78
360.029	70
360.256	91
360.483	85
360.709	88
360.936	89
361.163	100
361.39	89
361.616	104
361.843	80
362.07	93
362.296	78
362.523	89
362.749	86
362.976	93
363.203	95
363.429	76
363.656	99
363.882	82
364.109	88
364.335	98
364.562	96
364.788	95
365.015	89
365.241	83
365.468	78
365.694	89
365.92	83
366.147	86
366.373	83
366.599	79
366.826	80
367.052	68
367.278	80
367.505	82
367.731	85
367.957	82
368.184	83
368.41	90
368.636	92
368.862	81
369.089	84
369.315	76
369.541	86
369.767	93
369.993	83
370.219	71
370.445	84
370.672	74
370.898	76
371.124	91
371.35	82
371.576	80
371.802	91
372.028	84
372.254	86
372.48	93
372.706	81
372.932	78
373.158	70
373.384	87
373.61	81
373.835	88
374.061	85
374.287	79
374.513	89
374.739	76
374.965	86
375.191	90
375.416	85
375.642	88
375.868	91
376.094	97
376.319	80
376.545	98
376.771	80
376.997	87
377.222	66
377.448	91
377.674	86
377.899	80
378.125	72
378.35	77
378.576	87
378.802	80
379.027	77
379.253	78
379.478	75
379.704	72
379.929	82
380.155	84
380.38	97
380.606	99
380.831	80
381.057	93
381.282	87
381.507	84
381.733	92
381.958	78
382.184	90
382.409	75
382.634	96
382.86	74
383.085	86
383.31	79
383.535	81
383.761	80
383.986	97
384.211	87
384.436	71
384.662	85
384.887	82
385.112	77
385.337	82
385.562	87
385.787	76
386.013	86
386.238	85
386.463	83
386.688	98
386.913	85
387.138	83
387.363	92
387.588	83
387.813	85
388.038	83
388.263	82
388.488	75
388.713	85
388.938	93
389.163	99
389.387	79
389.612	78
389.837	85
390.062	84
390.287	77
390.512	87
390.736	76
390.961	77
391.186	91
391.411	72
391.636	76
391.86	80
392.085	90
392.31	98
392.534	98
392.759	85
392.984	104
393.208	116
393.433	146
393.658	125
393.882	101
394.107	86
394.331	90
394.556	98
394.78	87
395.005	77
395.229	77
395.454	100
395.678	94
395.903	104
396.127	116
396.352	108
396.576	99
396.801	111
397.025	129
397.249	112
397.474	101
397.698	100
397.922	83
398.147	78
398.371	76
398.595	82
398.82	82
399.044	77
399.268	84
399.492	65
399.717	86
399.941	83
400.165	82
400.389	70
400.613	73
400.837	71
401.062	79
401.286	86
401.51	98
401.734	75
401.958	92
402.182	85
402.406	93
402.63	87
402.854	84
403.078	81
403.302	83
403.526	88
403.75	86
403.974	103
404.198	96
404.422	137
404.645	166
404.869	120
405.093	102
405.317	94
405.541	92
405.765	96
405.988	90
406.212	88
406.436	77
406.66	83
406.883	79
407.107	86
407.331	96
407.555	82
407.778	91
408.002	81
408.226	87
408.449	80
408.673	76
408.896	81
409.12	72
409.344	67
409.567	84
409.791	77
410.014	70
410.238	76
410.461	101
410.685	85
410.908	63
411.132	94
411.355	93
411.578	90
411.802	83
412.025	70
412.249	68
412.472	78
412.695	82
412.919	86
413.142	88
413.365	70
413.589	74
413.812	62
414.035	66
414.258	82
414.482	78
414.705	78
414.928	89
415.151	78
415.374	76
415.597	68
415.821	82
416.044	81
416.267	88
416.49	77
416.713	93
416.936	85
417.159	76
417.382	87
417.605	80
417.828	80
418.051	79
418.274	71
418.497	68
418.72	93
418.943	93
419.166	77
419.389	71
419.611	82
419.834	82
420.057	83
420.28	82
420.503	85
420.726	80
420.948	97
421.171	80
421.394	90
421.617	79
421.839	98
422.062	98
422.285	123
422.507	146
422.73	184
422.953	182
423.175	117
423.398	92
423.621	94
423.843	85
424.066	81
424.288	80
424.511	90
424.733	81
424.956	91
425.178	81
425.401	79
425.623	74
425.846	71
426.068	68
426.291	66
426.513	93
426.735	96
426.958	94
427.18	88
427.402	80
427.625	81
427.847	95
428.069	77
428.292	91
428.514	105
428.736	85
428.958	82
429.181	92
429.403	77
429.625	86
429.847	116
430.069	126
430.292	142
430.514	113
430.736	90
430.958	114
431.18	96
431.402	93
431.624	78
431.846	96
432.068	104
432.29	85
432.512	83
432.734	75
432.956	70
433.178	91
433.4	71
433.622	82
433.844	90
434.066	80
434.287	69
434.509	71
434.731	80
434.953	87
435.175	92
435.397	76
435.618	77
435.84	88
436.062	87
436.284	81
436.505	63
436.727	71
436.949	98
437.17	67
437.392	77
437.614	91
437.835	83
438.057	77
438.278	81
438.5	78
438.721	82
438.943	73
439.165	76
439.386	76
439.608	93
439.829	77
440.05	89
440.272	86
440.493	83
440.715	77
440.936	88
441.158	64
441.379	96
441.6	96
441.822	91
442.043	89
442.264	83
442.486	106
442.707	94
442.928	91
443.149	98
443.371	116
443.592	146
443.813	126
444.034	91
444.255	67
444.476	91
444.698	84
444.919	83
445.14	130
445.361	148
445.582	177
445.803	140
446.024	95
446.245	79
446.466	93
446.687	77
446.908	78
447.129	100
447.35	86
447.571	88
447.792	90
448.013	79
448.234	75
448.455	85
448.675	86
448.896	81
449.117	83
449.338	78
449.559	87
449.779	99
450	87
450.221	90
450.442	92
450.662	77
450.883	84
451.104	86
451.324	102
451.545	86
451.766	80
451.986	77
452.207	92
452.428	93
452.648	83
452.869	89
453.089	72
453.31	96
453.53	85
453.751	88
453.971	85
454.192	75
454.412	93
454.633	93
454.853	99
455.073	84
455.294	72
455.514	76
455.734	83
455.955	69
456.175	88
456.395	74
456.616	82
456.836	90
457.056	87
457.276	76
457.497	84
457.717	70
457.937	91
458.157	103
458.377	73
458.598	100
458.818	91
459.038	75
459.258	77
459.478	77
459.698	84
459.918	87
460.138	78
460.358	79
460.578	79
460.798	85
461.018	89
461.238	80
461.458	91
461.678	82
461.898	81
462.118	82
462.338	83
462.558	79
462.777	78
462.997	76
463.217	83
463.437	80
463.657	83
463.876	78
464.096	88
464.316	74
464.536	84
464.755	97
464.975	98
465.195	87
465.414	94
465.634	85
465.854	87
466.073	69
466.293	75
466.512	78
466.732	73
466.951	76
467.171	77
467.391	73
467.61	77
467.829	80
468.049	87
468.268	79
468.488	86
468.707	92
468.927	81
469.146	83
469.365	68
469.585	75
469.804	76
470.023	94
470.243	84
470.462	95
470.681	79
470.901	84
471.12	80
471.339	82
471.558	82
471.777	83
471.997	72
472.216	78
472.435	83
472.654	81
472.873	87
473.092	76
473.311	68
473.53	78
473.749	84
473.968	87
474.187	72
474.406	69
474.625	82
474.844	100
475.063	74
475.282	76
475.501	91
475.72	89
475.939	82
476.158	82
476.377	88
476.596	87
476.814	80
477.033	77
477.252	86
477.471	91
477.69	77
477.908	80
478.127	92
478.346	70
478.564	90
478.783	90
479.002	90
479.22	87
479.439	73
479.658	89
479.876	84
480.095	79
480.313	86
480.532	87
480.751	93
480.969	85
481.188	92
481.406	102
481.624	83
481.843	103
482.061	89
482.28	89
482.498	80
482.717	76
482.935	65
483.153	94
483.372	75
483.59	83
483.808	73
484.027	72
484.245	85
484.463	74
484.681	78
484.9	87
485.118	79
485.336	86
485.554	82
485.772	85
485.99	85
486.209	90
486.427	82
486.645	77
486.863	84
487.081	96
487.299	84
487.517	88
487.735	94
487.953	90
488.171	108
488.389	88
488.607	97
488.825	89
489.043	88
489.261	86
489.479	94
489.696	89
489.914	84
490.132	90
490.35	82
490.568	89
490.786	85
491.003	99
491.221	86
491.439	88
491.657	81
491.874	87
492.092	84
492.31	78
492.527	81
492.745	84
492.963	91
493.18	96
493.398	93
493.615	79
493.833	96
494.05	89
494.268	77
494.485	79
494.703	86
494.92	88
495.138	75
495.355	75
495.573	84
495.79	89
496.008	85
496.225	83
496.442	101
496.66	85
496.877	81
497.094	82
497.312	85
497.529	93
497.746	86
497.963	88
498.181	87
498.398	93
498.615	80
498.832	81
499.049	70
499.267	110
499.484	87
499.701	84
499.918	75
500.135	81
500.352	84
500.569	82
500.786	81
501.003	91
501.22	73
501.437	96
501.654	74
501.871	82
502.088	96
502.305	85
502.522	80
502.739	87
502.956	74
503.172	93
503.389	96
503.606	83
503.823	90
504.04	87
504.256	89
504.473	89
504.69	82
504.907	102
505.123	86
505.34	92
505.557	82
505.773	72
505.99	93
506.207	75
506.423	70
506.64	78
506.856	77
507.073	91
507.289	93
507.506	86
507.722	88
507.939	97
508.155	90
508.372	92
508.588	91
508.805	101
509.021	102
509.238	82
509.454	95
509.67	93
509.887	90
510.103	88
510.319	91
510.536	89
510.752	82
510.968	87
511.184	84
511.401	75
511.617	93
511.833	87
512.049	83
512.265	73
512.481	80
512.698	77
512.914	92
513.13	78
513.346	104
513.562	90
513.778	74
513.994	87
514.21	81
514.426	74
514.642	65
514.858	82
515.074	92
515.29	87
515.506	91
515.721	91
515.937	81
516.153	86
516.369	72
516.585	66
516.801	75
517.016	91
517.232	81
517.448	91
517.664	77
517.879	84
518.095	93
518.311	73
518.527	72
518.742	90
518.958	104
519.173	112
519.389	88
519.605	81
519.82	85
520.036	87
520.251	79
520.467	82
520.682	74
520.898	89
521.113	92
521.329	85
521.544	73
521.76	90
521.975	86
522.19	80
522.406	83
522.621	85
522.836	93
523.052	84
523.267	80
523.482	76
523.698	81
523.913	85
524.128	90
524.343	83
524.559	89
524.774	78
524.989	80
525.204	83
525.419	87
525.634	74
525.849	90
526.064	109
526.28	136
526.495	131
526.71	157
526.925	136
527.14	147
527.355	136
527.57	94
527.785	70
527.999	94
528.214	83
528.429	83
528.644	78
528.859	86
529.074	83
529.289	85
529.503	98
529.718	86
529.933	83
530.148	97
530.363	90
530.577	95
530.792	87
531.007	73
531.221	86
531.436	70
531.651	85
531.865	69
532.08	74
532.295	92
532.509	84
532.724	83
532.938	85
533.153	78
533.367	81
533.582	88
533.796	91
534.011	85
534.225	89
534.44	99
534.654	120
534.868	102
535.083	125
535.297	99
535.511	98
535.726	100
535.94	89
536.154	81
536.369	86
536.583	86
536.797	93
537.011	90
537.225	92
537.44	88
537.654	105
537.868	99
538.082	85
538.296	95
538.51	91
538.724	96
538.938	84
539.153	98
539.367	80
539.581	94
539.795	90
540.009	80
540.222	84
540.436	90
540.65	90
540.864	83
541.078	89
541.292	79
541.506	88
541.72	95
541.934	84
542.147	89
542.361	84
542.575	76
542.789	80
543.002	82
543.216	97
543.43	82
543.644	88
543.857	104
544.071	81
544.285	82
544.498	87
544.712	92
544.925	83
545.139	81
545.352	89
545.566	84
545.779	84
545.993	89
546.206	84
546.42	80
546.633	103
546.847	91
547.06	93
547.274	98
547.487	92
547.7	85
547.914	88
548.127	107
548.34	97
548.554	87
548.767	97
548.98	102
549.193	93
549.407	102
549.62	111
549.833	87
550.046	85
550.259	108
550.473	92
550.686	100
550.899	105
551.112	113
551.325	102
551.538	94
551.751	108
551.964	109
552.177	106
552.39	106
552.603	101
552.816	105
553.029	93
553.242	103
553.455	118
553.667	108
553.88	108
554.093	115
554.306	99
554.519	102
554.732	103
554.944	105
555.157	89
555.37	114
555.583	100
555.795	104
556.008	109
556.221	85
556.433	80
556.646	102
556.859	96
557.071	87
557.284	104
557.496	94
557.709	96
557.921	105
558.134	104
558.346	104
558.559	101
558.771	102
558.984	169
559.196	180
559.409	120
559.621	166
559.833	142
560.046	145
560.258	123
560.47	116
560.683	103
560.895	84
561.107	88
561.32	91
561.532	101
561.744	88
561.956	79
562.168	89
562.381	92
562.593	81
562.805	96
563.017	83
563.229	84
563.441	89
563.653	89
563.865	86
564.077	69
564.289	86
564.501	97
564.713	87
564.925	82
565.137	89
565.349	77
565.561	94
565.773	86
565.985	84
566.197	83
566.408	95
566.62	96
566.832	86
567.044	82
567.255	93
567.467	83
567.679	86
567.891	90
568.102	98
568.314	92
568.526	81
568.737	87
568.949	81
569.161	86
569.372	93
569.584	76
569.795	83
570.007	87
570.218	92
570.43	88
570.641	86
570.853	92
571.064	88
571.276	88
571.487	85
571.698	69
571.91	83
572.121	85
572.333	84
572.544	86
572.755	85
572.966	101
573.178	92
573.389	92
573.6	99
573.811	77
574.023	102
574.234	80
574.445	80
574.656	91
574.867	79
575.078	79
575.289	81
575.501	97
575.712	87
575.923	90
576.134	91
576.345	87
576.556	85
576.767	102
576.978	92
577.188	91
577.399	78
577.61	71
577.821	97
578.032	78
578.243	84
578.454	84
578.665	102
578.875	94
579.086	87
579.297	86
579.508	85
579.718	83
579.929	85
580.14	100
580.35	93
580.561	103
580.772	104
580.982	99
581.193	99
581.403	90
581.614	96
581.825	96
582.035	90
582.246	85
582.456	84
582.667	80
582.877	89
583.087	93
583.298	89
583.508	92
583.719	95
583.929	100
584.139	85
584.35	90
584.56	90
584.77	94
584.981	87
585.191	83
585.401	81
585.611	74
585.821	89
586.032	124
586.242	98
586.452	93
586.662	93
586.872	87
587.082	78
587.292	68
587.502	78
587.713	86
587.923	82
588.133	88
588.343	81
588.553	72
