Data from Mixnoheat3_HRD10591_00002.txt Node
Date: Fri Dec 27 15:01:26 EST 2024
User: Yrep
Spectrometer: HR+D1059
Trigger mode: 1
Integration Time (sec): 1.000000E-1
Scans to average: 1
Electric dark correction enabled: true
Nonlinearity correction enabled: false
Boxcar width: 0
XAxis mode: Wavelengths
Number of Pixels in Spectrum: 2048
>>>>>Begin Spectral Data<<<<<
223.165	-21.81
223.4	-21.81
223.635	-21.81
223.869	-13.81
224.104	-20.81
224.338	-20.81
224.573	-14.81
224.808	-9.81
225.042	0.19
225.277	-3.81
225.511	-0.81
225.746	8.19
225.98	1.19
226.215	15.19
226.449	13.19
226.683	22.19
226.918	23.19
227.152	23.19
227.387	38.19
227.621	36.19
227.856	50.19
228.09	43.19
228.324	58.19
228.559	59.19
228.793	57.19
229.027	62.19
229.262	49.19
229.496	73.19
229.73	71.19
229.964	48.19
230.199	75.19
230.433	75.19
230.667	78.19
230.901	78.19
231.136	75.19
231.37	70.19
231.604	82.19
231.838	70.19
232.072	96.19
232.306	84.19
232.541	60.19
232.775	86.19
233.009	82.19
233.243	80.19
233.477	78.19
233.711	95.19
233.945	85.19
234.179	71.19
234.413	86.19
234.647	77.19
234.881	85.19
235.115	75.19
235.349	81.19
235.583	84.19
235.817	82.19
236.051	82.19
236.285	63.19
236.519	68.19
236.753	78.19
236.987	77.19
237.221	80.19
237.455	67.19
237.689	82.19
237.922	72.19
238.156	74.19
238.39	66.19
238.624	74.19
238.858	74.19
239.091	76.19
239.325	75.19
239.559	75.19
239.793	77.19
240.027	74.19
240.26	78.19
240.494	83.19
240.728	66.19
240.961	76.19
241.195	83.19
241.429	75.19
241.662	78.19
241.896	79.19
242.13	81.19
242.363	88.19
242.597	82.19
242.83	82.19
243.064	79.19
243.298	71.19
243.531	88.19
243.765	79.19
243.998	70.19
244.232	71.19
244.465	83.19
244.699	76.19
244.932	77.19
245.166	71.19
245.399	79.19
245.633	89.19
245.866	78.19
246.099	69.19
246.333	77.19
246.566	88.19
246.8	80.19
247.033	70.19
247.266	75.19
247.5	82.19
247.733	65.19
247.966	71.19
248.2	82.19
248.433	79.19
248.666	84.19
248.899	83.19
249.133	81.19
249.366	96.19
249.599	78.19
249.832	84.19
250.066	81.19
250.299	91.19
250.532	83.19
250.765	81.19
250.998	63.19
251.231	86.19
251.465	66.19
251.698	75.19
251.931	71.19
252.164	68.19
252.397	66.19
252.63	74.19
252.863	73.19
253.096	78.19
253.329	86.19
253.562	77.19
253.795	84.19
254.028	73.19
254.261	83.19
254.494	82.19
254.727	79.19
254.96	78.19
255.193	99.19
255.426	76.19
255.659	69.19
255.892	80.19
256.124	80.19
256.357	83.19
256.59	77.19
256.823	82.19
257.056	68.19
257.289	75.19
257.521	88.19
257.754	74.19
257.987	78.19
258.22	93.19
258.452	87.19
258.685	82.19
258.918	68.19
259.151	62.19
259.383	76.19
259.616	84.19
259.849	96.19
260.081	90.19
260.314	76.19
260.547	65.19
260.779	83.19
261.012	81.19
261.244	73.19
261.477	71.19
261.71	86.19
261.942	85.19
262.175	74.19
262.407	85.19
262.64	76.19
262.872	76.19
263.105	93.19
263.337	73.19
263.57	97.19
263.802	91.19
264.035	67.19
264.267	81.19
264.499	84.19
264.732	77.19
264.964	71.19
265.197	74.19
265.429	76.19
265.661	90.19
265.894	83.19
266.126	80.19
266.358	88.19
266.591	88.19
266.823	83.19
267.055	87.19
267.287	76.19
267.52	74.19
267.752	87.19
267.984	86.19
268.216	80.19
268.448	92.19
268.681	69.19
268.913	85.19
269.145	72.19
269.377	90.19
269.609	76.19
269.841	94.19
270.073	74.19
270.306	78.19
270.538	83.19
270.77	75.19
271.002	84.19
271.234	73.19
271.466	81.19
271.698	86.19
271.93	79.19
272.162	72.19
272.394	92.19
272.626	89.19
272.858	63.19
273.09	82.19
273.322	83.19
273.553	80.19
273.785	85.19
274.017	74.19
274.249	86.19
274.481	92.19
274.713	76.19
274.945	84.19
275.176	80.19
275.408	85.19
275.64	90.19
275.872	82.19
276.104	77.19
276.335	78.19
276.567	81.19
276.799	82.19
277.031	86.19
277.262	77.19
277.494	96.19
277.726	91.19
277.957	93.19
278.189	85.19
278.421	91.19
278.652	79.19
278.884	88.19
279.115	71.19
279.347	87.19
279.579	80.19
279.81	91.19
280.042	91.19
280.273	86.19
280.505	85.19
280.736	79.19
280.968	68.19
281.199	77.19
281.431	87.19
281.662	83.19
281.894	74.19
282.125	89.19
282.356	81.19
282.588	82.19
282.819	100.19
283.051	94.19
283.282	92.19
283.513	75.19
283.745	93.19
283.976	85.19
284.207	71.19
284.439	77.19
284.67	76.19
284.901	83.19
285.132	76.19
285.364	72.19
285.595	80.19
285.826	92.19
286.057	99.19
286.288	82.19
286.52	98.19
286.751	86.19
286.982	71.19
287.213	68.19
287.444	94.19
287.675	83.19
287.906	85.19
288.138	81.19
288.369	92.19
288.6	77.19
288.831	98.19
289.062	92.19
289.293	81.19
289.524	82.19
289.755	79.19
289.986	87.19
290.217	83.19
290.448	79.19
290.679	86.19
290.91	98.19
291.141	81.19
291.371	94.19
291.602	89.19
291.833	80.19
292.064	85.19
292.295	77.19
292.526	79.19
292.757	92.19
292.987	80.19
293.218	89.19
293.449	86.19
293.68	82.19
293.91	81.19
294.141	85.19
294.372	93.19
294.603	98.19
294.833	77.19
295.064	83.19
295.295	82.19
295.525	83.19
295.756	77.19
295.987	89.19
296.217	101.19
296.448	75.19
296.679	82.19
296.909	78.19
297.14	93.19
297.37	84.19
297.601	83.19
297.831	74.19
298.062	81.19
298.292	89.19
298.523	88.19
298.753	96.19
298.984	77.19
299.214	82.19
299.445	85.19
299.675	93.19
299.905	89.19
300.136	94.19
300.366	92.19
300.597	85.19
300.827	82.19
301.057	88.19
301.288	91.19
301.518	89.19
301.748	81.19
301.979	109.19
302.209	82.19
302.439	90.19
302.669	85.19
302.9	92.19
303.13	82.19
303.36	76.19
303.59	89.19
303.82	91.19
304.051	82.19
304.281	92.19
304.511	92.19
304.741	75.19
304.971	91.19
305.201	86.19
305.431	88.19
305.661	75.19
305.891	73.19
306.121	96.19
306.352	90.19
306.582	97.19
306.812	98.19
307.042	97.19
307.272	74.19
307.502	77.19
307.731	75.19
307.961	86.19
308.191	92.19
308.421	78.19
308.651	83.19
308.881	89.19
309.111	90.19
309.341	94.19
309.571	95.19
309.8	100.19
310.03	75.19
310.26	92.19
310.49	96.19
310.72	88.19
310.949	79.19
311.179	80.19
311.409	84.19
311.639	84.19
311.868	86.19
312.098	76.19
312.328	90.19
312.557	98.19
312.787	66.19
313.017	73.19
313.246	81.19
313.476	98.19
313.706	102.19
313.935	85.19
314.165	87.19
314.394	85.19
314.624	85.19
314.853	88.19
315.083	87.19
315.312	69.19
315.542	87.19
315.771	84.19
316.001	92.19
316.23	87.19
316.46	87.19
316.689	101.19
316.919	78.19
317.148	98.19
317.377	99.19
317.607	103.19
317.836	80.19
318.065	73.19
318.295	96.19
318.524	90.19
318.753	80.19
318.983	82.19
319.212	91.19
319.441	88.19
319.67	84.19
319.9	74.19
320.129	93.19
320.358	86.19
320.587	81.19
320.816	90.19
321.046	87.19
321.275	99.19
321.504	84.19
321.733	83.19
321.962	82.19
322.191	94.19
322.42	72.19
322.649	90.19
322.878	84.19
323.108	85.19
323.337	85.19
323.566	84.19
323.795	83.19
324.024	89.19
324.253	89.19
324.482	83.19
324.71	89.19
324.939	87.19
325.168	75.19
325.397	86.19
325.626	88.19
325.855	91.19
326.084	90.19
326.313	75.19
326.542	87.19
326.77	78.19
326.999	71.19
327.228	72.19
327.457	89.19
327.686	72.19
327.914	89.19
328.143	92.19
328.372	85.19
328.6	74.19
328.829	79.19
329.058	76.19
329.287	79.19
329.515	82.19
329.744	86.19
329.972	72.19
330.201	93.19
330.43	92.19
330.658	96.19
330.887	86.19
331.115	86.19
331.344	84.19
331.572	93.19
331.801	84.19
332.03	76.19
332.258	78.19
332.486	100.19
332.715	90.19
332.943	75.19
333.172	85.19
333.4	84.19
333.629	91.19
333.857	76.19
334.085	93.19
334.314	85.19
334.542	97.19
334.771	89.19
334.999	84.19
335.227	102.19
335.455	84.19
335.684	86.19
335.912	82.19
336.14	84.19
336.369	91.19
336.597	82.19
336.825	87.19
337.053	86.19
337.281	85.19
337.51	83.19
337.738	95.19
337.966	70.19
338.194	87.19
338.422	88.19
338.65	98.19
338.878	103.19
339.106	97.19
339.334	98.19
339.562	75.19
339.79	88.19
340.018	91.19
340.246	88.19
340.474	87.19
340.702	100.19
340.93	79.19
341.158	96.19
341.386	83.19
341.614	91.19
341.842	88.19
342.07	79.19
342.298	78.19
342.526	71.19
342.754	86.19
342.981	85.19
343.209	70.19
343.437	105.19
343.665	84.19
343.893	82.19
344.12	100.19
344.348	84.19
344.576	87.19
344.804	81.19
345.031	70.19
345.259	73.19
345.487	88.19
345.714	79.19
345.942	80.19
346.17	98.19
346.397	87.19
346.625	92.19
346.853	101.19
347.08	76.19
347.308	88.19
347.535	81.19
347.763	82.19
347.99	76.19
348.218	91.19
348.445	74.19
348.673	78.19
348.9	105.19
349.128	90.19
349.355	76.19
349.583	91.19
349.81	94.19
350.037	91.19
350.265	81.19
350.492	83.19
350.72	85.19
350.947	99.19
351.174	92.19
351.402	83.19
351.629	82.19
351.856	89.19
352.083	82.19
352.311	88.19
352.538	96.19
352.765	93.19
352.992	78.19
353.22	75.19
353.447	85.19
353.674	91.19
353.901	87.19
354.128	79.19
354.355	103.19
354.583	84.19
354.81	90.19
355.037	103.19
355.264	84.19
355.491	78.19
355.718	59.19
355.945	101.19
356.172	88.19
356.399	83.19
356.626	81.19
356.853	84.19
357.08	92.19
357.307	85.19
357.534	97.19
357.761	90.19
357.988	90.19
358.215	90.19
358.441	83.19
358.668	74.19
358.895	84.19
359.122	87.19
359.349	93.19
359.576	89.19
359.802	87.19
360.029	99.19
360.256	96.19
360.483	84.19
360.709	92.19
360.936	81.19
361.163	90.19
361.39	83.19
361.616	87.19
361.843	86.19
362.07	84.19
362.296	76.19
362.523	103.19
362.749	97.19
362.976	92.19
363.203	95.19
363.429	83.19
363.656	80.19
363.882	98.19
364.109	90.19
364.335	114.19
364.562	99.19
364.788	77.19
365.015	94.19
365.241	104.19
365.468	84.19
365.694	85.19
365.92	89.19
366.147	103.19
366.373	87.19
366.599	93.19
366.826	88.19
367.052	78.19
367.278	87.19
367.505	100.19
367.731	102.19
367.957	82.19
368.184	81.19
368.41	83.19
368.636	63.19
368.862	81.19
369.089	79.19
369.315	84.19
369.541	87.19
369.767	79.19
369.993	85.19
370.219	89.19
370.445	78.19
370.672	71.19
370.898	72.19
371.124	92.19
371.35	79.19
371.576	86.19
371.802	96.19
372.028	94.19
372.254	95.19
372.48	83.19
372.706	84.19
372.932	76.19
373.158	93.19
373.384	84.19
373.61	84.19
373.835	75.19
374.061	78.19
374.287	78.19
374.513	82.19
374.739	82.19
374.965	69.19
375.191	75.19
375.416	84.19
375.642	85.19
375.868	98.19
376.094	91.19
376.319	70.19
376.545	77.19
376.771	76.19
376.997	75.19
377.222	86.19
377.448	82.19
377.674	85.19
377.899	82.19
378.125	91.19
378.35	94.19
378.576	90.19
378.802	77.19
379.027	88.19
379.253	71.19
379.478	79.19
379.704	67.19
379.929	83.19
380.155	76.19
380.38	72.19
380.606	68.19
380.831	90.19
381.057	80.19
381.282	78.19
381.507	87.19
381.733	87.19
381.958	72.19
382.184	84.19
382.409	99.19
382.634	89.19
382.86	79.19
383.085	75.19
383.31	91.19
383.535	82.19
383.761	101.19
383.986	91.19
384.211	83.19
384.436	78.19
384.662	68.19
384.887	83.19
385.112	77.19
385.337	90.19
385.562	77.19
385.787	71.19
386.013	88.19
386.238	93.19
386.463	82.19
386.688	102.19
386.913	97.19
387.138	89.19
387.363	93.19
387.588	93.19
387.813	79.19
388.038	91.19
388.263	83.19
388.488	108.19
388.713	74.19
388.938	71.19
389.163	80.19
389.387	83.19
389.612	91.19
389.837	78.19
390.062	87.19
390.287	81.19
390.512	77.19
390.736	71.19
390.961	85.19
391.186	83.19
391.411	82.19
391.636	71.19
391.86	74.19
392.085	93.19
392.31	87.19
392.534	90.19
392.759	94.19
392.984	110.19
393.208	143.19
393.433	163.19
393.658	134.19
393.882	94.19
394.107	92.19
394.331	91.19
394.556	87.19
394.78	93.19
395.005	82.19
395.229	90.19
395.454	100.19
395.678	85.19
395.903	100.19
396.127	113.19
396.352	118.19
396.576	108.19
396.801	132.19
397.025	144.19
397.249	119.19
397.474	93.19
397.698	99.19
397.922	101.19
398.147	79.19
398.371	80.19
398.595	81.19
398.82	80.19
399.044	90.19
399.268	86.19
399.492	81.19
399.717	79.19
399.941	87.19
400.165	80.19
400.389	71.19
400.613	86.19
400.837	93.19
401.062	91.19
401.286	83.19
401.51	75.19
401.734	88.19
401.958	93.19
402.182	68.19
402.406	68.19
402.63	73.19
402.854	79.19
403.078	92.19
403.302	91.19
403.526	103.19
403.75	90.19
403.974	90.19
404.198	105.19
404.422	140.19
404.645	139.19
404.869	131.19
405.093	93.19
405.317	89.19
405.541	82.19
405.765	88.19
405.988	91.19
406.212	86.19
406.436	93.19
406.66	86.19
406.883	83.19
407.107	86.19
407.331	102.19
407.555	95.19
407.778	87.19
408.002	77.19
408.226	85.19
408.449	78.19
408.673	72.19
408.896	76.19
409.12	95.19
409.344	91.19
409.567	95.19
409.791	88.19
410.014	96.19
410.238	85.19
410.461	89.19
410.685	74.19
410.908	93.19
411.132	81.19
411.355	73.19
411.578	75.19
411.802	78.19
412.025	74.19
412.249	71.19
412.472	89.19
412.695	80.19
412.919	78.19
413.142	72.19
413.365	75.19
413.589	82.19
413.812	76.19
414.035	104.19
414.258	85.19
414.482	82.19
414.705	78.19
414.928	83.19
415.151	77.19
415.374	78.19
415.597	71.19
415.821	76.19
416.044	62.19
416.267	88.19
416.49	70.19
416.713	87.19
416.936	71.19
417.159	85.19
417.382	83.19
417.605	83.19
417.828	80.19
418.051	84.19
418.274	78.19
418.497	87.19
418.72	70.19
418.943	82.19
419.166	98.19
419.389	92.19
419.611	66.19
419.834	82.19
420.057	82.19
420.28	95.19
420.503	83.19
420.726	77.19
420.948	83.19
421.171	76.19
421.394	94.19
421.617	83.19
421.839	80.19
422.062	100.19
422.285	117.19
422.507	183.19
422.73	226.19
422.953	200.19
423.175	130.19
423.398	108.19
423.621	93.19
423.843	91.19
424.066	81.19
424.288	85.19
424.511	81.19
424.733	79.19
424.956	73.19
425.178	81.19
425.401	87.19
425.623	74.19
425.846	85.19
426.068	76.19
426.291	91.19
426.513	74.19
426.735	76.19
426.958	87.19
427.18	93.19
427.402	79.19
427.625	80.19
427.847	83.19
428.069	95.19
428.292	94.19
428.514	114.19
428.736	100.19
428.958	101.19
429.181	104.19
429.403	94.19
429.625	95.19
429.847	103.19
430.069	110.19
430.292	138.19
430.514	132.19
430.736	111.19
430.958	102.19
431.18	68.19
431.402	84.19
431.624	87.19
431.846	98.19
432.068	104.19
432.29	72.19
432.512	86.19
432.734	84.19
432.956	90.19
433.178	90.19
433.4	79.19
433.622	74.19
433.844	83.19
434.066	92.19
434.287	73.19
434.509	77.19
434.731	75.19
434.953	77.19
435.175	80.19
435.397	72.19
435.618	83.19
435.84	84.19
436.062	77.19
436.284	80.19
436.505	94.19
436.727	94.19
436.949	69.19
437.17	94.19
437.392	87.19
437.614	77.19
437.835	68.19
438.057	92.19
438.278	83.19
438.5	83.19
438.721	97.19
438.943	90.19
439.165	78.19
439.386	84.19
439.608	76.19
439.829	76.19
440.05	94.19
440.272	75.19
440.493	82.19
440.715	87.19
440.936	75.19
441.158	69.19
441.379	88.19
441.6	79.19
441.822	74.19
442.043	88.19
442.264	84.19
442.486	101.19
442.707	132.19
442.928	82.19
443.149	92.19
443.371	125.19
443.592	174.19
443.813	140.19
444.034	101.19
444.255	83.19
444.476	98.19
444.698	88.19
444.919	82.19
445.14	154.19
445.361	175.19
445.582	202.19
445.803	157.19
446.024	100.19
446.245	98.19
446.466	93.19
446.687	80.19
446.908	89.19
447.129	82.19
447.35	69.19
447.571	90.19
447.792	82.19
448.013	76.19
448.234	79.19
448.455	83.19
448.675	86.19
448.896	85.19
449.117	79.19
449.338	66.19
449.559	69.19
449.779	99.19
450	72.19
450.221	80.19
450.442	99.19
450.662	85.19
450.883	82.19
451.104	82.19
451.324	83.19
451.545	93.19
451.766	84.19
451.986	77.19
452.207	84.19
452.428	82.19
452.648	91.19
452.869	106.19
453.089	93.19
453.31	69.19
453.53	78.19
453.751	80.19
453.971	98.19
454.192	78.19
454.412	77.19
454.633	91.19
454.853	86.19
455.073	85.19
455.294	81.19
455.514	90.19
455.734	75.19
455.955	95.19
456.175	76.19
456.395	78.19
456.616	82.19
456.836	89.19
457.056	87.19
457.276	86.19
457.497	83.19
457.717	77.19
457.937	81.19
458.157	94.19
458.377	100.19
458.598	95.19
458.818	91.19
459.038	88.19
459.258	81.19
459.478	82.19
459.698	84.19
459.918	84.19
460.138	88.19
460.358	74.19
460.578	95.19
460.798	104.19
461.018	98.19
461.238	85.19
461.458	74.19
461.678	61.19
461.898	88.19
462.118	64.19
462.338	98.19
462.558	103.19
462.777	80.19
462.997	85.19
463.217	67.19
463.437	78.19
463.657	82.19
463.876	88.19
464.096	86.19
464.316	81.19
464.536	79.19
464.755	93.19
464.975	83.19
465.195	100.19
465.414	92.19
465.634	85.19
465.854	86.19
466.073	79.19
466.293	85.19
466.512	80.19
466.732	93.19
466.951	80.19
467.171	73.19
467.391	73.19
467.61	93.19
467.829	77.19
468.049	71.19
468.268	86.19
468.488	76.19
468.707	84.19
468.927	95.19
469.146	82.19
469.365	79.19
469.585	75.19
469.804	84.19
470.023	81.19
470.243	83.19
470.462	83.19
470.681	94.19
470.901	78.19
471.12	78.19
471.339	84.19
471.558	64.19
471.777	71.19
471.997	74.19
472.216	91.19
472.435	87.19
472.654	86.19
472.873	75.19
473.092	96.19
473.311	96.19
473.53	87.19
473.749	84.19
473.968	80.19
474.187	85.19
474.406	91.19
474.625	90.19
474.844	88.19
475.063	84.19
475.282	85.19
475.501	85.19
475.72	87.19
475.939	93.19
476.158	90.19
476.377	63.19
476.596	78.19
476.814	61.19
477.033	94.19
477.252	87.19
477.471	83.19
477.69	90.19
477.908	80.19
478.127	95.19
478.346	85.19
478.564	84.19
478.783	83.19
479.002	82.19
479.22	66.19
479.439	93.19
479.658	83.19
479.876	74.19
480.095	85.19
480.313	87.19
480.532	70.19
480.751	70.19
480.969	90.19
481.188	101.19
481.406	80.19
481.624	89.19
481.843	102.19
482.061	94.19
482.28	92.19
482.498	85.19
482.717	72.19
482.935	90.19
483.153	69.19
483.372	91.19
483.59	93.19
483.808	80.19
484.027	96.19
484.245	96.19
484.463	78.19
484.681	84.19
484.9	87.19
485.118	95.19
485.336	75.19
485.554	98.19
485.772	90.19
485.99	88.19
486.209	96.19
486.427	82.19
486.645	78.19
486.863	82.19
487.081	86.19
487.299	99.19
487.517	100.19
487.735	97.19
487.953	101.19
488.171	100.19
488.389	87.19
488.607	88.19
488.825	96.19
489.043	88.19
489.261	80.19
489.479	78.19
489.696	73.19
489.914	78.19
490.132	88.19
490.35	86.19
490.568	86.19
490.786	85.19
491.003	95.19
491.221	79.19
491.439	73.19
491.657	88.19
491.874	86.19
492.092	90.19
492.31	92.19
492.527	90.19
492.745	88.19
492.963	93.19
493.18	87.19
493.398	88.19
493.615	90.19
493.833	88.19
494.05	85.19
494.268	81.19
494.485	75.19
494.703	91.19
494.92	82.19
495.138	80.19
495.355	81.19
495.573	93.19
495.79	94.19
496.008	101.19
496.225	90.19
496.442	95.19
496.66	87.19
496.877	90.19
497.094	89.19
497.312	82.19
497.529	102.19
497.746	92.19
497.963	81.19
498.181	104.19
498.398	86.19
498.615	93.19
498.832	80.19
499.049	84.19
499.267	86.19
499.484	82.19
499.701	82.19
499.918	108.19
500.135	97.19
500.352	80.19
500.569	74.19
500.786	93.19
501.003	94.19
501.22	79.19
501.437	93.19
501.654	78.19
501.871	96.19
502.088	89.19
502.305	80.19
502.522	82.19
502.739	94.19
502.956	85.19
503.172	84.19
503.389	87.19
503.606	83.19
503.823	86.19
504.04	88.19
504.256	113.19
504.473	87.19
504.69	91.19
504.907	92.19
505.123	88.19
505.34	93.19
505.557	82.19
505.773	101.19
505.99	82.19
506.207	88.19
506.423	84.19
506.64	92.19
506.856	87.19
507.073	82.19
507.289	84.19
507.506	77.19
507.722	76.19
507.939	96.19
508.155	84.19
508.372	92.19
508.588	82.19
508.805	79.19
509.021	91.19
509.238	85.19
509.454	110.19
509.67	90.19
509.887	81.19
510.103	90.19
510.319	96.19
510.536	78.19
510.752	87.19
510.968	78.19
511.184	106.19
511.401	71.19
511.617	98.19
511.833	79.19
512.049	90.19
512.265	90.19
512.481	95.19
512.698	84.19
512.914	99.19
513.13	84.19
513.346	88.19
513.562	71.19
513.778	86.19
513.994	82.19
514.21	85.19
514.426	86.19
514.642	71.19
514.858	91.19
515.074	79.19
515.29	91.19
515.506	91.19
515.721	74.19
515.937	79.19
516.153	82.19
516.369	90.19
516.585	104.19
516.801	89.19
517.016	80.19
517.232	97.19
517.448	107.19
517.664	86.19
517.879	81.19
518.095	82.19
518.311	98.19
518.527	88.19
518.742	98.19
518.958	99.19
