Data from Mixnoheat3_HRD10591_00013.txt Node
Date: Fri Dec 27 15:01:37 EST 2024
User: Yrep
Spectrometer: HR+D1059
Trigger mode: 1
Integration Time (sec): 1.000000E-1
Scans to average: 1
Electric dark correction enabled: true
Nonlinearity correction enabled: false
Boxcar width: 0
XAxis mode: Wavelengths
Number of Pixels in Spectrum: 2048
>>>>>Begin Spectral Data<<<<<
223.165	-7.94
223.4	-7.94
223.635	-7.94
223.869	-16.94
224.104	-33.94
224.338	-14.94
224.573	-8.94
224.808	-9.94
225.042	-2.94
225.277	-0.94
225.511	9.06
225.746	-6.94
225.98	6.06
226.215	11.06
226.449	17.06
226.683	11.06
226.918	23.06
227.152	26.06
227.387	30.06
227.621	44.06
227.856	38.06
228.09	58.06
228.324	48.06
228.559	58.06
228.793	66.06
229.027	61.06
229.262	59.06
229.496	82.06
229.73	75.06
229.964	78.06
230.199	69.06
230.433	79.06
230.667	77.06
230.901	78.06
231.136	69.06
231.37	86.06
231.604	81.06
231.838	79.06
232.072	85.06
232.306	83.06
232.541	82.06
232.775	81.06
233.009	89.06
233.243	82.06
233.477	87.06
233.711	71.06
233.945	85.06
234.179	66.06
234.413	86.06
234.647	58.06
234.881	78.06
235.115	88.06
235.349	99.06
235.583	77.06
235.817	86.06
236.051	75.06
236.285	86.06
236.519	78.06
236.753	63.06
236.987	81.06
237.221	69.06
237.455	87.06
237.689	79.06
237.922	84.06
238.156	77.06
238.39	77.06
238.624	72.06
238.858	78.06
239.091	66.06
239.325	67.06
239.559	79.06
239.793	65.06
240.027	90.06
240.26	64.06
240.494	84.06
240.728	83.06
240.961	83.06
241.195	92.06
241.429	87.06
241.662	83.06
241.896	73.06
242.13	85.06
242.363	73.06
242.597	75.06
242.83	63.06
243.064	81.06
243.298	63.06
243.531	57.06
243.765	86.06
243.998	68.06
244.232	85.06
244.465	88.06
244.699	79.06
244.932	79.06
245.166	85.06
245.399	78.06
245.633	74.06
245.866	86.06
246.099	67.06
246.333	76.06
246.566	79.06
246.8	71.06
247.033	75.06
247.266	80.06
247.5	79.06
247.733	71.06
247.966	70.06
248.2	85.06
248.433	76.06
248.666	86.06
248.899	95.06
249.133	72.06
249.366	95.06
249.599	78.06
249.832	89.06
250.066	99.06
250.299	89.06
250.532	92.06
250.765	78.06
250.998	74.06
251.231	79.06
251.465	84.06
251.698	70.06
251.931	83.06
252.164	76.06
252.397	80.06
252.63	82.06
252.863	77.06
253.096	75.06
253.329	83.06
253.562	90.06
253.795	98.06
254.028	94.06
254.261	74.06
254.494	87.06
254.727	94.06
254.96	73.06
255.193	67.06
255.426	82.06
255.659	89.06
255.892	86.06
256.124	71.06
256.357	95.06
256.59	76.06
256.823	64.06
257.056	69.06
257.289	73.06
257.521	75.06
257.754	86.06
257.987	75.06
258.22	83.06
258.452	78.06
258.685	90.06
258.918	77.06
259.151	86.06
259.383	94.06
259.616	80.06
259.849	83.06
260.081	91.06
260.314	71.06
260.547	85.06
260.779	82.06
261.012	83.06
261.244	78.06
261.477	87.06
261.71	81.06
261.942	78.06
262.175	86.06
262.407	83.06
262.64	88.06
262.872	85.06
263.105	73.06
263.337	86.06
263.57	69.06
263.802	73.06
264.035	77.06
264.267	86.06
264.499	77.06
264.732	86.06
264.964	83.06
265.197	81.06
265.429	97.06
265.661	73.06
265.894	77.06
266.126	85.06
266.358	82.06
266.591	84.06
266.823	85.06
267.055	88.06
267.287	67.06
267.52	78.06
267.752	82.06
267.984	83.06
268.216	85.06
268.448	68.06
268.681	90.06
268.913	89.06
269.145	66.06
269.377	99.06
269.609	84.06
269.841	95.06
270.073	83.06
270.306	79.06
270.538	92.06
270.77	82.06
271.002	91.06
271.234	86.06
271.466	85.06
271.698	86.06
271.93	77.06
272.162	78.06
272.394	82.06
272.626	66.06
272.858	86.06
273.09	92.06
273.322	76.06
273.553	81.06
273.785	89.06
274.017	91.06
274.249	88.06
274.481	82.06
274.713	77.06
274.945	82.06
275.176	84.06
275.408	89.06
275.64	73.06
275.872	71.06
276.104	78.06
276.335	82.06
276.567	84.06
276.799	83.06
277.031	93.06
277.262	92.06
277.494	94.06
277.726	81.06
277.957	84.06
278.189	81.06
278.421	83.06
278.652	86.06
278.884	87.06
279.115	83.06
279.347	70.06
279.579	85.06
279.81	71.06
280.042	71.06
280.273	85.06
280.505	85.06
280.736	77.06
280.968	77.06
281.199	84.06
281.431	73.06
281.662	60.06
281.894	81.06
282.125	78.06
282.356	79.06
282.588	92.06
282.819	83.06
283.051	83.06
283.282	81.06
283.513	90.06
283.745	88.06
283.976	85.06
284.207	81.06
284.439	87.06
284.67	95.06
284.901	92.06
285.132	79.06
285.364	84.06
285.595	74.06
285.826	76.06
286.057	76.06
286.288	96.06
286.52	93.06
286.751	85.06
286.982	91.06
287.213	99.06
287.444	89.06
287.675	85.06
287.906	96.06
288.138	74.06
288.369	85.06
288.6	103.06
288.831	93.06
289.062	94.06
289.293	89.06
289.524	86.06
289.755	83.06
289.986	78.06
290.217	81.06
290.448	85.06
290.679	89.06
290.91	89.06
291.141	74.06
291.371	83.06
291.602	89.06
291.833	76.06
292.064	92.06
292.295	88.06
292.526	89.06
292.757	76.06
292.987	85.06
293.218	82.06
293.449	86.06
293.68	75.06
293.91	82.06
294.141	78.06
294.372	94.06
294.603	92.06
294.833	85.06
295.064	85.06
295.295	72.06
295.525	79.06
295.756	92.06
295.987	84.06
296.217	67.06
296.448	74.06
296.679	71.06
296.909	97.06
297.14	84.06
297.37	81.06
297.601	98.06
297.831	85.06
298.062	89.06
298.292	92.06
298.523	86.06
298.753	97.06
298.984	89.06
299.214	84.06
299.445	83.06
299.675	82.06
299.905	91.06
300.136	90.06
300.366	78.06
300.597	85.06
300.827	91.06
301.057	94.06
301.288	77.06
301.518	87.06
301.748	88.06
301.979	99.06
302.209	97.06
302.439	92.06
302.669	96.06
302.9	76.06
303.13	71.06
303.36	85.06
303.59	83.06
303.82	92.06
304.051	90.06
304.281	89.06
304.511	97.06
304.741	86.06
304.971	90.06
305.201	90.06
305.431	98.06
305.661	76.06
305.891	91.06
306.121	86.06
306.352	82.06
306.582	97.06
306.812	84.06
307.042	89.06
307.272	90.06
307.502	91.06
307.731	86.06
307.961	80.06
308.191	82.06
308.421	81.06
308.651	77.06
308.881	85.06
309.111	84.06
309.341	97.06
309.571	97.06
309.8	74.06
310.03	84.06
310.26	84.06
310.49	86.06
310.72	80.06
310.949	84.06
311.179	96.06
311.409	83.06
311.639	87.06
311.868	80.06
312.098	87.06
312.328	94.06
312.557	92.06
312.787	79.06
313.017	84.06
313.246	94.06
313.476	83.06
313.706	85.06
313.935	94.06
314.165	98.06
314.394	91.06
314.624	87.06
314.853	89.06
315.083	72.06
315.312	75.06
315.542	98.06
315.771	78.06
316.001	96.06
316.23	84.06
316.46	72.06
316.689	83.06
316.919	83.06
317.148	74.06
317.377	93.06
317.607	77.06
317.836	68.06
318.065	85.06
318.295	82.06
318.524	75.06
318.753	77.06
318.983	78.06
319.212	91.06
319.441	88.06
319.67	82.06
319.9	89.06
320.129	82.06
320.358	77.06
320.587	76.06
320.816	80.06
321.046	86.06
321.275	83.06
321.504	71.06
321.733	88.06
321.962	84.06
322.191	92.06
322.42	93.06
322.649	107.06
322.878	94.06
323.108	93.06
323.337	80.06
323.566	94.06
323.795	91.06
324.024	92.06
324.253	90.06
324.482	88.06
324.71	90.06
324.939	90.06
325.168	63.06
325.397	85.06
325.626	83.06
325.855	89.06
326.084	99.06
326.313	80.06
326.542	90.06
326.77	85.06
326.999	82.06
327.228	90.06
327.457	95.06
327.686	93.06
327.914	93.06
328.143	82.06
328.372	97.06
328.6	78.06
328.829	80.06
329.058	83.06
329.287	88.06
329.515	73.06
329.744	60.06
329.972	100.06
330.201	99.06
330.43	83.06
330.658	85.06
330.887	89.06
331.115	93.06
331.344	81.06
331.572	100.06
331.801	75.06
332.03	78.06
332.258	93.06
332.486	76.06
332.715	72.06
332.943	72.06
333.172	102.06
333.4	83.06
333.629	101.06
333.857	66.06
334.085	94.06
334.314	88.06
334.542	73.06
334.771	81.06
334.999	90.06
335.227	86.06
335.455	92.06
335.684	83.06
335.912	83.06
336.14	88.06
336.369	86.06
336.597	81.06
336.825	86.06
337.053	84.06
337.281	91.06
337.51	79.06
337.738	98.06
337.966	73.06
338.194	80.06
338.422	74.06
338.65	82.06
338.878	90.06
339.106	76.06
339.334	92.06
339.562	98.06
339.79	94.06
340.018	77.06
340.246	81.06
340.474	77.06
340.702	95.06
340.93	91.06
341.158	77.06
341.386	86.06
341.614	76.06
341.842	77.06
342.07	87.06
342.298	89.06
342.526	88.06
342.754	77.06
342.981	79.06
343.209	94.06
343.437	103.06
343.665	94.06
343.893	72.06
344.12	83.06
344.348	80.06
344.576	92.06
344.804	101.06
345.031	101.06
345.259	87.06
345.487	75.06
345.714	84.06
345.942	83.06
346.17	82.06
346.397	75.06
346.625	83.06
346.853	93.06
347.08	63.06
347.308	83.06
347.535	82.06
347.763	81.06
347.99	97.06
348.218	83.06
348.445	77.06
348.673	77.06
348.9	89.06
349.128	82.06
349.355	83.06
349.583	91.06
349.81	80.06
350.037	78.06
350.265	89.06
350.492	88.06
350.72	82.06
350.947	80.06
351.174	82.06
351.402	85.06
351.629	84.06
351.856	82.06
352.083	84.06
352.311	97.06
352.538	80.06
352.765	85.06
352.992	83.06
353.22	72.06
353.447	97.06
353.674	88.06
353.901	78.06
354.128	94.06
354.355	81.06
354.583	82.06
354.81	85.06
355.037	80.06
355.264	80.06
355.491	92.06
355.718	83.06
355.945	91.06
356.172	84.06
356.399	89.06
356.626	92.06
356.853	97.06
357.08	88.06
357.307	80.06
357.534	84.06
357.761	92.06
357.988	89.06
358.215	89.06
358.441	84.06
358.668	91.06
358.895	78.06
359.122	77.06
359.349	80.06
359.576	73.06
359.802	75.06
360.029	84.06
360.256	83.06
360.483	84.06
360.709	83.06
360.936	87.06
361.163	100.06
361.39	87.06
361.616	86.06
361.843	81.06
362.07	85.06
362.296	97.06
362.523	90.06
362.749	97.06
362.976	82.06
363.203	97.06
363.429	85.06
363.656	81.06
363.882	88.06
364.109	83.06
364.335	88.06
364.562	71.06
364.788	90.06
365.015	89.06
365.241	87.06
365.468	75.06
365.694	67.06
365.92	75.06
366.147	84.06
366.373	77.06
366.599	86.06
366.826	83.06
367.052	76.06
367.278	83.06
367.505	81.06
367.731	80.06
367.957	85.06
368.184	89.06
368.41	77.06
368.636	82.06
368.862	75.06
369.089	78.06
369.315	70.06
369.541	95.06
369.767	83.06
369.993	72.06
370.219	86.06
370.445	104.06
370.672	82.06
370.898	73.06
371.124	74.06
371.35	89.06
371.576	82.06
371.802	88.06
372.028	80.06
372.254	77.06
372.48	69.06
372.706	76.06
372.932	77.06
373.158	80.06
373.384	69.06
373.61	92.06
373.835	85.06
374.061	84.06
374.287	80.06
374.513	85.06
374.739	93.06
374.965	81.06
375.191	76.06
375.416	77.06
375.642	87.06
375.868	85.06
376.094	74.06
376.319	81.06
376.545	80.06
376.771	97.06
376.997	78.06
377.222	78.06
377.448	78.06
377.674	82.06
377.899	79.06
378.125	79.06
378.35	75.06
378.576	93.06
378.802	83.06
379.027	94.06
379.253	89.06
379.478	87.06
379.704	73.06
379.929	84.06
380.155	93.06
380.38	89.06
380.606	88.06
380.831	77.06
381.057	81.06
381.282	91.06
381.507	84.06
381.733	75.06
381.958	74.06
382.184	98.06
382.409	78.06
382.634	94.06
382.86	81.06
383.085	94.06
383.31	91.06
383.535	83.06
383.761	77.06
383.986	87.06
384.211	79.06
384.436	69.06
384.662	69.06
384.887	88.06
385.112	102.06
385.337	99.06
385.562	78.06
385.787	76.06
386.013	81.06
386.238	82.06
386.463	86.06
386.688	108.06
386.913	87.06
387.138	92.06
387.363	91.06
387.588	101.06
387.813	87.06
388.038	97.06
388.263	85.06
388.488	80.06
388.713	79.06
388.938	83.06
389.163	78.06
389.387	71.06
389.612	81.06
389.837	87.06
390.062	76.06
390.287	75.06
390.512	84.06
390.736	93.06
390.961	90.06
391.186	79.06
391.411	86.06
391.636	83.06
391.86	75.06
392.085	84.06
392.31	95.06
392.534	73.06
392.759	82.06
392.984	105.06
393.208	106.06
393.433	123.06
393.658	111.06
393.882	91.06
394.107	87.06
394.331	84.06
394.556	84.06
394.78	72.06
395.005	90.06
395.229	85.06
395.454	89.06
395.678	84.06
395.903	84.06
396.127	91.06
396.352	100.06
396.576	81.06
396.801	98.06
397.025	90.06
397.249	69.06
397.474	85.06
397.698	79.06
397.922	95.06
398.147	78.06
398.371	79.06
398.595	74.06
398.82	99.06
399.044	82.06
399.268	83.06
399.492	83.06
399.717	89.06
399.941	78.06
400.165	80.06
400.389	83.06
400.613	81.06
400.837	92.06
401.062	85.06
401.286	80.06
401.51	90.06
401.734	85.06
401.958	87.06
402.182	80.06
402.406	93.06
402.63	80.06
402.854	90.06
403.078	92.06
403.302	76.06
403.526	104.06
403.75	102.06
403.974	95.06
404.198	103.06
404.422	109.06
404.645	129.06
404.869	113.06
405.093	101.06
405.317	110.06
405.541	75.06
405.765	88.06
405.988	84.06
406.212	84.06
406.436	78.06
406.66	93.06
406.883	98.06
407.107	72.06
407.331	87.06
407.555	92.06
407.778	68.06
408.002	69.06
408.226	82.06
408.449	89.06
408.673	82.06
408.896	74.06
409.12	92.06
409.344	105.06
409.567	101.06
409.791	91.06
410.014	84.06
410.238	68.06
410.461	74.06
410.685	90.06
410.908	78.06
411.132	90.06
411.355	74.06
411.578	64.06
411.802	77.06
412.025	91.06
412.249	83.06
412.472	78.06
412.695	89.06
412.919	75.06
413.142	91.06
413.365	75.06
413.589	87.06
413.812	90.06
414.035	85.06
414.258	67.06
414.482	76.06
414.705	84.06
414.928	82.06
415.151	79.06
415.374	85.06
415.597	82.06
415.821	77.06
416.044	80.06
416.267	81.06
416.49	78.06
416.713	77.06
416.936	72.06
417.159	86.06
417.382	73.06
417.605	82.06
417.828	81.06
418.051	72.06
418.274	81.06
418.497	81.06
418.72	74.06
418.943	99.06
419.166	68.06
419.389	73.06
419.611	85.06
419.834	75.06
420.057	80.06
420.28	81.06
420.503	87.06
420.726	84.06
420.948	89.06
421.171	87.06
421.394	85.06
421.617	81.06
421.839	91.06
422.062	102.06
422.285	105.06
422.507	120.06
422.73	139.06
422.953	136.06
423.175	111.06
423.398	91.06
423.621	99.06
423.843	82.06
424.066	86.06
424.288	68.06
424.511	81.06
424.733	83.06
424.956	90.06
425.178	79.06
425.401	79.06
425.623	88.06
425.846	75.06
426.068	91.06
426.291	86.06
426.513	82.06
426.735	89.06
426.958	101.06
427.18	91.06
427.402	101.06
427.625	85.06
427.847	84.06
428.069	94.06
428.292	94.06
428.514	94.06
428.736	73.06
428.958	102.06
429.181	89.06
429.403	72.06
429.625	84.06
429.847	92.06
430.069	94.06
430.292	103.06
430.514	91.06
430.736	89.06
430.958	97.06
431.18	68.06
431.402	91.06
431.624	83.06
431.846	101.06
432.068	105.06
432.29	84.06
432.512	75.06
432.734	78.06
432.956	82.06
433.178	87.06
433.4	97.06
433.622	80.06
433.844	83.06
434.066	88.06
434.287	84.06
434.509	76.06
434.731	101.06
434.953	92.06
435.175	86.06
435.397	76.06
435.618	76.06
435.84	86.06
436.062	83.06
436.284	88.06
436.505	82.06
436.727	94.06
436.949	75.06
437.17	69.06
437.392	77.06
437.614	83.06
437.835	73.06
438.057	84.06
438.278	86.06
438.5	82.06
438.721	86.06
438.943	85.06
439.165	69.06
439.386	80.06
439.608	89.06
439.829	74.06
440.05	92.06
440.272	88.06
440.493	96.06
440.715	67.06
440.936	81.06
441.158	86.06
441.379	76.06
441.6	86.06
441.822	88.06
442.043	97.06
442.264	77.06
442.486	88.06
442.707	91.06
442.928	110.06
443.149	80.06
443.371	93.06
443.592	102.06
443.813	107.06
444.034	91.06
444.255	83.06
444.476	81.06
444.698	86.06
444.919	95.06
445.14	141.06
445.361	133.06
445.582	126.06
445.803	99.06
446.024	91.06
446.245	85.06
446.466	93.06
446.687	77.06
446.908	90.06
447.129	71.06
447.35	74.06
447.571	75.06
447.792	99.06
448.013	85.06
448.234	73.06
448.455	94.06
448.675	83.06
448.896	78.06
449.117	87.06
449.338	93.06
449.559	81.06
449.779	65.06
450	77.06
450.221	61.06
450.442	82.06
450.662	87.06
450.883	75.06
451.104	86.06
451.324	94.06
451.545	85.06
451.766	87.06
451.986	95.06
452.207	106.06
452.428	77.06
452.648	94.06
452.869	98.06
453.089	78.06
453.31	81.06
453.53	75.06
453.751	81.06
453.971	89.06
454.192	74.06
454.412	89.06
454.633	81.06
454.853	80.06
455.073	88.06
455.294	89.06
455.514	77.06
455.734	80.06
455.955	93.06
456.175	75.06
456.395	78.06
456.616	75.06
456.836	84.06
457.056	88.06
457.276	79.06
457.497	87.06
457.717	79.06
457.937	85.06
458.157	78.06
458.377	85.06
458.598	87.06
458.818	71.06
459.038	90.06
459.258	95.06
459.478	79.06
459.698	79.06
459.918	80.06
460.138	81.06
460.358	81.06
460.578	74.06
460.798	97.06
461.018	89.06
461.238	81.06
461.458	77.06
461.678	81.06
461.898	79.06
462.118	86.06
462.338	85.06
462.558	83.06
462.777	87.06
462.997	72.06
463.217	87.06
463.437	83.06
463.657	67.06
463.876	79.06
464.096	72.06
464.316	93.06
464.536	81.06
464.755	93.06
464.975	87.06
465.195	79.06
465.414	84.06
465.634	80.06
465.854	86.06
466.073	89.06
466.293	91.06
466.512	84.06
466.732	83.06
466.951	81.06
467.171	85.06
467.391	75.06
467.61	74.06
467.829	78.06
468.049	88.06
468.268	97.06
468.488	85.06
468.707	74.06
468.927	82.06
469.146	88.06
469.365	73.06
469.585	82.06
469.804	78.06
470.023	86.06
470.243	99.06
470.462	90.06
470.681	87.06
470.901	94.06
471.12	84.06
471.339	75.06
471.558	82.06
471.777	78.06
471.997	77.06
472.216	73.06
472.435	78.06
472.654	91.06
472.873	101.06
473.092	92.06
473.311	77.06
473.53	76.06
473.749	85.06
473.968	85.06
474.187	76.06
474.406	92.06
474.625	78.06
474.844	80.06
475.063	97.06
475.282	84.06
475.501	66.06
475.72	90.06
475.939	93.06
476.158	81.06
476.377	90.06
476.596	86.06
476.814	91.06
477.033	75.06
477.252	69.06
477.471	91.06
477.69	79.06
477.908	77.06
478.127	99.06
478.346	98.06
478.564	85.06
478.783	95.06
479.002	95.06
479.22	90.06
479.439	75.06
479.658	99.06
479.876	79.06
480.095	82.06
480.313	81.06
480.532	84.06
480.751	94.06
480.969	77.06
481.188	77.06
481.406	75.06
481.624	89.06
481.843	96.06
482.061	73.06
482.28	81.06
482.498	76.06
482.717	89.06
482.935	82.06
483.153	82.06
483.372	83.06
483.59	78.06
483.808	74.06
484.027	92.06
484.245	88.06
484.463	81.06
484.681	84.06
484.9	77.06
485.118	90.06
485.336	83.06
485.554	88.06
485.772	85.06
485.99	81.06
486.209	79.06
486.427	76.06
486.645	103.06
486.863	87.06
487.081	79.06
487.299	83.06
487.517	82.06
487.735	74.06
487.953	87.06
488.171	91.06
488.389	87.06
488.607	87.06
488.825	87.06
489.043	78.06
489.261	87.06
489.479	84.06
489.696	91.06
489.914	80.06
490.132	83.06
490.35	82.06
490.568	79.06
490.786	71.06
491.003	95.06
491.221	89.06
491.439	75.06
491.657	97.06
491.874	79.06
492.092	90.06
492.31	93.06
492.527	85.06
492.745	76.06
492.963	87.06
493.18	85.06
493.398	79.06
493.615	87.06
493.833	71.06
494.05	83.06
494.268	85.06
494.485	85.06
494.703	92.06
494.92	91.06
495.138	87.06
495.355	102.06
495.573	92.06
495.79	86.06
496.008	95.06
496.225	83.06
496.442	83.06
496.66	78.06
496.877	94.06
497.094	88.06
497.312	71.06
497.529	82.06
497.746	69.06
497.963	87.06
498.181	76.06
498.398	87.06
498.615	86.06
498.832	84.06
499.049	86.06
499.267	99.06
499.484	75.06
499.701	77.06
499.918	97.06
500.135	90.06
500.352	88.06
500.569	75.06
500.786	90.06
501.003	78.06
501.22	85.06
501.437	78.06
501.654	85.06
501.871	93.06
502.088	78.06
502.305	87.06
502.522	82.06
502.739	82.06
502.956	84.06
503.172	73.06
503.389	79.06
503.606	86.06
503.823	97.06
504.04	93.06
504.256	89.06
504.473	82.06
504.69	94.06
504.907	80.06
505.123	90.06
505.34	92.06
505.557	87.06
505.773	89.06
505.99	77.06
506.207	88.06
506.423	84.06
506.64	85.06
506.856	74.06
507.073	88.06
507.289	90.06
507.506	106.06
507.722	87.06
507.939	77.06
508.155	88.06
508.372	87.06
508.588	82.06
508.805	98.06
509.021	84.06
509.238	84.06
509.454	100.06
509.67	91.06
509.887	79.06
510.103	87.06
510.319	83.06
510.536	80.06
510.752	89.06
510.968	90.06
511.184	88.06
511.401	80.06
511.617	80.06
511.833	80.06
512.049	87.06
512.265	81.06
512.481	75.06
512.698	91.06
512.914	95.06
513.13	88.06
513.346	89.06
513.562	82.06
513.778	79.06
513.994	83.06
514.21	94.06
514.426	80.06
514.642	85.06
514.858	84.06
515.074	83.06
515.29	86.06
515.506	92.06
515.721	79.06
515.937	93.06
516.153	94.06
516.369	81.06
516.585	78.06
516.801	85.06
517.016	70.06
517.232	91.06
517.448	77.06
517.664	77.06
517.879	99.06
518.095	92.06
518.311	86.06
518.527	89.06
518.742	88.06
518.958	88.06
519.173	91.06
519.389	80.06
519.605	107.06
