Data from Mixnoheat3_HRD10591_00010.txt Node
Date: Fri Dec 27 15:01:34 EST 2024
User: Yrep
Spectrometer: HR+D1059
Trigger mode: 1
Integration Time (sec): 1.000000E-1
Scans to average: 1
Electric dark correction enabled: true
Nonlinearity correction enabled: false
Boxcar width: 0
XAxis mode: Wavelengths
Number of Pixels in Spectrum: 2048
>>>>>Begin Spectral Data<<<<<
223.165	-14.88
223.4	-14.88
223.635	-14.88
223.869	-7.88
224.104	-20.88
224.338	-28.88
224.573	-19.88
224.808	-11.88
225.042	-4.88
225.277	-2.88
225.511	-7.88
225.746	-0.88
225.98	-6.88
226.215	15.12
226.449	15.12
226.683	30.12
226.918	21.12
227.152	46.12
227.387	36.12
227.621	47.12
227.856	35.12
228.09	48.12
228.324	53.12
228.559	71.12
228.793	61.12
229.027	55.12
229.262	73.12
229.496	73.12
229.73	67.12
229.964	67.12
230.199	59.12
230.433	77.12
230.667	84.12
230.901	77.12
231.136	69.12
231.37	75.12
231.604	79.12
231.838	76.12
232.072	74.12
232.306	76.12
232.541	75.12
232.775	83.12
233.009	80.12
233.243	77.12
233.477	87.12
233.711	92.12
233.945	70.12
234.179	85.12
234.413	93.12
234.647	79.12
234.881	83.12
235.115	75.12
235.349	74.12
235.583	79.12
235.817	82.12
236.051	73.12
236.285	73.12
236.519	70.12
236.753	60.12
236.987	87.12
237.221	81.12
237.455	79.12
237.689	77.12
237.922	68.12
238.156	70.12
238.39	85.12
238.624	80.12
238.858	91.12
239.091	77.12
239.325	82.12
239.559	75.12
239.793	79.12
240.027	70.12
240.26	80.12
240.494	68.12
240.728	71.12
240.961	71.12
241.195	84.12
241.429	72.12
241.662	76.12
241.896	84.12
242.13	63.12
242.363	69.12
242.597	90.12
242.83	85.12
243.064	74.12
243.298	90.12
243.531	71.12
243.765	74.12
243.998	72.12
244.232	68.12
244.465	81.12
244.699	76.12
244.932	72.12
245.166	79.12
245.399	69.12
245.633	86.12
245.866	83.12
246.099	82.12
246.333	62.12
246.566	76.12
246.8	76.12
247.033	65.12
247.266	80.12
247.5	73.12
247.733	53.12
247.966	69.12
248.2	80.12
248.433	99.12
248.666	72.12
248.899	66.12
249.133	72.12
249.366	85.12
249.599	83.12
249.832	91.12
250.066	75.12
250.299	76.12
250.532	63.12
250.765	82.12
250.998	85.12
251.231	87.12
251.465	71.12
251.698	76.12
251.931	81.12
252.164	82.12
252.397	76.12
252.63	74.12
252.863	83.12
253.096	92.12
253.329	82.12
253.562	78.12
253.795	87.12
254.028	72.12
254.261	68.12
254.494	89.12
254.727	100.12
254.96	82.12
255.193	82.12
255.426	93.12
255.659	78.12
255.892	89.12
256.124	81.12
256.357	74.12
256.59	86.12
256.823	83.12
257.056	81.12
257.289	75.12
257.521	78.12
257.754	85.12
257.987	81.12
258.22	65.12
258.452	64.12
258.685	81.12
258.918	83.12
259.151	82.12
259.383	72.12
259.616	72.12
259.849	69.12
260.081	76.12
260.314	85.12
260.547	94.12
260.779	89.12
261.012	80.12
261.244	57.12
261.477	80.12
261.71	70.12
261.942	72.12
262.175	94.12
262.407	86.12
262.64	90.12
262.872	80.12
263.105	89.12
263.337	69.12
263.57	77.12
263.802	74.12
264.035	91.12
264.267	72.12
264.499	73.12
264.732	63.12
264.964	85.12
265.197	72.12
265.429	82.12
265.661	79.12
265.894	68.12
266.126	88.12
266.358	75.12
266.591	66.12
266.823	86.12
267.055	83.12
267.287	82.12
267.52	89.12
267.752	74.12
267.984	85.12
268.216	83.12
268.448	77.12
268.681	76.12
268.913	80.12
269.145	73.12
269.377	70.12
269.609	67.12
269.841	85.12
270.073	88.12
270.306	77.12
270.538	80.12
270.77	76.12
271.002	105.12
271.234	80.12
271.466	83.12
271.698	78.12
271.93	70.12
272.162	74.12
272.394	96.12
272.626	68.12
272.858	94.12
273.09	80.12
273.322	75.12
273.553	88.12
273.785	81.12
274.017	84.12
274.249	80.12
274.481	102.12
274.713	75.12
274.945	70.12
275.176	78.12
275.408	91.12
275.64	85.12
275.872	79.12
276.104	81.12
276.335	66.12
276.567	87.12
276.799	78.12
277.031	72.12
277.262	78.12
277.494	82.12
277.726	85.12
277.957	103.12
278.189	83.12
278.421	94.12
278.652	93.12
278.884	75.12
279.115	74.12
279.347	85.12
279.579	81.12
279.81	78.12
280.042	87.12
280.273	79.12
280.505	78.12
280.736	72.12
280.968	77.12
281.199	83.12
281.431	79.12
281.662	89.12
281.894	94.12
282.125	85.12
282.356	86.12
282.588	87.12
282.819	81.12
283.051	87.12
283.282	98.12
283.513	88.12
283.745	87.12
283.976	79.12
284.207	88.12
284.439	95.12
284.67	79.12
284.901	74.12
285.132	93.12
285.364	79.12
285.595	70.12
285.826	86.12
286.057	87.12
286.288	76.12
286.52	87.12
286.751	74.12
286.982	76.12
287.213	87.12
287.444	68.12
287.675	83.12
287.906	89.12
288.138	74.12
288.369	84.12
288.6	69.12
288.831	73.12
289.062	97.12
289.293	85.12
289.524	66.12
289.755	68.12
289.986	91.12
290.217	88.12
290.448	79.12
290.679	87.12
290.91	94.12
291.141	88.12
291.371	83.12
291.602	93.12
291.833	77.12
292.064	81.12
292.295	82.12
292.526	65.12
292.757	84.12
292.987	87.12
293.218	80.12
293.449	83.12
293.68	83.12
293.91	85.12
294.141	79.12
294.372	75.12
294.603	79.12
294.833	74.12
295.064	79.12
295.295	93.12
295.525	87.12
295.756	84.12
295.987	91.12
296.217	76.12
296.448	79.12
296.679	82.12
296.909	86.12
297.14	75.12
297.37	92.12
297.601	87.12
297.831	74.12
298.062	93.12
298.292	93.12
298.523	86.12
298.753	90.12
298.984	79.12
299.214	75.12
299.445	79.12
299.675	69.12
299.905	96.12
300.136	84.12
300.366	76.12
300.597	75.12
300.827	87.12
301.057	88.12
301.288	82.12
301.518	93.12
301.748	86.12
301.979	104.12
302.209	88.12
302.439	95.12
302.669	92.12
302.9	91.12
303.13	87.12
303.36	86.12
303.59	79.12
303.82	91.12
304.051	86.12
304.281	86.12
304.511	69.12
304.741	80.12
304.971	95.12
305.201	73.12
305.431	80.12
305.661	91.12
305.891	73.12
306.121	84.12
306.352	67.12
306.582	87.12
306.812	75.12
307.042	81.12
307.272	85.12
307.502	101.12
307.731	88.12
307.961	87.12
308.191	89.12
308.421	102.12
308.651	80.12
308.881	79.12
309.111	74.12
309.341	86.12
309.571	90.12
309.8	76.12
310.03	82.12
310.26	79.12
310.49	73.12
310.72	76.12
310.949	63.12
311.179	73.12
311.409	94.12
311.639	83.12
311.868	104.12
312.098	104.12
312.328	93.12
312.557	78.12
312.787	78.12
313.017	93.12
313.246	79.12
313.476	83.12
313.706	84.12
313.935	83.12
314.165	86.12
314.394	80.12
314.624	87.12
314.853	80.12
315.083	95.12
315.312	90.12
315.542	88.12
315.771	86.12
316.001	91.12
316.23	80.12
316.46	77.12
316.689	82.12
316.919	72.12
317.148	84.12
317.377	79.12
317.607	90.12
317.836	85.12
318.065	82.12
318.295	82.12
318.524	89.12
318.753	83.12
318.983	85.12
319.212	83.12
319.441	93.12
319.67	98.12
319.9	84.12
320.129	93.12
320.358	79.12
320.587	69.12
320.816	80.12
321.046	87.12
321.275	85.12
321.504	90.12
321.733	99.12
321.962	71.12
322.191	81.12
322.42	79.12
322.649	77.12
322.878	92.12
323.108	68.12
323.337	80.12
323.566	78.12
323.795	85.12
324.024	83.12
324.253	102.12
324.482	98.12
324.71	95.12
324.939	83.12
325.168	79.12
325.397	72.12
325.626	90.12
325.855	79.12
326.084	87.12
326.313	85.12
326.542	75.12
326.77	85.12
326.999	88.12
327.228	72.12
327.457	78.12
327.686	82.12
327.914	78.12
328.143	85.12
328.372	85.12
328.6	84.12
328.829	79.12
329.058	85.12
329.287	79.12
329.515	88.12
329.744	85.12
329.972	87.12
330.201	99.12
330.43	75.12
330.658	79.12
330.887	93.12
331.115	74.12
331.344	88.12
331.572	93.12
331.801	84.12
332.03	84.12
332.258	101.12
332.486	71.12
332.715	91.12
332.943	84.12
333.172	83.12
333.4	85.12
333.629	82.12
333.857	83.12
334.085	80.12
334.314	81.12
334.542	98.12
334.771	91.12
334.999	89.12
335.227	83.12
335.455	90.12
335.684	95.12
335.912	88.12
336.14	82.12
336.369	80.12
336.597	94.12
336.825	83.12
337.053	88.12
337.281	78.12
337.51	101.12
337.738	91.12
337.966	90.12
338.194	78.12
338.422	75.12
338.65	78.12
338.878	97.12
339.106	80.12
339.334	82.12
339.562	80.12
339.79	74.12
340.018	81.12
340.246	78.12
340.474	70.12
340.702	84.12
340.93	79.12
341.158	81.12
341.386	82.12
341.614	84.12
341.842	85.12
342.07	89.12
342.298	87.12
342.526	99.12
342.754	88.12
342.981	76.12
343.209	73.12
343.437	99.12
343.665	95.12
343.893	95.12
344.12	88.12
344.348	90.12
344.576	87.12
344.804	102.12
345.031	73.12
345.259	86.12
345.487	95.12
345.714	71.12
345.942	82.12
346.17	79.12
346.397	79.12
346.625	82.12
346.853	77.12
347.08	84.12
347.308	89.12
347.535	86.12
347.763	96.12
347.99	94.12
348.218	80.12
348.445	84.12
348.673	88.12
348.9	85.12
349.128	74.12
349.355	84.12
349.583	84.12
349.81	85.12
350.037	72.12
350.265	91.12
350.492	94.12
350.72	91.12
350.947	74.12
351.174	99.12
351.402	85.12
351.629	88.12
351.856	79.12
352.083	91.12
352.311	98.12
352.538	82.12
352.765	85.12
352.992	89.12
353.22	79.12
353.447	87.12
353.674	98.12
353.901	79.12
354.128	92.12
354.355	86.12
354.583	78.12
354.81	87.12
355.037	92.12
355.264	92.12
355.491	92.12
355.718	84.12
355.945	78.12
356.172	98.12
356.399	82.12
356.626	76.12
356.853	89.12
357.08	88.12
357.307	88.12
357.534	85.12
357.761	92.12
357.988	78.12
358.215	88.12
358.441	91.12
358.668	90.12
358.895	75.12
359.122	95.12
359.349	76.12
359.576	83.12
359.802	83.12
360.029	84.12
360.256	99.12
360.483	84.12
360.709	95.12
360.936	99.12
361.163	87.12
361.39	94.12
361.616	99.12
361.843	79.12
362.07	86.12
362.296	80.12
362.523	80.12
362.749	92.12
362.976	85.12
363.203	84.12
363.429	88.12
363.656	92.12
363.882	77.12
364.109	82.12
364.335	88.12
364.562	98.12
364.788	85.12
365.015	91.12
365.241	81.12
365.468	92.12
365.694	97.12
365.92	86.12
366.147	80.12
366.373	82.12
366.599	87.12
366.826	66.12
367.052	70.12
367.278	95.12
367.505	75.12
367.731	82.12
367.957	89.12
368.184	94.12
368.41	86.12
368.636	77.12
368.862	75.12
369.089	84.12
369.315	82.12
369.541	92.12
369.767	81.12
369.993	76.12
370.219	85.12
370.445	76.12
370.672	85.12
370.898	87.12
371.124	73.12
371.35	78.12
371.576	75.12
371.802	79.12
372.028	89.12
372.254	87.12
372.48	97.12
372.706	72.12
372.932	82.12
373.158	80.12
373.384	88.12
373.61	92.12
373.835	86.12
374.061	78.12
374.287	84.12
374.513	73.12
374.739	92.12
374.965	83.12
375.191	94.12
375.416	80.12
375.642	91.12
375.868	89.12
376.094	82.12
376.319	88.12
376.545	77.12
376.771	78.12
376.997	80.12
377.222	95.12
377.448	72.12
377.674	91.12
377.899	92.12
378.125	73.12
378.35	84.12
378.576	94.12
378.802	85.12
379.027	80.12
379.253	84.12
379.478	83.12
379.704	100.12
379.929	86.12
380.155	81.12
380.38	71.12
380.606	80.12
380.831	75.12
381.057	84.12
381.282	83.12
381.507	78.12
381.733	82.12
381.958	86.12
382.184	77.12
382.409	87.12
382.634	89.12
382.86	78.12
383.085	101.12
383.31	95.12
383.535	96.12
383.761	87.12
383.986	79.12
384.211	77.12
384.436	95.12
384.662	90.12
384.887	68.12
385.112	75.12
385.337	77.12
385.562	88.12
385.787	87.12
386.013	75.12
386.238	90.12
386.463	90.12
386.688	95.12
386.913	91.12
387.138	70.12
387.363	88.12
387.588	103.12
387.813	94.12
388.038	88.12
388.263	90.12
388.488	73.12
388.713	92.12
388.938	80.12
389.163	94.12
389.387	68.12
389.612	69.12
389.837	83.12
390.062	81.12
390.287	84.12
390.512	82.12
390.736	88.12
390.961	86.12
391.186	77.12
391.411	92.12
391.636	85.12
391.86	87.12
392.085	80.12
392.31	77.12
392.534	94.12
392.759	96.12
392.984	94.12
393.208	105.12
393.433	114.12
393.658	99.12
393.882	88.12
394.107	85.12
394.331	95.12
394.556	88.12
394.78	89.12
395.005	94.12
395.229	87.12
395.454	77.12
395.678	91.12
395.903	107.12
396.127	90.12
396.352	84.12
396.576	99.12
396.801	106.12
397.025	102.12
397.249	105.12
397.474	94.12
397.698	73.12
397.922	90.12
398.147	88.12
398.371	82.12
398.595	73.12
398.82	95.12
399.044	84.12
399.268	95.12
399.492	93.12
399.717	104.12
399.941	93.12
400.165	85.12
400.389	76.12
400.613	75.12
400.837	74.12
401.062	89.12
401.286	103.12
401.51	80.12
401.734	71.12
401.958	91.12
402.182	79.12
402.406	90.12
402.63	78.12
402.854	96.12
403.078	86.12
403.302	89.12
403.526	91.12
403.75	89.12
403.974	71.12
404.198	112.12
404.422	118.12
404.645	134.12
404.869	135.12
405.093	114.12
405.317	91.12
405.541	90.12
405.765	87.12
405.988	80.12
406.212	72.12
406.436	77.12
406.66	84.12
406.883	78.12
407.107	78.12
407.331	76.12
407.555	69.12
407.778	97.12
408.002	96.12
408.226	81.12
408.449	87.12
408.673	80.12
408.896	81.12
409.12	83.12
409.344	82.12
409.567	93.12
409.791	76.12
410.014	71.12
410.238	75.12
410.461	77.12
410.685	88.12
410.908	82.12
411.132	87.12
411.355	94.12
411.578	72.12
411.802	79.12
412.025	80.12
412.249	64.12
412.472	89.12
412.695	82.12
412.919	89.12
413.142	76.12
413.365	75.12
413.589	74.12
413.812	72.12
414.035	88.12
414.258	81.12
414.482	85.12
414.705	86.12
414.928	80.12
415.151	76.12
415.374	94.12
415.597	72.12
415.821	76.12
416.044	99.12
416.267	82.12
416.49	87.12
416.713	82.12
416.936	95.12
417.159	88.12
417.382	90.12
417.605	64.12
417.828	75.12
418.051	76.12
418.274	79.12
418.497	78.12
418.72	86.12
418.943	85.12
419.166	89.12
419.389	83.12
419.611	71.12
419.834	85.12
420.057	86.12
420.28	74.12
420.503	89.12
420.726	84.12
420.948	84.12
421.171	86.12
421.394	92.12
421.617	100.12
421.839	99.12
422.062	72.12
422.285	103.12
422.507	141.12
422.73	162.12
422.953	128.12
423.175	114.12
423.398	83.12
423.621	93.12
423.843	82.12
424.066	83.12
424.288	79.12
424.511	84.12
424.733	81.12
424.956	94.12
425.178	81.12
425.401	84.12
425.623	78.12
425.846	75.12
426.068	86.12
426.291	86.12
426.513	72.12
426.735	96.12
426.958	74.12
427.18	82.12
427.402	82.12
427.625	82.12
427.847	82.12
428.069	82.12
428.292	95.12
428.514	86.12
428.736	82.12
428.958	86.12
429.181	85.12
429.403	98.12
429.625	85.12
429.847	91.12
430.069	91.12
430.292	103.12
430.514	84.12
430.736	102.12
430.958	87.12
431.18	93.12
431.402	89.12
431.624	88.12
431.846	89.12
432.068	95.12
432.29	75.12
432.512	90.12
432.734	100.12
432.956	77.12
433.178	94.12
433.4	86.12
433.622	93.12
433.844	86.12
434.066	95.12
434.287	79.12
434.509	76.12
434.731	82.12
434.953	79.12
435.175	77.12
435.397	86.12
435.618	90.12
435.84	74.12
436.062	82.12
436.284	76.12
436.505	80.12
436.727	78.12
436.949	90.12
437.17	78.12
437.392	78.12
437.614	77.12
437.835	71.12
438.057	76.12
438.278	78.12
438.5	80.12
438.721	90.12
438.943	76.12
439.165	83.12
439.386	84.12
439.608	91.12
439.829	75.12
440.05	89.12
440.272	79.12
440.493	85.12
440.715	84.12
440.936	81.12
441.158	92.12
441.379	90.12
441.6	76.12
441.822	88.12
442.043	88.12
442.264	99.12
442.486	95.12
442.707	92.12
442.928	92.12
443.149	91.12
443.371	87.12
443.592	107.12
443.813	84.12
444.034	79.12
444.255	85.12
444.476	91.12
444.698	93.12
444.919	95.12
445.14	132.12
445.361	107.12
445.582	132.12
445.803	106.12
446.024	89.12
446.245	92.12
446.466	84.12
446.687	86.12
446.908	90.12
447.129	73.12
447.35	83.12
447.571	76.12
447.792	81.12
448.013	87.12
448.234	88.12
448.455	75.12
448.675	80.12
448.896	70.12
449.117	95.12
449.338	92.12
449.559	87.12
449.779	80.12
450	98.12
450.221	76.12
450.442	79.12
450.662	86.12
450.883	76.12
451.104	71.12
451.324	86.12
451.545	76.12
451.766	78.12
451.986	75.12
452.207	49.12
452.428	88.12
452.648	94.12
452.869	72.12
453.089	83.12
453.31	81.12
453.53	77.12
453.751	78.12
453.971	69.12
454.192	81.12
454.412	110.12
454.633	85.12
454.853	74.12
455.073	94.12
455.294	71.12
455.514	82.12
455.734	86.12
455.955	92.12
456.175	76.12
456.395	72.12
456.616	87.12
456.836	74.12
457.056	87.12
457.276	89.12
457.497	74.12
457.717	89.12
457.937	84.12
458.157	82.12
458.377	90.12
458.598	84.12
458.818	84.12
459.038	77.12
459.258	90.12
459.478	90.12
459.698	70.12
459.918	91.12
460.138	87.12
460.358	86.12
460.578	91.12
460.798	80.12
461.018	94.12
461.238	90.12
461.458	95.12
461.678	79.12
461.898	79.12
462.118	80.12
462.338	71.12
462.558	76.12
462.777	74.12
462.997	87.12
463.217	79.12
463.437	81.12
463.657	76.12
463.876	77.12
464.096	82.12
464.316	72.12
464.536	82.12
464.755	88.12
464.975	98.12
465.195	85.12
465.414	82.12
465.634	92.12
465.854	82.12
466.073	95.12
466.293	87.12
466.512	83.12
466.732	77.12
466.951	85.12
467.171	85.12
467.391	86.12
467.61	83.12
467.829	80.12
468.049	103.12
468.268	81.12
468.488	67.12
468.707	82.12
468.927	85.12
469.146	90.12
469.365	80.12
469.585	65.12
469.804	64.12
470.023	81.12
470.243	88.12
470.462	77.12
470.681	86.12
470.901	77.12
471.12	78.12
471.339	75.12
471.558	86.12
471.777	89.12
471.997	89.12
472.216	72.12
472.435	78.12
472.654	77.12
472.873	81.12
473.092	87.12
473.311	89.12
473.53	80.12
473.749	84.12
473.968	79.12
474.187	82.12
474.406	88.12
474.625	73.12
474.844	91.12
475.063	70.12
475.282	84.12
475.501	92.12
475.72	91.12
475.939	86.12
476.158	96.12
476.377	91.12
476.596	72.12
476.814	66.12
477.033	75.12
477.252	103.12
477.471	75.12
477.69	84.12
477.908	75.12
478.127	85.12
478.346	94.12
478.564	70.12
478.783	76.12
479.002	74.12
479.22	81.12
479.439	95.12
479.658	84.12
479.876	82.12
480.095	87.12
480.313	84.12
480.532	78.12
480.751	100.12
480.969	81.12
481.188	86.12
481.406	80.12
481.624	79.12
481.843	87.12
482.061	70.12
482.28	83.12
482.498	90.12
482.717	84.12
482.935	76.12
483.153	87.12
483.372	90.12
483.59	87.12
483.808	83.12
484.027	90.12
484.245	88.12
484.463	75.12
484.681	90.12
484.9	87.12
485.118	82.12
485.336	82.12
485.554	88.12
485.772	89.12
485.99	89.12
486.209	89.12
486.427	80.12
486.645	89.12
486.863	88.12
487.081	82.12
487.299	68.12
487.517	87.12
487.735	90.12
487.953	102.12
488.171	78.12
488.389	80.12
488.607	90.12
488.825	75.12
489.043	83.12
489.261	83.12
489.479	85.12
489.696	83.12
489.914	87.12
490.132	95.12
490.35	80.12
490.568	85.12
490.786	88.12
491.003	85.12
491.221	78.12
491.439	74.12
491.657	76.12
491.874	91.12
492.092	79.12
492.31	79.12
492.527	87.12
492.745	74.12
492.963	95.12
493.18	70.12
493.398	80.12
493.615	83.12
493.833	86.12
494.05	86.12
494.268	92.12
494.485	87.12
494.703	82.12
494.92	96.12
495.138	80.12
495.355	74.12
495.573	89.12
495.79	83.12
496.008	86.12
496.225	87.12
496.442	89.12
496.66	86.12
496.877	89.12
497.094	100.12
497.312	84.12
497.529	81.12
497.746	93.12
497.963	84.12
498.181	83.12
498.398	83.12
498.615	76.12
498.832	74.12
499.049	70.12
499.267	95.12
499.484	87.12
499.701	87.12
499.918	80.12
500.135	85.12
500.352	104.12
500.569	85.12
500.786	96.12
501.003	93.12
501.22	75.12
501.437	84.12
501.654	91.12
501.871	83.12
502.088	79.12
502.305	98.12
502.522	86.12
502.739	82.12
502.956	91.12
503.172	93.12
503.389	81.12
503.606	78.12
503.823	87.12
504.04	92.12
504.256	91.12
504.473	88.12
504.69	93.12
504.907	85.12
505.123	79.12
505.34	105.12
505.557	90.12
505.773	91.12
505.99	93.12
506.207	85.12
506.423	79.12
506.64	78.12
506.856	84.12
507.073	81.12
507.289	100.12
507.506	86.12
507.722	75.12
507.939	87.12
508.155	94.12
508.372	79.12
508.588	86.12
508.805	94.12
509.021	90.12
509.238	85.12
509.454	92.12
509.67	90.12
509.887	75.12
510.103	86.12
510.319	84.12
510.536	113.12
510.752	69.12
510.968	86.12
511.184	86.12
511.401	93.12
511.617	76.12
511.833	74.12
512.049	70.12
512.265	88.12
512.481	85.12
512.698	80.12
512.914	84.12
513.13	87.12
513.346	81.12
513.562	93.12
513.778	86.12
513.994	100.12
514.21	75.12
514.426	76.12
514.642	80.12
514.858	88.12
515.074	83.12
515.29	79.12
515.506	72.12
515.721	83.12
515.937	86.12
516.153	87.12
516.369	89.12
516.585	93.12
516.801	74.12
517.016	76.12
517.232	64.12
517.448	87.12
517.664	94.12
517.879	86.12
518.095	82.12
518.311	97.12
518.527	78.12
518.742	82.12
518.958	88.12
519.173	76.12
519.389	88.12
