Data from Mixnoheat3_HRD10591_00011.txt Node
Date: Fri Dec 27 15:01:35 EST 2024
User: Yrep
Spectrometer: HR+D1059
Trigger mode: 1
Integration Time (sec): 1.000000E-1
Scans to average: 1
Electric dark correction enabled: true
Nonlinearity correction enabled: false
Boxcar width: 0
XAxis mode: Wavelengths
Number of Pixels in Spectrum: 2048
>>>>>Begin Spectral Data<<<<<
223.165	-14.31
223.4	-14.31
223.635	-14.31
223.869	-9.31
224.104	-16.31
224.338	-20.31
224.573	-5.31
224.808	-26.31
225.042	-6.31
225.277	-5.31
225.511	-6.31
225.746	1.69
225.98	14.69
226.215	2.69
226.449	14.69
226.683	30.69
226.918	22.69
227.152	22.69
227.387	41.69
227.621	31.69
227.856	48.69
228.09	27.69
228.324	41.69
228.559	58.69
228.793	59.69
229.027	58.69
229.262	63.69
229.496	67.69
229.73	64.69
229.964	80.69
230.199	70.69
230.433	74.69
230.667	69.69
230.901	73.69
231.136	67.69
231.37	86.69
231.604	81.69
231.838	65.69
232.072	71.69
232.306	80.69
232.541	75.69
232.775	61.69
233.009	66.69
233.243	69.69
233.477	77.69
233.711	85.69
233.945	73.69
234.179	78.69
234.413	71.69
234.647	73.69
234.881	81.69
235.115	97.69
235.349	68.69
235.583	81.69
235.817	90.69
236.051	71.69
236.285	74.69
236.519	52.69
236.753	74.69
236.987	85.69
237.221	81.69
237.455	79.69
237.689	80.69
237.922	61.69
238.156	70.69
238.39	62.69
238.624	66.69
238.858	75.69
239.091	67.69
239.325	77.69
239.559	69.69
239.793	67.69
240.027	70.69
240.26	81.69
240.494	72.69
240.728	65.69
240.961	66.69
241.195	64.69
241.429	77.69
241.662	72.69
241.896	71.69
242.13	65.69
242.363	55.69
242.597	71.69
242.83	72.69
243.064	69.69
243.298	79.69
243.531	72.69
243.765	54.69
243.998	73.69
244.232	58.69
244.465	78.69
244.699	72.69
244.932	83.69
245.166	89.69
245.399	67.69
245.633	67.69
245.866	82.69
246.099	64.69
246.333	70.69
246.566	74.69
246.8	74.69
247.033	77.69
247.266	70.69
247.5	69.69
247.733	68.69
247.966	74.69
248.2	72.69
248.433	77.69
248.666	69.69
248.899	72.69
249.133	81.69
249.366	66.69
249.599	67.69
249.832	74.69
250.066	83.69
250.299	86.69
250.532	83.69
250.765	69.69
250.998	57.69
251.231	73.69
251.465	72.69
251.698	72.69
251.931	78.69
252.164	71.69
252.397	71.69
252.63	79.69
252.863	83.69
253.096	81.69
253.329	97.69
253.562	81.69
253.795	77.69
254.028	69.69
254.261	65.69
254.494	70.69
254.727	80.69
254.96	80.69
255.193	79.69
255.426	90.69
255.659	71.69
255.892	78.69
256.124	70.69
256.357	78.69
256.59	80.69
256.823	81.69
257.056	77.69
257.289	75.69
257.521	78.69
257.754	74.69
257.987	70.69
258.22	86.69
258.452	92.69
258.685	69.69
258.918	77.69
259.151	75.69
259.383	75.69
259.616	73.69
259.849	74.69
260.081	77.69
260.314	78.69
260.547	78.69
260.779	66.69
261.012	71.69
261.244	69.69
261.477	86.69
261.71	77.69
261.942	65.69
262.175	82.69
262.407	72.69
262.64	89.69
262.872	69.69
263.105	82.69
263.337	71.69
263.57	81.69
263.802	83.69
264.035	78.69
264.267	82.69
264.499	75.69
264.732	64.69
264.964	80.69
265.197	78.69
265.429	67.69
265.661	75.69
265.894	68.69
266.126	87.69
266.358	99.69
266.591	87.69
266.823	75.69
267.055	77.69
267.287	81.69
267.52	87.69
267.752	89.69
267.984	83.69
268.216	85.69
268.448	85.69
268.681	87.69
268.913	81.69
269.145	73.69
269.377	79.69
269.609	82.69
269.841	73.69
270.073	71.69
270.306	75.69
270.538	65.69
270.77	59.69
271.002	71.69
271.234	80.69
271.466	66.69
271.698	79.69
271.93	77.69
272.162	71.69
272.394	76.69
272.626	69.69
272.858	81.69
273.09	77.69
273.322	86.69
273.553	66.69
273.785	75.69
274.017	78.69
274.249	83.69
274.481	73.69
274.713	93.69
274.945	73.69
275.176	73.69
275.408	71.69
275.64	83.69
275.872	80.69
276.104	83.69
276.335	85.69
276.567	84.69
276.799	77.69
277.031	66.69
277.262	72.69
277.494	91.69
277.726	82.69
277.957	77.69
278.189	69.69
278.421	73.69
278.652	75.69
278.884	71.69
279.115	70.69
279.347	78.69
279.579	73.69
279.81	65.69
280.042	79.69
280.273	88.69
280.505	77.69
280.736	68.69
280.968	74.69
281.199	75.69
281.431	83.69
281.662	85.69
281.894	69.69
282.125	81.69
282.356	65.69
282.588	76.69
282.819	73.69
283.051	93.69
283.282	76.69
283.513	81.69
283.745	90.69
283.976	72.69
284.207	85.69
284.439	75.69
284.67	83.69
284.901	77.69
285.132	69.69
285.364	67.69
285.595	74.69
285.826	78.69
286.057	88.69
286.288	87.69
286.52	100.69
286.751	75.69
286.982	83.69
287.213	82.69
287.444	78.69
287.675	73.69
287.906	74.69
288.138	74.69
288.369	62.69
288.6	84.69
288.831	93.69
289.062	102.69
289.293	82.69
289.524	86.69
289.755	74.69
289.986	78.69
290.217	81.69
290.448	75.69
290.679	90.69
290.91	78.69
291.141	67.69
291.371	74.69
291.602	93.69
291.833	81.69
292.064	83.69
292.295	98.69
292.526	90.69
292.757	81.69
292.987	82.69
293.218	110.69
293.449	89.69
293.68	81.69
293.91	76.69
294.141	75.69
294.372	94.69
294.603	70.69
294.833	73.69
295.064	75.69
295.295	85.69
295.525	73.69
295.756	81.69
295.987	67.69
296.217	69.69
296.448	81.69
296.679	79.69
296.909	89.69
297.14	88.69
297.37	77.69
297.601	69.69
297.831	78.69
298.062	94.69
298.292	69.69
298.523	82.69
298.753	81.69
298.984	74.69
299.214	81.69
299.445	89.69
299.675	82.69
299.905	77.69
300.136	73.69
300.366	77.69
300.597	73.69
300.827	75.69
301.057	77.69
301.288	63.69
301.518	73.69
301.748	70.69
301.979	105.69
302.209	81.69
302.439	73.69
302.669	78.69
302.9	73.69
303.13	75.69
303.36	93.69
303.59	73.69
303.82	90.69
304.051	96.69
304.281	92.69
304.511	96.69
304.741	87.69
304.971	87.69
305.201	88.69
305.431	90.69
305.661	74.69
305.891	79.69
306.121	83.69
306.352	83.69
306.582	87.69
306.812	81.69
307.042	93.69
307.272	73.69
307.502	82.69
307.731	75.69
307.961	74.69
308.191	79.69
308.421	65.69
308.651	77.69
308.881	81.69
309.111	88.69
309.341	84.69
309.571	80.69
309.8	79.69
310.03	71.69
310.26	89.69
310.49	73.69
310.72	71.69
310.949	85.69
311.179	59.69
311.409	85.69
311.639	78.69
311.868	79.69
312.098	71.69
312.328	73.69
312.557	93.69
312.787	83.69
313.017	90.69
313.246	67.69
313.476	87.69
313.706	69.69
313.935	87.69
314.165	81.69
314.394	73.69
314.624	82.69
314.853	84.69
315.083	73.69
315.312	83.69
315.542	73.69
315.771	76.69
316.001	89.69
316.23	91.69
316.46	88.69
316.689	72.69
316.919	72.69
317.148	81.69
317.377	93.69
317.607	80.69
317.836	83.69
318.065	75.69
318.295	74.69
318.524	67.69
318.753	84.69
318.983	89.69
319.212	75.69
319.441	78.69
319.67	87.69
319.9	82.69
320.129	82.69
320.358	79.69
320.587	78.69
320.816	87.69
321.046	78.69
321.275	75.69
321.504	75.69
321.733	84.69
321.962	76.69
322.191	74.69
322.42	69.69
322.649	86.69
322.878	85.69
323.108	82.69
323.337	79.69
323.566	81.69
323.795	76.69
324.024	93.69
324.253	73.69
324.482	82.69
324.71	80.69
324.939	105.69
325.168	86.69
325.397	69.69
325.626	95.69
325.855	88.69
326.084	79.69
326.313	90.69
326.542	78.69
326.77	66.69
326.999	75.69
327.228	79.69
327.457	86.69
327.686	82.69
327.914	75.69
328.143	70.69
328.372	87.69
328.6	81.69
328.829	74.69
329.058	86.69
329.287	73.69
329.515	82.69
329.744	85.69
329.972	80.69
330.201	94.69
330.43	84.69
330.658	84.69
330.887	72.69
331.115	78.69
331.344	83.69
331.572	98.69
331.801	60.69
332.03	89.69
332.258	86.69
332.486	83.69
332.715	73.69
332.943	83.69
333.172	85.69
333.4	71.69
333.629	90.69
333.857	86.69
334.085	83.69
334.314	83.69
334.542	74.69
334.771	77.69
334.999	84.69
335.227	71.69
335.455	92.69
335.684	95.69
335.912	91.69
336.14	77.69
336.369	95.69
336.597	84.69
336.825	87.69
337.053	82.69
337.281	85.69
337.51	88.69
337.738	94.69
337.966	89.69
338.194	84.69
338.422	74.69
338.65	81.69
338.878	81.69
339.106	84.69
339.334	80.69
339.562	79.69
339.79	71.69
340.018	78.69
340.246	92.69
340.474	73.69
340.702	68.69
340.93	71.69
341.158	82.69
341.386	87.69
341.614	82.69
341.842	85.69
342.07	98.69
342.298	74.69
342.526	73.69
342.754	80.69
342.981	85.69
343.209	84.69
343.437	98.69
343.665	78.69
343.893	80.69
344.12	75.69
344.348	74.69
344.576	86.69
344.804	93.69
345.031	73.69
345.259	79.69
345.487	67.69
345.714	83.69
345.942	86.69
346.17	81.69
346.397	71.69
346.625	79.69
346.853	81.69
347.08	74.69
347.308	85.69
347.535	85.69
347.763	80.69
347.99	84.69
348.218	87.69
348.445	83.69
348.673	80.69
348.9	88.69
349.128	68.69
349.355	98.69
349.583	94.69
349.81	86.69
350.037	80.69
350.265	94.69
350.492	83.69
350.72	93.69
350.947	85.69
351.174	78.69
351.402	69.69
351.629	73.69
351.856	89.69
352.083	95.69
352.311	83.69
352.538	70.69
352.765	77.69
352.992	84.69
353.22	82.69
353.447	84.69
353.674	94.69
353.901	90.69
354.128	69.69
354.355	73.69
354.583	80.69
354.81	90.69
355.037	86.69
355.264	87.69
355.491	90.69
355.718	75.69
355.945	92.69
356.172	85.69
356.399	71.69
356.626	81.69
356.853	77.69
357.08	81.69
357.307	90.69
357.534	73.69
357.761	80.69
357.988	78.69
358.215	76.69
358.441	79.69
358.668	75.69
358.895	81.69
359.122	83.69
359.349	78.69
359.576	87.69
359.802	84.69
360.029	76.69
360.256	78.69
360.483	84.69
360.709	81.69
360.936	87.69
361.163	89.69
361.39	81.69
361.616	73.69
361.843	78.69
362.07	72.69
362.296	89.69
362.523	87.69
362.749	77.69
362.976	71.69
363.203	90.69
363.429	93.69
363.656	73.69
363.882	78.69
364.109	86.69
364.335	95.69
364.562	81.69
364.788	89.69
365.015	84.69
365.241	95.69
365.468	82.69
365.694	71.69
365.92	71.69
366.147	73.69
366.373	75.69
366.599	83.69
366.826	90.69
367.052	86.69
367.278	77.69
367.505	75.69
367.731	83.69
367.957	78.69
368.184	82.69
368.41	81.69
368.636	92.69
368.862	85.69
369.089	83.69
369.315	85.69
369.541	85.69
369.767	78.69
369.993	82.69
370.219	76.69
370.445	78.69
370.672	82.69
370.898	71.69
371.124	81.69
371.35	79.69
371.576	78.69
371.802	83.69
372.028	84.69
372.254	77.69
372.48	87.69
372.706	73.69
372.932	80.69
373.158	94.69
373.384	78.69
373.61	81.69
373.835	89.69
374.061	72.69
374.287	78.69
374.513	75.69
374.739	88.69
374.965	67.69
375.191	82.69
375.416	74.69
375.642	73.69
375.868	85.69
376.094	75.69
376.319	86.69
376.545	83.69
376.771	88.69
376.997	75.69
377.222	93.69
377.448	74.69
377.674	76.69
377.899	92.69
378.125	82.69
378.35	103.69
378.576	73.69
378.802	74.69
379.027	73.69
379.253	76.69
379.478	85.69
379.704	88.69
379.929	83.69
380.155	95.69
380.38	93.69
380.606	84.69
380.831	79.69
381.057	82.69
381.282	79.69
381.507	78.69
381.733	85.69
381.958	79.69
382.184	90.69
382.409	84.69
382.634	65.69
382.86	93.69
383.085	80.69
383.31	97.69
383.535	69.69
383.761	84.69
383.986	77.69
384.211	80.69
384.436	77.69
384.662	85.69
384.887	73.69
385.112	84.69
385.337	85.69
385.562	84.69
385.787	86.69
386.013	79.69
386.238	100.69
386.463	77.69
386.688	85.69
386.913	86.69
387.138	79.69
387.363	82.69
387.588	74.69
387.813	94.69
388.038	78.69
388.263	74.69
388.488	73.69
388.713	75.69
388.938	80.69
389.163	66.69
389.387	71.69
389.612	66.69
389.837	73.69
390.062	73.69
390.287	89.69
390.512	81.69
390.736	69.69
390.961	80.69
391.186	71.69
391.411	75.69
391.636	86.69
391.86	80.69
392.085	71.69
392.31	85.69
392.534	74.69
392.759	88.69
392.984	92.69
393.208	101.69
393.433	113.69
393.658	106.69
393.882	82.69
394.107	89.69
394.331	104.69
394.556	84.69
394.78	93.69
395.005	83.69
395.229	74.69
395.454	81.69
395.678	87.69
395.903	90.69
396.127	112.69
396.352	93.69
396.576	95.69
396.801	106.69
397.025	99.69
397.249	84.69
397.474	83.69
397.698	83.69
397.922	67.69
398.147	85.69
398.371	70.69
398.595	85.69
398.82	79.69
399.044	72.69
399.268	76.69
399.492	79.69
399.717	90.69
399.941	83.69
400.165	87.69
400.389	83.69
400.613	76.69
400.837	69.69
401.062	79.69
401.286	66.69
401.51	84.69
401.734	85.69
401.958	68.69
402.182	80.69
402.406	78.69
402.63	64.69
402.854	83.69
403.078	86.69
403.302	81.69
403.526	76.69
403.75	74.69
403.974	99.69
404.198	117.69
404.422	98.69
404.645	124.69
404.869	111.69
405.093	98.69
405.317	76.69
405.541	74.69
405.765	90.69
405.988	85.69
406.212	85.69
406.436	85.69
406.66	73.69
406.883	74.69
407.107	70.69
407.331	78.69
407.555	71.69
407.778	70.69
408.002	94.69
408.226	81.69
408.449	86.69
408.673	78.69
408.896	78.69
409.12	88.69
409.344	82.69
409.567	77.69
409.791	85.69
410.014	82.69
410.238	75.69
410.461	71.69
410.685	78.69
410.908	74.69
411.132	77.69
411.355	83.69
411.578	94.69
411.802	81.69
412.025	79.69
412.249	83.69
412.472	86.69
412.695	95.69
412.919	68.69
413.142	80.69
413.365	83.69
413.589	85.69
413.812	85.69
414.035	90.69
414.258	83.69
414.482	98.69
414.705	85.69
414.928	75.69
415.151	76.69
415.374	70.69
415.597	80.69
415.821	66.69
416.044	86.69
416.267	82.69
416.49	70.69
416.713	75.69
416.936	87.69
417.159	93.69
417.382	67.69
417.605	67.69
417.828	77.69
418.051	75.69
418.274	77.69
418.497	74.69
418.72	83.69
418.943	81.69
419.166	75.69
419.389	87.69
419.611	88.69
419.834	88.69
420.057	78.69
420.28	88.69
420.503	85.69
420.726	95.69
420.948	96.69
421.171	93.69
421.394	73.69
421.617	74.69
421.839	89.69
422.062	79.69
422.285	95.69
422.507	115.69
422.73	166.69
422.953	150.69
423.175	107.69
423.398	90.69
423.621	75.69
423.843	72.69
424.066	75.69
424.288	87.69
424.511	82.69
424.733	80.69
424.956	72.69
425.178	77.69
425.401	75.69
425.623	80.69
425.846	84.69
426.068	86.69
426.291	75.69
426.513	83.69
426.735	65.69
426.958	93.69
427.18	87.69
427.402	69.69
427.625	78.69
427.847	85.69
428.069	87.69
428.292	87.69
428.514	92.69
428.736	82.69
428.958	98.69
429.181	85.69
429.403	78.69
429.625	70.69
429.847	82.69
430.069	92.69
430.292	102.69
430.514	87.69
430.736	91.69
430.958	86.69
431.18	80.69
431.402	85.69
431.624	93.69
431.846	94.69
432.068	88.69
432.29	79.69
432.512	85.69
432.734	89.69
432.956	87.69
433.178	83.69
433.4	97.69
433.622	69.69
433.844	86.69
434.066	84.69
434.287	85.69
434.509	87.69
434.731	75.69
434.953	73.69
435.175	70.69
435.397	87.69
435.618	71.69
435.84	69.69
436.062	68.69
436.284	75.69
436.505	86.69
436.727	88.69
436.949	78.69
437.17	77.69
437.392	82.69
437.614	82.69
437.835	54.69
438.057	79.69
438.278	74.69
438.5	83.69
438.721	65.69
438.943	80.69
439.165	89.69
439.386	82.69
439.608	77.69
439.829	78.69
440.05	94.69
440.272	73.69
440.493	80.69
440.715	77.69
440.936	77.69
441.158	98.69
441.379	77.69
441.6	81.69
441.822	87.69
442.043	78.69
442.264	94.69
442.486	81.69
442.707	99.69
442.928	94.69
443.149	79.69
443.371	92.69
443.592	103.69
443.813	108.69
444.034	95.69
444.255	63.69
444.476	85.69
444.698	96.69
444.919	70.69
445.14	141.69
445.361	121.69
445.582	111.69
445.803	102.69
446.024	85.69
446.245	95.69
446.466	81.69
446.687	61.69
446.908	73.69
447.129	69.69
447.35	83.69
447.571	78.69
447.792	71.69
448.013	80.69
448.234	86.69
448.455	71.69
448.675	69.69
448.896	80.69
449.117	81.69
449.338	68.69
449.559	69.69
449.779	72.69
450	87.69
450.221	76.69
450.442	70.69
450.662	76.69
450.883	74.69
451.104	67.69
451.324	82.69
451.545	94.69
451.766	79.69
451.986	85.69
452.207	88.69
452.428	81.69
452.648	84.69
452.869	81.69
453.089	74.69
453.31	76.69
453.53	77.69
453.751	63.69
453.971	84.69
454.192	79.69
454.412	73.69
454.633	80.69
454.853	74.69
455.073	74.69
455.294	84.69
455.514	76.69
455.734	85.69
455.955	84.69
456.175	88.69
456.395	72.69
456.616	84.69
456.836	74.69
457.056	71.69
457.276	79.69
457.497	62.69
457.717	81.69
457.937	77.69
458.157	80.69
458.377	79.69
458.598	76.69
458.818	78.69
459.038	79.69
459.258	87.69
459.478	89.69
459.698	88.69
459.918	64.69
460.138	82.69
460.358	79.69
460.578	70.69
460.798	88.69
461.018	82.69
461.238	82.69
461.458	81.69
461.678	83.69
461.898	84.69
462.118	85.69
462.338	85.69
462.558	81.69
462.777	73.69
462.997	86.69
463.217	84.69
463.437	76.69
463.657	82.69
463.876	88.69
464.096	84.69
464.316	73.69
464.536	74.69
464.755	77.69
464.975	76.69
465.195	83.69
465.414	85.69
465.634	82.69
465.854	89.69
466.073	73.69
466.293	88.69
466.512	80.69
466.732	83.69
466.951	76.69
467.171	78.69
467.391	85.69
467.61	82.69
467.829	66.69
468.049	75.69
468.268	74.69
468.488	78.69
468.707	73.69
468.927	90.69
469.146	81.69
469.365	65.69
469.585	73.69
469.804	75.69
470.023	73.69
470.243	80.69
470.462	70.69
470.681	99.69
470.901	74.69
471.12	80.69
471.339	78.69
471.558	92.69
471.777	81.69
471.997	72.69
472.216	73.69
472.435	75.69
472.654	90.69
472.873	93.69
473.092	90.69
473.311	86.69
473.53	70.69
473.749	77.69
473.968	89.69
474.187	69.69
474.406	81.69
474.625	71.69
474.844	78.69
475.063	74.69
475.282	95.69
475.501	75.69
475.72	77.69
475.939	97.69
476.158	92.69
476.377	73.69
476.596	73.69
476.814	74.69
477.033	83.69
477.252	86.69
477.471	74.69
477.69	87.69
477.908	73.69
478.127	73.69
478.346	85.69
478.564	79.69
478.783	69.69
479.002	83.69
479.22	75.69
479.439	79.69
479.658	85.69
479.876	75.69
480.095	72.69
480.313	66.69
480.532	78.69
480.751	90.69
480.969	78.69
481.188	88.69
481.406	84.69
481.624	75.69
481.843	82.69
482.061	68.69
482.28	82.69
482.498	63.69
482.717	81.69
482.935	82.69
483.153	87.69
483.372	73.69
483.59	77.69
483.808	91.69
484.027	79.69
484.245	76.69
484.463	83.69
484.681	78.69
484.9	78.69
485.118	90.69
485.336	98.69
485.554	81.69
485.772	79.69
485.99	76.69
486.209	88.69
486.427	90.69
486.645	68.69
486.863	78.69
487.081	82.69
487.299	73.69
487.517	77.69
487.735	83.69
487.953	90.69
488.171	91.69
488.389	76.69
488.607	73.69
488.825	60.69
489.043	71.69
489.261	80.69
489.479	72.69
489.696	83.69
489.914	78.69
490.132	93.69
490.35	89.69
490.568	88.69
490.786	77.69
491.003	79.69
491.221	79.69
491.439	84.69
491.657	79.69
491.874	89.69
492.092	85.69
492.31	87.69
492.527	95.69
492.745	75.69
492.963	85.69
493.18	70.69
493.398	79.69
493.615	80.69
493.833	81.69
494.05	87.69
494.268	81.69
494.485	73.69
494.703	77.69
494.92	85.69
495.138	84.69
495.355	96.69
495.573	89.69
495.79	83.69
496.008	72.69
496.225	97.69
496.442	76.69
496.66	89.69
496.877	76.69
497.094	78.69
497.312	93.69
497.529	85.69
497.746	93.69
497.963	85.69
498.181	85.69
498.398	91.69
498.615	82.69
498.832	98.69
499.049	79.69
499.267	89.69
499.484	86.69
499.701	86.69
499.918	77.69
500.135	78.69
500.352	75.69
500.569	74.69
500.786	97.69
501.003	79.69
501.22	85.69
501.437	79.69
501.654	74.69
501.871	88.69
502.088	70.69
502.305	75.69
502.522	77.69
502.739	83.69
502.956	82.69
503.172	96.69
503.389	73.69
503.606	77.69
503.823	91.69
504.04	87.69
504.256	86.69
504.473	72.69
504.69	86.69
504.907	92.69
505.123	73.69
505.34	78.69
505.557	88.69
505.773	81.69
505.99	57.69
506.207	76.69
506.423	79.69
506.64	89.69
506.856	75.69
507.073	69.69
507.289	85.69
507.506	81.69
507.722	80.69
507.939	95.69
508.155	80.69
508.372	72.69
508.588	85.69
508.805	81.69
509.021	78.69
509.238	70.69
509.454	91.69
509.67	79.69
509.887	70.69
510.103	82.69
510.319	77.69
510.536	72.69
510.752	85.69
510.968	73.69
511.184	94.69
511.401	81.69
511.617	89.69
511.833	76.69
512.049	79.69
512.265	79.69
512.481	84.69
512.698	97.69
512.914	85.69
513.13	76.69
513.346	90.69
513.562	67.69
513.778	77.69
513.994	80.69
514.21	95.69
514.426	93.69
514.642	89.69
514.858	86.69
515.074	81.69
515.29	80.69
515.506	70.69
515.721	80.69
515.937	74.69
516.153	86.69
516.369	88.69
516.585	76.69
516.801	80.69
517.016	55.69
517.232	93.69
517.448	84.69
517.664	88.69
517.879	86.69
518.095	79.69
518.311	88.69
518.527	79.69
518.742	76.69
518.958	81.69
519.173	86.69
519.389	88.69
519.605	75.69
519.82	84.69
