Data from Mixnoheat3_HRD10591_00014.txt Node
Date: Fri Dec 27 15:01:38 EST 2024
User: Yrep
Spectrometer: HR+D1059
Trigger mode: 1
Integration Time (sec): 1.000000E-1
Scans to average: 1
Electric dark correction enabled: true
Nonlinearity correction enabled: false
Boxcar width: 0
XAxis mode: Wavelengths
Number of Pixels in Spectrum: 2048
>>>>>Begin Spectral Data<<<<<
223.165	-18.38
223.4	-18.38
223.635	-18.38
223.869	-11.38
224.104	-24.38
224.338	-18.38
224.573	-18.38
224.808	-16.38
225.042	-8.38
225.277	-15.38
225.511	-10.38
225.746	18.62
225.98	1.62
226.215	22.62
226.449	9.62
226.683	19.62
226.918	27.62
227.152	41.62
227.387	43.62
227.621	46.62
227.856	51.62
228.09	46.62
228.324	68.62
228.559	61.62
228.793	47.62
229.027	47.62
229.262	56.62
229.496	57.62
229.73	62.62
229.964	69.62
230.199	58.62
230.433	78.62
230.667	70.62
230.901	79.62
231.136	74.62
231.37	70.62
231.604	81.62
231.838	75.62
232.072	78.62
232.306	81.62
232.541	81.62
232.775	81.62
233.009	73.62
233.243	79.62
233.477	78.62
233.711	78.62
233.945	84.62
234.179	72.62
234.413	69.62
234.647	76.62
234.881	81.62
235.115	83.62
235.349	79.62
235.583	81.62
235.817	69.62
236.051	82.62
236.285	86.62
236.519	71.62
236.753	82.62
236.987	88.62
237.221	81.62
237.455	78.62
237.689	83.62
237.922	73.62
238.156	87.62
238.39	69.62
238.624	68.62
238.858	73.62
239.091	80.62
239.325	83.62
239.559	75.62
239.793	73.62
240.027	64.62
240.26	81.62
240.494	77.62
240.728	64.62
240.961	72.62
241.195	72.62
241.429	71.62
241.662	74.62
241.896	74.62
242.13	85.62
242.363	74.62
242.597	67.62
242.83	92.62
243.064	79.62
243.298	80.62
243.531	72.62
243.765	78.62
243.998	74.62
244.232	70.62
244.465	82.62
244.699	74.62
244.932	67.62
245.166	55.62
245.399	90.62
245.633	79.62
245.866	70.62
246.099	74.62
246.333	74.62
246.566	75.62
246.8	76.62
247.033	62.62
247.266	59.62
247.5	63.62
247.733	73.62
247.966	88.62
248.2	75.62
248.433	67.62
248.666	68.62
248.899	76.62
249.133	79.62
249.366	77.62
249.599	87.62
249.832	83.62
250.066	77.62
250.299	61.62
250.532	71.62
250.765	63.62
250.998	77.62
251.231	75.62
251.465	73.62
251.698	91.62
251.931	89.62
252.164	76.62
252.397	72.62
252.63	72.62
252.863	77.62
253.096	68.62
253.329	83.62
253.562	84.62
253.795	83.62
254.028	91.62
254.261	80.62
254.494	85.62
254.727	73.62
254.96	88.62
255.193	76.62
255.426	78.62
255.659	82.62
255.892	87.62
256.124	82.62
256.357	81.62
256.59	84.62
256.823	78.62
257.056	89.62
257.289	73.62
257.521	75.62
257.754	88.62
257.987	88.62
258.22	84.62
258.452	79.62
258.685	77.62
258.918	70.62
259.151	76.62
259.383	78.62
259.616	94.62
259.849	89.62
260.081	74.62
260.314	78.62
260.547	87.62
260.779	73.62
261.012	78.62
261.244	71.62
261.477	76.62
261.71	86.62
261.942	81.62
262.175	75.62
262.407	83.62
262.64	84.62
262.872	97.62
263.105	86.62
263.337	93.62
263.57	65.62
263.802	91.62
264.035	90.62
264.267	93.62
264.499	86.62
264.732	81.62
264.964	78.62
265.197	84.62
265.429	79.62
265.661	90.62
265.894	81.62
266.126	107.62
266.358	83.62
266.591	79.62
266.823	83.62
267.055	75.62
267.287	81.62
267.52	70.62
267.752	74.62
267.984	89.62
268.216	78.62
268.448	75.62
268.681	76.62
268.913	85.62
269.145	82.62
269.377	87.62
269.609	77.62
269.841	84.62
270.073	88.62
270.306	81.62
270.538	82.62
270.77	81.62
271.002	89.62
271.234	85.62
271.466	83.62
271.698	73.62
271.93	80.62
272.162	81.62
272.394	87.62
272.626	90.62
272.858	89.62
273.09	86.62
273.322	78.62
273.553	89.62
273.785	83.62
274.017	83.62
274.249	86.62
274.481	88.62
274.713	86.62
274.945	81.62
275.176	94.62
275.408	93.62
275.64	88.62
275.872	81.62
276.104	82.62
276.335	81.62
276.567	80.62
276.799	74.62
277.031	65.62
277.262	77.62
277.494	83.62
277.726	97.62
277.957	81.62
278.189	88.62
278.421	77.62
278.652	88.62
278.884	74.62
279.115	79.62
279.347	92.62
279.579	82.62
279.81	71.62
280.042	77.62
280.273	80.62
280.505	79.62
280.736	79.62
280.968	89.62
281.199	90.62
281.431	81.62
281.662	78.62
281.894	82.62
282.125	74.62
282.356	91.62
282.588	77.62
282.819	90.62
283.051	66.62
283.282	74.62
283.513	88.62
283.745	87.62
283.976	78.62
284.207	98.62
284.439	95.62
284.67	87.62
284.901	89.62
285.132	89.62
285.364	72.62
285.595	85.62
285.826	78.62
286.057	98.62
286.288	82.62
286.52	87.62
286.751	66.62
286.982	76.62
287.213	79.62
287.444	84.62
287.675	83.62
287.906	81.62
288.138	89.62
288.369	83.62
288.6	88.62
288.831	64.62
289.062	78.62
289.293	82.62
289.524	88.62
289.755	73.62
289.986	83.62
290.217	77.62
290.448	87.62
290.679	93.62
290.91	84.62
291.141	88.62
291.371	83.62
291.602	74.62
291.833	86.62
292.064	80.62
292.295	80.62
292.526	89.62
292.757	90.62
292.987	76.62
293.218	76.62
293.449	84.62
293.68	97.62
293.91	87.62
294.141	94.62
294.372	82.62
294.603	94.62
294.833	95.62
295.064	85.62
295.295	100.62
295.525	88.62
295.756	86.62
295.987	70.62
296.217	79.62
296.448	76.62
296.679	94.62
296.909	72.62
297.14	85.62
297.37	70.62
297.601	89.62
297.831	75.62
298.062	82.62
298.292	77.62
298.523	78.62
298.753	76.62
298.984	82.62
299.214	81.62
299.445	92.62
299.675	92.62
299.905	79.62
300.136	79.62
300.366	83.62
300.597	84.62
300.827	67.62
301.057	69.62
301.288	91.62
301.518	86.62
301.748	89.62
301.979	107.62
302.209	77.62
302.439	78.62
302.669	84.62
302.9	83.62
303.13	82.62
303.36	82.62
303.59	89.62
303.82	95.62
304.051	77.62
304.281	85.62
304.511	95.62
304.741	78.62
304.971	88.62
305.201	92.62
305.431	98.62
305.661	85.62
305.891	79.62
306.121	78.62
306.352	97.62
306.582	86.62
306.812	93.62
307.042	81.62
307.272	82.62
307.502	86.62
307.731	86.62
307.961	82.62
308.191	74.62
308.421	76.62
308.651	87.62
308.881	84.62
309.111	77.62
309.341	75.62
309.571	74.62
309.8	71.62
310.03	67.62
310.26	82.62
310.49	94.62
310.72	84.62
310.949	70.62
311.179	95.62
311.409	90.62
311.639	76.62
311.868	79.62
312.098	82.62
312.328	90.62
312.557	100.62
312.787	86.62
313.017	81.62
313.246	90.62
313.476	83.62
313.706	77.62
313.935	83.62
314.165	88.62
314.394	78.62
314.624	82.62
314.853	77.62
315.083	85.62
315.312	91.62
315.542	74.62
315.771	79.62
316.001	77.62
316.23	94.62
316.46	106.62
316.689	71.62
316.919	80.62
317.148	90.62
317.377	93.62
317.607	77.62
317.836	93.62
318.065	90.62
318.295	76.62
318.524	80.62
318.753	91.62
318.983	78.62
319.212	104.62
319.441	86.62
319.67	90.62
319.9	74.62
320.129	75.62
320.358	89.62
320.587	81.62
320.816	63.62
321.046	83.62
321.275	84.62
321.504	83.62
321.733	98.62
321.962	79.62
322.191	98.62
322.42	91.62
322.649	87.62
322.878	78.62
323.108	96.62
323.337	91.62
323.566	87.62
323.795	79.62
324.024	97.62
324.253	82.62
324.482	76.62
324.71	81.62
324.939	93.62
325.168	81.62
325.397	89.62
325.626	88.62
325.855	90.62
326.084	88.62
326.313	74.62
326.542	85.62
326.77	86.62
326.999	73.62
327.228	92.62
327.457	84.62
327.686	80.62
327.914	86.62
328.143	93.62
328.372	79.62
328.6	77.62
328.829	67.62
329.058	78.62
329.287	86.62
329.515	91.62
329.744	80.62
329.972	79.62
330.201	92.62
330.43	75.62
330.658	82.62
330.887	76.62
331.115	73.62
331.344	74.62
331.572	92.62
331.801	83.62
332.03	83.62
332.258	82.62
332.486	75.62
332.715	71.62
332.943	76.62
333.172	89.62
333.4	84.62
333.629	81.62
333.857	71.62
334.085	67.62
334.314	81.62
334.542	82.62
334.771	90.62
334.999	82.62
335.227	82.62
335.455	85.62
335.684	90.62
335.912	83.62
336.14	76.62
336.369	92.62
336.597	83.62
336.825	83.62
337.053	83.62
337.281	78.62
337.51	78.62
337.738	102.62
337.966	101.62
338.194	77.62
338.422	97.62
338.65	95.62
338.878	91.62
339.106	83.62
339.334	76.62
339.562	87.62
339.79	87.62
340.018	85.62
340.246	63.62
340.474	82.62
340.702	81.62
340.93	95.62
341.158	83.62
341.386	74.62
341.614	81.62
341.842	87.62
342.07	83.62
342.298	82.62
342.526	86.62
342.754	89.62
342.981	80.62
343.209	88.62
343.437	86.62
343.665	76.62
343.893	83.62
344.12	74.62
344.348	90.62
344.576	96.62
344.804	96.62
345.031	84.62
345.259	99.62
345.487	79.62
345.714	78.62
345.942	92.62
346.17	82.62
346.397	89.62
346.625	81.62
346.853	87.62
347.08	73.62
347.308	87.62
347.535	78.62
347.763	88.62
347.99	87.62
348.218	81.62
348.445	80.62
348.673	76.62
348.9	75.62
349.128	90.62
349.355	95.62
349.583	70.62
349.81	71.62
350.037	85.62
350.265	83.62
350.492	83.62
350.72	93.62
350.947	90.62
351.174	97.62
351.402	79.62
351.629	93.62
351.856	85.62
352.083	73.62
352.311	77.62
352.538	83.62
352.765	71.62
352.992	101.62
353.22	73.62
353.447	74.62
353.674	83.62
353.901	84.62
354.128	84.62
354.355	94.62
354.583	89.62
354.81	77.62
355.037	93.62
355.264	91.62
355.491	86.62
355.718	77.62
355.945	92.62
356.172	85.62
356.399	82.62
356.626	73.62
356.853	87.62
357.08	82.62
357.307	76.62
357.534	84.62
357.761	86.62
357.988	99.62
358.215	93.62
358.441	74.62
358.668	81.62
358.895	76.62
359.122	77.62
359.349	84.62
359.576	84.62
359.802	71.62
360.029	77.62
360.256	84.62
360.483	97.62
360.709	90.62
360.936	97.62
361.163	90.62
361.39	86.62
361.616	90.62
361.843	85.62
362.07	83.62
362.296	90.62
362.523	78.62
362.749	75.62
362.976	70.62
363.203	82.62
363.429	86.62
363.656	79.62
363.882	73.62
364.109	84.62
364.335	91.62
364.562	76.62
364.788	85.62
365.015	80.62
365.241	85.62
365.468	93.62
365.694	86.62
365.92	78.62
366.147	65.62
366.373	97.62
366.599	83.62
366.826	66.62
367.052	77.62
367.278	88.62
367.505	87.62
367.731	79.62
367.957	86.62
368.184	81.62
368.41	76.62
368.636	86.62
368.862	98.62
369.089	78.62
369.315	76.62
369.541	85.62
369.767	86.62
369.993	84.62
370.219	76.62
370.445	88.62
370.672	70.62
370.898	76.62
371.124	77.62
371.35	87.62
371.576	81.62
371.802	83.62
372.028	76.62
372.254	97.62
372.48	85.62
372.706	83.62
372.932	83.62
373.158	84.62
373.384	80.62
373.61	88.62
373.835	86.62
374.061	87.62
374.287	84.62
374.513	76.62
374.739	89.62
374.965	72.62
375.191	79.62
375.416	96.62
375.642	86.62
375.868	82.62
376.094	87.62
376.319	67.62
376.545	68.62
376.771	72.62
376.997	84.62
377.222	88.62
377.448	84.62
377.674	89.62
377.899	88.62
378.125	73.62
378.35	76.62
378.576	76.62
378.802	75.62
379.027	86.62
379.253	90.62
379.478	84.62
379.704	85.62
379.929	77.62
380.155	88.62
380.38	68.62
380.606	70.62
380.831	86.62
381.057	83.62
381.282	78.62
381.507	63.62
381.733	84.62
381.958	90.62
382.184	73.62
382.409	75.62
382.634	89.62
382.86	87.62
383.085	86.62
383.31	80.62
383.535	83.62
383.761	81.62
383.986	86.62
384.211	86.62
384.436	92.62
384.662	81.62
384.887	82.62
385.112	84.62
385.337	91.62
385.562	70.62
385.787	76.62
386.013	85.62
386.238	83.62
386.463	69.62
386.688	81.62
386.913	77.62
387.138	81.62
387.363	89.62
387.588	86.62
387.813	90.62
388.038	101.62
388.263	93.62
388.488	73.62
388.713	83.62
388.938	89.62
389.163	78.62
389.387	77.62
389.612	79.62
389.837	83.62
390.062	85.62
390.287	81.62
390.512	74.62
390.736	82.62
390.961	65.62
391.186	83.62
391.411	104.62
391.636	88.62
391.86	79.62
392.085	77.62
392.31	87.62
392.534	78.62
392.759	91.62
392.984	93.62
393.208	89.62
393.433	90.62
393.658	91.62
393.882	102.62
394.107	82.62
394.331	95.62
394.556	85.62
394.78	75.62
395.005	76.62
395.229	87.62
395.454	80.62
395.678	87.62
395.903	82.62
396.127	89.62
396.352	95.62
396.576	95.62
396.801	109.62
397.025	109.62
397.249	91.62
397.474	95.62
397.698	76.62
397.922	83.62
398.147	85.62
398.371	79.62
398.595	81.62
398.82	80.62
399.044	84.62
399.268	87.62
399.492	77.62
399.717	100.62
399.941	86.62
400.165	88.62
400.389	86.62
400.613	76.62
400.837	93.62
401.062	86.62
401.286	72.62
401.51	81.62
401.734	84.62
401.958	87.62
402.182	82.62
402.406	84.62
402.63	82.62
402.854	85.62
403.078	98.62
403.302	63.62
403.526	83.62
403.75	95.62
403.974	82.62
404.198	94.62
404.422	103.62
404.645	111.62
404.869	114.62
405.093	101.62
405.317	93.62
405.541	94.62
405.765	95.62
405.988	83.62
406.212	86.62
406.436	84.62
406.66	93.62
406.883	74.62
407.107	83.62
407.331	75.62
407.555	91.62
407.778	89.62
408.002	88.62
408.226	80.62
408.449	89.62
408.673	95.62
408.896	97.62
409.12	76.62
409.344	94.62
409.567	94.62
409.791	87.62
410.014	93.62
410.238	76.62
410.461	81.62
410.685	99.62
410.908	75.62
411.132	88.62
411.355	72.62
411.578	97.62
411.802	86.62
412.025	74.62
412.249	71.62
412.472	77.62
412.695	84.62
412.919	76.62
413.142	74.62
413.365	78.62
413.589	76.62
413.812	68.62
414.035	83.62
414.258	80.62
414.482	83.62
414.705	76.62
414.928	76.62
415.151	70.62
415.374	67.62
415.597	89.62
415.821	86.62
416.044	75.62
416.267	83.62
416.49	61.62
416.713	81.62
416.936	86.62
417.159	83.62
417.382	90.62
417.605	83.62
417.828	95.62
418.051	82.62
418.274	78.62
418.497	84.62
418.72	87.62
418.943	73.62
419.166	71.62
419.389	87.62
419.611	86.62
419.834	79.62
420.057	75.62
420.28	80.62
420.503	82.62
420.726	84.62
420.948	75.62
421.171	87.62
421.394	67.62
421.617	85.62
421.839	90.62
422.062	79.62
422.285	91.62
422.507	116.62
422.73	143.62
422.953	137.62
423.175	103.62
423.398	95.62
423.621	85.62
423.843	78.62
424.066	83.62
424.288	87.62
424.511	85.62
424.733	80.62
424.956	77.62
425.178	77.62
425.401	88.62
425.623	85.62
425.846	93.62
426.068	78.62
426.291	86.62
426.513	96.62
426.735	88.62
426.958	86.62
427.18	73.62
427.402	78.62
427.625	87.62
427.847	90.62
428.069	76.62
428.292	82.62
428.514	111.62
428.736	102.62
428.958	92.62
429.181	78.62
429.403	81.62
429.625	83.62
429.847	99.62
430.069	106.62
430.292	87.62
430.514	94.62
430.736	80.62
430.958	78.62
431.18	82.62
431.402	77.62
431.624	92.62
431.846	80.62
432.068	92.62
432.29	85.62
432.512	86.62
432.734	80.62
432.956	90.62
433.178	88.62
433.4	89.62
433.622	84.62
433.844	87.62
434.066	86.62
434.287	79.62
434.509	86.62
434.731	97.62
434.953	71.62
435.175	85.62
435.397	85.62
435.618	76.62
435.84	86.62
436.062	78.62
436.284	68.62
436.505	87.62
436.727	76.62
436.949	78.62
437.17	84.62
437.392	77.62
437.614	85.62
437.835	76.62
438.057	83.62
438.278	80.62
438.5	76.62
438.721	91.62
438.943	82.62
439.165	82.62
439.386	90.62
439.608	81.62
439.829	71.62
440.05	77.62
440.272	85.62
440.493	71.62
440.715	84.62
440.936	85.62
441.158	77.62
441.379	74.62
441.6	79.62
441.822	85.62
442.043	73.62
442.264	79.62
442.486	84.62
442.707	88.62
442.928	94.62
443.149	92.62
443.371	94.62
443.592	109.62
443.813	93.62
444.034	74.62
444.255	85.62
444.476	89.62
444.698	82.62
444.919	71.62
445.14	158.62
445.361	124.62
445.582	124.62
445.803	93.62
446.024	73.62
446.245	73.62
446.466	89.62
446.687	91.62
446.908	75.62
447.129	76.62
447.35	79.62
447.571	78.62
447.792	71.62
448.013	74.62
448.234	96.62
448.455	71.62
448.675	75.62
448.896	73.62
449.117	81.62
449.338	72.62
449.559	86.62
449.779	98.62
450	95.62
450.221	84.62
450.442	76.62
450.662	88.62
450.883	84.62
451.104	83.62
451.324	83.62
451.545	71.62
451.766	79.62
451.986	82.62
452.207	74.62
452.428	85.62
452.648	82.62
452.869	76.62
453.089	84.62
453.31	70.62
453.53	85.62
453.751	66.62
453.971	92.62
454.192	88.62
454.412	70.62
454.633	87.62
454.853	78.62
455.073	75.62
455.294	82.62
455.514	99.62
455.734	73.62
455.955	87.62
456.175	83.62
456.395	75.62
456.616	86.62
456.836	85.62
457.056	80.62
457.276	73.62
457.497	89.62
457.717	90.62
457.937	71.62
458.157	89.62
458.377	74.62
458.598	84.62
458.818	73.62
459.038	74.62
459.258	78.62
459.478	81.62
459.698	85.62
459.918	93.62
460.138	79.62
460.358	74.62
460.578	84.62
460.798	86.62
461.018	101.62
461.238	83.62
461.458	92.62
461.678	86.62
461.898	68.62
462.118	81.62
462.338	75.62
462.558	96.62
462.777	81.62
462.997	83.62
463.217	69.62
463.437	70.62
463.657	78.62
463.876	95.62
464.096	83.62
464.316	70.62
464.536	78.62
464.755	77.62
464.975	76.62
465.195	67.62
465.414	80.62
465.634	80.62
465.854	84.62
466.073	74.62
466.293	71.62
466.512	78.62
466.732	83.62
466.951	75.62
467.171	86.62
467.391	73.62
467.61	83.62
467.829	76.62
468.049	86.62
468.268	78.62
468.488	64.62
468.707	96.62
468.927	85.62
469.146	75.62
469.365	64.62
469.585	92.62
469.804	77.62
470.023	93.62
470.243	79.62
470.462	80.62
470.681	85.62
470.901	83.62
471.12	92.62
471.339	100.62
471.558	77.62
471.777	86.62
471.997	84.62
472.216	79.62
472.435	77.62
472.654	68.62
472.873	73.62
473.092	81.62
473.311	87.62
473.53	77.62
473.749	75.62
473.968	78.62
474.187	89.62
474.406	87.62
474.625	92.62
474.844	85.62
475.063	90.62
475.282	85.62
475.501	85.62
475.72	77.62
475.939	75.62
476.158	92.62
476.377	86.62
476.596	86.62
476.814	77.62
477.033	75.62
477.252	67.62
477.471	92.62
477.69	84.62
477.908	74.62
478.127	97.62
478.346	77.62
478.564	81.62
478.783	90.62
479.002	91.62
479.22	95.62
479.439	83.62
479.658	81.62
479.876	79.62
480.095	64.62
480.313	71.62
480.532	75.62
480.751	83.62
480.969	85.62
481.188	76.62
481.406	77.62
481.624	81.62
481.843	80.62
482.061	78.62
482.28	81.62
482.498	80.62
482.717	61.62
482.935	84.62
483.153	88.62
483.372	81.62
483.59	84.62
483.808	83.62
484.027	82.62
484.245	85.62
484.463	84.62
484.681	81.62
484.9	74.62
485.118	82.62
485.336	98.62
485.554	90.62
485.772	79.62
485.99	85.62
486.209	89.62
486.427	85.62
486.645	78.62
486.863	84.62
487.081	88.62
487.299	93.62
487.517	79.62
487.735	79.62
487.953	90.62
488.171	75.62
488.389	93.62
488.607	74.62
488.825	80.62
489.043	68.62
489.261	83.62
489.479	94.62
489.696	82.62
489.914	72.62
490.132	78.62
490.35	70.62
490.568	76.62
490.786	69.62
491.003	93.62
491.221	81.62
491.439	77.62
491.657	103.62
491.874	99.62
492.092	86.62
492.31	77.62
492.527	92.62
492.745	80.62
492.963	79.62
493.18	88.62
493.398	78.62
493.615	81.62
493.833	80.62
494.05	73.62
494.268	100.62
494.485	80.62
494.703	85.62
494.92	81.62
495.138	73.62
495.355	87.62
495.573	82.62
495.79	81.62
496.008	88.62
496.225	82.62
496.442	97.62
496.66	94.62
496.877	98.62
497.094	86.62
497.312	79.62
497.529	76.62
497.746	90.62
497.963	74.62
498.181	84.62
498.398	88.62
498.615	85.62
498.832	73.62
499.049	83.62
499.267	81.62
499.484	89.62
499.701	82.62
499.918	92.62
500.135	78.62
500.352	92.62
500.569	73.62
500.786	87.62
501.003	86.62
501.22	86.62
501.437	78.62
501.654	73.62
501.871	82.62
502.088	85.62
502.305	90.62
502.522	88.62
502.739	84.62
502.956	84.62
503.172	80.62
503.389	84.62
503.606	85.62
503.823	96.62
504.04	84.62
504.256	100.62
504.473	94.62
504.69	82.62
504.907	102.62
505.123	83.62
505.34	86.62
505.557	75.62
505.773	81.62
505.99	80.62
506.207	85.62
506.423	73.62
506.64	87.62
506.856	106.62
507.073	85.62
507.289	89.62
507.506	74.62
507.722	87.62
507.939	82.62
508.155	83.62
508.372	88.62
508.588	88.62
508.805	76.62
509.021	73.62
509.238	77.62
509.454	78.62
509.67	89.62
509.887	99.62
510.103	81.62
510.319	70.62
510.536	84.62
510.752	74.62
510.968	100.62
511.184	100.62
511.401	69.62
511.617	91.62
511.833	93.62
512.049	85.62
512.265	81.62
512.481	87.62
512.698	75.62
512.914	76.62
513.13	72.62
513.346	79.62
513.562	94.62
513.778	81.62
513.994	74.62
514.21	103.62
514.426	86.62
514.642	84.62
514.858	96.62
515.074	80.62
515.29	86.62
515.506	87.62
515.721	75.62
515.937	80.62
516.153	84.62
516.369	80.62
516.585	78.62
516.801	73.62
517.016	95.62
517.232	99.62
517.448	106.62
517.664	76.62
517.879	89.62
518.095	79.62
518.311	80.62
518.527	83.62
518.742	62.62
518.958	91.62
519.173	91.62
519.389	77.62
519.605	83.62
