Data from Mixnoheat3_HRD10591_00008.txt Node
Date: Fri Dec 27 15:01:32 EST 2024
User: Yrep
Spectrometer: HR+D1059
Trigger mode: 1
Integration Time (sec): 1.000000E-1
Scans to average: 1
Electric dark correction enabled: true
Nonlinearity correction enabled: false
Boxcar width: 0
XAxis mode: Wavelengths
Number of Pixels in Spectrum: 2048
>>>>>Begin Spectral Data<<<<<
223.165	-21.25
223.4	-21.25
223.635	-21.25
223.869	-15.25
224.104	-24.25
224.338	-13.25
224.573	-16.25
224.808	-13.25
225.042	-0.25
225.277	4.75
225.511	-7.25
225.746	6.75
225.98	-6.25
226.215	11.75
226.449	20.75
226.683	16.75
226.918	28.75
227.152	27.75
227.387	22.75
227.621	34.75
227.856	39.75
228.09	49.75
228.324	44.75
228.559	59.75
228.793	50.75
229.027	52.75
229.262	61.75
229.496	57.75
229.73	73.75
229.964	69.75
230.199	77.75
230.433	81.75
230.667	75.75
230.901	62.75
231.136	73.75
231.37	76.75
231.604	73.75
231.838	70.75
232.072	71.75
232.306	72.75
232.541	74.75
232.775	74.75
233.009	76.75
233.243	79.75
233.477	78.75
233.711	80.75
233.945	89.75
234.179	83.75
234.413	79.75
234.647	75.75
234.881	73.75
235.115	74.75
235.349	78.75
235.583	82.75
235.817	76.75
236.051	71.75
236.285	65.75
236.519	84.75
236.753	79.75
236.987	75.75
237.221	75.75
237.455	91.75
237.689	76.75
237.922	81.75
238.156	70.75
238.39	80.75
238.624	65.75
238.858	74.75
239.091	77.75
239.325	81.75
239.559	63.75
239.793	78.75
240.027	73.75
240.26	64.75
240.494	72.75
240.728	79.75
240.961	75.75
241.195	81.75
241.429	76.75
241.662	72.75
241.896	83.75
242.13	88.75
242.363	69.75
242.597	62.75
242.83	64.75
243.064	83.75
243.298	66.75
243.531	81.75
243.765	88.75
243.998	69.75
244.232	85.75
244.465	73.75
244.699	75.75
244.932	75.75
245.166	68.75
245.399	71.75
245.633	72.75
245.866	72.75
246.099	70.75
246.333	77.75
246.566	75.75
246.8	68.75
247.033	81.75
247.266	74.75
247.5	69.75
247.733	91.75
247.966	74.75
248.2	81.75
248.433	75.75
248.666	70.75
248.899	82.75
249.133	80.75
249.366	72.75
249.599	66.75
249.832	74.75
250.066	83.75
250.299	76.75
250.532	87.75
250.765	84.75
250.998	85.75
251.231	76.75
251.465	61.75
251.698	72.75
251.931	75.75
252.164	77.75
252.397	71.75
252.63	75.75
252.863	79.75
253.096	74.75
253.329	76.75
253.562	78.75
253.795	84.75
254.028	69.75
254.261	64.75
254.494	77.75
254.727	78.75
254.96	75.75
255.193	85.75
255.426	70.75
255.659	83.75
255.892	80.75
256.124	73.75
256.357	82.75
256.59	88.75
256.823	72.75
257.056	74.75
257.289	91.75
257.521	94.75
257.754	81.75
257.987	74.75
258.22	95.75
258.452	74.75
258.685	85.75
258.918	64.75
259.151	91.75
259.383	72.75
259.616	75.75
259.849	97.75
260.081	71.75
260.314	78.75
260.547	91.75
260.779	83.75
261.012	87.75
261.244	85.75
261.477	82.75
261.71	79.75
261.942	85.75
262.175	73.75
262.407	72.75
262.64	80.75
262.872	75.75
263.105	83.75
263.337	79.75
263.57	76.75
263.802	67.75
264.035	72.75
264.267	82.75
264.499	78.75
264.732	94.75
264.964	58.75
265.197	70.75
265.429	80.75
265.661	88.75
265.894	85.75
266.126	78.75
266.358	80.75
266.591	74.75
266.823	79.75
267.055	74.75
267.287	88.75
267.52	76.75
267.752	79.75
267.984	94.75
268.216	83.75
268.448	86.75
268.681	92.75
268.913	84.75
269.145	81.75
269.377	90.75
269.609	81.75
269.841	78.75
270.073	81.75
270.306	83.75
270.538	84.75
270.77	74.75
271.002	60.75
271.234	84.75
271.466	87.75
271.698	81.75
271.93	68.75
272.162	76.75
272.394	78.75
272.626	80.75
272.858	73.75
273.09	84.75
273.322	77.75
273.553	80.75
273.785	80.75
274.017	66.75
274.249	78.75
274.481	76.75
274.713	85.75
274.945	85.75
275.176	90.75
275.408	77.75
275.64	70.75
275.872	81.75
276.104	80.75
276.335	85.75
276.567	91.75
276.799	76.75
277.031	76.75
277.262	89.75
277.494	73.75
277.726	83.75
277.957	90.75
278.189	84.75
278.421	80.75
278.652	86.75
278.884	86.75
279.115	87.75
279.347	71.75
279.579	60.75
279.81	89.75
280.042	82.75
280.273	82.75
280.505	95.75
280.736	90.75
280.968	92.75
281.199	80.75
281.431	75.75
281.662	81.75
281.894	89.75
282.125	89.75
282.356	79.75
282.588	74.75
282.819	74.75
283.051	78.75
283.282	81.75
283.513	86.75
283.745	73.75
283.976	66.75
284.207	82.75
284.439	72.75
284.67	80.75
284.901	83.75
285.132	82.75
285.364	84.75
285.595	85.75
285.826	83.75
286.057	86.75
286.288	83.75
286.52	78.75
286.751	74.75
286.982	98.75
287.213	88.75
287.444	89.75
287.675	82.75
287.906	87.75
288.138	68.75
288.369	83.75
288.6	84.75
288.831	77.75
289.062	83.75
289.293	79.75
289.524	83.75
289.755	80.75
289.986	99.75
290.217	83.75
290.448	85.75
290.679	93.75
290.91	76.75
291.141	79.75
291.371	84.75
291.602	65.75
291.833	71.75
292.064	69.75
292.295	81.75
292.526	73.75
292.757	86.75
292.987	83.75
293.218	97.75
293.449	67.75
293.68	94.75
293.91	80.75
294.141	81.75
294.372	79.75
294.603	88.75
294.833	81.75
295.064	85.75
295.295	94.75
295.525	83.75
295.756	76.75
295.987	86.75
296.217	55.75
296.448	82.75
296.679	81.75
296.909	89.75
297.14	96.75
297.37	89.75
297.601	76.75
297.831	77.75
298.062	76.75
298.292	74.75
298.523	88.75
298.753	82.75
298.984	75.75
299.214	73.75
299.445	92.75
299.675	70.75
299.905	80.75
300.136	79.75
300.366	83.75
300.597	81.75
300.827	77.75
301.057	78.75
301.288	94.75
301.518	85.75
301.748	98.75
301.979	93.75
302.209	86.75
302.439	82.75
302.669	89.75
302.9	81.75
303.13	88.75
303.36	89.75
303.59	82.75
303.82	75.75
304.051	77.75
304.281	86.75
304.511	103.75
304.741	78.75
304.971	77.75
305.201	90.75
305.431	86.75
305.661	80.75
305.891	95.75
306.121	77.75
306.352	90.75
306.582	79.75
306.812	66.75
307.042	76.75
307.272	79.75
307.502	78.75
307.731	89.75
307.961	90.75
308.191	84.75
308.421	83.75
308.651	77.75
308.881	66.75
309.111	95.75
309.341	72.75
309.571	92.75
309.8	91.75
310.03	96.75
310.26	96.75
310.49	94.75
310.72	84.75
310.949	84.75
311.179	85.75
311.409	79.75
311.639	80.75
311.868	80.75
312.098	80.75
312.328	76.75
312.557	83.75
312.787	74.75
313.017	76.75
313.246	87.75
313.476	82.75
313.706	70.75
313.935	71.75
314.165	82.75
314.394	74.75
314.624	77.75
314.853	71.75
315.083	80.75
315.312	87.75
315.542	93.75
315.771	97.75
316.001	83.75
316.23	96.75
316.46	83.75
316.689	83.75
316.919	85.75
317.148	89.75
317.377	80.75
317.607	64.75
317.836	85.75
318.065	91.75
318.295	91.75
318.524	77.75
318.753	88.75
318.983	79.75
319.212	78.75
319.441	80.75
319.67	95.75
319.9	73.75
320.129	78.75
320.358	83.75
320.587	80.75
320.816	86.75
321.046	87.75
321.275	89.75
321.504	89.75
321.733	87.75
321.962	78.75
322.191	83.75
322.42	79.75
322.649	81.75
322.878	73.75
323.108	85.75
323.337	86.75
323.566	86.75
323.795	89.75
324.024	73.75
324.253	66.75
324.482	84.75
324.71	79.75
324.939	88.75
325.168	84.75
325.397	82.75
325.626	82.75
325.855	87.75
326.084	88.75
326.313	86.75
326.542	79.75
326.77	71.75
326.999	80.75
327.228	78.75
327.457	78.75
327.686	75.75
327.914	86.75
328.143	76.75
328.372	81.75
328.6	92.75
328.829	84.75
329.058	72.75
329.287	78.75
329.515	94.75
329.744	87.75
329.972	81.75
330.201	91.75
330.43	90.75
330.658	78.75
330.887	74.75
331.115	79.75
331.344	85.75
331.572	68.75
331.801	67.75
332.03	73.75
332.258	86.75
332.486	85.75
332.715	86.75
332.943	66.75
333.172	83.75
333.4	91.75
333.629	100.75
333.857	94.75
334.085	95.75
334.314	78.75
334.542	104.75
334.771	90.75
334.999	69.75
335.227	90.75
335.455	85.75
335.684	86.75
335.912	78.75
336.14	80.75
336.369	99.75
336.597	84.75
336.825	91.75
337.053	87.75
337.281	84.75
337.51	76.75
337.738	81.75
337.966	73.75
338.194	85.75
338.422	79.75
338.65	94.75
338.878	86.75
339.106	91.75
339.334	83.75
339.562	74.75
339.79	84.75
340.018	86.75
340.246	87.75
340.474	83.75
340.702	96.75
340.93	83.75
341.158	74.75
341.386	79.75
341.614	77.75
341.842	79.75
342.07	74.75
342.298	89.75
342.526	82.75
342.754	82.75
342.981	81.75
343.209	99.75
343.437	100.75
343.665	83.75
343.893	88.75
344.12	69.75
344.348	79.75
344.576	97.75
344.804	79.75
345.031	86.75
345.259	83.75
345.487	79.75
345.714	87.75
345.942	85.75
346.17	93.75
346.397	78.75
346.625	96.75
346.853	84.75
347.08	86.75
347.308	91.75
347.535	80.75
347.763	68.75
347.99	91.75
348.218	84.75
348.445	69.75
348.673	79.75
348.9	76.75
349.128	73.75
349.355	72.75
349.583	82.75
349.81	81.75
350.037	89.75
350.265	83.75
350.492	82.75
350.72	85.75
350.947	96.75
351.174	76.75
351.402	69.75
351.629	94.75
351.856	95.75
352.083	82.75
352.311	66.75
352.538	82.75
352.765	66.75
352.992	100.75
353.22	94.75
353.447	61.75
353.674	89.75
353.901	92.75
354.128	94.75
354.355	80.75
354.583	72.75
354.81	84.75
355.037	86.75
355.264	83.75
355.491	77.75
355.718	83.75
355.945	90.75
356.172	86.75
356.399	79.75
356.626	80.75
356.853	70.75
357.08	84.75
357.307	72.75
357.534	83.75
357.761	82.75
357.988	91.75
358.215	65.75
358.441	82.75
358.668	79.75
358.895	80.75
359.122	86.75
359.349	85.75
359.576	94.75
359.802	84.75
360.029	84.75
360.256	78.75
360.483	84.75
360.709	96.75
360.936	92.75
361.163	83.75
361.39	87.75
361.616	78.75
361.843	76.75
362.07	83.75
362.296	79.75
362.523	89.75
362.749	84.75
362.976	105.75
363.203	91.75
363.429	87.75
363.656	76.75
363.882	82.75
364.109	87.75
364.335	90.75
364.562	83.75
364.788	86.75
365.015	93.75
365.241	94.75
365.468	89.75
365.694	88.75
365.92	86.75
366.147	100.75
366.373	88.75
366.599	89.75
366.826	80.75
367.052	73.75
367.278	80.75
367.505	88.75
367.731	83.75
367.957	74.75
368.184	81.75
368.41	83.75
368.636	94.75
368.862	88.75
369.089	60.75
369.315	89.75
369.541	83.75
369.767	90.75
369.993	89.75
370.219	84.75
370.445	86.75
370.672	82.75
370.898	91.75
371.124	86.75
371.35	81.75
371.576	86.75
371.802	80.75
372.028	68.75
372.254	78.75
372.48	78.75
372.706	76.75
372.932	78.75
373.158	81.75
373.384	86.75
373.61	81.75
373.835	69.75
374.061	76.75
374.287	84.75
374.513	76.75
374.739	87.75
374.965	96.75
375.191	98.75
375.416	80.75
375.642	84.75
375.868	74.75
376.094	78.75
376.319	87.75
376.545	73.75
376.771	84.75
376.997	79.75
377.222	74.75
377.448	71.75
377.674	77.75
377.899	90.75
378.125	81.75
378.35	88.75
378.576	89.75
378.802	82.75
379.027	80.75
379.253	71.75
379.478	90.75
379.704	65.75
379.929	84.75
380.155	94.75
380.38	94.75
380.606	83.75
380.831	80.75
381.057	82.75
381.282	84.75
381.507	78.75
381.733	83.75
381.958	81.75
382.184	75.75
382.409	87.75
382.634	90.75
382.86	87.75
383.085	79.75
383.31	82.75
383.535	88.75
383.761	89.75
383.986	73.75
384.211	71.75
384.436	78.75
384.662	70.75
384.887	84.75
385.112	74.75
385.337	78.75
385.562	70.75
385.787	89.75
386.013	75.75
386.238	89.75
386.463	84.75
386.688	93.75
386.913	70.75
387.138	66.75
387.363	91.75
387.588	70.75
387.813	67.75
388.038	78.75
388.263	94.75
388.488	79.75
388.713	87.75
388.938	81.75
389.163	74.75
389.387	67.75
389.612	85.75
389.837	85.75
390.062	94.75
390.287	75.75
390.512	69.75
390.736	91.75
390.961	90.75
391.186	73.75
391.411	84.75
391.636	79.75
391.86	91.75
392.085	89.75
392.31	79.75
392.534	78.75
392.759	95.75
392.984	96.75
393.208	103.75
393.433	124.75
393.658	99.75
393.882	84.75
394.107	90.75
394.331	89.75
394.556	90.75
394.78	92.75
395.005	79.75
395.229	80.75
395.454	77.75
395.678	83.75
395.903	89.75
396.127	95.75
396.352	106.75
396.576	82.75
396.801	99.75
397.025	95.75
397.249	91.75
397.474	86.75
397.698	84.75
397.922	91.75
398.147	83.75
398.371	76.75
398.595	69.75
398.82	87.75
399.044	78.75
399.268	77.75
399.492	73.75
399.717	75.75
399.941	86.75
400.165	76.75
400.389	85.75
400.613	73.75
400.837	89.75
401.062	67.75
401.286	88.75
401.51	82.75
401.734	91.75
401.958	84.75
402.182	89.75
402.406	78.75
402.63	66.75
402.854	89.75
403.078	78.75
403.302	86.75
403.526	91.75
403.75	75.75
403.974	89.75
404.198	107.75
404.422	123.75
404.645	115.75
404.869	111.75
405.093	113.75
405.317	85.75
405.541	82.75
405.765	86.75
405.988	74.75
406.212	68.75
406.436	78.75
406.66	86.75
406.883	83.75
407.107	81.75
407.331	77.75
407.555	83.75
407.778	76.75
408.002	89.75
408.226	98.75
408.449	73.75
408.673	96.75
408.896	72.75
409.12	78.75
409.344	81.75
409.567	91.75
409.791	97.75
410.014	76.75
410.238	83.75
410.461	87.75
410.685	79.75
410.908	74.75
411.132	87.75
411.355	81.75
411.578	87.75
411.802	78.75
412.025	81.75
412.249	90.75
412.472	87.75
412.695	82.75
412.919	90.75
413.142	92.75
413.365	78.75
413.589	83.75
413.812	86.75
414.035	82.75
414.258	85.75
414.482	82.75
414.705	87.75
414.928	82.75
415.151	75.75
415.374	81.75
415.597	82.75
415.821	71.75
416.044	80.75
416.267	94.75
416.49	79.75
416.713	76.75
416.936	70.75
417.159	66.75
417.382	89.75
417.605	80.75
417.828	66.75
418.051	77.75
418.274	92.75
418.497	78.75
418.72	74.75
418.943	83.75
419.166	73.75
419.389	67.75
419.611	88.75
419.834	90.75
420.057	75.75
420.28	92.75
420.503	85.75
420.726	83.75
420.948	97.75
421.171	76.75
421.394	72.75
421.617	83.75
421.839	71.75
422.062	95.75
422.285	103.75
422.507	125.75
422.73	158.75
422.953	147.75
423.175	108.75
423.398	93.75
423.621	81.75
423.843	69.75
424.066	83.75
424.288	83.75
424.511	88.75
424.733	86.75
424.956	75.75
425.178	82.75
425.401	85.75
425.623	75.75
425.846	74.75
426.068	80.75
426.291	87.75
426.513	75.75
426.735	90.75
426.958	68.75
427.18	67.75
427.402	82.75
427.625	89.75
427.847	78.75
428.069	86.75
428.292	91.75
428.514	94.75
428.736	99.75
428.958	95.75
429.181	94.75
429.403	92.75
429.625	84.75
429.847	89.75
430.069	104.75
430.292	112.75
430.514	94.75
430.736	99.75
430.958	82.75
431.18	79.75
431.402	87.75
431.624	81.75
431.846	80.75
432.068	90.75
432.29	84.75
432.512	89.75
432.734	79.75
432.956	82.75
433.178	83.75
433.4	85.75
433.622	86.75
433.844	80.75
434.066	87.75
434.287	89.75
434.509	79.75
434.731	81.75
434.953	69.75
435.175	85.75
435.397	73.75
435.618	87.75
435.84	87.75
436.062	73.75
436.284	75.75
436.505	71.75
436.727	76.75
436.949	82.75
437.17	76.75
437.392	83.75
437.614	97.75
437.835	85.75
438.057	75.75
438.278	76.75
438.5	66.75
438.721	84.75
438.943	97.75
439.165	83.75
439.386	84.75
439.608	87.75
439.829	93.75
440.05	79.75
440.272	76.75
440.493	90.75
440.715	75.75
440.936	90.75
441.158	71.75
441.379	77.75
441.6	77.75
441.822	88.75
442.043	76.75
442.264	83.75
442.486	93.75
442.707	105.75
442.928	87.75
443.149	80.75
443.371	97.75
443.592	121.75
443.813	96.75
444.034	96.75
444.255	91.75
444.476	76.75
444.698	80.75
444.919	90.75
445.14	128.75
445.361	130.75
445.582	138.75
445.803	107.75
446.024	93.75
446.245	82.75
446.466	74.75
446.687	76.75
446.908	75.75
447.129	86.75
447.35	71.75
447.571	81.75
447.792	82.75
448.013	74.75
448.234	83.75
448.455	98.75
448.675	78.75
448.896	75.75
449.117	81.75
449.338	66.75
449.559	76.75
449.779	79.75
450	92.75
450.221	70.75
450.442	75.75
450.662	64.75
450.883	76.75
451.104	80.75
451.324	83.75
451.545	73.75
451.766	79.75
451.986	68.75
452.207	80.75
452.428	79.75
452.648	101.75
452.869	81.75
453.089	90.75
453.31	87.75
453.53	84.75
453.751	99.75
453.971	94.75
454.192	79.75
454.412	81.75
454.633	72.75
454.853	73.75
455.073	85.75
455.294	71.75
455.514	83.75
455.734	80.75
455.955	79.75
456.175	81.75
456.395	73.75
456.616	86.75
456.836	76.75
457.056	72.75
457.276	80.75
457.497	80.75
457.717	81.75
457.937	86.75
458.157	87.75
458.377	84.75
458.598	84.75
458.818	83.75
459.038	77.75
459.258	78.75
459.478	77.75
459.698	79.75
459.918	73.75
460.138	82.75
460.358	68.75
460.578	91.75
460.798	83.75
461.018	74.75
461.238	66.75
461.458	91.75
461.678	74.75
461.898	82.75
462.118	94.75
462.338	83.75
462.558	74.75
462.777	74.75
462.997	96.75
463.217	73.75
463.437	83.75
463.657	73.75
463.876	81.75
464.096	88.75
464.316	66.75
464.536	83.75
464.755	69.75
464.975	80.75
465.195	74.75
465.414	84.75
465.634	74.75
465.854	82.75
466.073	83.75
466.293	74.75
466.512	72.75
466.732	70.75
466.951	73.75
467.171	91.75
467.391	76.75
467.61	79.75
467.829	79.75
468.049	87.75
468.268	79.75
468.488	94.75
468.707	78.75
468.927	72.75
469.146	79.75
469.365	88.75
469.585	70.75
469.804	74.75
470.023	67.75
470.243	92.75
470.462	91.75
470.681	74.75
470.901	77.75
471.12	86.75
471.339	82.75
471.558	86.75
471.777	69.75
471.997	82.75
472.216	73.75
472.435	71.75
472.654	69.75
472.873	86.75
473.092	93.75
473.311	71.75
473.53	85.75
473.749	74.75
473.968	87.75
474.187	83.75
474.406	69.75
474.625	82.75
474.844	86.75
475.063	103.75
475.282	87.75
475.501	76.75
475.72	92.75
475.939	77.75
476.158	79.75
476.377	68.75
476.596	82.75
476.814	98.75
477.033	88.75
477.252	87.75
477.471	90.75
477.69	86.75
477.908	78.75
478.127	103.75
478.346	70.75
478.564	75.75
478.783	79.75
479.002	107.75
479.22	98.75
479.439	82.75
479.658	76.75
479.876	82.75
480.095	80.75
480.313	84.75
480.532	86.75
480.751	85.75
480.969	77.75
481.188	62.75
481.406	81.75
481.624	90.75
481.843	81.75
482.061	71.75
482.28	78.75
482.498	95.75
482.717	78.75
482.935	82.75
483.153	84.75
483.372	82.75
483.59	81.75
483.808	77.75
484.027	79.75
484.245	77.75
484.463	81.75
484.681	91.75
484.9	88.75
485.118	87.75
485.336	87.75
485.554	88.75
485.772	76.75
485.99	81.75
486.209	98.75
486.427	94.75
486.645	84.75
486.863	83.75
487.081	75.75
487.299	86.75
487.517	94.75
487.735	86.75
487.953	91.75
488.171	81.75
488.389	73.75
488.607	78.75
488.825	87.75
489.043	98.75
489.261	79.75
489.479	86.75
489.696	89.75
489.914	98.75
490.132	102.75
490.35	81.75
490.568	78.75
490.786	69.75
491.003	84.75
491.221	84.75
491.439	85.75
491.657	82.75
491.874	88.75
492.092	78.75
492.31	88.75
492.527	87.75
492.745	77.75
492.963	83.75
493.18	91.75
493.398	92.75
493.615	80.75
493.833	80.75
494.05	99.75
494.268	84.75
494.485	78.75
494.703	82.75
494.92	88.75
495.138	83.75
495.355	84.75
495.573	82.75
495.79	80.75
496.008	88.75
496.225	78.75
496.442	78.75
496.66	82.75
496.877	97.75
497.094	81.75
497.312	88.75
497.529	86.75
497.746	88.75
497.963	81.75
498.181	79.75
498.398	84.75
498.615	83.75
498.832	67.75
499.049	80.75
499.267	90.75
499.484	89.75
499.701	85.75
499.918	91.75
500.135	97.75
500.352	83.75
500.569	98.75
500.786	68.75
501.003	87.75
501.22	75.75
501.437	87.75
501.654	84.75
501.871	82.75
502.088	77.75
502.305	85.75
502.522	89.75
502.739	79.75
502.956	84.75
503.172	83.75
503.389	86.75
503.606	77.75
503.823	85.75
504.04	100.75
504.256	100.75
504.473	82.75
504.69	96.75
504.907	79.75
505.123	81.75
505.34	87.75
505.557	79.75
505.773	94.75
505.99	86.75
506.207	88.75
506.423	73.75
506.64	87.75
506.856	77.75
507.073	89.75
507.289	81.75
507.506	94.75
507.722	87.75
507.939	101.75
508.155	105.75
508.372	81.75
508.588	84.75
508.805	64.75
509.021	83.75
509.238	90.75
509.454	73.75
509.67	86.75
509.887	77.75
510.103	85.75
510.319	87.75
510.536	92.75
510.752	69.75
510.968	88.75
511.184	81.75
511.401	78.75
511.617	91.75
511.833	82.75
512.049	80.75
512.265	82.75
512.481	85.75
512.698	83.75
512.914	96.75
513.13	84.75
513.346	78.75
513.562	88.75
513.778	78.75
513.994	96.75
514.21	85.75
514.426	84.75
514.642	91.75
514.858	78.75
515.074	79.75
515.29	91.75
515.506	94.75
515.721	73.75
515.937	86.75
516.153	80.75
516.369	82.75
516.585	80.75
516.801	84.75
517.016	102.75
517.232	86.75
517.448	96.75
517.664	87.75
517.879	83.75
518.095	65.75
518.311	110.75
518.527	101.75
518.742	80.75
518.958	77.75
519.173	97.75
519.389	96.75
519.605	80.75
