Data from Mixnoheat3_HRD10591_00020.txt Node
Date: Fri Dec 27 15:01:44 EST 2024
User: Yrep
Spectrometer: HR+D1059
Trigger mode: 1
Integration Time (sec): 1.000000E-1
Scans to average: 1
Electric dark correction enabled: true
Nonlinearity correction enabled: false
Boxcar width: 0
XAxis mode: Wavelengths
Number of Pixels in Spectrum: 2048
>>>>>Begin Spectral Data<<<<<
223.165	-26.94
223.4	-26.94
223.635	-26.94
223.869	-14.94
224.104	-25.94
224.338	-22.94
224.573	-18.94
224.808	-17.94
225.042	1.06
225.277	-1.94
225.511	5.06
225.746	16.06
225.98	1.06
226.215	4.06
226.449	22.06
226.683	26.06
226.918	28.06
227.152	26.06
227.387	46.06
227.621	47.06
227.856	44.06
228.09	47.06
228.324	50.06
228.559	68.06
228.793	58.06
229.027	68.06
229.262	58.06
229.496	88.06
229.73	74.06
229.964	80.06
230.199	85.06
230.433	82.06
230.667	82.06
230.901	93.06
231.136	87.06
231.37	77.06
231.604	85.06
231.838	81.06
232.072	91.06
232.306	92.06
232.541	89.06
232.775	103.06
233.009	97.06
233.243	92.06
233.477	74.06
233.711	100.06
233.945	78.06
234.179	89.06
234.413	83.06
234.647	68.06
234.881	96.06
235.115	96.06
235.349	95.06
235.583	95.06
235.817	83.06
236.051	76.06
236.285	77.06
236.519	78.06
236.753	87.06
236.987	85.06
237.221	76.06
237.455	82.06
237.689	87.06
237.922	86.06
238.156	78.06
238.39	73.06
238.624	85.06
238.858	92.06
239.091	78.06
239.325	77.06
239.559	88.06
239.793	79.06
240.027	88.06
240.26	89.06
240.494	83.06
240.728	90.06
240.961	86.06
241.195	86.06
241.429	81.06
241.662	80.06
241.896	81.06
242.13	93.06
242.363	73.06
242.597	89.06
242.83	85.06
243.064	85.06
243.298	79.06
243.531	69.06
243.765	68.06
243.998	76.06
244.232	74.06
244.465	83.06
244.699	89.06
244.932	84.06
245.166	96.06
245.399	83.06
245.633	76.06
245.866	79.06
246.099	79.06
246.333	84.06
246.566	80.06
246.8	92.06
247.033	75.06
247.266	88.06
247.5	81.06
247.733	82.06
247.966	89.06
248.2	82.06
248.433	66.06
248.666	78.06
248.899	80.06
249.133	78.06
249.366	85.06
249.599	82.06
249.832	70.06
250.066	79.06
250.299	79.06
250.532	88.06
250.765	79.06
250.998	76.06
251.231	68.06
251.465	89.06
251.698	106.06
251.931	93.06
252.164	70.06
252.397	65.06
252.63	83.06
252.863	79.06
253.096	81.06
253.329	84.06
253.562	78.06
253.795	74.06
254.028	101.06
254.261	80.06
254.494	99.06
254.727	86.06
254.96	92.06
255.193	76.06
255.426	80.06
255.659	98.06
255.892	95.06
256.124	84.06
256.357	77.06
256.59	80.06
256.823	96.06
257.056	88.06
257.289	73.06
257.521	100.06
257.754	76.06
257.987	90.06
258.22	100.06
258.452	90.06
258.685	88.06
258.918	84.06
259.151	81.06
259.383	87.06
259.616	89.06
259.849	91.06
260.081	85.06
260.314	91.06
260.547	86.06
260.779	89.06
261.012	68.06
261.244	71.06
261.477	89.06
261.71	87.06
261.942	84.06
262.175	77.06
262.407	81.06
262.64	93.06
262.872	83.06
263.105	95.06
263.337	93.06
263.57	91.06
263.802	93.06
264.035	84.06
264.267	91.06
264.499	107.06
264.732	100.06
264.964	84.06
265.197	82.06
265.429	84.06
265.661	102.06
265.894	80.06
266.126	88.06
266.358	91.06
266.591	85.06
266.823	91.06
267.055	84.06
267.287	91.06
267.52	88.06
267.752	91.06
267.984	82.06
268.216	93.06
268.448	89.06
268.681	96.06
268.913	84.06
269.145	100.06
269.377	88.06
269.609	80.06
269.841	105.06
270.073	84.06
270.306	83.06
270.538	89.06
270.77	92.06
271.002	87.06
271.234	95.06
271.466	89.06
271.698	89.06
271.93	87.06
272.162	76.06
272.394	87.06
272.626	94.06
272.858	88.06
273.09	94.06
273.322	87.06
273.553	98.06
273.785	96.06
274.017	72.06
274.249	99.06
274.481	84.06
274.713	83.06
274.945	92.06
275.176	87.06
275.408	75.06
275.64	81.06
275.872	90.06
276.104	95.06
276.335	80.06
276.567	81.06
276.799	81.06
277.031	92.06
277.262	87.06
277.494	85.06
277.726	84.06
277.957	83.06
278.189	97.06
278.421	84.06
278.652	93.06
278.884	84.06
279.115	96.06
279.347	71.06
279.579	84.06
279.81	88.06
280.042	80.06
280.273	99.06
280.505	86.06
280.736	100.06
280.968	79.06
281.199	84.06
281.431	84.06
281.662	83.06
281.894	100.06
282.125	85.06
282.356	88.06
282.588	88.06
282.819	89.06
283.051	75.06
283.282	97.06
283.513	81.06
283.745	85.06
283.976	86.06
284.207	89.06
284.439	94.06
284.67	97.06
284.901	97.06
285.132	82.06
285.364	75.06
285.595	80.06
285.826	94.06
286.057	95.06
286.288	104.06
286.52	99.06
286.751	86.06
286.982	93.06
287.213	89.06
287.444	104.06
287.675	98.06
287.906	89.06
288.138	80.06
288.369	90.06
288.6	90.06
288.831	78.06
289.062	99.06
289.293	100.06
289.524	93.06
289.755	93.06
289.986	100.06
290.217	82.06
290.448	97.06
290.679	77.06
290.91	91.06
291.141	96.06
291.371	99.06
291.602	83.06
291.833	98.06
292.064	77.06
292.295	79.06
292.526	99.06
292.757	75.06
292.987	98.06
293.218	87.06
293.449	91.06
293.68	88.06
293.91	86.06
294.141	97.06
294.372	82.06
294.603	75.06
294.833	84.06
295.064	80.06
295.295	101.06
295.525	74.06
295.756	84.06
295.987	93.06
296.217	101.06
296.448	86.06
296.679	80.06
296.909	90.06
297.14	99.06
297.37	96.06
297.601	84.06
297.831	83.06
298.062	89.06
298.292	84.06
298.523	92.06
298.753	99.06
298.984	94.06
299.214	98.06
299.445	91.06
299.675	89.06
299.905	93.06
300.136	82.06
300.366	95.06
300.597	84.06
300.827	99.06
301.057	89.06
301.288	79.06
301.518	96.06
301.748	93.06
301.979	117.06
302.209	88.06
302.439	88.06
302.669	72.06
302.9	81.06
303.13	75.06
303.36	77.06
303.59	83.06
303.82	89.06
304.051	101.06
304.281	95.06
304.511	102.06
304.741	83.06
304.971	86.06
305.201	110.06
305.431	94.06
305.661	80.06
305.891	96.06
306.121	91.06
306.352	84.06
306.582	88.06
306.812	82.06
307.042	79.06
307.272	78.06
307.502	91.06
307.731	93.06
307.961	91.06
308.191	91.06
308.421	99.06
308.651	84.06
308.881	95.06
309.111	96.06
309.341	88.06
309.571	94.06
309.8	85.06
310.03	82.06
310.26	85.06
310.49	98.06
310.72	93.06
310.949	80.06
311.179	104.06
311.409	100.06
311.639	82.06
311.868	93.06
312.098	88.06
312.328	88.06
312.557	105.06
312.787	91.06
313.017	94.06
313.246	92.06
313.476	101.06
313.706	91.06
313.935	94.06
314.165	89.06
314.394	79.06
314.624	82.06
314.853	88.06
315.083	92.06
315.312	89.06
315.542	90.06
315.771	98.06
316.001	96.06
316.23	88.06
316.46	83.06
316.689	82.06
316.919	91.06
317.148	88.06
317.377	103.06
317.607	92.06
317.836	97.06
318.065	88.06
318.295	77.06
318.524	77.06
318.753	88.06
318.983	104.06
319.212	104.06
319.441	96.06
319.67	98.06
319.9	80.06
320.129	91.06
320.358	96.06
320.587	104.06
320.816	99.06
321.046	78.06
321.275	92.06
321.504	97.06
321.733	90.06
321.962	88.06
322.191	97.06
322.42	87.06
322.649	89.06
322.878	84.06
323.108	98.06
323.337	92.06
323.566	81.06
323.795	91.06
324.024	88.06
324.253	93.06
324.482	82.06
324.71	85.06
324.939	93.06
325.168	84.06
325.397	77.06
325.626	100.06
325.855	99.06
326.084	90.06
326.313	78.06
326.542	94.06
326.77	94.06
326.999	93.06
327.228	90.06
327.457	78.06
327.686	99.06
327.914	78.06
328.143	106.06
328.372	103.06
328.6	82.06
328.829	83.06
329.058	88.06
329.287	86.06
329.515	91.06
329.744	97.06
329.972	94.06
330.201	82.06
330.43	88.06
330.658	87.06
330.887	93.06
331.115	80.06
331.344	100.06
331.572	105.06
331.801	99.06
332.03	83.06
332.258	81.06
332.486	81.06
332.715	77.06
332.943	97.06
333.172	100.06
333.4	98.06
333.629	106.06
333.857	104.06
334.085	87.06
334.314	95.06
334.542	95.06
334.771	100.06
334.999	92.06
335.227	95.06
335.455	88.06
335.684	93.06
335.912	94.06
336.14	99.06
336.369	91.06
336.597	97.06
336.825	98.06
337.053	91.06
337.281	98.06
337.51	85.06
337.738	76.06
337.966	81.06
338.194	92.06
338.422	97.06
338.65	96.06
338.878	89.06
339.106	99.06
339.334	111.06
339.562	84.06
339.79	70.06
340.018	99.06
340.246	101.06
340.474	86.06
340.702	83.06
340.93	73.06
341.158	91.06
341.386	88.06
341.614	92.06
341.842	95.06
342.07	91.06
342.298	91.06
342.526	84.06
342.754	84.06
342.981	89.06
343.209	95.06
343.437	97.06
343.665	93.06
343.893	97.06
344.12	97.06
344.348	98.06
344.576	88.06
344.804	89.06
345.031	81.06
345.259	94.06
345.487	94.06
345.714	90.06
345.942	78.06
346.17	81.06
346.397	93.06
346.625	91.06
346.853	92.06
347.08	85.06
347.308	76.06
347.535	87.06
347.763	89.06
347.99	89.06
348.218	98.06
348.445	88.06
348.673	86.06
348.9	80.06
349.128	77.06
349.355	79.06
349.583	88.06
349.81	82.06
350.037	92.06
350.265	85.06
350.492	81.06
350.72	89.06
350.947	91.06
351.174	91.06
351.402	92.06
351.629	91.06
351.856	90.06
352.083	119.06
352.311	88.06
352.538	93.06
352.765	88.06
352.992	102.06
353.22	90.06
353.447	106.06
353.674	86.06
353.901	81.06
354.128	95.06
354.355	111.06
354.583	86.06
354.81	95.06
355.037	90.06
355.264	85.06
355.491	93.06
355.718	78.06
355.945	88.06
356.172	92.06
356.399	89.06
356.626	96.06
356.853	92.06
357.08	82.06
357.307	93.06
357.534	89.06
357.761	94.06
357.988	88.06
358.215	95.06
358.441	100.06
358.668	91.06
358.895	87.06
359.122	94.06
359.349	101.06
359.576	90.06
359.802	75.06
360.029	99.06
360.256	73.06
360.483	84.06
360.709	108.06
360.936	97.06
361.163	96.06
361.39	84.06
361.616	88.06
361.843	90.06
362.07	89.06
362.296	92.06
362.523	91.06
362.749	82.06
362.976	85.06
363.203	92.06
363.429	78.06
363.656	96.06
363.882	91.06
364.109	82.06
364.335	96.06
364.562	95.06
364.788	91.06
365.015	106.06
365.241	94.06
365.468	88.06
365.694	92.06
365.92	79.06
366.147	81.06
366.373	68.06
366.599	92.06
366.826	95.06
367.052	76.06
367.278	85.06
367.505	111.06
367.731	93.06
367.957	97.06
368.184	91.06
368.41	91.06
368.636	83.06
368.862	75.06
369.089	91.06
369.315	77.06
369.541	87.06
369.767	84.06
369.993	91.06
370.219	105.06
370.445	78.06
370.672	93.06
370.898	71.06
371.124	94.06
371.35	93.06
371.576	91.06
371.802	82.06
372.028	91.06
372.254	76.06
372.48	77.06
372.706	93.06
372.932	78.06
373.158	84.06
373.384	80.06
373.61	97.06
373.835	101.06
374.061	88.06
374.287	80.06
374.513	96.06
374.739	87.06
374.965	91.06
375.191	84.06
375.416	95.06
375.642	91.06
375.868	102.06
376.094	94.06
376.319	82.06
376.545	86.06
376.771	86.06
376.997	101.06
377.222	84.06
377.448	86.06
377.674	77.06
377.899	84.06
378.125	91.06
378.35	85.06
378.576	89.06
378.802	89.06
379.027	90.06
379.253	104.06
379.478	77.06
379.704	74.06
379.929	86.06
380.155	88.06
380.38	93.06
380.606	77.06
380.831	90.06
381.057	95.06
381.282	86.06
381.507	87.06
381.733	88.06
381.958	91.06
382.184	81.06
382.409	82.06
382.634	90.06
382.86	80.06
383.085	80.06
383.31	89.06
383.535	82.06
383.761	97.06
383.986	88.06
384.211	92.06
384.436	92.06
384.662	80.06
384.887	94.06
385.112	84.06
385.337	82.06
385.562	91.06
385.787	86.06
386.013	91.06
386.238	88.06
386.463	93.06
386.688	96.06
386.913	89.06
387.138	91.06
387.363	88.06
387.588	75.06
387.813	96.06
388.038	91.06
388.263	90.06
388.488	93.06
388.713	78.06
388.938	77.06
389.163	95.06
389.387	80.06
389.612	90.06
389.837	83.06
390.062	81.06
390.287	72.06
390.512	101.06
390.736	79.06
390.961	86.06
391.186	92.06
391.411	92.06
391.636	89.06
391.86	84.06
392.085	72.06
392.31	84.06
392.534	92.06
392.759	92.06
392.984	101.06
393.208	95.06
393.433	121.06
393.658	118.06
393.882	89.06
394.107	90.06
394.331	96.06
394.556	99.06
394.78	97.06
395.005	97.06
395.229	93.06
395.454	95.06
395.678	92.06
395.903	102.06
396.127	105.06
396.352	109.06
396.576	100.06
396.801	92.06
397.025	108.06
397.249	86.06
397.474	86.06
397.698	92.06
397.922	84.06
398.147	84.06
398.371	98.06
398.595	87.06
398.82	89.06
399.044	84.06
399.268	90.06
399.492	81.06
399.717	99.06
399.941	98.06
400.165	75.06
400.389	86.06
400.613	86.06
400.837	97.06
401.062	82.06
401.286	87.06
401.51	93.06
401.734	90.06
401.958	101.06
402.182	93.06
402.406	109.06
402.63	85.06
402.854	88.06
403.078	92.06
403.302	106.06
403.526	100.06
403.75	92.06
403.974	85.06
404.198	102.06
404.422	127.06
404.645	140.06
404.869	124.06
405.093	95.06
405.317	89.06
405.541	100.06
405.765	68.06
405.988	81.06
406.212	85.06
406.436	98.06
406.66	83.06
406.883	94.06
407.107	79.06
407.331	91.06
407.555	88.06
407.778	88.06
408.002	90.06
408.226	105.06
408.449	88.06
408.673	80.06
408.896	84.06
409.12	85.06
409.344	80.06
409.567	88.06
409.791	94.06
410.014	100.06
410.238	71.06
410.461	99.06
410.685	93.06
410.908	84.06
411.132	102.06
411.355	84.06
411.578	83.06
411.802	103.06
412.025	96.06
412.249	84.06
412.472	82.06
412.695	86.06
412.919	88.06
413.142	98.06
413.365	80.06
413.589	94.06
413.812	94.06
414.035	84.06
414.258	89.06
414.482	83.06
414.705	76.06
414.928	77.06
415.151	93.06
415.374	86.06
415.597	78.06
415.821	78.06
416.044	90.06
416.267	90.06
416.49	89.06
416.713	75.06
416.936	84.06
417.159	88.06
417.382	85.06
417.605	97.06
417.828	84.06
418.051	89.06
418.274	94.06
418.497	85.06
418.72	84.06
418.943	96.06
419.166	91.06
419.389	91.06
419.611	94.06
419.834	91.06
420.057	85.06
420.28	96.06
420.503	86.06
420.726	80.06
420.948	85.06
421.171	101.06
421.394	90.06
421.617	94.06
421.839	95.06
422.062	90.06
422.285	98.06
422.507	144.06
422.73	159.06
422.953	128.06
423.175	108.06
423.398	102.06
423.621	89.06
423.843	98.06
424.066	90.06
424.288	81.06
424.511	81.06
424.733	81.06
424.956	78.06
425.178	90.06
425.401	85.06
425.623	87.06
425.846	85.06
426.068	90.06
426.291	88.06
426.513	80.06
426.735	100.06
426.958	82.06
427.18	83.06
427.402	85.06
427.625	90.06
427.847	87.06
428.069	80.06
428.292	91.06
428.514	95.06
428.736	89.06
428.958	94.06
429.181	92.06
429.403	88.06
429.625	90.06
429.847	86.06
430.069	94.06
430.292	100.06
430.514	84.06
430.736	79.06
430.958	94.06
431.18	94.06
431.402	92.06
431.624	86.06
431.846	95.06
432.068	94.06
432.29	95.06
432.512	95.06
432.734	94.06
432.956	88.06
433.178	88.06
433.4	86.06
433.622	88.06
433.844	82.06
434.066	91.06
434.287	86.06
434.509	87.06
434.731	74.06
434.953	88.06
435.175	99.06
435.397	97.06
435.618	87.06
435.84	88.06
436.062	92.06
436.284	90.06
436.505	88.06
436.727	91.06
436.949	100.06
437.17	92.06
437.392	97.06
437.614	81.06
437.835	110.06
438.057	94.06
438.278	74.06
438.5	95.06
438.721	91.06
438.943	82.06
439.165	83.06
439.386	95.06
439.608	74.06
439.829	89.06
440.05	90.06
440.272	91.06
440.493	88.06
440.715	87.06
440.936	76.06
441.158	88.06
441.379	80.06
441.6	82.06
441.822	85.06
442.043	81.06
442.264	98.06
442.486	77.06
442.707	94.06
442.928	94.06
443.149	97.06
443.371	105.06
443.592	133.06
443.813	93.06
444.034	83.06
444.255	91.06
444.476	100.06
444.698	84.06
444.919	85.06
445.14	148.06
445.361	134.06
445.582	145.06
445.803	106.06
446.024	81.06
446.245	91.06
446.466	91.06
446.687	79.06
446.908	95.06
447.129	93.06
447.35	81.06
447.571	86.06
447.792	85.06
448.013	89.06
448.234	78.06
448.455	83.06
448.675	88.06
448.896	95.06
449.117	86.06
449.338	92.06
449.559	89.06
449.779	80.06
450	78.06
450.221	80.06
450.442	82.06
450.662	87.06
450.883	81.06
451.104	79.06
451.324	85.06
451.545	83.06
451.766	70.06
451.986	103.06
452.207	83.06
452.428	84.06
452.648	97.06
452.869	74.06
453.089	83.06
453.31	70.06
453.53	86.06
453.751	77.06
453.971	95.06
454.192	89.06
454.412	99.06
454.633	92.06
454.853	93.06
455.073	88.06
455.294	91.06
455.514	85.06
455.734	67.06
455.955	86.06
456.175	94.06
456.395	84.06
456.616	98.06
456.836	80.06
457.056	87.06
457.276	89.06
457.497	87.06
457.717	92.06
457.937	86.06
458.157	95.06
458.377	96.06
458.598	83.06
458.818	85.06
459.038	94.06
459.258	86.06
459.478	80.06
459.698	98.06
459.918	90.06
460.138	74.06
460.358	87.06
460.578	106.06
460.798	87.06
461.018	109.06
461.238	104.06
461.458	77.06
461.678	64.06
461.898	87.06
462.118	87.06
462.338	93.06
462.558	104.06
462.777	68.06
462.997	79.06
463.217	84.06
463.437	90.06
463.657	106.06
463.876	94.06
464.096	82.06
464.316	83.06
464.536	86.06
464.755	89.06
464.975	85.06
465.195	96.06
465.414	90.06
465.634	78.06
465.854	70.06
466.073	79.06
466.293	89.06
466.512	84.06
466.732	95.06
466.951	93.06
467.171	79.06
467.391	94.06
467.61	82.06
467.829	80.06
468.049	75.06
468.268	85.06
468.488	80.06
468.707	85.06
468.927	87.06
469.146	82.06
469.365	85.06
469.585	88.06
469.804	85.06
470.023	93.06
470.243	95.06
470.462	95.06
470.681	90.06
470.901	83.06
471.12	92.06
471.339	92.06
471.558	105.06
471.777	91.06
471.997	92.06
472.216	75.06
472.435	83.06
472.654	77.06
472.873	96.06
473.092	88.06
473.311	85.06
473.53	90.06
473.749	88.06
473.968	107.06
474.187	70.06
474.406	66.06
474.625	96.06
474.844	90.06
475.063	93.06
475.282	89.06
475.501	79.06
475.72	96.06
475.939	94.06
476.158	92.06
476.377	81.06
476.596	104.06
476.814	76.06
477.033	87.06
477.252	94.06
477.471	93.06
477.69	99.06
477.908	98.06
478.127	92.06
478.346	93.06
478.564	94.06
478.783	81.06
479.002	74.06
479.22	92.06
479.439	84.06
479.658	114.06
479.876	85.06
480.095	78.06
480.313	91.06
480.532	88.06
480.751	98.06
480.969	101.06
481.188	84.06
481.406	93.06
481.624	101.06
481.843	97.06
482.061	77.06
482.28	97.06
482.498	93.06
482.717	87.06
482.935	85.06
483.153	81.06
483.372	93.06
483.59	93.06
483.808	76.06
484.027	94.06
484.245	93.06
484.463	89.06
484.681	108.06
484.9	87.06
485.118	82.06
485.336	95.06
485.554	96.06
485.772	84.06
485.99	80.06
486.209	85.06
486.427	94.06
486.645	84.06
486.863	93.06
487.081	74.06
487.299	88.06
487.517	93.06
487.735	87.06
487.953	106.06
488.171	99.06
488.389	82.06
488.607	92.06
488.825	82.06
489.043	81.06
489.261	98.06
489.479	101.06
489.696	88.06
489.914	89.06
490.132	93.06
490.35	109.06
490.568	92.06
490.786	96.06
491.003	96.06
491.221	88.06
491.439	88.06
491.657	108.06
491.874	88.06
492.092	107.06
492.31	85.06
492.527	102.06
492.745	98.06
492.963	85.06
493.18	98.06
493.398	82.06
493.615	109.06
493.833	87.06
494.05	95.06
494.268	89.06
494.485	89.06
494.703	93.06
494.92	82.06
495.138	84.06
495.355	86.06
495.573	97.06
495.79	90.06
496.008	94.06
496.225	104.06
496.442	89.06
496.66	82.06
496.877	90.06
497.094	86.06
497.312	89.06
497.529	100.06
497.746	81.06
497.963	87.06
498.181	80.06
498.398	85.06
498.615	92.06
498.832	68.06
499.049	88.06
499.267	102.06
499.484	93.06
499.701	104.06
499.918	101.06
500.135	87.06
500.352	95.06
500.569	85.06
500.786	105.06
501.003	89.06
501.22	85.06
501.437	93.06
501.654	88.06
501.871	100.06
502.088	96.06
502.305	93.06
502.522	91.06
502.739	89.06
502.956	99.06
503.172	85.06
503.389	85.06
503.606	94.06
503.823	97.06
504.04	88.06
504.256	80.06
504.473	100.06
504.69	89.06
504.907	88.06
505.123	98.06
505.34	97.06
505.557	93.06
505.773	82.06
505.99	93.06
506.207	95.06
506.423	107.06
506.64	91.06
506.856	89.06
507.073	89.06
507.289	88.06
507.506	97.06
507.722	77.06
507.939	102.06
508.155	98.06
508.372	100.06
508.588	93.06
508.805	98.06
509.021	97.06
509.238	102.06
509.454	94.06
509.67	82.06
509.887	74.06
510.103	84.06
510.319	80.06
510.536	104.06
510.752	95.06
510.968	98.06
511.184	95.06
511.401	82.06
511.617	85.06
511.833	97.06
512.049	85.06
512.265	96.06
512.481	86.06
512.698	95.06
512.914	82.06
513.13	89.06
513.346	91.06
513.562	106.06
513.778	90.06
513.994	94.06
514.21	94.06
514.426	102.06
514.642	92.06
514.858	80.06
515.074	92.06
515.29	95.06
515.506	91.06
515.721	85.06
515.937	76.06
516.153	82.06
516.369	87.06
516.585	85.06
516.801	85.06
517.016	85.06
517.232	89.06
517.448	85.06
517.664	92.06
517.879	86.06
518.095	90.06
518.311	89.06
