Data from Mixnoheat3_HRD10591_00005.txt Node
Date: Fri Dec 27 15:01:29 EST 2024
User: Yrep
Spectrometer: HR+D1059
Trigger mode: 1
Integration Time (sec): 1.000000E-1
Scans to average: 1
Electric dark correction enabled: true
Nonlinearity correction enabled: false
Boxcar width: 0
XAxis mode: Wavelengths
Number of Pixels in Spectrum: 2048
>>>>>Begin Spectral Data<<<<<
223.165	-35.56
223.4	-35.56
223.635	-35.56
223.869	-26.56
224.104	-16.56
224.338	-15.56
224.573	-7.56
224.808	-8.56
225.042	-12.56
225.277	-1.56
225.511	-1.56
225.746	8.44
225.98	-8.56
226.215	19.44
226.449	29.44
226.683	31.44
226.918	31.44
227.152	14.44
227.387	39.44
227.621	43.44
227.856	58.44
228.09	55.44
228.324	54.44
228.559	60.44
228.793	70.44
229.027	68.44
229.262	58.44
229.496	59.44
229.73	76.44
229.964	70.44
230.199	79.44
230.433	83.44
230.667	78.44
230.901	72.44
231.136	70.44
231.37	68.44
231.604	74.44
231.838	86.44
232.072	79.44
232.306	85.44
232.541	72.44
232.775	83.44
233.009	75.44
233.243	74.44
233.477	77.44
233.711	83.44
233.945	82.44
234.179	92.44
234.413	100.44
234.647	87.44
234.881	76.44
235.115	88.44
235.349	72.44
235.583	84.44
235.817	86.44
236.051	67.44
236.285	73.44
236.519	78.44
236.753	71.44
236.987	79.44
237.221	79.44
237.455	77.44
237.689	88.44
237.922	75.44
238.156	67.44
238.39	70.44
238.624	69.44
238.858	63.44
239.091	83.44
239.325	72.44
239.559	70.44
239.793	69.44
240.027	77.44
240.26	77.44
240.494	88.44
240.728	83.44
240.961	84.44
241.195	78.44
241.429	80.44
241.662	77.44
241.896	82.44
242.13	73.44
242.363	77.44
242.597	71.44
242.83	86.44
243.064	87.44
243.298	83.44
243.531	75.44
243.765	77.44
243.998	81.44
244.232	78.44
244.465	85.44
244.699	68.44
244.932	85.44
245.166	80.44
245.399	76.44
245.633	85.44
245.866	72.44
246.099	79.44
246.333	66.44
246.566	75.44
246.8	60.44
247.033	79.44
247.266	83.44
247.5	84.44
247.733	79.44
247.966	76.44
248.2	87.44
248.433	87.44
248.666	77.44
248.899	68.44
249.133	84.44
249.366	83.44
249.599	77.44
249.832	78.44
250.066	82.44
250.299	84.44
250.532	74.44
250.765	75.44
250.998	84.44
251.231	79.44
251.465	86.44
251.698	73.44
251.931	82.44
252.164	86.44
252.397	81.44
252.63	80.44
252.863	78.44
253.096	83.44
253.329	80.44
253.562	91.44
253.795	88.44
254.028	91.44
254.261	76.44
254.494	81.44
254.727	88.44
254.96	86.44
255.193	88.44
255.426	91.44
255.659	75.44
255.892	78.44
256.124	90.44
256.357	87.44
256.59	92.44
256.823	84.44
257.056	83.44
257.289	80.44
257.521	71.44
257.754	85.44
257.987	75.44
258.22	83.44
258.452	87.44
258.685	87.44
258.918	59.44
259.151	83.44
259.383	89.44
259.616	81.44
259.849	83.44
260.081	83.44
260.314	75.44
260.547	82.44
260.779	83.44
261.012	90.44
261.244	91.44
261.477	84.44
261.71	80.44
261.942	82.44
262.175	84.44
262.407	74.44
262.64	80.44
262.872	72.44
263.105	86.44
263.337	74.44
263.57	99.44
263.802	84.44
264.035	81.44
264.267	84.44
264.499	85.44
264.732	93.44
264.964	87.44
265.197	90.44
265.429	71.44
265.661	78.44
265.894	87.44
266.126	79.44
266.358	83.44
266.591	72.44
266.823	88.44
267.055	90.44
267.287	88.44
267.52	88.44
267.752	74.44
267.984	101.44
268.216	83.44
268.448	94.44
268.681	82.44
268.913	83.44
269.145	84.44
269.377	100.44
269.609	99.44
269.841	82.44
270.073	98.44
270.306	90.44
270.538	84.44
270.77	74.44
271.002	88.44
271.234	80.44
271.466	86.44
271.698	79.44
271.93	73.44
272.162	76.44
272.394	88.44
272.626	85.44
272.858	92.44
273.09	83.44
273.322	85.44
273.553	77.44
273.785	82.44
274.017	84.44
274.249	94.44
274.481	77.44
274.713	77.44
274.945	67.44
275.176	85.44
275.408	77.44
275.64	79.44
275.872	86.44
276.104	76.44
276.335	75.44
276.567	78.44
276.799	72.44
277.031	87.44
277.262	91.44
277.494	83.44
277.726	101.44
277.957	74.44
278.189	80.44
278.421	79.44
278.652	79.44
278.884	87.44
279.115	82.44
279.347	90.44
279.579	99.44
279.81	87.44
280.042	85.44
280.273	83.44
280.505	93.44
280.736	76.44
280.968	97.44
281.199	79.44
281.431	98.44
281.662	90.44
281.894	87.44
282.125	90.44
282.356	86.44
282.588	77.44
282.819	79.44
283.051	85.44
283.282	86.44
283.513	74.44
283.745	86.44
283.976	98.44
284.207	89.44
284.439	96.44
284.67	87.44
284.901	88.44
285.132	96.44
285.364	91.44
285.595	90.44
285.826	91.44
286.057	83.44
286.288	91.44
286.52	91.44
286.751	91.44
286.982	85.44
287.213	89.44
287.444	76.44
287.675	82.44
287.906	80.44
288.138	92.44
288.369	87.44
288.6	94.44
288.831	82.44
289.062	85.44
289.293	89.44
289.524	76.44
289.755	78.44
289.986	80.44
290.217	87.44
290.448	98.44
290.679	85.44
290.91	96.44
291.141	94.44
291.371	98.44
291.602	90.44
291.833	91.44
292.064	92.44
292.295	85.44
292.526	81.44
292.757	86.44
292.987	80.44
293.218	84.44
293.449	91.44
293.68	86.44
293.91	82.44
294.141	95.44
294.372	87.44
294.603	95.44
294.833	84.44
295.064	87.44
295.295	90.44
295.525	82.44
295.756	94.44
295.987	92.44
296.217	102.44
296.448	81.44
296.679	86.44
296.909	102.44
297.14	92.44
297.37	75.44
297.601	92.44
297.831	95.44
298.062	91.44
298.292	88.44
298.523	78.44
298.753	75.44
298.984	93.44
299.214	85.44
299.445	89.44
299.675	77.44
299.905	92.44
300.136	84.44
300.366	85.44
300.597	84.44
300.827	92.44
301.057	85.44
301.288	91.44
301.518	87.44
301.748	87.44
301.979	97.44
302.209	86.44
302.439	85.44
302.669	77.44
302.9	84.44
303.13	84.44
303.36	79.44
303.59	93.44
303.82	90.44
304.051	87.44
304.281	90.44
304.511	100.44
304.741	75.44
304.971	103.44
305.201	70.44
305.431	92.44
305.661	83.44
305.891	77.44
306.121	75.44
306.352	91.44
306.582	89.44
306.812	84.44
307.042	81.44
307.272	100.44
307.502	80.44
307.731	87.44
307.961	91.44
308.191	89.44
308.421	79.44
308.651	101.44
308.881	100.44
309.111	87.44
309.341	94.44
309.571	93.44
309.8	96.44
310.03	107.44
310.26	92.44
310.49	84.44
310.72	101.44
310.949	70.44
311.179	98.44
311.409	98.44
311.639	85.44
311.868	100.44
312.098	88.44
312.328	88.44
312.557	88.44
312.787	90.44
313.017	84.44
313.246	77.44
313.476	89.44
313.706	89.44
313.935	82.44
314.165	94.44
314.394	104.44
314.624	82.44
314.853	98.44
315.083	90.44
315.312	99.44
315.542	100.44
315.771	83.44
316.001	84.44
316.23	85.44
316.46	83.44
316.689	86.44
316.919	103.44
317.148	80.44
317.377	91.44
317.607	84.44
317.836	59.44
318.065	76.44
318.295	87.44
318.524	90.44
318.753	98.44
318.983	79.44
319.212	62.44
319.441	87.44
319.67	82.44
319.9	83.44
320.129	91.44
320.358	85.44
320.587	86.44
320.816	87.44
321.046	92.44
321.275	94.44
321.504	83.44
321.733	80.44
321.962	80.44
322.191	93.44
322.42	83.44
322.649	86.44
322.878	86.44
323.108	93.44
323.337	90.44
323.566	94.44
323.795	105.44
324.024	87.44
324.253	81.44
324.482	87.44
324.71	90.44
324.939	86.44
325.168	90.44
325.397	90.44
325.626	90.44
325.855	85.44
326.084	75.44
326.313	86.44
326.542	90.44
326.77	86.44
326.999	75.44
327.228	76.44
327.457	96.44
327.686	79.44
327.914	94.44
328.143	101.44
328.372	76.44
328.6	85.44
328.829	100.44
329.058	88.44
329.287	89.44
329.515	82.44
329.744	99.44
329.972	87.44
330.201	83.44
330.43	99.44
330.658	85.44
330.887	75.44
331.115	83.44
331.344	98.44
331.572	92.44
331.801	91.44
332.03	88.44
332.258	94.44
332.486	94.44
332.715	85.44
332.943	88.44
333.172	84.44
333.4	83.44
333.629	84.44
333.857	92.44
334.085	86.44
334.314	100.44
334.542	82.44
334.771	92.44
334.999	86.44
335.227	93.44
335.455	81.44
335.684	89.44
335.912	91.44
336.14	91.44
336.369	96.44
336.597	89.44
336.825	89.44
337.053	79.44
337.281	88.44
337.51	96.44
337.738	81.44
337.966	84.44
338.194	75.44
338.422	72.44
338.65	90.44
338.878	88.44
339.106	105.44
339.334	87.44
339.562	90.44
339.79	81.44
340.018	89.44
340.246	83.44
340.474	83.44
340.702	60.44
340.93	84.44
341.158	84.44
341.386	77.44
341.614	85.44
341.842	74.44
342.07	78.44
342.298	98.44
342.526	85.44
342.754	78.44
342.981	91.44
343.209	90.44
343.437	91.44
343.665	81.44
343.893	101.44
344.12	86.44
344.348	86.44
344.576	79.44
344.804	93.44
345.031	88.44
345.259	85.44
345.487	98.44
345.714	90.44
345.942	91.44
346.17	89.44
346.397	75.44
346.625	83.44
346.853	81.44
347.08	76.44
347.308	88.44
347.535	85.44
347.763	69.44
347.99	87.44
348.218	73.44
348.445	78.44
348.673	91.44
348.9	87.44
349.128	84.44
349.355	85.44
349.583	85.44
349.81	84.44
350.037	77.44
350.265	87.44
350.492	82.44
350.72	94.44
350.947	93.44
351.174	96.44
351.402	94.44
351.629	92.44
351.856	102.44
352.083	78.44
352.311	81.44
352.538	72.44
352.765	97.44
352.992	94.44
353.22	93.44
353.447	83.44
353.674	77.44
353.901	85.44
354.128	98.44
354.355	88.44
354.583	86.44
354.81	94.44
355.037	85.44
355.264	94.44
355.491	85.44
355.718	92.44
355.945	81.44
356.172	82.44
356.399	86.44
356.626	83.44
356.853	88.44
357.08	96.44
357.307	89.44
357.534	74.44
357.761	89.44
357.988	106.44
358.215	86.44
358.441	85.44
358.668	91.44
358.895	78.44
359.122	87.44
359.349	78.44
359.576	86.44
359.802	75.44
360.029	79.44
360.256	99.44
360.483	82.44
360.709	76.44
360.936	99.44
361.163	78.44
361.39	86.44
361.616	68.44
361.843	93.44
362.07	88.44
362.296	103.44
362.523	93.44
362.749	95.44
362.976	86.44
363.203	89.44
363.429	89.44
363.656	99.44
363.882	79.44
364.109	94.44
364.335	90.44
364.562	101.44
364.788	74.44
365.015	100.44
365.241	95.44
365.468	86.44
365.694	85.44
365.92	89.44
366.147	88.44
366.373	81.44
366.599	90.44
366.826	103.44
367.052	84.44
367.278	84.44
367.505	94.44
367.731	90.44
367.957	88.44
368.184	103.44
368.41	83.44
368.636	102.44
368.862	85.44
369.089	90.44
369.315	87.44
369.541	96.44
369.767	91.44
369.993	95.44
370.219	72.44
370.445	98.44
370.672	87.44
370.898	94.44
371.124	85.44
371.35	89.44
371.576	95.44
371.802	90.44
372.028	82.44
372.254	90.44
372.48	80.44
372.706	102.44
372.932	83.44
373.158	89.44
373.384	100.44
373.61	87.44
373.835	87.44
374.061	87.44
374.287	90.44
374.513	99.44
374.739	80.44
374.965	94.44
375.191	87.44
375.416	97.44
375.642	86.44
375.868	82.44
376.094	82.44
376.319	79.44
376.545	81.44
376.771	84.44
376.997	86.44
377.222	87.44
377.448	92.44
377.674	76.44
377.899	103.44
378.125	86.44
378.35	74.44
378.576	91.44
378.802	76.44
379.027	77.44
379.253	90.44
379.478	67.44
379.704	81.44
379.929	97.44
380.155	86.44
380.38	82.44
380.606	93.44
380.831	85.44
381.057	82.44
381.282	101.44
381.507	90.44
381.733	82.44
381.958	87.44
382.184	90.44
382.409	78.44
382.634	91.44
382.86	71.44
383.085	81.44
383.31	73.44
383.535	93.44
383.761	86.44
383.986	86.44
384.211	91.44
384.436	92.44
384.662	91.44
384.887	80.44
385.112	81.44
385.337	94.44
385.562	86.44
385.787	76.44
386.013	81.44
386.238	80.44
386.463	88.44
386.688	100.44
386.913	89.44
387.138	87.44
387.363	87.44
387.588	86.44
387.813	71.44
388.038	84.44
388.263	82.44
388.488	75.44
388.713	88.44
388.938	91.44
389.163	86.44
389.387	86.44
389.612	90.44
389.837	81.44
390.062	100.44
390.287	80.44
390.512	100.44
390.736	79.44
390.961	75.44
391.186	78.44
391.411	87.44
391.636	85.44
391.86	104.44
392.085	96.44
392.31	108.44
392.534	102.44
392.759	87.44
392.984	105.44
393.208	108.44
393.433	123.44
393.658	107.44
393.882	100.44
394.107	102.44
394.331	87.44
394.556	102.44
394.78	92.44
395.005	88.44
395.229	87.44
395.454	98.44
395.678	96.44
395.903	90.44
396.127	113.44
396.352	102.44
396.576	102.44
396.801	128.44
397.025	129.44
397.249	91.44
397.474	85.44
397.698	81.44
397.922	88.44
398.147	83.44
398.371	90.44
398.595	85.44
398.82	78.44
399.044	79.44
399.268	73.44
399.492	95.44
399.717	90.44
399.941	87.44
400.165	75.44
400.389	91.44
400.613	95.44
400.837	90.44
401.062	83.44
401.286	84.44
401.51	76.44
401.734	85.44
401.958	83.44
402.182	88.44
402.406	102.44
402.63	82.44
402.854	85.44
403.078	93.44
403.302	100.44
403.526	100.44
403.75	92.44
403.974	79.44
404.198	107.44
404.422	146.44
404.645	132.44
404.869	128.44
405.093	92.44
405.317	84.44
405.541	99.44
405.765	84.44
405.988	87.44
406.212	83.44
406.436	75.44
406.66	78.44
406.883	74.44
407.107	75.44
407.331	80.44
407.555	73.44
407.778	82.44
408.002	85.44
408.226	89.44
408.449	86.44
408.673	90.44
408.896	83.44
409.12	87.44
409.344	99.44
409.567	82.44
409.791	85.44
410.014	84.44
410.238	79.44
410.461	95.44
410.685	105.44
410.908	86.44
411.132	81.44
411.355	87.44
411.578	78.44
411.802	72.44
412.025	92.44
412.249	81.44
412.472	88.44
412.695	89.44
412.919	92.44
413.142	83.44
413.365	78.44
413.589	83.44
413.812	71.44
414.035	95.44
414.258	75.44
414.482	95.44
414.705	73.44
414.928	92.44
415.151	94.44
415.374	82.44
415.597	91.44
415.821	73.44
416.044	84.44
416.267	88.44
416.49	79.44
416.713	93.44
416.936	88.44
417.159	83.44
417.382	80.44
417.605	89.44
417.828	69.44
418.051	92.44
418.274	89.44
418.497	78.44
418.72	72.44
418.943	81.44
419.166	91.44
419.389	94.44
419.611	99.44
419.834	88.44
420.057	93.44
420.28	82.44
420.503	74.44
420.726	86.44
420.948	85.44
421.171	89.44
421.394	82.44
421.617	95.44
421.839	98.44
422.062	91.44
422.285	101.44
422.507	162.44
422.73	181.44
422.953	147.44
423.175	108.44
423.398	91.44
423.621	101.44
423.843	84.44
424.066	86.44
424.288	85.44
424.511	94.44
424.733	77.44
424.956	94.44
425.178	94.44
425.401	89.44
425.623	93.44
425.846	79.44
426.068	76.44
426.291	87.44
426.513	80.44
426.735	86.44
426.958	83.44
427.18	88.44
427.402	76.44
427.625	94.44
427.847	81.44
428.069	101.44
428.292	101.44
428.514	109.44
428.736	106.44
428.958	108.44
429.181	109.44
429.403	87.44
429.625	88.44
429.847	105.44
430.069	101.44
430.292	121.44
430.514	106.44
430.736	102.44
430.958	88.44
431.18	76.44
431.402	86.44
431.624	79.44
431.846	97.44
432.068	113.44
432.29	74.44
432.512	78.44
432.734	87.44
432.956	85.44
433.178	83.44
433.4	96.44
433.622	98.44
433.844	81.44
434.066	77.44
434.287	89.44
434.509	77.44
434.731	79.44
434.953	82.44
435.175	94.44
435.397	90.44
435.618	86.44
435.84	79.44
436.062	87.44
436.284	78.44
436.505	80.44
436.727	96.44
436.949	88.44
437.17	78.44
437.392	87.44
437.614	81.44
437.835	83.44
438.057	68.44
438.278	94.44
438.5	101.44
438.721	92.44
438.943	72.44
439.165	88.44
439.386	83.44
439.608	84.44
439.829	87.44
440.05	87.44
440.272	61.44
440.493	80.44
440.715	76.44
440.936	82.44
441.158	91.44
441.379	79.44
441.6	76.44
441.822	83.44
442.043	84.44
442.264	92.44
442.486	94.44
442.707	112.44
442.928	90.44
443.149	100.44
443.371	126.44
443.592	132.44
443.813	125.44
444.034	96.44
444.255	87.44
444.476	105.44
444.698	94.44
444.919	95.44
445.14	152.44
445.361	150.44
445.582	136.44
445.803	113.44
446.024	100.44
446.245	92.44
446.466	97.44
446.687	74.44
446.908	85.44
447.129	83.44
447.35	78.44
447.571	89.44
447.792	90.44
448.013	70.44
448.234	60.44
448.455	82.44
448.675	72.44
448.896	90.44
449.117	79.44
449.338	72.44
449.559	98.44
449.779	86.44
450	80.44
450.221	82.44
450.442	86.44
450.662	86.44
450.883	87.44
451.104	77.44
451.324	89.44
451.545	86.44
451.766	78.44
451.986	83.44
452.207	88.44
452.428	87.44
452.648	82.44
452.869	84.44
453.089	79.44
453.31	87.44
453.53	75.44
453.751	81.44
453.971	78.44
454.192	78.44
454.412	94.44
454.633	81.44
454.853	86.44
455.073	67.44
455.294	83.44
455.514	84.44
455.734	84.44
455.955	78.44
456.175	86.44
456.395	92.44
456.616	92.44
456.836	98.44
457.056	88.44
457.276	87.44
457.497	79.44
457.717	74.44
457.937	87.44
458.157	95.44
458.377	83.44
458.598	75.44
458.818	94.44
459.038	96.44
459.258	90.44
459.478	79.44
459.698	70.44
459.918	90.44
460.138	87.44
460.358	83.44
460.578	94.44
460.798	90.44
461.018	91.44
461.238	86.44
461.458	96.44
461.678	69.44
461.898	79.44
462.118	89.44
462.338	74.44
462.558	86.44
462.777	77.44
462.997	89.44
463.217	92.44
463.437	79.44
463.657	85.44
463.876	75.44
464.096	80.44
464.316	82.44
464.536	75.44
464.755	83.44
464.975	83.44
465.195	80.44
465.414	83.44
465.634	86.44
465.854	67.44
466.073	80.44
466.293	83.44
466.512	73.44
466.732	100.44
466.951	74.44
467.171	94.44
467.391	91.44
467.61	97.44
467.829	94.44
468.049	98.44
468.268	85.44
468.488	84.44
468.707	84.44
468.927	95.44
469.146	87.44
469.365	80.44
469.585	85.44
469.804	72.44
470.023	81.44
470.243	74.44
470.462	91.44
470.681	82.44
470.901	94.44
471.12	77.44
471.339	84.44
471.558	82.44
471.777	71.44
471.997	82.44
472.216	80.44
472.435	90.44
472.654	93.44
472.873	88.44
473.092	80.44
473.311	84.44
473.53	94.44
473.749	73.44
473.968	83.44
474.187	76.44
474.406	75.44
474.625	89.44
474.844	84.44
475.063	80.44
475.282	95.44
475.501	92.44
475.72	83.44
475.939	82.44
476.158	72.44
476.377	88.44
476.596	72.44
476.814	89.44
477.033	98.44
477.252	84.44
477.471	81.44
477.69	93.44
477.908	79.44
478.127	101.44
478.346	96.44
478.564	84.44
478.783	83.44
479.002	81.44
479.22	93.44
479.439	75.44
479.658	82.44
479.876	71.44
480.095	79.44
480.313	98.44
480.532	81.44
480.751	84.44
480.969	85.44
481.188	90.44
481.406	82.44
481.624	93.44
481.843	96.44
482.061	96.44
482.28	95.44
482.498	84.44
482.717	80.44
482.935	88.44
483.153	88.44
483.372	84.44
483.59	91.44
483.808	83.44
484.027	106.44
484.245	78.44
484.463	85.44
484.681	100.44
484.9	81.44
485.118	84.44
485.336	78.44
485.554	81.44
485.772	87.44
485.99	91.44
486.209	89.44
486.427	71.44
486.645	73.44
486.863	68.44
487.081	98.44
487.299	89.44
487.517	87.44
487.735	102.44
487.953	96.44
488.171	103.44
488.389	78.44
488.607	82.44
488.825	94.44
489.043	86.44
489.261	84.44
489.479	95.44
489.696	83.44
489.914	88.44
490.132	100.44
490.35	81.44
490.568	80.44
490.786	86.44
491.003	91.44
491.221	82.44
491.439	67.44
491.657	85.44
491.874	79.44
492.092	73.44
492.31	86.44
492.527	86.44
492.745	86.44
492.963	85.44
493.18	87.44
493.398	97.44
493.615	88.44
493.833	73.44
494.05	87.44
494.268	92.44
494.485	95.44
494.703	85.44
494.92	84.44
495.138	75.44
495.355	84.44
495.573	96.44
495.79	98.44
496.008	90.44
496.225	106.44
496.442	87.44
496.66	94.44
496.877	77.44
497.094	85.44
497.312	70.44
497.529	80.44
497.746	91.44
497.963	81.44
498.181	76.44
498.398	80.44
498.615	82.44
498.832	87.44
499.049	81.44
499.267	84.44
499.484	84.44
499.701	85.44
499.918	90.44
500.135	88.44
500.352	87.44
500.569	87.44
500.786	79.44
501.003	74.44
501.22	94.44
501.437	74.44
501.654	95.44
501.871	86.44
502.088	90.44
502.305	88.44
502.522	77.44
502.739	98.44
502.956	71.44
503.172	78.44
503.389	80.44
503.606	74.44
503.823	77.44
504.04	89.44
504.256	110.44
504.473	93.44
504.69	100.44
504.907	98.44
505.123	77.44
505.34	80.44
505.557	86.44
505.773	106.44
505.99	87.44
506.207	96.44
506.423	95.44
506.64	98.44
506.856	88.44
507.073	88.44
507.289	90.44
507.506	92.44
507.722	102.44
507.939	82.44
508.155	81.44
508.372	74.44
508.588	88.44
508.805	79.44
509.021	85.44
509.238	70.44
509.454	76.44
509.67	88.44
509.887	84.44
510.103	85.44
510.319	96.44
510.536	90.44
510.752	93.44
510.968	106.44
511.184	79.44
511.401	80.44
511.617	84.44
511.833	87.44
512.049	79.44
512.265	99.44
512.481	85.44
512.698	85.44
512.914	79.44
513.13	84.44
513.346	67.44
513.562	101.44
513.778	93.44
513.994	85.44
514.21	84.44
514.426	86.44
514.642	88.44
514.858	78.44
515.074	82.44
515.29	91.44
515.506	83.44
515.721	91.44
515.937	89.44
516.153	94.44
516.369	83.44
516.585	74.44
516.801	87.44
517.016	83.44
517.232	87.44
517.448	83.44
517.664	96.44
517.879	82.44
518.095	85.44
518.311	90.44
518.527	90.44
518.742	100.44
