Data from Mixnoheat3_HRD10591_00018.txt Node
Date: Fri Dec 27 15:01:42 EST 2024
User: Yrep
Spectrometer: HR+D1059
Trigger mode: 1
Integration Time (sec): 1.000000E-1
Scans to average: 1
Electric dark correction enabled: true
Nonlinearity correction enabled: false
Boxcar width: 0
XAxis mode: Wavelengths
Number of Pixels in Spectrum: 2048
>>>>>Begin Spectral Data<<<<<
223.165	-14.5
223.4	-14.5
223.635	-14.5
223.869	-14.5
224.104	-25.5
224.338	-14.5
224.573	-17.5
224.808	-14.5
225.042	3.5
225.277	-10.5
225.511	8.5
225.746	-4.5
225.98	11.5
226.215	-0.5
226.449	23.5
226.683	21.5
226.918	18.5
227.152	29.5
227.387	27.5
227.621	38.5
227.856	61.5
228.09	49.5
228.324	48.5
228.559	46.5
228.793	70.5
229.027	67.5
229.262	68.5
229.496	58.5
229.73	53.5
229.964	69.5
230.199	71.5
230.433	63.5
230.667	62.5
230.901	68.5
231.136	76.5
231.37	78.5
231.604	83.5
231.838	74.5
232.072	84.5
232.306	74.5
232.541	69.5
232.775	69.5
233.009	89.5
233.243	80.5
233.477	71.5
233.711	73.5
233.945	64.5
234.179	67.5
234.413	98.5
234.647	69.5
234.881	74.5
235.115	82.5
235.349	72.5
235.583	80.5
235.817	81.5
236.051	79.5
236.285	81.5
236.519	73.5
236.753	74.5
236.987	79.5
237.221	58.5
237.455	57.5
237.689	67.5
237.922	79.5
238.156	67.5
238.39	78.5
238.624	67.5
238.858	77.5
239.091	84.5
239.325	64.5
239.559	75.5
239.793	85.5
240.027	75.5
240.26	70.5
240.494	63.5
240.728	71.5
240.961	73.5
241.195	63.5
241.429	63.5
241.662	64.5
241.896	68.5
242.13	74.5
242.363	81.5
242.597	80.5
242.83	70.5
243.064	73.5
243.298	80.5
243.531	80.5
243.765	82.5
243.998	86.5
244.232	85.5
244.465	78.5
244.699	75.5
244.932	65.5
245.166	72.5
245.399	86.5
245.633	66.5
245.866	78.5
246.099	88.5
246.333	77.5
246.566	66.5
246.8	67.5
247.033	75.5
247.266	59.5
247.5	76.5
247.733	77.5
247.966	68.5
248.2	69.5
248.433	78.5
248.666	69.5
248.899	80.5
249.133	64.5
249.366	74.5
249.599	76.5
249.832	85.5
250.066	93.5
250.299	72.5
250.532	85.5
250.765	83.5
250.998	78.5
251.231	94.5
251.465	74.5
251.698	72.5
251.931	86.5
252.164	87.5
252.397	73.5
252.63	73.5
252.863	64.5
253.096	90.5
253.329	80.5
253.562	79.5
253.795	81.5
254.028	83.5
254.261	71.5
254.494	82.5
254.727	66.5
254.96	79.5
255.193	68.5
255.426	72.5
255.659	76.5
255.892	86.5
256.124	73.5
256.357	92.5
256.59	75.5
256.823	71.5
257.056	91.5
257.289	86.5
257.521	80.5
257.754	80.5
257.987	86.5
258.22	87.5
258.452	73.5
258.685	84.5
258.918	65.5
259.151	87.5
259.383	78.5
259.616	85.5
259.849	80.5
260.081	67.5
260.314	83.5
260.547	76.5
260.779	82.5
261.012	93.5
261.244	81.5
261.477	80.5
261.71	74.5
261.942	72.5
262.175	83.5
262.407	78.5
262.64	67.5
262.872	66.5
263.105	75.5
263.337	87.5
263.57	95.5
263.802	80.5
264.035	82.5
264.267	70.5
264.499	83.5
264.732	84.5
264.964	62.5
265.197	74.5
265.429	71.5
265.661	67.5
265.894	88.5
266.126	86.5
266.358	77.5
266.591	84.5
266.823	87.5
267.055	84.5
267.287	68.5
267.52	80.5
267.752	62.5
267.984	91.5
268.216	73.5
268.448	88.5
268.681	77.5
268.913	82.5
269.145	91.5
269.377	69.5
269.609	81.5
269.841	68.5
270.073	72.5
270.306	86.5
270.538	91.5
270.77	78.5
271.002	81.5
271.234	78.5
271.466	77.5
271.698	83.5
271.93	80.5
272.162	85.5
272.394	97.5
272.626	79.5
272.858	75.5
273.09	61.5
273.322	65.5
273.553	77.5
273.785	82.5
274.017	84.5
274.249	75.5
274.481	87.5
274.713	93.5
274.945	77.5
275.176	86.5
275.408	71.5
275.64	75.5
275.872	83.5
276.104	88.5
276.335	82.5
276.567	80.5
276.799	78.5
277.031	85.5
277.262	90.5
277.494	78.5
277.726	74.5
277.957	74.5
278.189	71.5
278.421	75.5
278.652	82.5
278.884	83.5
279.115	75.5
279.347	69.5
279.579	84.5
279.81	76.5
280.042	91.5
280.273	94.5
280.505	83.5
280.736	84.5
280.968	90.5
281.199	73.5
281.431	82.5
281.662	79.5
281.894	72.5
282.125	63.5
282.356	85.5
282.588	76.5
282.819	77.5
283.051	78.5
283.282	87.5
283.513	78.5
283.745	82.5
283.976	89.5
284.207	76.5
284.439	77.5
284.67	88.5
284.901	79.5
285.132	74.5
285.364	82.5
285.595	81.5
285.826	83.5
286.057	82.5
286.288	78.5
286.52	91.5
286.751	78.5
286.982	102.5
287.213	82.5
287.444	97.5
287.675	82.5
287.906	76.5
288.138	91.5
288.369	89.5
288.6	89.5
288.831	73.5
289.062	81.5
289.293	74.5
289.524	74.5
289.755	78.5
289.986	73.5
290.217	91.5
290.448	76.5
290.679	104.5
290.91	77.5
291.141	66.5
291.371	83.5
291.602	79.5
291.833	86.5
292.064	91.5
292.295	87.5
292.526	73.5
292.757	79.5
292.987	92.5
293.218	65.5
293.449	85.5
293.68	52.5
293.91	73.5
294.141	87.5
294.372	77.5
294.603	88.5
294.833	89.5
295.064	74.5
295.295	87.5
295.525	76.5
295.756	70.5
295.987	80.5
296.217	80.5
296.448	82.5
296.679	98.5
296.909	75.5
297.14	77.5
297.37	80.5
297.601	91.5
297.831	69.5
298.062	78.5
298.292	83.5
298.523	90.5
298.753	84.5
298.984	72.5
299.214	82.5
299.445	81.5
299.675	69.5
299.905	80.5
300.136	66.5
300.366	78.5
300.597	92.5
300.827	101.5
301.057	73.5
301.288	91.5
301.518	84.5
301.748	82.5
301.979	105.5
302.209	79.5
302.439	82.5
302.669	89.5
302.9	92.5
303.13	78.5
303.36	79.5
303.59	81.5
303.82	89.5
304.051	74.5
304.281	75.5
304.511	72.5
304.741	71.5
304.971	90.5
305.201	84.5
305.431	85.5
305.661	81.5
305.891	84.5
306.121	82.5
306.352	78.5
306.582	92.5
306.812	79.5
307.042	70.5
307.272	72.5
307.502	78.5
307.731	83.5
307.961	95.5
308.191	71.5
308.421	79.5
308.651	84.5
308.881	90.5
309.111	79.5
309.341	80.5
309.571	92.5
309.8	82.5
310.03	83.5
310.26	94.5
310.49	91.5
310.72	84.5
310.949	76.5
311.179	86.5
311.409	87.5
311.639	90.5
311.868	87.5
312.098	91.5
312.328	82.5
312.557	91.5
312.787	66.5
313.017	83.5
313.246	75.5
313.476	84.5
313.706	87.5
313.935	83.5
314.165	76.5
314.394	76.5
314.624	69.5
314.853	86.5
315.083	78.5
315.312	64.5
315.542	63.5
315.771	78.5
316.001	83.5
316.23	73.5
316.46	81.5
316.689	83.5
316.919	75.5
317.148	93.5
317.377	83.5
317.607	82.5
317.836	83.5
318.065	74.5
318.295	78.5
318.524	83.5
318.753	85.5
318.983	92.5
319.212	77.5
319.441	80.5
319.67	91.5
319.9	73.5
320.129	81.5
320.358	68.5
320.587	79.5
320.816	78.5
321.046	80.5
321.275	83.5
321.504	85.5
321.733	97.5
321.962	72.5
322.191	81.5
322.42	71.5
322.649	77.5
322.878	99.5
323.108	80.5
323.337	91.5
323.566	99.5
323.795	87.5
324.024	78.5
324.253	85.5
324.482	93.5
324.71	90.5
324.939	86.5
325.168	85.5
325.397	86.5
325.626	98.5
325.855	79.5
326.084	84.5
326.313	85.5
326.542	62.5
326.77	78.5
326.999	72.5
327.228	72.5
327.457	84.5
327.686	95.5
327.914	81.5
328.143	79.5
328.372	92.5
328.6	86.5
328.829	86.5
329.058	65.5
329.287	79.5
329.515	76.5
329.744	73.5
329.972	81.5
330.201	82.5
330.43	84.5
330.658	83.5
330.887	85.5
331.115	86.5
331.344	67.5
331.572	87.5
331.801	87.5
332.03	92.5
332.258	78.5
332.486	83.5
332.715	90.5
332.943	80.5
333.172	81.5
333.4	78.5
333.629	71.5
333.857	94.5
334.085	99.5
334.314	83.5
334.542	76.5
334.771	76.5
334.999	78.5
335.227	76.5
335.455	83.5
335.684	72.5
335.912	73.5
336.14	76.5
336.369	83.5
336.597	91.5
336.825	83.5
337.053	81.5
337.281	72.5
337.51	80.5
337.738	98.5
337.966	73.5
338.194	70.5
338.422	73.5
338.65	83.5
338.878	79.5
339.106	90.5
339.334	83.5
339.562	85.5
339.79	74.5
340.018	84.5
340.246	92.5
340.474	85.5
340.702	101.5
340.93	83.5
341.158	71.5
341.386	92.5
341.614	77.5
341.842	80.5
342.07	86.5
342.298	83.5
342.526	79.5
342.754	88.5
342.981	68.5
343.209	78.5
343.437	99.5
343.665	85.5
343.893	72.5
344.12	85.5
344.348	90.5
344.576	95.5
344.804	88.5
345.031	89.5
345.259	88.5
345.487	85.5
345.714	75.5
345.942	66.5
346.17	77.5
346.397	79.5
346.625	88.5
346.853	94.5
347.08	90.5
347.308	73.5
347.535	91.5
347.763	99.5
347.99	82.5
348.218	84.5
348.445	80.5
348.673	77.5
348.9	80.5
349.128	92.5
349.355	84.5
349.583	74.5
349.81	76.5
350.037	75.5
350.265	83.5
350.492	91.5
350.72	97.5
350.947	85.5
351.174	78.5
351.402	81.5
351.629	91.5
351.856	82.5
352.083	79.5
352.311	78.5
352.538	94.5
352.765	80.5
352.992	92.5
353.22	86.5
353.447	94.5
353.674	68.5
353.901	77.5
354.128	77.5
354.355	82.5
354.583	72.5
354.81	84.5
355.037	88.5
355.264	91.5
355.491	86.5
355.718	93.5
355.945	98.5
356.172	81.5
356.399	96.5
356.626	74.5
356.853	85.5
357.08	80.5
357.307	83.5
357.534	78.5
357.761	77.5
357.988	87.5
358.215	85.5
358.441	90.5
358.668	76.5
358.895	70.5
359.122	80.5
359.349	89.5
359.576	78.5
359.802	92.5
360.029	91.5
360.256	97.5
360.483	74.5
360.709	84.5
360.936	82.5
361.163	73.5
361.39	79.5
361.616	77.5
361.843	92.5
362.07	80.5
362.296	86.5
362.523	82.5
362.749	89.5
362.976	95.5
363.203	66.5
363.429	86.5
363.656	90.5
363.882	85.5
364.109	90.5
364.335	94.5
364.562	87.5
364.788	90.5
365.015	80.5
365.241	78.5
365.468	83.5
365.694	65.5
365.92	80.5
366.147	87.5
366.373	88.5
366.599	97.5
366.826	82.5
367.052	72.5
367.278	94.5
367.505	80.5
367.731	87.5
367.957	70.5
368.184	79.5
368.41	96.5
368.636	87.5
368.862	86.5
369.089	65.5
369.315	84.5
369.541	76.5
369.767	79.5
369.993	82.5
370.219	81.5
370.445	83.5
370.672	77.5
370.898	95.5
371.124	75.5
371.35	66.5
371.576	77.5
371.802	81.5
372.028	70.5
372.254	85.5
372.48	72.5
372.706	93.5
372.932	78.5
373.158	79.5
373.384	88.5
373.61	94.5
373.835	83.5
374.061	84.5
374.287	84.5
374.513	73.5
374.739	87.5
374.965	89.5
375.191	76.5
375.416	88.5
375.642	84.5
375.868	94.5
376.094	83.5
376.319	82.5
376.545	83.5
376.771	81.5
376.997	85.5
377.222	95.5
377.448	93.5
377.674	70.5
377.899	82.5
378.125	77.5
378.35	86.5
378.576	98.5
378.802	74.5
379.027	72.5
379.253	86.5
379.478	73.5
379.704	76.5
379.929	85.5
380.155	95.5
380.38	81.5
380.606	81.5
380.831	75.5
381.057	92.5
381.282	77.5
381.507	88.5
381.733	87.5
381.958	68.5
382.184	82.5
382.409	89.5
382.634	90.5
382.86	72.5
383.085	74.5
383.31	81.5
383.535	77.5
383.761	81.5
383.986	102.5
384.211	73.5
384.436	79.5
384.662	88.5
384.887	80.5
385.112	83.5
385.337	75.5
385.562	69.5
385.787	76.5
386.013	81.5
386.238	88.5
386.463	87.5
386.688	79.5
386.913	54.5
387.138	73.5
387.363	87.5
387.588	100.5
387.813	77.5
388.038	83.5
388.263	75.5
388.488	84.5
388.713	92.5
388.938	82.5
389.163	85.5
389.387	81.5
389.612	76.5
389.837	70.5
390.062	84.5
390.287	85.5
390.512	93.5
390.736	90.5
390.961	93.5
391.186	84.5
391.411	73.5
391.636	78.5
391.86	87.5
392.085	93.5
392.31	80.5
392.534	90.5
392.759	102.5
392.984	84.5
393.208	104.5
393.433	97.5
393.658	90.5
393.882	92.5
394.107	80.5
394.331	94.5
394.556	84.5
394.78	84.5
395.005	83.5
395.229	84.5
395.454	63.5
395.678	83.5
395.903	91.5
396.127	100.5
396.352	93.5
396.576	87.5
396.801	104.5
397.025	103.5
397.249	110.5
397.474	87.5
397.698	71.5
397.922	84.5
398.147	87.5
398.371	77.5
398.595	75.5
398.82	73.5
399.044	78.5
399.268	91.5
399.492	76.5
399.717	83.5
399.941	63.5
400.165	91.5
400.389	89.5
400.613	94.5
400.837	98.5
401.062	87.5
401.286	57.5
401.51	68.5
401.734	82.5
401.958	91.5
402.182	86.5
402.406	85.5
402.63	78.5
402.854	83.5
403.078	87.5
403.302	87.5
403.526	82.5
403.75	86.5
403.974	90.5
404.198	99.5
404.422	113.5
404.645	121.5
404.869	110.5
405.093	99.5
405.317	86.5
405.541	69.5
405.765	91.5
405.988	87.5
406.212	80.5
406.436	88.5
406.66	88.5
406.883	82.5
407.107	68.5
407.331	73.5
407.555	77.5
407.778	82.5
408.002	94.5
408.226	89.5
408.449	80.5
408.673	90.5
408.896	87.5
409.12	82.5
409.344	100.5
409.567	77.5
409.791	95.5
410.014	89.5
410.238	90.5
410.461	78.5
410.685	94.5
410.908	74.5
411.132	83.5
411.355	86.5
411.578	74.5
411.802	85.5
412.025	88.5
412.249	84.5
412.472	86.5
412.695	81.5
412.919	69.5
413.142	83.5
413.365	81.5
413.589	86.5
413.812	89.5
414.035	86.5
414.258	67.5
414.482	74.5
414.705	92.5
414.928	82.5
415.151	76.5
415.374	92.5
415.597	83.5
415.821	75.5
416.044	78.5
416.267	82.5
416.49	76.5
416.713	82.5
416.936	66.5
417.159	78.5
417.382	89.5
417.605	82.5
417.828	81.5
418.051	69.5
418.274	92.5
418.497	98.5
418.72	86.5
418.943	60.5
419.166	76.5
419.389	82.5
419.611	99.5
419.834	84.5
420.057	93.5
420.28	90.5
420.503	85.5
420.726	78.5
420.948	91.5
421.171	91.5
421.394	91.5
421.617	81.5
421.839	77.5
422.062	86.5
422.285	79.5
422.507	111.5
422.73	146.5
422.953	136.5
423.175	89.5
423.398	80.5
423.621	87.5
423.843	93.5
424.066	81.5
424.288	80.5
424.511	80.5
424.733	87.5
424.956	79.5
425.178	95.5
425.401	85.5
425.623	86.5
425.846	91.5
426.068	85.5
426.291	67.5
426.513	86.5
426.735	91.5
426.958	77.5
427.18	74.5
427.402	73.5
427.625	82.5
427.847	75.5
428.069	86.5
428.292	90.5
428.514	94.5
428.736	99.5
428.958	101.5
429.181	90.5
429.403	85.5
429.625	71.5
429.847	77.5
430.069	108.5
430.292	103.5
430.514	89.5
430.736	97.5
430.958	87.5
431.18	101.5
431.402	81.5
431.624	63.5
431.846	95.5
432.068	89.5
432.29	79.5
432.512	76.5
432.734	73.5
432.956	87.5
433.178	93.5
433.4	81.5
433.622	76.5
433.844	76.5
434.066	73.5
434.287	77.5
434.509	63.5
434.731	87.5
434.953	98.5
435.175	82.5
435.397	84.5
435.618	76.5
435.84	76.5
436.062	92.5
436.284	74.5
436.505	88.5
436.727	83.5
436.949	84.5
437.17	82.5
437.392	89.5
437.614	75.5
437.835	86.5
438.057	91.5
438.278	66.5
438.5	79.5
438.721	76.5
438.943	89.5
439.165	78.5
439.386	81.5
439.608	87.5
439.829	86.5
440.05	91.5
440.272	85.5
440.493	84.5
440.715	85.5
440.936	91.5
441.158	82.5
441.379	84.5
441.6	96.5
441.822	77.5
442.043	67.5
442.264	69.5
442.486	88.5
442.707	76.5
442.928	80.5
443.149	78.5
443.371	101.5
443.592	111.5
443.813	81.5
444.034	79.5
444.255	82.5
444.476	97.5
444.698	98.5
444.919	82.5
445.14	151.5
445.361	116.5
445.582	120.5
445.803	111.5
446.024	88.5
446.245	99.5
446.466	80.5
446.687	75.5
446.908	84.5
447.129	77.5
447.35	74.5
447.571	103.5
447.792	85.5
448.013	71.5
448.234	86.5
448.455	89.5
448.675	76.5
448.896	71.5
449.117	83.5
449.338	90.5
449.559	92.5
449.779	73.5
450	84.5
450.221	82.5
450.442	83.5
450.662	87.5
450.883	82.5
451.104	92.5
451.324	79.5
451.545	81.5
451.766	86.5
451.986	74.5
452.207	85.5
452.428	84.5
452.648	80.5
452.869	83.5
453.089	85.5
453.31	79.5
453.53	71.5
453.751	85.5
453.971	84.5
454.192	82.5
454.412	73.5
454.633	91.5
454.853	81.5
455.073	71.5
455.294	79.5
455.514	99.5
455.734	85.5
455.955	93.5
456.175	75.5
456.395	72.5
456.616	79.5
456.836	79.5
457.056	72.5
457.276	73.5
457.497	77.5
457.717	84.5
457.937	72.5
458.157	93.5
458.377	75.5
458.598	78.5
458.818	87.5
459.038	91.5
459.258	92.5
459.478	84.5
459.698	86.5
459.918	92.5
460.138	87.5
460.358	88.5
460.578	76.5
460.798	91.5
461.018	86.5
461.238	91.5
461.458	78.5
461.678	76.5
461.898	78.5
462.118	97.5
462.338	73.5
462.558	79.5
462.777	76.5
462.997	98.5
463.217	89.5
463.437	82.5
463.657	90.5
463.876	73.5
464.096	87.5
464.316	77.5
464.536	89.5
464.755	81.5
464.975	65.5
465.195	84.5
465.414	73.5
465.634	86.5
465.854	72.5
466.073	92.5
466.293	100.5
466.512	87.5
466.732	84.5
466.951	89.5
467.171	87.5
467.391	75.5
467.61	80.5
467.829	82.5
468.049	82.5
468.268	74.5
468.488	82.5
468.707	78.5
468.927	93.5
469.146	76.5
469.365	77.5
469.585	92.5
469.804	77.5
470.023	73.5
470.243	76.5
470.462	86.5
470.681	86.5
470.901	80.5
471.12	69.5
471.339	77.5
471.558	94.5
471.777	82.5
471.997	79.5
472.216	75.5
472.435	90.5
472.654	84.5
472.873	80.5
473.092	76.5
473.311	75.5
473.53	72.5
473.749	81.5
473.968	82.5
474.187	81.5
474.406	86.5
474.625	94.5
474.844	79.5
475.063	76.5
475.282	81.5
475.501	82.5
475.72	75.5
475.939	82.5
476.158	81.5
476.377	72.5
476.596	76.5
476.814	74.5
477.033	87.5
477.252	84.5
477.471	89.5
477.69	81.5
477.908	82.5
478.127	78.5
478.346	86.5
478.564	71.5
478.783	77.5
479.002	79.5
479.22	74.5
479.439	79.5
479.658	82.5
479.876	81.5
480.095	79.5
480.313	80.5
480.532	79.5
480.751	92.5
480.969	91.5
481.188	76.5
481.406	71.5
481.624	89.5
481.843	85.5
482.061	84.5
482.28	89.5
482.498	100.5
482.717	73.5
482.935	90.5
483.153	86.5
483.372	80.5
483.59	79.5
483.808	89.5
484.027	86.5
484.245	84.5
484.463	86.5
484.681	69.5
484.9	84.5
485.118	85.5
485.336	76.5
485.554	76.5
485.772	70.5
485.99	89.5
486.209	81.5
486.427	87.5
486.645	88.5
486.863	93.5
487.081	88.5
487.299	86.5
487.517	106.5
487.735	78.5
487.953	83.5
488.171	89.5
488.389	88.5
488.607	74.5
488.825	74.5
489.043	83.5
489.261	93.5
489.479	76.5
489.696	91.5
489.914	79.5
490.132	79.5
490.35	76.5
490.568	89.5
490.786	94.5
491.003	88.5
491.221	90.5
491.439	74.5
491.657	78.5
491.874	69.5
492.092	90.5
492.31	77.5
492.527	87.5
492.745	91.5
492.963	86.5
493.18	68.5
493.398	81.5
493.615	72.5
493.833	88.5
494.05	79.5
494.268	83.5
494.485	84.5
494.703	79.5
494.92	90.5
495.138	83.5
495.355	86.5
495.573	89.5
495.79	77.5
496.008	101.5
496.225	100.5
496.442	83.5
496.66	105.5
496.877	73.5
497.094	81.5
497.312	82.5
497.529	97.5
497.746	85.5
497.963	71.5
498.181	70.5
498.398	66.5
498.615	90.5
498.832	88.5
499.049	88.5
499.267	90.5
499.484	87.5
499.701	91.5
499.918	81.5
500.135	69.5
500.352	93.5
500.569	83.5
500.786	85.5
501.003	77.5
501.22	86.5
501.437	93.5
501.654	90.5
501.871	76.5
502.088	99.5
502.305	79.5
502.522	84.5
502.739	80.5
502.956	90.5
503.172	80.5
503.389	80.5
503.606	76.5
503.823	84.5
504.04	83.5
504.256	79.5
504.473	83.5
504.69	88.5
504.907	85.5
505.123	93.5
505.34	87.5
505.557	84.5
505.773	79.5
505.99	87.5
506.207	85.5
506.423	84.5
506.64	76.5
506.856	87.5
507.073	86.5
507.289	81.5
507.506	80.5
507.722	90.5
507.939	79.5
508.155	74.5
508.372	84.5
508.588	85.5
508.805	90.5
509.021	84.5
509.238	76.5
509.454	86.5
509.67	85.5
509.887	86.5
510.103	87.5
510.319	80.5
510.536	93.5
510.752	92.5
510.968	84.5
511.184	85.5
511.401	85.5
511.617	85.5
511.833	79.5
512.049	81.5
512.265	89.5
512.481	78.5
512.698	102.5
512.914	79.5
513.13	98.5
513.346	70.5
513.562	87.5
513.778	87.5
513.994	80.5
514.21	73.5
514.426	84.5
514.642	92.5
514.858	66.5
515.074	83.5
515.29	86.5
515.506	87.5
515.721	73.5
515.937	93.5
516.153	94.5
516.369	78.5
516.585	82.5
516.801	85.5
517.016	95.5
517.232	82.5
517.448	71.5
517.664	80.5
517.879	78.5
518.095	85.5
518.311	72.5
518.527	79.5
518.742	84.5
518.958	91.5
519.173	100.5
519.389	83.5
519.605	82.5
519.82	78.5
520.036	76.5
520.251	86.5
520.467	73.5
520.682	86.5
520.898	93.5
521.113	94.5
521.329	81.5
521.544	66.5
521.76	85.5
521.975	93.5
522.19	75.5
522.406	72.5
522.621	93.5
522.836	90.5
523.052	88.5
523.267	88.5
523.482	72.5
523.698	73.5
523.913	91.5
524.128	78.5
524.343	86.5
524.559	97.5
524.774	78.5
524.989	90.5
525.204	94.5
525.419	79.5
525.634	76.5
525.849	89.5
526.064	91.5
526.28	97.5
526.495	105.5
526.71	106.5
526.925	93.5
527.14	104.5
527.355	97.5
527.57	99.5
527.785	89.5
527.999	93.5
528.214	75.5
528.429	92.5
528.644	86.5
528.859	90.5
529.074	66.5
529.289	82.5
529.503	89.5
529.718	91.5
529.933	79.5
530.148	94.5
530.363	94.5
530.577	83.5
530.792	82.5
531.007	82.5
531.221	86.5
531.436	87.5
531.651	97.5
531.865	83.5
532.08	82.5
532.295	80.5
532.509	83.5
532.724	85.5
532.938	91.5
533.153	88.5
533.367	79.5
533.582	77.5
533.796	89.5
534.011	95.5
534.225	90.5
534.44	93.5
534.654	93.5
534.868	90.5
535.083	98.5
535.297	89.5
535.511	97.5
535.726	77.5
535.94	77.5
536.154	100.5
536.369	83.5
536.583	91.5
536.797	90.5
537.011	81.5
537.225	100.5
537.44	81.5
537.654	95.5
537.868	86.5
538.082	75.5
538.296	94.5
538.51	94.5
538.724	83.5
538.938	80.5
539.153	79.5
539.367	88.5
539.581	95.5
539.795	73.5
540.009	76.5
