Data from KBrNoHeat2_HRD10591_00011.txt Node
Date: Fri Dec 27 14:47:42 EST 2024
User: Yrep
Spectrometer: HR+D1059
Trigger mode: 1
Integration Time (sec): 1.000000E-1
Scans to average: 1
Electric dark correction enabled: true
Nonlinearity correction enabled: false
Boxcar width: 0
XAxis mode: Wavelengths
Number of Pixels in Spectrum: 2048
>>>>>Begin Spectral Data<<<<<
223.165	-9.38
223.4	-9.38
223.635	-9.38
223.869	-28.38
224.104	-18.38
224.338	-14.38
224.573	-22.38
224.808	-4.38
225.042	-8.38
225.277	-12.38
225.511	-0.38
225.746	7.62
225.98	12.62
226.215	20.62
226.449	7.62
226.683	29.62
226.918	17.62
227.152	22.62
227.387	25.62
227.621	39.62
227.856	48.62
228.09	43.62
228.324	56.62
228.559	66.62
228.793	54.62
229.027	61.62
229.262	63.62
229.496	81.62
229.73	81.62
229.964	79.62
230.199	77.62
230.433	80.62
230.667	75.62
230.901	70.62
231.136	88.62
231.37	83.62
231.604	78.62
231.838	84.62
232.072	84.62
232.306	91.62
232.541	75.62
232.775	75.62
233.009	91.62
233.243	74.62
233.477	79.62
233.711	67.62
233.945	78.62
234.179	73.62
234.413	65.62
234.647	68.62
234.881	76.62
235.115	79.62
235.349	74.62
235.583	75.62
235.817	76.62
236.051	68.62
236.285	68.62
236.519	68.62
236.753	77.62
236.987	83.62
237.221	84.62
237.455	68.62
237.689	89.62
237.922	78.62
238.156	71.62
238.39	62.62
238.624	69.62
238.858	73.62
239.091	83.62
239.325	79.62
239.559	76.62
239.793	62.62
240.027	76.62
240.26	77.62
240.494	61.62
240.728	76.62
240.961	73.62
241.195	78.62
241.429	95.62
241.662	86.62
241.896	63.62
242.13	76.62
242.363	72.62
242.597	75.62
242.83	67.62
243.064	76.62
243.298	76.62
243.531	87.62
243.765	91.62
243.998	85.62
244.232	66.62
244.465	76.62
244.699	75.62
244.932	81.62
245.166	69.62
245.399	86.62
245.633	76.62
245.866	79.62
246.099	73.62
246.333	93.62
246.566	82.62
246.8	76.62
247.033	81.62
247.266	69.62
247.5	69.62
247.733	77.62
247.966	85.62
248.2	68.62
248.433	84.62
248.666	61.62
248.899	70.62
249.133	72.62
249.366	69.62
249.599	78.62
249.832	81.62
250.066	72.62
250.299	71.62
250.532	65.62
250.765	85.62
250.998	66.62
251.231	75.62
251.465	75.62
251.698	75.62
251.931	96.62
252.164	83.62
252.397	75.62
252.63	78.62
252.863	66.62
253.096	83.62
253.329	74.62
253.562	82.62
253.795	67.62
254.028	77.62
254.261	79.62
254.494	76.62
254.727	73.62
254.96	80.62
255.193	70.62
255.426	70.62
255.659	70.62
255.892	69.62
256.124	83.62
256.357	77.62
256.59	93.62
256.823	81.62
257.056	82.62
257.289	70.62
257.521	72.62
257.754	64.62
257.987	80.62
258.22	83.62
258.452	77.62
258.685	88.62
258.918	74.62
259.151	91.62
259.383	90.62
259.616	80.62
259.849	85.62
260.081	80.62
260.314	89.62
260.547	77.62
260.779	78.62
261.012	85.62
261.244	87.62
261.477	81.62
261.71	83.62
261.942	90.62
262.175	81.62
262.407	78.62
262.64	93.62
262.872	94.62
263.105	87.62
263.337	92.62
263.57	83.62
263.802	70.62
264.035	71.62
264.267	69.62
264.499	70.62
264.732	81.62
264.964	81.62
265.197	80.62
265.429	81.62
265.661	85.62
265.894	88.62
266.126	72.62
266.358	71.62
266.591	83.62
266.823	80.62
267.055	74.62
267.287	90.62
267.52	94.62
267.752	74.62
267.984	83.62
268.216	76.62
268.448	83.62
268.681	88.62
268.913	74.62
269.145	83.62
269.377	77.62
269.609	81.62
269.841	101.62
270.073	67.62
270.306	78.62
270.538	88.62
270.77	75.62
271.002	83.62
271.234	70.62
271.466	85.62
271.698	76.62
271.93	77.62
272.162	95.62
272.394	87.62
272.626	86.62
272.858	86.62
273.09	87.62
273.322	76.62
273.553	85.62
273.785	90.62
274.017	83.62
274.249	79.62
274.481	75.62
274.713	69.62
274.945	85.62
275.176	75.62
275.408	81.62
275.64	86.62
275.872	66.62
276.104	91.62
276.335	107.62
276.567	71.62
276.799	78.62
277.031	73.62
277.262	79.62
277.494	83.62
277.726	85.62
277.957	74.62
278.189	84.62
278.421	74.62
278.652	86.62
278.884	78.62
279.115	76.62
279.347	73.62
279.579	85.62
279.81	69.62
280.042	91.62
280.273	73.62
280.505	83.62
280.736	84.62
280.968	83.62
281.199	74.62
281.431	86.62
281.662	86.62
281.894	90.62
282.125	68.62
282.356	87.62
282.588	87.62
282.819	76.62
283.051	67.62
283.282	82.62
283.513	101.62
283.745	86.62
283.976	78.62
284.207	95.62
284.439	87.62
284.67	77.62
284.901	88.62
285.132	73.62
285.364	81.62
285.595	80.62
285.826	83.62
286.057	89.62
286.288	84.62
286.52	84.62
286.751	73.62
286.982	78.62
287.213	86.62
287.444	95.62
287.675	71.62
287.906	92.62
288.138	107.62
288.369	97.62
288.6	72.62
288.831	85.62
289.062	74.62
289.293	79.62
289.524	80.62
289.755	85.62
289.986	80.62
290.217	68.62
290.448	70.62
290.679	82.62
290.91	80.62
291.141	96.62
291.371	98.62
291.602	88.62
291.833	87.62
292.064	81.62
292.295	96.62
292.526	83.62
292.757	90.62
292.987	96.62
293.218	79.62
293.449	93.62
293.68	89.62
293.91	76.62
294.141	105.62
294.372	75.62
294.603	83.62
294.833	84.62
295.064	80.62
295.295	77.62
295.525	99.62
295.756	81.62
295.987	85.62
296.217	92.62
296.448	84.62
296.679	84.62
296.909	100.62
297.14	76.62
297.37	85.62
297.601	80.62
297.831	81.62
298.062	87.62
298.292	91.62
298.523	86.62
298.753	76.62
298.984	68.62
299.214	83.62
299.445	88.62
299.675	80.62
299.905	78.62
300.136	69.62
300.366	81.62
300.597	90.62
300.827	107.62
301.057	84.62
301.288	106.62
301.518	103.62
301.748	85.62
301.979	109.62
302.209	79.62
302.439	87.62
302.669	82.62
302.9	79.62
303.13	87.62
303.36	90.62
303.59	85.62
303.82	79.62
304.051	97.62
304.281	80.62
304.511	107.62
304.741	81.62
304.971	83.62
305.201	91.62
305.431	87.62
305.661	89.62
305.891	91.62
306.121	79.62
306.352	82.62
306.582	62.62
306.812	87.62
307.042	98.62
307.272	95.62
307.502	82.62
307.731	95.62
307.961	87.62
308.191	65.62
308.421	84.62
308.651	77.62
308.881	72.62
309.111	87.62
309.341	70.62
309.571	79.62
309.8	68.62
310.03	84.62
310.26	84.62
310.49	87.62
310.72	68.62
310.949	82.62
311.179	92.62
311.409	92.62
311.639	81.62
311.868	103.62
312.098	91.62
312.328	82.62
312.557	85.62
312.787	75.62
313.017	91.62
313.246	95.62
313.476	73.62
313.706	101.62
313.935	91.62
314.165	91.62
314.394	85.62
314.624	83.62
314.853	88.62
315.083	87.62
315.312	82.62
315.542	90.62
315.771	88.62
316.001	88.62
316.23	88.62
316.46	74.62
316.689	99.62
316.919	83.62
317.148	76.62
317.377	99.62
317.607	101.62
317.836	84.62
318.065	97.62
318.295	100.62
318.524	80.62
318.753	82.62
318.983	91.62
319.212	91.62
319.441	84.62
319.67	71.62
319.9	92.62
320.129	87.62
320.358	92.62
320.587	69.62
320.816	77.62
321.046	75.62
321.275	86.62
321.504	92.62
321.733	91.62
321.962	89.62
322.191	96.62
322.42	78.62
322.649	85.62
322.878	90.62
323.108	88.62
323.337	67.62
323.566	91.62
323.795	84.62
324.024	81.62
324.253	89.62
324.482	85.62
324.71	86.62
324.939	78.62
325.168	80.62
325.397	95.62
325.626	98.62
325.855	65.62
326.084	101.62
326.313	86.62
326.542	75.62
326.77	89.62
326.999	77.62
327.228	91.62
327.457	84.62
327.686	87.62
327.914	105.62
328.143	87.62
328.372	82.62
328.6	75.62
328.829	87.62
329.058	88.62
329.287	91.62
329.515	84.62
329.744	96.62
329.972	95.62
330.201	81.62
330.43	85.62
330.658	79.62
330.887	79.62
331.115	88.62
331.344	87.62
331.572	98.62
331.801	89.62
332.03	84.62
332.258	75.62
332.486	73.62
332.715	84.62
332.943	79.62
333.172	99.62
333.4	97.62
333.629	83.62
333.857	95.62
334.085	97.62
334.314	92.62
334.542	75.62
334.771	93.62
334.999	92.62
335.227	94.62
335.455	75.62
335.684	82.62
335.912	87.62
336.14	85.62
336.369	88.62
336.597	79.62
336.825	90.62
337.053	79.62
337.281	93.62
337.51	83.62
337.738	89.62
337.966	79.62
338.194	90.62
338.422	80.62
338.65	92.62
338.878	95.62
339.106	88.62
339.334	93.62
339.562	88.62
339.79	73.62
340.018	62.62
340.246	76.62
340.474	83.62
340.702	87.62
340.93	71.62
341.158	80.62
341.386	82.62
341.614	85.62
341.842	92.62
342.07	92.62
342.298	102.62
342.526	92.62
342.754	82.62
342.981	88.62
343.209	83.62
343.437	102.62
343.665	79.62
343.893	81.62
344.12	96.62
344.348	90.62
344.576	92.62
344.804	104.62
345.031	95.62
345.259	84.62
345.487	74.62
345.714	79.62
345.942	78.62
346.17	91.62
346.397	85.62
346.625	91.62
346.853	83.62
347.08	87.62
347.308	77.62
347.535	95.62
347.763	69.62
347.99	95.62
348.218	88.62
348.445	76.62
348.673	85.62
348.9	97.62
349.128	97.62
349.355	95.62
349.583	77.62
349.81	83.62
350.037	87.62
350.265	89.62
350.492	101.62
350.72	75.62
350.947	84.62
351.174	93.62
351.402	89.62
351.629	102.62
351.856	83.62
352.083	91.62
352.311	77.62
352.538	81.62
352.765	100.62
352.992	98.62
353.22	83.62
353.447	79.62
353.674	88.62
353.901	97.62
354.128	71.62
354.355	89.62
354.583	80.62
354.81	85.62
355.037	95.62
355.264	99.62
355.491	85.62
355.718	86.62
355.945	88.62
356.172	84.62
356.399	74.62
356.626	81.62
356.853	91.62
357.08	84.62
357.307	82.62
357.534	85.62
357.761	89.62
357.988	84.62
358.215	85.62
358.441	83.62
358.668	79.62
358.895	76.62
359.122	97.62
359.349	77.62
359.576	82.62
359.802	86.62
360.029	80.62
360.256	95.62
360.483	73.62
360.709	76.62
360.936	84.62
361.163	86.62
361.39	75.62
361.616	77.62
361.843	87.62
362.07	74.62
362.296	91.62
362.523	80.62
362.749	78.62
362.976	76.62
363.203	82.62
363.429	89.62
363.656	83.62
363.882	74.62
364.109	90.62
364.335	89.62
364.562	89.62
364.788	99.62
365.015	87.62
365.241	101.62
365.468	72.62
365.694	86.62
365.92	80.62
366.147	81.62
366.373	73.62
366.599	87.62
366.826	79.62
367.052	75.62
367.278	88.62
367.505	85.62
367.731	91.62
367.957	96.62
368.184	90.62
368.41	95.62
368.636	87.62
368.862	106.62
369.089	95.62
369.315	74.62
369.541	88.62
369.767	88.62
369.993	97.62
370.219	73.62
370.445	82.62
370.672	81.62
370.898	89.62
371.124	88.62
371.35	82.62
371.576	90.62
371.802	80.62
372.028	84.62
372.254	96.62
372.48	76.62
372.706	83.62
372.932	71.62
373.158	75.62
373.384	82.62
373.61	92.62
373.835	84.62
374.061	82.62
374.287	92.62
374.513	87.62
374.739	82.62
374.965	85.62
375.191	93.62
375.416	92.62
375.642	90.62
375.868	86.62
376.094	85.62
376.319	98.62
376.545	89.62
376.771	81.62
376.997	78.62
377.222	73.62
377.448	71.62
377.674	99.62
377.899	80.62
378.125	75.62
378.35	86.62
378.576	89.62
378.802	89.62
379.027	85.62
379.253	79.62
379.478	85.62
379.704	99.62
379.929	80.62
380.155	90.62
380.38	94.62
380.606	100.62
380.831	82.62
381.057	82.62
381.282	91.62
381.507	88.62
381.733	83.62
381.958	65.62
382.184	88.62
382.409	83.62
382.634	83.62
382.86	87.62
383.085	80.62
383.31	85.62
383.535	74.62
383.761	75.62
383.986	79.62
384.211	80.62
384.436	82.62
384.662	69.62
384.887	75.62
385.112	95.62
385.337	87.62
385.562	90.62
385.787	69.62
386.013	76.62
386.238	85.62
386.463	81.62
386.688	95.62
386.913	91.62
387.138	83.62
387.363	91.62
387.588	95.62
387.813	87.62
388.038	85.62
388.263	89.62
388.488	75.62
388.713	75.62
388.938	84.62
389.163	67.62
389.387	90.62
389.612	80.62
389.837	85.62
390.062	85.62
390.287	79.62
390.512	76.62
390.736	91.62
390.961	81.62
391.186	85.62
391.411	91.62
391.636	74.62
391.86	84.62
392.085	83.62
392.31	75.62
392.534	87.62
392.759	92.62
392.984	97.62
393.208	78.62
393.433	90.62
393.658	78.62
393.882	92.62
394.107	88.62
394.331	79.62
394.556	86.62
394.78	86.62
395.005	88.62
395.229	83.62
395.454	85.62
395.678	79.62
395.903	105.62
396.127	100.62
396.352	90.62
396.576	77.62
396.801	74.62
397.025	83.62
397.249	100.62
397.474	101.62
397.698	101.62
397.922	91.62
398.147	85.62
398.371	78.62
398.595	79.62
398.82	74.62
399.044	62.62
399.268	82.62
399.492	86.62
399.717	89.62
399.941	99.62
400.165	82.62
400.389	81.62
400.613	89.62
400.837	84.62
401.062	76.62
401.286	77.62
401.51	88.62
401.734	89.62
401.958	87.62
402.182	96.62
402.406	82.62
402.63	83.62
402.854	87.62
403.078	87.62
403.302	94.62
403.526	92.62
403.75	95.62
403.974	102.62
404.198	113.62
404.422	121.62
404.645	154.62
404.869	125.62
405.093	110.62
405.317	101.62
405.541	82.62
405.765	88.62
405.988	83.62
406.212	77.62
406.436	77.62
406.66	83.62
406.883	83.62
407.107	86.62
407.331	80.62
407.555	80.62
407.778	92.62
408.002	82.62
408.226	77.62
408.449	85.62
408.673	90.62
408.896	76.62
409.12	81.62
409.344	87.62
409.567	83.62
409.791	90.62
410.014	87.62
410.238	82.62
410.461	85.62
410.685	82.62
410.908	81.62
411.132	79.62
411.355	88.62
411.578	92.62
411.802	90.62
412.025	87.62
412.249	88.62
412.472	77.62
412.695	83.62
412.919	75.62
413.142	89.62
413.365	85.62
413.589	95.62
413.812	75.62
414.035	76.62
414.258	89.62
414.482	98.62
414.705	76.62
414.928	75.62
415.151	84.62
415.374	79.62
415.597	79.62
415.821	82.62
416.044	82.62
416.267	83.62
416.49	77.62
416.713	88.62
416.936	82.62
417.159	97.62
417.382	88.62
417.605	85.62
417.828	88.62
418.051	80.62
418.274	76.62
418.497	76.62
418.72	74.62
418.943	93.62
419.166	86.62
419.389	80.62
419.611	88.62
419.834	74.62
420.057	88.62
420.28	84.62
420.503	87.62
420.726	81.62
420.948	95.62
421.171	91.62
421.394	79.62
421.617	74.62
421.839	82.62
422.062	80.62
422.285	83.62
422.507	87.62
422.73	88.62
422.953	85.62
423.175	88.62
423.398	93.62
423.621	92.62
423.843	81.62
424.066	89.62
424.288	68.62
424.511	57.62
424.733	87.62
424.956	99.62
425.178	87.62
425.401	81.62
425.623	81.62
425.846	74.62
426.068	81.62
426.291	83.62
426.513	80.62
426.735	83.62
426.958	92.62
427.18	76.62
427.402	97.62
427.625	87.62
427.847	83.62
428.069	92.62
428.292	90.62
428.514	99.62
428.736	69.62
428.958	83.62
429.181	89.62
429.403	84.62
429.625	72.62
429.847	83.62
430.069	100.62
430.292	81.62
430.514	82.62
430.736	91.62
430.958	70.62
431.18	76.62
431.402	72.62
431.624	80.62
431.846	88.62
432.068	87.62
432.29	83.62
432.512	90.62
432.734	72.62
432.956	89.62
433.178	86.62
433.4	90.62
433.622	85.62
433.844	74.62
434.066	81.62
434.287	75.62
434.509	74.62
434.731	79.62
434.953	75.62
435.175	89.62
435.397	91.62
435.618	79.62
435.84	75.62
436.062	84.62
436.284	80.62
436.505	96.62
436.727	89.62
436.949	65.62
437.17	70.62
437.392	76.62
437.614	76.62
437.835	77.62
438.057	82.62
438.278	70.62
438.5	85.62
438.721	85.62
438.943	96.62
439.165	88.62
439.386	63.62
439.608	80.62
439.829	75.62
440.05	85.62
440.272	75.62
440.493	90.62
440.715	94.62
440.936	83.62
441.158	88.62
441.379	83.62
441.6	81.62
441.822	89.62
442.043	79.62
442.264	67.62
442.486	83.62
442.707	88.62
442.928	80.62
443.149	85.62
443.371	78.62
443.592	78.62
443.813	76.62
444.034	92.62
444.255	98.62
444.476	77.62
444.698	73.62
444.919	89.62
445.14	141.62
445.361	106.62
445.582	87.62
445.803	93.62
446.024	92.62
446.245	98.62
446.466	90.62
446.687	95.62
446.908	87.62
447.129	84.62
447.35	83.62
447.571	87.62
447.792	84.62
448.013	81.62
448.234	92.62
448.455	93.62
448.675	83.62
448.896	81.62
449.117	73.62
449.338	91.62
449.559	91.62
449.779	75.62
450	84.62
450.221	84.62
450.442	78.62
450.662	82.62
450.883	93.62
451.104	102.62
451.324	81.62
451.545	70.62
451.766	69.62
451.986	97.62
452.207	78.62
452.428	86.62
452.648	76.62
452.869	78.62
453.089	70.62
453.31	92.62
453.53	96.62
453.751	90.62
453.971	96.62
454.192	71.62
454.412	75.62
454.633	83.62
454.853	84.62
455.073	76.62
455.294	70.62
455.514	62.62
455.734	83.62
455.955	83.62
456.175	80.62
456.395	101.62
456.616	90.62
456.836	88.62
457.056	88.62
457.276	70.62
457.497	65.62
457.717	93.62
457.937	85.62
458.157	81.62
458.377	80.62
458.598	87.62
458.818	69.62
459.038	79.62
459.258	82.62
459.478	68.62
459.698	83.62
459.918	93.62
460.138	77.62
460.358	77.62
460.578	88.62
460.798	79.62
461.018	84.62
461.238	91.62
461.458	82.62
461.678	74.62
461.898	82.62
462.118	81.62
462.338	70.62
462.558	87.62
462.777	81.62
462.997	94.62
463.217	86.62
463.437	86.62
463.657	88.62
463.876	82.62
464.096	95.62
464.316	99.62
464.536	89.62
464.755	87.62
464.975	82.62
465.195	82.62
465.414	90.62
465.634	69.62
465.854	78.62
466.073	76.62
466.293	86.62
466.512	77.62
466.732	70.62
466.951	83.62
467.171	86.62
467.391	63.62
467.61	68.62
467.829	89.62
468.049	100.62
468.268	87.62
468.488	85.62
468.707	96.62
468.927	93.62
469.146	80.62
469.365	85.62
469.585	74.62
469.804	91.62
470.023	80.62
470.243	69.62
470.462	92.62
470.681	87.62
470.901	82.62
471.12	73.62
471.339	86.62
471.558	91.62
471.777	97.62
471.997	95.62
472.216	79.62
472.435	79.62
472.654	86.62
472.873	78.62
473.092	82.62
473.311	89.62
473.53	82.62
473.749	88.62
473.968	96.62
474.187	85.62
474.406	90.62
474.625	82.62
474.844	88.62
475.063	97.62
475.282	68.62
475.501	81.62
475.72	74.62
475.939	81.62
476.158	91.62
476.377	84.62
476.596	89.62
476.814	82.62
477.033	83.62
477.252	89.62
477.471	94.62
477.69	103.62
477.908	96.62
478.127	98.62
478.346	99.62
478.564	89.62
478.783	77.62
479.002	89.62
479.22	87.62
479.439	79.62
479.658	92.62
479.876	86.62
480.095	81.62
480.313	87.62
480.532	95.62
480.751	90.62
480.969	88.62
481.188	77.62
481.406	100.62
481.624	91.62
481.843	89.62
482.061	79.62
482.28	96.62
482.498	99.62
482.717	78.62
482.935	83.62
483.153	93.62
483.372	80.62
483.59	82.62
483.808	83.62
484.027	101.62
484.245	84.62
484.463	95.62
484.681	79.62
484.9	80.62
485.118	92.62
485.336	79.62
485.554	86.62
485.772	79.62
485.99	87.62
486.209	79.62
486.427	86.62
486.645	90.62
486.863	88.62
487.081	92.62
487.299	66.62
487.517	80.62
487.735	103.62
487.953	85.62
488.171	100.62
488.389	86.62
488.607	75.62
488.825	91.62
489.043	89.62
489.261	89.62
489.479	79.62
489.696	83.62
489.914	81.62
490.132	92.62
490.35	89.62
490.568	98.62
490.786	95.62
491.003	80.62
491.221	91.62
491.439	77.62
491.657	87.62
491.874	91.62
492.092	74.62
492.31	108.62
492.527	97.62
492.745	105.62
492.963	107.62
493.18	83.62
493.398	99.62
493.615	101.62
493.833	84.62
494.05	85.62
494.268	97.62
494.485	104.62
494.703	83.62
494.92	103.62
495.138	89.62
495.355	105.62
495.573	88.62
495.79	86.62
496.008	90.62
496.225	83.62
496.442	85.62
496.66	96.62
496.877	85.62
497.094	88.62
497.312	86.62
497.529	87.62
497.746	86.62
497.963	81.62
498.181	78.62
498.398	87.62
498.615	92.62
498.832	87.62
499.049	91.62
499.267	105.62
499.484	87.62
499.701	84.62
499.918	98.62
500.135	69.62
500.352	95.62
500.569	89.62
500.786	95.62
501.003	99.62
501.22	98.62
501.437	87.62
501.654	87.62
501.871	87.62
502.088	83.62
502.305	78.62
502.522	82.62
502.739	85.62
502.956	87.62
503.172	71.62
503.389	72.62
503.606	85.62
503.823	83.62
504.04	73.62
504.256	81.62
504.473	76.62
504.69	84.62
504.907	105.62
505.123	91.62
505.34	84.62
505.557	84.62
505.773	83.62
505.99	89.62
506.207	82.62
506.423	88.62
506.64	91.62
506.856	83.62
507.073	97.62
507.289	103.62
507.506	72.62
507.722	79.62
507.939	73.62
508.155	83.62
508.372	92.62
508.588	87.62
508.805	89.62
509.021	98.62
509.238	92.62
509.454	94.62
509.67	77.62
509.887	90.62
510.103	87.62
510.319	92.62
510.536	103.62
510.752	97.62
510.968	77.62
511.184	79.62
511.401	83.62
511.617	82.62
511.833	84.62
512.049	83.62
512.265	86.62
512.481	93.62
512.698	84.62
512.914	83.62
513.13	79.62
513.346	89.62
513.562	92.62
513.778	85.62
513.994	85.62
514.21	99.62
514.426	72.62
514.642	74.62
514.858	83.62
515.074	85.62
515.29	86.62
515.506	81.62
515.721	87.62
515.937	85.62
516.153	90.62
516.369	91.62
516.585	82.62
516.801	80.62
517.016	91.62
517.232	87.62
517.448	87.62
517.664	80.62
517.879	88.62
518.095	81.62
518.311	73.62
518.527	90.62
518.742	80.62
518.958	91.62
519.173	83.62
519.389	97.62
