Data from KBrNoHeat2_HRD10591_00019.txt Node
Date: Fri Dec 27 14:47:50 EST 2024
User: Yrep
Spectrometer: HR+D1059
Trigger mode: 1
Integration Time (sec): 1.000000E-1
Scans to average: 1
Electric dark correction enabled: true
Nonlinearity correction enabled: false
Boxcar width: 0
XAxis mode: Wavelengths
Number of Pixels in Spectrum: 2048
>>>>>Begin Spectral Data<<<<<
223.165	-28.88
223.4	-28.88
223.635	-28.88
223.869	-9.88
224.104	-7.88
224.338	-13.88
224.573	-13.88
224.808	-21.88
225.042	-7.88
225.277	-0.88
225.511	-5.88
225.746	8.12
225.98	6.12
226.215	3.12
226.449	14.12
226.683	20.12
226.918	36.12
227.152	23.12
227.387	28.12
227.621	36.12
227.856	37.12
228.09	42.12
228.324	39.12
228.559	53.12
228.793	44.12
229.027	77.12
229.262	58.12
229.496	60.12
229.73	58.12
229.964	74.12
230.199	73.12
230.433	75.12
230.667	86.12
230.901	69.12
231.136	86.12
231.37	82.12
231.604	79.12
231.838	85.12
232.072	70.12
232.306	78.12
232.541	81.12
232.775	78.12
233.009	73.12
233.243	72.12
233.477	73.12
233.711	74.12
233.945	86.12
234.179	65.12
234.413	83.12
234.647	81.12
234.881	72.12
235.115	77.12
235.349	64.12
235.583	78.12
235.817	71.12
236.051	92.12
236.285	76.12
236.519	83.12
236.753	70.12
236.987	70.12
237.221	84.12
237.455	90.12
237.689	86.12
237.922	68.12
238.156	60.12
238.39	57.12
238.624	68.12
238.858	75.12
239.091	89.12
239.325	87.12
239.559	81.12
239.793	82.12
240.027	69.12
240.26	74.12
240.494	75.12
240.728	82.12
240.961	76.12
241.195	77.12
241.429	68.12
241.662	67.12
241.896	64.12
242.13	69.12
242.363	77.12
242.597	67.12
242.83	64.12
243.064	76.12
243.298	62.12
243.531	70.12
243.765	84.12
243.998	74.12
244.232	80.12
244.465	63.12
244.699	59.12
244.932	65.12
245.166	76.12
245.399	66.12
245.633	66.12
245.866	72.12
246.099	78.12
246.333	75.12
246.566	89.12
246.8	80.12
247.033	74.12
247.266	73.12
247.5	79.12
247.733	79.12
247.966	81.12
248.2	81.12
248.433	83.12
248.666	64.12
248.899	72.12
249.133	76.12
249.366	72.12
249.599	64.12
249.832	66.12
250.066	68.12
250.299	77.12
250.532	77.12
250.765	78.12
250.998	82.12
251.231	64.12
251.465	84.12
251.698	75.12
251.931	85.12
252.164	72.12
252.397	86.12
252.63	68.12
252.863	69.12
253.096	62.12
253.329	86.12
253.562	65.12
253.795	92.12
254.028	80.12
254.261	74.12
254.494	75.12
254.727	69.12
254.96	84.12
255.193	77.12
255.426	77.12
255.659	81.12
255.892	80.12
256.124	73.12
256.357	83.12
256.59	78.12
256.823	68.12
257.056	86.12
257.289	78.12
257.521	82.12
257.754	86.12
257.987	70.12
258.22	87.12
258.452	76.12
258.685	67.12
258.918	76.12
259.151	85.12
259.383	76.12
259.616	72.12
259.849	77.12
260.081	75.12
260.314	84.12
260.547	70.12
260.779	64.12
261.012	86.12
261.244	69.12
261.477	82.12
261.71	87.12
261.942	82.12
262.175	77.12
262.407	88.12
262.64	84.12
262.872	88.12
263.105	79.12
263.337	86.12
263.57	70.12
263.802	77.12
264.035	87.12
264.267	87.12
264.499	78.12
264.732	75.12
264.964	86.12
265.197	93.12
265.429	89.12
265.661	82.12
265.894	79.12
266.126	87.12
266.358	85.12
266.591	80.12
266.823	72.12
267.055	79.12
267.287	76.12
267.52	72.12
267.752	78.12
267.984	74.12
268.216	80.12
268.448	81.12
268.681	76.12
268.913	81.12
269.145	80.12
269.377	80.12
269.609	58.12
269.841	72.12
270.073	63.12
270.306	76.12
270.538	86.12
270.77	93.12
271.002	98.12
271.234	92.12
271.466	81.12
271.698	81.12
271.93	78.12
272.162	84.12
272.394	77.12
272.626	96.12
272.858	87.12
273.09	70.12
273.322	79.12
273.553	69.12
273.785	86.12
274.017	82.12
274.249	71.12
274.481	80.12
274.713	77.12
274.945	76.12
275.176	86.12
275.408	91.12
275.64	89.12
275.872	86.12
276.104	87.12
276.335	85.12
276.567	84.12
276.799	82.12
277.031	76.12
277.262	95.12
277.494	73.12
277.726	98.12
277.957	81.12
278.189	86.12
278.421	80.12
278.652	81.12
278.884	91.12
279.115	74.12
279.347	73.12
279.579	74.12
279.81	78.12
280.042	82.12
280.273	67.12
280.505	59.12
280.736	94.12
280.968	85.12
281.199	84.12
281.431	72.12
281.662	84.12
281.894	98.12
282.125	78.12
282.356	78.12
282.588	78.12
282.819	89.12
283.051	83.12
283.282	68.12
283.513	87.12
283.745	70.12
283.976	92.12
284.207	72.12
284.439	76.12
284.67	74.12
284.901	65.12
285.132	64.12
285.364	85.12
285.595	90.12
285.826	80.12
286.057	88.12
286.288	79.12
286.52	82.12
286.751	95.12
286.982	78.12
287.213	84.12
287.444	65.12
287.675	80.12
287.906	93.12
288.138	92.12
288.369	72.12
288.6	78.12
288.831	86.12
289.062	79.12
289.293	80.12
289.524	68.12
289.755	77.12
289.986	75.12
290.217	82.12
290.448	92.12
290.679	79.12
290.91	84.12
291.141	84.12
291.371	80.12
291.602	71.12
291.833	70.12
292.064	81.12
292.295	86.12
292.526	68.12
292.757	74.12
292.987	86.12
293.218	91.12
293.449	98.12
293.68	98.12
293.91	85.12
294.141	71.12
294.372	81.12
294.603	90.12
294.833	76.12
295.064	74.12
295.295	78.12
295.525	81.12
295.756	76.12
295.987	83.12
296.217	78.12
296.448	88.12
296.679	94.12
296.909	72.12
297.14	84.12
297.37	84.12
297.601	90.12
297.831	76.12
298.062	67.12
298.292	84.12
298.523	100.12
298.753	81.12
298.984	66.12
299.214	95.12
299.445	76.12
299.675	84.12
299.905	79.12
300.136	77.12
300.366	66.12
300.597	78.12
300.827	73.12
301.057	81.12
301.288	80.12
301.518	70.12
301.748	87.12
301.979	94.12
302.209	82.12
302.439	70.12
302.669	86.12
302.9	94.12
303.13	70.12
303.36	94.12
303.59	83.12
303.82	92.12
304.051	86.12
304.281	76.12
304.511	77.12
304.741	76.12
304.971	91.12
305.201	84.12
305.431	82.12
305.661	90.12
305.891	95.12
306.121	66.12
306.352	82.12
306.582	76.12
306.812	79.12
307.042	77.12
307.272	68.12
307.502	93.12
307.731	73.12
307.961	85.12
308.191	86.12
308.421	86.12
308.651	85.12
308.881	83.12
309.111	71.12
309.341	80.12
309.571	77.12
309.8	93.12
310.03	83.12
310.26	77.12
310.49	77.12
310.72	88.12
310.949	85.12
311.179	76.12
311.409	82.12
311.639	77.12
311.868	70.12
312.098	87.12
312.328	79.12
312.557	86.12
312.787	78.12
313.017	77.12
313.246	85.12
313.476	66.12
313.706	79.12
313.935	92.12
314.165	73.12
314.394	84.12
314.624	87.12
314.853	92.12
315.083	68.12
315.312	89.12
315.542	60.12
315.771	77.12
316.001	82.12
316.23	93.12
316.46	81.12
316.689	81.12
316.919	77.12
317.148	82.12
317.377	89.12
317.607	83.12
317.836	89.12
318.065	69.12
318.295	95.12
318.524	87.12
318.753	72.12
318.983	83.12
319.212	74.12
319.441	75.12
319.67	70.12
319.9	77.12
320.129	84.12
320.358	75.12
320.587	81.12
320.816	77.12
321.046	79.12
321.275	73.12
321.504	76.12
321.733	83.12
321.962	89.12
322.191	64.12
322.42	82.12
322.649	91.12
322.878	83.12
323.108	83.12
323.337	96.12
323.566	76.12
323.795	92.12
324.024	82.12
324.253	86.12
324.482	85.12
324.71	78.12
324.939	84.12
325.168	86.12
325.397	93.12
325.626	84.12
325.855	86.12
326.084	80.12
326.313	73.12
326.542	81.12
326.77	96.12
326.999	88.12
327.228	78.12
327.457	86.12
327.686	83.12
327.914	94.12
328.143	77.12
328.372	82.12
328.6	86.12
328.829	88.12
329.058	74.12
329.287	91.12
329.515	86.12
329.744	80.12
329.972	87.12
330.201	83.12
330.43	89.12
330.658	98.12
330.887	81.12
331.115	82.12
331.344	87.12
331.572	83.12
331.801	89.12
332.03	92.12
332.258	79.12
332.486	82.12
332.715	86.12
332.943	89.12
333.172	70.12
333.4	86.12
333.629	78.12
333.857	74.12
334.085	80.12
334.314	76.12
334.542	64.12
334.771	83.12
334.999	81.12
335.227	97.12
335.455	88.12
335.684	81.12
335.912	82.12
336.14	96.12
336.369	83.12
336.597	84.12
336.825	97.12
337.053	87.12
337.281	74.12
337.51	80.12
337.738	92.12
337.966	80.12
338.194	81.12
338.422	95.12
338.65	72.12
338.878	89.12
339.106	69.12
339.334	102.12
339.562	86.12
339.79	82.12
340.018	65.12
340.246	65.12
340.474	86.12
340.702	81.12
340.93	73.12
341.158	80.12
341.386	72.12
341.614	72.12
341.842	79.12
342.07	82.12
342.298	85.12
342.526	89.12
342.754	85.12
342.981	85.12
343.209	88.12
343.437	85.12
343.665	82.12
343.893	88.12
344.12	77.12
344.348	98.12
344.576	98.12
344.804	101.12
345.031	83.12
345.259	98.12
345.487	94.12
345.714	82.12
345.942	88.12
346.17	76.12
346.397	80.12
346.625	78.12
346.853	81.12
347.08	87.12
347.308	87.12
347.535	95.12
347.763	78.12
347.99	89.12
348.218	97.12
348.445	76.12
348.673	86.12
348.9	82.12
349.128	79.12
349.355	81.12
349.583	64.12
349.81	81.12
350.037	66.12
350.265	98.12
350.492	78.12
350.72	76.12
350.947	85.12
351.174	85.12
351.402	82.12
351.629	80.12
351.856	94.12
352.083	80.12
352.311	85.12
352.538	70.12
352.765	70.12
352.992	93.12
353.22	81.12
353.447	78.12
353.674	88.12
353.901	94.12
354.128	82.12
354.355	73.12
354.583	90.12
354.81	89.12
355.037	91.12
355.264	92.12
355.491	67.12
355.718	74.12
355.945	80.12
356.172	77.12
356.399	85.12
356.626	91.12
356.853	77.12
357.08	69.12
357.307	89.12
357.534	81.12
357.761	87.12
357.988	98.12
358.215	85.12
358.441	72.12
358.668	80.12
358.895	88.12
359.122	77.12
359.349	83.12
359.576	79.12
359.802	84.12
360.029	80.12
360.256	97.12
360.483	70.12
360.709	84.12
360.936	81.12
361.163	76.12
361.39	82.12
361.616	81.12
361.843	84.12
362.07	72.12
362.296	81.12
362.523	79.12
362.749	75.12
362.976	76.12
363.203	81.12
363.429	83.12
363.656	74.12
363.882	77.12
364.109	81.12
364.335	83.12
364.562	92.12
364.788	75.12
365.015	85.12
365.241	85.12
365.468	78.12
365.694	73.12
365.92	88.12
366.147	72.12
366.373	78.12
366.599	90.12
366.826	84.12
367.052	83.12
367.278	90.12
367.505	72.12
367.731	90.12
367.957	89.12
368.184	84.12
368.41	77.12
368.636	81.12
368.862	95.12
369.089	87.12
369.315	78.12
369.541	92.12
369.767	92.12
369.993	67.12
370.219	72.12
370.445	81.12
370.672	74.12
370.898	83.12
371.124	72.12
371.35	81.12
371.576	87.12
371.802	89.12
372.028	84.12
372.254	70.12
372.48	70.12
372.706	73.12
372.932	79.12
373.158	87.12
373.384	111.12
373.61	86.12
373.835	86.12
374.061	81.12
374.287	83.12
374.513	80.12
374.739	85.12
374.965	82.12
375.191	95.12
375.416	74.12
375.642	71.12
375.868	98.12
376.094	83.12
376.319	86.12
376.545	72.12
376.771	65.12
376.997	78.12
377.222	83.12
377.448	79.12
377.674	80.12
377.899	91.12
378.125	81.12
378.35	81.12
378.576	91.12
378.802	83.12
379.027	69.12
379.253	100.12
379.478	71.12
379.704	78.12
379.929	74.12
380.155	83.12
380.38	95.12
380.606	85.12
380.831	80.12
381.057	77.12
381.282	78.12
381.507	86.12
381.733	81.12
381.958	87.12
382.184	85.12
382.409	89.12
382.634	81.12
382.86	87.12
383.085	79.12
383.31	81.12
383.535	90.12
383.761	95.12
383.986	77.12
384.211	89.12
384.436	79.12
384.662	69.12
384.887	78.12
385.112	71.12
385.337	78.12
385.562	84.12
385.787	78.12
386.013	72.12
386.238	74.12
386.463	73.12
386.688	88.12
386.913	93.12
387.138	85.12
387.363	67.12
387.588	81.12
387.813	93.12
388.038	87.12
388.263	84.12
388.488	83.12
388.713	69.12
388.938	80.12
389.163	78.12
389.387	90.12
389.612	79.12
389.837	77.12
390.062	77.12
390.287	86.12
390.512	93.12
390.736	73.12
390.961	82.12
391.186	78.12
391.411	85.12
391.636	62.12
391.86	72.12
392.085	81.12
392.31	83.12
392.534	94.12
392.759	83.12
392.984	82.12
393.208	69.12
393.433	80.12
393.658	92.12
393.882	88.12
394.107	95.12
394.331	79.12
394.556	80.12
394.78	73.12
395.005	79.12
395.229	82.12
395.454	81.12
395.678	86.12
395.903	84.12
396.127	86.12
396.352	88.12
396.576	81.12
396.801	84.12
397.025	89.12
397.249	66.12
397.474	81.12
397.698	84.12
397.922	81.12
398.147	92.12
398.371	82.12
398.595	89.12
398.82	86.12
399.044	84.12
399.268	86.12
399.492	69.12
399.717	81.12
399.941	72.12
400.165	82.12
400.389	85.12
400.613	62.12
400.837	77.12
401.062	84.12
401.286	78.12
401.51	90.12
401.734	81.12
401.958	83.12
402.182	80.12
402.406	71.12
402.63	89.12
402.854	90.12
403.078	76.12
403.302	92.12
403.526	82.12
403.75	85.12
403.974	110.12
404.198	116.12
404.422	162.12
404.645	174.12
404.869	161.12
405.093	118.12
405.317	102.12
405.541	97.12
405.765	87.12
405.988	89.12
406.212	90.12
406.436	78.12
406.66	83.12
406.883	85.12
407.107	80.12
407.331	86.12
407.555	82.12
407.778	83.12
408.002	91.12
408.226	87.12
408.449	87.12
408.673	111.12
408.896	86.12
409.12	76.12
409.344	75.12
409.567	84.12
409.791	83.12
410.014	78.12
410.238	85.12
410.461	79.12
410.685	75.12
410.908	93.12
411.132	74.12
411.355	84.12
411.578	86.12
411.802	87.12
412.025	86.12
412.249	65.12
412.472	85.12
412.695	88.12
412.919	89.12
413.142	96.12
413.365	76.12
413.589	82.12
413.812	82.12
414.035	82.12
414.258	80.12
414.482	77.12
414.705	70.12
414.928	82.12
415.151	88.12
415.374	80.12
415.597	95.12
415.821	85.12
416.044	75.12
416.267	70.12
416.49	84.12
416.713	88.12
416.936	69.12
417.159	83.12
417.382	73.12
417.605	80.12
417.828	96.12
418.051	88.12
418.274	79.12
418.497	81.12
418.72	80.12
418.943	81.12
419.166	82.12
419.389	63.12
419.611	66.12
419.834	81.12
420.057	96.12
420.28	85.12
420.503	84.12
420.726	84.12
420.948	97.12
421.171	81.12
421.394	77.12
421.617	81.12
421.839	77.12
422.062	92.12
422.285	88.12
422.507	82.12
422.73	74.12
422.953	97.12
423.175	70.12
423.398	78.12
423.621	85.12
423.843	92.12
424.066	81.12
424.288	90.12
424.511	84.12
424.733	94.12
424.956	85.12
425.178	80.12
425.401	77.12
425.623	80.12
425.846	88.12
426.068	73.12
426.291	85.12
426.513	78.12
426.735	78.12
426.958	84.12
427.18	82.12
427.402	95.12
427.625	86.12
427.847	76.12
428.069	88.12
428.292	84.12
428.514	89.12
428.736	95.12
428.958	84.12
429.181	92.12
429.403	91.12
429.625	88.12
429.847	86.12
430.069	80.12
430.292	71.12
430.514	76.12
430.736	80.12
430.958	90.12
431.18	71.12
431.402	71.12
431.624	97.12
431.846	102.12
432.068	83.12
432.29	79.12
432.512	97.12
432.734	84.12
432.956	84.12
433.178	82.12
433.4	78.12
433.622	80.12
433.844	83.12
434.066	83.12
434.287	81.12
434.509	89.12
434.731	85.12
434.953	74.12
435.175	81.12
435.397	75.12
435.618	80.12
435.84	82.12
436.062	76.12
436.284	88.12
436.505	85.12
436.727	84.12
436.949	79.12
437.17	75.12
437.392	85.12
437.614	93.12
437.835	96.12
438.057	76.12
438.278	80.12
438.5	83.12
438.721	82.12
438.943	89.12
439.165	82.12
439.386	98.12
439.608	87.12
439.829	93.12
440.05	80.12
440.272	79.12
440.493	74.12
440.715	94.12
440.936	95.12
441.158	96.12
441.379	89.12
441.6	68.12
441.822	91.12
442.043	68.12
442.264	81.12
442.486	83.12
442.707	94.12
442.928	69.12
443.149	80.12
443.371	89.12
443.592	85.12
443.813	82.12
444.034	96.12
444.255	88.12
444.476	75.12
444.698	94.12
444.919	110.12
445.14	158.12
445.361	116.12
445.582	79.12
445.803	89.12
446.024	92.12
446.245	84.12
446.466	71.12
446.687	85.12
446.908	92.12
447.129	81.12
447.35	88.12
447.571	82.12
447.792	72.12
448.013	91.12
448.234	80.12
448.455	85.12
448.675	82.12
448.896	101.12
449.117	90.12
449.338	85.12
449.559	78.12
449.779	77.12
450	87.12
450.221	89.12
450.442	88.12
450.662	84.12
450.883	85.12
451.104	71.12
451.324	73.12
451.545	89.12
451.766	81.12
451.986	83.12
452.207	79.12
452.428	74.12
452.648	78.12
452.869	72.12
453.089	77.12
453.31	86.12
453.53	85.12
453.751	77.12
453.971	73.12
454.192	73.12
454.412	73.12
454.633	76.12
454.853	87.12
455.073	85.12
455.294	78.12
455.514	77.12
455.734	68.12
455.955	80.12
456.175	85.12
456.395	94.12
456.616	94.12
456.836	79.12
457.056	81.12
457.276	70.12
457.497	76.12
457.717	74.12
457.937	80.12
458.157	84.12
458.377	79.12
458.598	78.12
458.818	81.12
459.038	74.12
459.258	62.12
459.478	86.12
459.698	91.12
459.918	92.12
460.138	73.12
460.358	69.12
460.578	96.12
460.798	90.12
461.018	104.12
461.238	87.12
461.458	88.12
461.678	96.12
461.898	84.12
462.118	83.12
462.338	89.12
462.558	100.12
462.777	81.12
462.997	85.12
463.217	82.12
463.437	79.12
463.657	81.12
463.876	94.12
464.096	94.12
464.316	81.12
464.536	72.12
464.755	87.12
464.975	98.12
465.195	95.12
465.414	90.12
465.634	73.12
465.854	90.12
466.073	81.12
466.293	97.12
466.512	96.12
466.732	70.12
466.951	78.12
467.171	87.12
467.391	88.12
467.61	97.12
467.829	74.12
468.049	89.12
468.268	103.12
468.488	89.12
468.707	87.12
468.927	80.12
469.146	86.12
469.365	95.12
469.585	94.12
469.804	99.12
470.023	95.12
470.243	92.12
470.462	98.12
470.681	90.12
470.901	98.12
471.12	85.12
471.339	70.12
471.558	75.12
471.777	87.12
471.997	77.12
472.216	93.12
472.435	84.12
472.654	75.12
472.873	85.12
473.092	86.12
473.311	83.12
473.53	89.12
473.749	89.12
473.968	74.12
474.187	94.12
474.406	89.12
474.625	79.12
474.844	80.12
475.063	74.12
475.282	78.12
475.501	74.12
475.72	85.12
475.939	87.12
476.158	79.12
476.377	87.12
476.596	101.12
476.814	92.12
477.033	77.12
477.252	78.12
477.471	94.12
477.69	80.12
477.908	86.12
478.127	97.12
478.346	104.12
478.564	77.12
478.783	88.12
479.002	85.12
479.22	88.12
479.439	83.12
479.658	77.12
479.876	73.12
480.095	78.12
480.313	89.12
480.532	74.12
480.751	86.12
480.969	93.12
481.188	78.12
481.406	83.12
481.624	92.12
481.843	88.12
482.061	100.12
482.28	87.12
482.498	91.12
482.717	93.12
482.935	94.12
483.153	89.12
483.372	86.12
483.59	93.12
483.808	70.12
484.027	94.12
484.245	79.12
484.463	81.12
484.681	103.12
484.9	98.12
485.118	84.12
485.336	80.12
485.554	76.12
485.772	76.12
485.99	69.12
486.209	94.12
486.427	75.12
486.645	78.12
486.863	97.12
487.081	88.12
487.299	85.12
487.517	87.12
487.735	81.12
487.953	82.12
488.171	81.12
488.389	79.12
488.607	88.12
488.825	85.12
489.043	79.12
489.261	88.12
489.479	72.12
489.696	88.12
489.914	86.12
490.132	84.12
490.35	87.12
490.568	84.12
490.786	97.12
491.003	89.12
491.221	83.12
491.439	96.12
491.657	81.12
491.874	89.12
492.092	105.12
492.31	101.12
492.527	81.12
492.745	96.12
492.963	85.12
493.18	100.12
493.398	104.12
493.615	77.12
493.833	89.12
494.05	86.12
494.268	93.12
494.485	95.12
494.703	89.12
494.92	98.12
495.138	90.12
495.355	93.12
495.573	94.12
495.79	88.12
496.008	89.12
496.225	107.12
496.442	101.12
496.66	104.12
496.877	86.12
497.094	92.12
497.312	90.12
497.529	93.12
497.746	83.12
497.963	88.12
498.181	91.12
498.398	94.12
498.615	96.12
498.832	95.12
499.049	88.12
499.267	80.12
499.484	95.12
499.701	94.12
499.918	88.12
500.135	88.12
500.352	81.12
500.569	81.12
500.786	90.12
501.003	71.12
501.22	73.12
501.437	89.12
501.654	84.12
501.871	87.12
502.088	89.12
502.305	80.12
502.522	85.12
502.739	95.12
502.956	87.12
503.172	100.12
503.389	88.12
503.606	86.12
503.823	88.12
504.04	97.12
504.256	94.12
504.473	77.12
504.69	83.12
504.907	92.12
505.123	96.12
505.34	85.12
505.557	76.12
505.773	96.12
505.99	83.12
506.207	81.12
506.423	93.12
506.64	89.12
506.856	81.12
507.073	81.12
507.289	90.12
507.506	81.12
507.722	88.12
507.939	88.12
508.155	71.12
508.372	79.12
508.588	85.12
508.805	70.12
509.021	103.12
509.238	72.12
509.454	71.12
509.67	83.12
509.887	84.12
510.103	89.12
510.319	89.12
510.536	85.12
510.752	85.12
510.968	78.12
511.184	89.12
511.401	83.12
511.617	95.12
511.833	88.12
512.049	78.12
512.265	82.12
512.481	78.12
512.698	91.12
512.914	87.12
513.13	84.12
513.346	92.12
513.562	80.12
513.778	85.12
513.994	94.12
514.21	77.12
514.426	90.12
514.642	104.12
514.858	87.12
515.074	96.12
515.29	75.12
515.506	77.12
515.721	82.12
515.937	91.12
516.153	78.12
516.369	70.12
516.585	90.12
516.801	79.12
517.016	69.12
517.232	88.12
517.448	87.12
517.664	95.12
517.879	87.12
518.095	92.12
518.311	90.12
518.527	78.12
518.742	76.12
518.958	95.12
519.173	89.12
519.389	70.12
519.605	83.12
519.82	89.12
