Data from KBrNoHeat2_HRD10591_00006.txt Node
Date: Fri Dec 27 14:47:37 EST 2024
User: Yrep
Spectrometer: HR+D1059
Trigger mode: 1
Integration Time (sec): 1.000000E-1
Scans to average: 1
Electric dark correction enabled: true
Nonlinearity correction enabled: false
Boxcar width: 0
XAxis mode: Wavelengths
Number of Pixels in Spectrum: 2048
>>>>>Begin Spectral Data<<<<<
223.165	-16.88
223.4	-16.88
223.635	-16.88
223.869	-6.88
224.104	-24.88
224.338	-13.88
224.573	-4.88
224.808	-9.88
225.042	-15.88
225.277	-4.88
225.511	-3.88
225.746	17.12
225.98	5.12
226.215	8.12
226.449	5.12
226.683	13.12
226.918	30.12
227.152	23.12
227.387	46.12
227.621	36.12
227.856	38.12
228.09	38.12
228.324	66.12
228.559	64.12
228.793	64.12
229.027	65.12
229.262	73.12
229.496	61.12
229.73	86.12
229.964	67.12
230.199	69.12
230.433	77.12
230.667	70.12
230.901	82.12
231.136	90.12
231.37	81.12
231.604	92.12
231.838	77.12
232.072	77.12
232.306	78.12
232.541	85.12
232.775	85.12
233.009	84.12
233.243	66.12
233.477	67.12
233.711	82.12
233.945	77.12
234.179	76.12
234.413	94.12
234.647	98.12
234.881	82.12
235.115	81.12
235.349	85.12
235.583	93.12
235.817	76.12
236.051	87.12
236.285	73.12
236.519	94.12
236.753	72.12
236.987	67.12
237.221	83.12
237.455	81.12
237.689	77.12
237.922	83.12
238.156	86.12
238.39	78.12
238.624	83.12
238.858	73.12
239.091	71.12
239.325	81.12
239.559	78.12
239.793	79.12
240.027	77.12
240.26	79.12
240.494	85.12
240.728	71.12
240.961	71.12
241.195	73.12
241.429	69.12
241.662	79.12
241.896	64.12
242.13	73.12
242.363	65.12
242.597	91.12
242.83	78.12
243.064	93.12
243.298	64.12
243.531	78.12
243.765	69.12
243.998	71.12
244.232	82.12
244.465	85.12
244.699	74.12
244.932	79.12
245.166	79.12
245.399	85.12
245.633	92.12
245.866	76.12
246.099	89.12
246.333	76.12
246.566	67.12
246.8	78.12
247.033	81.12
247.266	84.12
247.5	78.12
247.733	86.12
247.966	71.12
248.2	82.12
248.433	83.12
248.666	70.12
248.899	83.12
249.133	74.12
249.366	88.12
249.599	86.12
249.832	97.12
250.066	79.12
250.299	74.12
250.532	81.12
250.765	84.12
250.998	68.12
251.231	79.12
251.465	82.12
251.698	82.12
251.931	63.12
252.164	76.12
252.397	60.12
252.63	76.12
252.863	81.12
253.096	80.12
253.329	73.12
253.562	82.12
253.795	87.12
254.028	91.12
254.261	72.12
254.494	67.12
254.727	65.12
254.96	81.12
255.193	72.12
255.426	98.12
255.659	78.12
255.892	91.12
256.124	67.12
256.357	79.12
256.59	90.12
256.823	82.12
257.056	79.12
257.289	76.12
257.521	87.12
257.754	84.12
257.987	79.12
258.22	90.12
258.452	75.12
258.685	81.12
258.918	86.12
259.151	82.12
259.383	86.12
259.616	75.12
259.849	69.12
260.081	73.12
260.314	76.12
260.547	78.12
260.779	90.12
261.012	75.12
261.244	72.12
261.477	90.12
261.71	80.12
261.942	84.12
262.175	99.12
262.407	79.12
262.64	81.12
262.872	78.12
263.105	75.12
263.337	74.12
263.57	80.12
263.802	74.12
264.035	97.12
264.267	65.12
264.499	83.12
264.732	75.12
264.964	78.12
265.197	89.12
265.429	77.12
265.661	86.12
265.894	90.12
266.126	90.12
266.358	99.12
266.591	85.12
266.823	88.12
267.055	78.12
267.287	105.12
267.52	76.12
267.752	83.12
267.984	85.12
268.216	82.12
268.448	87.12
268.681	76.12
268.913	84.12
269.145	83.12
269.377	93.12
269.609	79.12
269.841	86.12
270.073	92.12
270.306	85.12
270.538	79.12
270.77	83.12
271.002	74.12
271.234	85.12
271.466	84.12
271.698	78.12
271.93	87.12
272.162	77.12
272.394	92.12
272.626	79.12
272.858	81.12
273.09	75.12
273.322	83.12
273.553	85.12
273.785	85.12
274.017	84.12
274.249	84.12
274.481	78.12
274.713	83.12
274.945	81.12
275.176	90.12
275.408	92.12
275.64	99.12
275.872	81.12
276.104	85.12
276.335	90.12
276.567	98.12
276.799	89.12
277.031	71.12
277.262	78.12
277.494	90.12
277.726	83.12
277.957	96.12
278.189	88.12
278.421	85.12
278.652	89.12
278.884	87.12
279.115	85.12
279.347	69.12
279.579	85.12
279.81	86.12
280.042	84.12
280.273	83.12
280.505	70.12
280.736	88.12
280.968	80.12
281.199	95.12
281.431	92.12
281.662	78.12
281.894	85.12
282.125	80.12
282.356	80.12
282.588	90.12
282.819	84.12
283.051	76.12
283.282	86.12
283.513	87.12
283.745	80.12
283.976	97.12
284.207	68.12
284.439	85.12
284.67	77.12
284.901	86.12
285.132	85.12
285.364	83.12
285.595	83.12
285.826	82.12
286.057	86.12
286.288	91.12
286.52	79.12
286.751	63.12
286.982	77.12
287.213	77.12
287.444	84.12
287.675	79.12
287.906	78.12
288.138	71.12
288.369	78.12
288.6	75.12
288.831	74.12
289.062	92.12
289.293	82.12
289.524	79.12
289.755	75.12
289.986	83.12
290.217	72.12
290.448	90.12
290.679	85.12
290.91	80.12
291.141	77.12
291.371	80.12
291.602	92.12
291.833	84.12
292.064	102.12
292.295	97.12
292.526	85.12
292.757	77.12
292.987	83.12
293.218	70.12
293.449	89.12
293.68	88.12
293.91	81.12
294.141	83.12
294.372	90.12
294.603	77.12
294.833	75.12
295.064	81.12
295.295	90.12
295.525	93.12
295.756	93.12
295.987	79.12
296.217	90.12
296.448	89.12
296.679	79.12
296.909	82.12
297.14	88.12
297.37	83.12
297.601	77.12
297.831	79.12
298.062	97.12
298.292	77.12
298.523	78.12
298.753	81.12
298.984	89.12
299.214	91.12
299.445	89.12
299.675	99.12
299.905	80.12
300.136	80.12
300.366	89.12
300.597	90.12
300.827	77.12
301.057	83.12
301.288	80.12
301.518	75.12
301.748	99.12
301.979	94.12
302.209	81.12
302.439	83.12
302.669	92.12
302.9	80.12
303.13	78.12
303.36	78.12
303.59	83.12
303.82	87.12
304.051	84.12
304.281	80.12
304.511	101.12
304.741	86.12
304.971	77.12
305.201	85.12
305.431	81.12
305.661	83.12
305.891	89.12
306.121	87.12
306.352	82.12
306.582	93.12
306.812	94.12
307.042	94.12
307.272	86.12
307.502	69.12
307.731	78.12
307.961	83.12
308.191	88.12
308.421	84.12
308.651	77.12
308.881	86.12
309.111	73.12
309.341	77.12
309.571	84.12
309.8	77.12
310.03	84.12
310.26	90.12
310.49	81.12
310.72	75.12
310.949	94.12
311.179	86.12
311.409	82.12
311.639	76.12
311.868	83.12
312.098	81.12
312.328	94.12
312.557	84.12
312.787	83.12
313.017	95.12
313.246	87.12
313.476	87.12
313.706	75.12
313.935	84.12
314.165	78.12
314.394	92.12
314.624	92.12
314.853	82.12
315.083	86.12
315.312	76.12
315.542	75.12
315.771	99.12
316.001	87.12
316.23	86.12
316.46	83.12
316.689	89.12
316.919	91.12
317.148	83.12
317.377	81.12
317.607	82.12
317.836	83.12
318.065	95.12
318.295	87.12
318.524	92.12
318.753	77.12
318.983	86.12
319.212	87.12
319.441	80.12
319.67	86.12
319.9	94.12
320.129	77.12
320.358	74.12
320.587	83.12
320.816	81.12
321.046	71.12
321.275	79.12
321.504	77.12
321.733	85.12
321.962	91.12
322.191	83.12
322.42	79.12
322.649	74.12
322.878	88.12
323.108	89.12
323.337	93.12
323.566	86.12
323.795	88.12
324.024	94.12
324.253	85.12
324.482	92.12
324.71	87.12
324.939	87.12
325.168	82.12
325.397	92.12
325.626	89.12
325.855	92.12
326.084	98.12
326.313	87.12
326.542	82.12
326.77	87.12
326.999	82.12
327.228	74.12
327.457	80.12
327.686	84.12
327.914	78.12
328.143	94.12
328.372	81.12
328.6	79.12
328.829	78.12
329.058	106.12
329.287	95.12
329.515	87.12
329.744	91.12
329.972	91.12
330.201	82.12
330.43	81.12
330.658	79.12
330.887	87.12
331.115	87.12
331.344	78.12
331.572	78.12
331.801	81.12
332.03	104.12
332.258	87.12
332.486	96.12
332.715	101.12
332.943	98.12
333.172	93.12
333.4	80.12
333.629	79.12
333.857	85.12
334.085	82.12
334.314	95.12
334.542	88.12
334.771	93.12
334.999	90.12
335.227	92.12
335.455	78.12
335.684	89.12
335.912	83.12
336.14	90.12
336.369	93.12
336.597	94.12
336.825	81.12
337.053	76.12
337.281	79.12
337.51	93.12
337.738	84.12
337.966	98.12
338.194	78.12
338.422	89.12
338.65	88.12
338.878	90.12
339.106	90.12
339.334	95.12
339.562	74.12
339.79	77.12
340.018	79.12
340.246	81.12
340.474	90.12
340.702	84.12
340.93	90.12
341.158	78.12
341.386	83.12
341.614	78.12
341.842	77.12
342.07	92.12
342.298	81.12
342.526	93.12
342.754	77.12
342.981	94.12
343.209	84.12
343.437	90.12
343.665	77.12
343.893	89.12
344.12	79.12
344.348	85.12
344.576	95.12
344.804	97.12
345.031	89.12
345.259	86.12
345.487	105.12
345.714	93.12
345.942	87.12
346.17	84.12
346.397	92.12
346.625	75.12
346.853	74.12
347.08	77.12
347.308	89.12
347.535	90.12
347.763	81.12
347.99	87.12
348.218	100.12
348.445	96.12
348.673	99.12
348.9	77.12
349.128	88.12
349.355	87.12
349.583	77.12
349.81	79.12
350.037	94.12
350.265	98.12
350.492	84.12
350.72	77.12
350.947	86.12
351.174	80.12
351.402	87.12
351.629	79.12
351.856	93.12
352.083	78.12
352.311	92.12
352.538	89.12
352.765	95.12
352.992	98.12
353.22	89.12
353.447	94.12
353.674	87.12
353.901	83.12
354.128	86.12
354.355	90.12
354.583	76.12
354.81	85.12
355.037	83.12
355.264	79.12
355.491	85.12
355.718	97.12
355.945	77.12
356.172	74.12
356.399	90.12
356.626	90.12
356.853	87.12
357.08	87.12
357.307	97.12
357.534	85.12
357.761	82.12
357.988	81.12
358.215	83.12
358.441	86.12
358.668	92.12
358.895	96.12
359.122	87.12
359.349	95.12
359.576	84.12
359.802	72.12
360.029	91.12
360.256	90.12
360.483	73.12
360.709	92.12
360.936	83.12
361.163	92.12
361.39	92.12
361.616	80.12
361.843	97.12
362.07	91.12
362.296	88.12
362.523	87.12
362.749	93.12
362.976	89.12
363.203	105.12
363.429	86.12
363.656	94.12
363.882	90.12
364.109	89.12
364.335	87.12
364.562	84.12
364.788	85.12
365.015	83.12
365.241	82.12
365.468	87.12
365.694	77.12
365.92	71.12
366.147	83.12
366.373	83.12
366.599	76.12
366.826	75.12
367.052	87.12
367.278	83.12
367.505	73.12
367.731	87.12
367.957	85.12
368.184	89.12
368.41	88.12
368.636	94.12
368.862	79.12
369.089	75.12
369.315	102.12
369.541	87.12
369.767	101.12
369.993	93.12
370.219	89.12
370.445	81.12
370.672	78.12
370.898	84.12
371.124	90.12
371.35	88.12
371.576	81.12
371.802	79.12
372.028	93.12
372.254	84.12
372.48	94.12
372.706	86.12
372.932	91.12
373.158	101.12
373.384	78.12
373.61	89.12
373.835	95.12
374.061	90.12
374.287	74.12
374.513	81.12
374.739	80.12
374.965	89.12
375.191	93.12
375.416	85.12
375.642	87.12
375.868	85.12
376.094	94.12
376.319	81.12
376.545	80.12
376.771	71.12
376.997	92.12
377.222	82.12
377.448	82.12
377.674	87.12
377.899	79.12
378.125	88.12
378.35	80.12
378.576	85.12
378.802	83.12
379.027	83.12
379.253	97.12
379.478	75.12
379.704	69.12
379.929	87.12
380.155	92.12
380.38	106.12
380.606	94.12
380.831	83.12
381.057	89.12
381.282	84.12
381.507	81.12
381.733	92.12
381.958	84.12
382.184	89.12
382.409	87.12
382.634	89.12
382.86	99.12
383.085	84.12
383.31	86.12
383.535	76.12
383.761	77.12
383.986	78.12
384.211	85.12
384.436	81.12
384.662	81.12
384.887	77.12
385.112	78.12
385.337	91.12
385.562	106.12
385.787	81.12
386.013	93.12
386.238	97.12
386.463	80.12
386.688	107.12
386.913	87.12
387.138	87.12
387.363	109.12
387.588	101.12
387.813	98.12
388.038	99.12
388.263	99.12
388.488	94.12
388.713	80.12
388.938	81.12
389.163	84.12
389.387	78.12
389.612	92.12
389.837	84.12
390.062	76.12
390.287	86.12
390.512	85.12
390.736	90.12
390.961	78.12
391.186	95.12
391.411	85.12
391.636	81.12
391.86	98.12
392.085	93.12
392.31	86.12
392.534	90.12
392.759	82.12
392.984	90.12
393.208	91.12
393.433	85.12
393.658	79.12
393.882	81.12
394.107	87.12
394.331	100.12
394.556	76.12
394.78	79.12
395.005	91.12
395.229	82.12
395.454	90.12
395.678	93.12
395.903	83.12
396.127	86.12
396.352	87.12
396.576	85.12
396.801	78.12
397.025	92.12
397.249	90.12
397.474	96.12
397.698	87.12
397.922	92.12
398.147	93.12
398.371	90.12
398.595	85.12
398.82	104.12
399.044	105.12
399.268	100.12
399.492	88.12
399.717	91.12
399.941	86.12
400.165	98.12
400.389	82.12
400.613	84.12
400.837	81.12
401.062	80.12
401.286	92.12
401.51	92.12
401.734	83.12
401.958	94.12
402.182	91.12
402.406	90.12
402.63	86.12
402.854	89.12
403.078	97.12
403.302	85.12
403.526	102.12
403.75	101.12
403.974	98.12
404.198	110.12
404.422	142.12
404.645	171.12
404.869	155.12
405.093	129.12
405.317	97.12
405.541	89.12
405.765	97.12
405.988	92.12
406.212	94.12
406.436	104.12
406.66	101.12
406.883	81.12
407.107	83.12
407.331	98.12
407.555	69.12
407.778	81.12
408.002	85.12
408.226	94.12
408.449	90.12
408.673	95.12
408.896	98.12
409.12	87.12
409.344	91.12
409.567	88.12
409.791	90.12
410.014	77.12
410.238	91.12
410.461	83.12
410.685	89.12
410.908	85.12
411.132	101.12
411.355	93.12
411.578	92.12
411.802	95.12
412.025	82.12
412.249	81.12
412.472	82.12
412.695	80.12
412.919	90.12
413.142	91.12
413.365	87.12
413.589	95.12
413.812	90.12
414.035	99.12
414.258	76.12
414.482	86.12
414.705	91.12
414.928	70.12
415.151	97.12
415.374	82.12
415.597	86.12
415.821	91.12
416.044	89.12
416.267	95.12
416.49	69.12
416.713	84.12
416.936	92.12
417.159	86.12
417.382	80.12
417.605	82.12
417.828	82.12
418.051	105.12
418.274	84.12
418.497	88.12
418.72	75.12
418.943	101.12
419.166	89.12
419.389	85.12
419.611	87.12
419.834	89.12
420.057	85.12
420.28	71.12
420.503	89.12
420.726	82.12
420.948	93.12
421.171	95.12
421.394	77.12
421.617	99.12
421.839	75.12
422.062	99.12
422.285	89.12
422.507	65.12
422.73	95.12
422.953	90.12
423.175	81.12
423.398	94.12
423.621	99.12
423.843	89.12
424.066	86.12
424.288	88.12
424.511	94.12
424.733	71.12
424.956	84.12
425.178	76.12
425.401	81.12
425.623	90.12
425.846	79.12
426.068	83.12
426.291	81.12
426.513	87.12
426.735	102.12
426.958	105.12
427.18	107.12
427.402	83.12
427.625	86.12
427.847	88.12
428.069	98.12
428.292	89.12
428.514	85.12
428.736	97.12
428.958	86.12
429.181	86.12
429.403	87.12
429.625	100.12
429.847	84.12
430.069	85.12
430.292	78.12
430.514	93.12
430.736	79.12
430.958	79.12
431.18	91.12
431.402	91.12
431.624	81.12
431.846	87.12
432.068	94.12
432.29	92.12
432.512	94.12
432.734	104.12
432.956	106.12
433.178	91.12
433.4	86.12
433.622	93.12
433.844	90.12
434.066	77.12
434.287	78.12
434.509	78.12
434.731	91.12
434.953	86.12
435.175	82.12
435.397	88.12
435.618	74.12
435.84	93.12
436.062	93.12
436.284	103.12
436.505	86.12
436.727	73.12
436.949	87.12
437.17	76.12
437.392	74.12
437.614	84.12
437.835	88.12
438.057	74.12
438.278	94.12
438.5	73.12
438.721	88.12
438.943	94.12
439.165	78.12
439.386	82.12
439.608	86.12
439.829	90.12
440.05	88.12
440.272	93.12
440.493	83.12
440.715	68.12
440.936	97.12
441.158	75.12
441.379	90.12
441.6	86.12
441.822	94.12
442.043	95.12
442.264	103.12
442.486	75.12
442.707	99.12
442.928	94.12
443.149	85.12
443.371	89.12
443.592	93.12
443.813	86.12
444.034	82.12
444.255	88.12
444.476	76.12
444.698	74.12
444.919	80.12
445.14	144.12
445.361	120.12
445.582	86.12
445.803	101.12
446.024	80.12
446.245	85.12
446.466	106.12
446.687	89.12
446.908	84.12
447.129	87.12
447.35	89.12
447.571	82.12
447.792	70.12
448.013	90.12
448.234	89.12
448.455	82.12
448.675	89.12
448.896	84.12
449.117	89.12
449.338	84.12
449.559	86.12
449.779	87.12
450	92.12
450.221	83.12
450.442	93.12
450.662	91.12
450.883	93.12
451.104	94.12
451.324	89.12
451.545	79.12
451.766	88.12
451.986	92.12
452.207	85.12
452.428	96.12
452.648	99.12
452.869	88.12
453.089	75.12
453.31	82.12
453.53	85.12
453.751	100.12
453.971	82.12
454.192	81.12
454.412	68.12
454.633	84.12
454.853	97.12
455.073	76.12
455.294	83.12
455.514	94.12
455.734	83.12
455.955	102.12
456.175	91.12
456.395	78.12
456.616	99.12
456.836	84.12
457.056	86.12
457.276	82.12
457.497	68.12
457.717	74.12
457.937	92.12
458.157	84.12
458.377	95.12
458.598	87.12
458.818	82.12
459.038	67.12
459.258	78.12
459.478	91.12
459.698	89.12
459.918	83.12
460.138	89.12
460.358	88.12
460.578	84.12
460.798	79.12
461.018	90.12
461.238	109.12
461.458	69.12
461.678	86.12
461.898	86.12
462.118	81.12
462.338	75.12
462.558	94.12
462.777	85.12
462.997	86.12
463.217	99.12
463.437	98.12
463.657	85.12
463.876	82.12
464.096	82.12
464.316	82.12
464.536	90.12
464.755	86.12
464.975	71.12
465.195	98.12
465.414	87.12
465.634	78.12
465.854	98.12
466.073	75.12
466.293	93.12
466.512	78.12
466.732	81.12
466.951	89.12
467.171	78.12
467.391	105.12
467.61	98.12
467.829	78.12
468.049	97.12
468.268	73.12
468.488	92.12
468.707	98.12
468.927	83.12
469.146	88.12
469.365	89.12
469.585	91.12
469.804	92.12
470.023	97.12
470.243	73.12
470.462	90.12
470.681	68.12
470.901	94.12
471.12	98.12
471.339	82.12
471.558	84.12
471.777	97.12
471.997	75.12
472.216	86.12
472.435	97.12
472.654	89.12
472.873	89.12
473.092	97.12
473.311	99.12
473.53	87.12
473.749	91.12
473.968	95.12
474.187	83.12
474.406	92.12
474.625	92.12
474.844	88.12
475.063	81.12
475.282	92.12
475.501	92.12
475.72	112.12
475.939	87.12
476.158	71.12
476.377	89.12
476.596	87.12
476.814	84.12
477.033	94.12
477.252	83.12
477.471	89.12
477.69	91.12
477.908	103.12
478.127	91.12
478.346	81.12
478.564	82.12
478.783	92.12
479.002	90.12
479.22	87.12
479.439	84.12
479.658	82.12
479.876	94.12
480.095	95.12
480.313	93.12
480.532	86.12
480.751	87.12
480.969	92.12
481.188	77.12
481.406	93.12
481.624	70.12
481.843	89.12
482.061	86.12
482.28	92.12
482.498	84.12
482.717	74.12
482.935	77.12
483.153	86.12
483.372	89.12
483.59	96.12
483.808	87.12
484.027	97.12
484.245	84.12
484.463	94.12
484.681	100.12
484.9	97.12
485.118	83.12
485.336	81.12
485.554	84.12
485.772	84.12
485.99	94.12
486.209	99.12
486.427	91.12
486.645	99.12
486.863	89.12
487.081	91.12
487.299	76.12
487.517	90.12
487.735	92.12
487.953	92.12
488.171	93.12
488.389	85.12
488.607	93.12
488.825	89.12
489.043	75.12
489.261	84.12
489.479	92.12
489.696	91.12
489.914	95.12
490.132	95.12
490.35	88.12
490.568	91.12
490.786	69.12
491.003	102.12
491.221	91.12
491.439	93.12
491.657	97.12
491.874	105.12
492.092	97.12
492.31	94.12
492.527	92.12
492.745	98.12
492.963	91.12
493.18	96.12
493.398	86.12
493.615	94.12
493.833	94.12
494.05	88.12
494.268	88.12
494.485	95.12
494.703	96.12
494.92	93.12
495.138	91.12
495.355	90.12
495.573	100.12
495.79	119.12
496.008	100.12
496.225	92.12
496.442	90.12
496.66	98.12
496.877	97.12
497.094	106.12
497.312	89.12
497.529	95.12
497.746	86.12
497.963	93.12
498.181	81.12
498.398	86.12
498.615	97.12
498.832	80.12
499.049	87.12
499.267	103.12
499.484	93.12
499.701	93.12
499.918	101.12
500.135	97.12
500.352	87.12
500.569	91.12
500.786	107.12
501.003	102.12
501.22	88.12
501.437	86.12
501.654	89.12
501.871	105.12
502.088	77.12
502.305	92.12
502.522	92.12
502.739	92.12
502.956	87.12
503.172	88.12
503.389	86.12
503.606	94.12
503.823	82.12
504.04	94.12
504.256	90.12
504.473	87.12
504.69	95.12
504.907	111.12
505.123	81.12
505.34	81.12
505.557	86.12
505.773	103.12
505.99	90.12
506.207	91.12
506.423	93.12
506.64	98.12
506.856	77.12
507.073	86.12
507.289	83.12
507.506	86.12
507.722	83.12
507.939	76.12
508.155	100.12
508.372	88.12
508.588	85.12
508.805	89.12
509.021	99.12
509.238	84.12
509.454	80.12
509.67	90.12
509.887	90.12
510.103	90.12
510.319	79.12
510.536	88.12
510.752	75.12
510.968	74.12
511.184	90.12
511.401	91.12
511.617	92.12
511.833	85.12
512.049	91.12
512.265	101.12
512.481	93.12
512.698	96.12
512.914	86.12
513.13	94.12
513.346	97.12
513.562	93.12
513.778	88.12
513.994	97.12
514.21	91.12
514.426	85.12
514.642	100.12
514.858	81.12
515.074	97.12
515.29	85.12
515.506	93.12
515.721	83.12
515.937	95.12
516.153	84.12
516.369	108.12
516.585	84.12
516.801	75.12
517.016	97.12
517.232	79.12
517.448	91.12
517.664	90.12
517.879	79.12
518.095	82.12
518.311	81.12
518.527	88.12
518.742	86.12
518.958	84.12
519.173	105.12
519.389	81.12
