Data from KBrNoHeat2_HRD10591_00004.txt Node
Date: Fri Dec 27 14:47:35 EST 2024
User: Yrep
Spectrometer: HR+D1059
Trigger mode: 1
Integration Time (sec): 1.000000E-1
Scans to average: 1
Electric dark correction enabled: true
Nonlinearity correction enabled: false
Boxcar width: 0
XAxis mode: Wavelengths
Number of Pixels in Spectrum: 2048
>>>>>Begin Spectral Data<<<<<
223.165	-17.88
223.4	-17.88
223.635	-17.88
223.869	-24.88
224.104	-10.88
224.338	-3.88
224.573	-5.88
224.808	-15.88
225.042	-3.88
225.277	-1.88
225.511	1.12
225.746	-2.88
225.98	-6.88
226.215	20.12
226.449	9.12
226.683	22.12
226.918	21.12
227.152	21.12
227.387	34.12
227.621	42.12
227.856	39.12
228.09	42.12
228.324	40.12
228.559	59.12
228.793	57.12
229.027	58.12
229.262	55.12
229.496	68.12
229.73	68.12
229.964	80.12
230.199	73.12
230.433	66.12
230.667	69.12
230.901	65.12
231.136	75.12
231.37	79.12
231.604	78.12
231.838	77.12
232.072	72.12
232.306	73.12
232.541	86.12
232.775	77.12
233.009	72.12
233.243	84.12
233.477	74.12
233.711	60.12
233.945	71.12
234.179	82.12
234.413	87.12
234.647	64.12
234.881	77.12
235.115	73.12
235.349	87.12
235.583	69.12
235.817	76.12
236.051	69.12
236.285	72.12
236.519	73.12
236.753	68.12
236.987	75.12
237.221	77.12
237.455	91.12
237.689	79.12
237.922	72.12
238.156	85.12
238.39	68.12
238.624	64.12
238.858	74.12
239.091	74.12
239.325	85.12
239.559	74.12
239.793	72.12
240.027	76.12
240.26	77.12
240.494	70.12
240.728	84.12
240.961	67.12
241.195	67.12
241.429	78.12
241.662	61.12
241.896	71.12
242.13	79.12
242.363	77.12
242.597	79.12
242.83	76.12
243.064	78.12
243.298	80.12
243.531	69.12
243.765	87.12
243.998	71.12
244.232	79.12
244.465	57.12
244.699	82.12
244.932	76.12
245.166	67.12
245.399	78.12
245.633	60.12
245.866	70.12
246.099	87.12
246.333	73.12
246.566	90.12
246.8	74.12
247.033	83.12
247.266	76.12
247.5	84.12
247.733	92.12
247.966	88.12
248.2	80.12
248.433	71.12
248.666	74.12
248.899	67.12
249.133	79.12
249.366	77.12
249.599	83.12
249.832	71.12
250.066	73.12
250.299	81.12
250.532	75.12
250.765	68.12
250.998	78.12
251.231	78.12
251.465	79.12
251.698	73.12
251.931	89.12
252.164	87.12
252.397	68.12
252.63	70.12
252.863	77.12
253.096	67.12
253.329	72.12
253.562	70.12
253.795	97.12
254.028	77.12
254.261	76.12
254.494	61.12
254.727	89.12
254.96	76.12
255.193	83.12
255.426	88.12
255.659	72.12
255.892	83.12
256.124	76.12
256.357	65.12
256.59	78.12
256.823	78.12
257.056	86.12
257.289	80.12
257.521	68.12
257.754	81.12
257.987	87.12
258.22	69.12
258.452	81.12
258.685	67.12
258.918	55.12
259.151	80.12
259.383	72.12
259.616	88.12
259.849	84.12
260.081	65.12
260.314	74.12
260.547	70.12
260.779	65.12
261.012	66.12
261.244	70.12
261.477	74.12
261.71	63.12
261.942	79.12
262.175	77.12
262.407	75.12
262.64	75.12
262.872	74.12
263.105	79.12
263.337	84.12
263.57	84.12
263.802	97.12
264.035	77.12
264.267	70.12
264.499	82.12
264.732	68.12
264.964	89.12
265.197	93.12
265.429	80.12
265.661	86.12
265.894	87.12
266.126	79.12
266.358	83.12
266.591	81.12
266.823	77.12
267.055	71.12
267.287	66.12
267.52	71.12
267.752	78.12
267.984	89.12
268.216	79.12
268.448	84.12
268.681	93.12
268.913	80.12
269.145	75.12
269.377	83.12
269.609	88.12
269.841	75.12
270.073	86.12
270.306	79.12
270.538	79.12
270.77	84.12
271.002	67.12
271.234	86.12
271.466	76.12
271.698	80.12
271.93	69.12
272.162	80.12
272.394	90.12
272.626	78.12
272.858	81.12
273.09	81.12
273.322	91.12
273.553	68.12
273.785	90.12
274.017	82.12
274.249	99.12
274.481	87.12
274.713	104.12
274.945	94.12
275.176	79.12
275.408	98.12
275.64	88.12
275.872	82.12
276.104	98.12
276.335	80.12
276.567	86.12
276.799	69.12
277.031	78.12
277.262	72.12
277.494	89.12
277.726	90.12
277.957	84.12
278.189	73.12
278.421	85.12
278.652	93.12
278.884	98.12
279.115	78.12
279.347	81.12
279.579	85.12
279.81	88.12
280.042	86.12
280.273	86.12
280.505	86.12
280.736	88.12
280.968	72.12
281.199	78.12
281.431	89.12
281.662	76.12
281.894	86.12
282.125	76.12
282.356	79.12
282.588	74.12
282.819	71.12
283.051	87.12
283.282	90.12
283.513	82.12
283.745	96.12
283.976	99.12
284.207	86.12
284.439	85.12
284.67	91.12
284.901	83.12
285.132	88.12
285.364	86.12
285.595	80.12
285.826	82.12
286.057	86.12
286.288	88.12
286.52	77.12
286.751	90.12
286.982	89.12
287.213	80.12
287.444	73.12
287.675	89.12
287.906	85.12
288.138	104.12
288.369	94.12
288.6	84.12
288.831	72.12
289.062	75.12
289.293	79.12
289.524	86.12
289.755	91.12
289.986	80.12
290.217	85.12
290.448	83.12
290.679	76.12
290.91	89.12
291.141	83.12
291.371	83.12
291.602	81.12
291.833	83.12
292.064	79.12
292.295	79.12
292.526	87.12
292.757	64.12
292.987	83.12
293.218	73.12
293.449	78.12
293.68	82.12
293.91	73.12
294.141	87.12
294.372	77.12
294.603	70.12
294.833	77.12
295.064	85.12
295.295	86.12
295.525	90.12
295.756	82.12
295.987	79.12
296.217	74.12
296.448	92.12
296.679	87.12
296.909	81.12
297.14	90.12
297.37	79.12
297.601	81.12
297.831	70.12
298.062	80.12
298.292	87.12
298.523	89.12
298.753	85.12
298.984	85.12
299.214	94.12
299.445	72.12
299.675	86.12
299.905	98.12
300.136	88.12
300.366	88.12
300.597	87.12
300.827	87.12
301.057	78.12
301.288	86.12
301.518	88.12
301.748	91.12
301.979	103.12
302.209	79.12
302.439	79.12
302.669	89.12
302.9	73.12
303.13	95.12
303.36	76.12
303.59	83.12
303.82	64.12
304.051	81.12
304.281	68.12
304.511	76.12
304.741	82.12
304.971	79.12
305.201	90.12
305.431	90.12
305.661	91.12
305.891	95.12
306.121	85.12
306.352	75.12
306.582	72.12
306.812	89.12
307.042	78.12
307.272	70.12
307.502	84.12
307.731	78.12
307.961	86.12
308.191	98.12
308.421	74.12
308.651	86.12
308.881	79.12
309.111	84.12
309.341	90.12
309.571	78.12
309.8	76.12
310.03	82.12
310.26	76.12
310.49	85.12
310.72	67.12
310.949	76.12
311.179	82.12
311.409	73.12
311.639	58.12
311.868	79.12
312.098	84.12
312.328	97.12
312.557	66.12
312.787	83.12
313.017	77.12
313.246	93.12
313.476	101.12
313.706	99.12
313.935	84.12
314.165	68.12
314.394	81.12
314.624	83.12
314.853	97.12
315.083	99.12
315.312	89.12
315.542	74.12
315.771	84.12
316.001	89.12
316.23	97.12
316.46	87.12
316.689	98.12
316.919	97.12
317.148	87.12
317.377	100.12
317.607	86.12
317.836	94.12
318.065	84.12
318.295	76.12
318.524	70.12
318.753	80.12
318.983	93.12
319.212	94.12
319.441	96.12
319.67	75.12
319.9	75.12
320.129	84.12
320.358	80.12
320.587	86.12
320.816	74.12
321.046	79.12
321.275	76.12
321.504	83.12
321.733	81.12
321.962	86.12
322.191	72.12
322.42	91.12
322.649	87.12
322.878	76.12
323.108	79.12
323.337	95.12
323.566	100.12
323.795	79.12
324.024	73.12
324.253	79.12
324.482	95.12
324.71	97.12
324.939	95.12
325.168	75.12
325.397	72.12
325.626	90.12
325.855	80.12
326.084	77.12
326.313	92.12
326.542	89.12
326.77	87.12
326.999	89.12
327.228	70.12
327.457	80.12
327.686	82.12
327.914	85.12
328.143	100.12
328.372	87.12
328.6	102.12
328.829	76.12
329.058	87.12
329.287	71.12
329.515	77.12
329.744	80.12
329.972	79.12
330.201	80.12
330.43	91.12
330.658	74.12
330.887	78.12
331.115	69.12
331.344	79.12
331.572	89.12
331.801	68.12
332.03	95.12
332.258	79.12
332.486	80.12
332.715	78.12
332.943	80.12
333.172	79.12
333.4	74.12
333.629	91.12
333.857	86.12
334.085	99.12
334.314	74.12
334.542	98.12
334.771	83.12
334.999	68.12
335.227	72.12
335.455	79.12
335.684	88.12
335.912	99.12
336.14	79.12
336.369	87.12
336.597	77.12
336.825	72.12
337.053	77.12
337.281	78.12
337.51	73.12
337.738	86.12
337.966	87.12
338.194	94.12
338.422	85.12
338.65	80.12
338.878	89.12
339.106	83.12
339.334	79.12
339.562	80.12
339.79	78.12
340.018	76.12
340.246	84.12
340.474	91.12
340.702	75.12
340.93	70.12
341.158	77.12
341.386	82.12
341.614	93.12
341.842	87.12
342.07	83.12
342.298	88.12
342.526	70.12
342.754	75.12
342.981	88.12
343.209	81.12
343.437	103.12
343.665	70.12
343.893	90.12
344.12	98.12
344.348	71.12
344.576	87.12
344.804	91.12
345.031	82.12
345.259	83.12
345.487	75.12
345.714	83.12
345.942	83.12
346.17	89.12
346.397	84.12
346.625	84.12
346.853	79.12
347.08	92.12
347.308	89.12
347.535	84.12
347.763	74.12
347.99	94.12
348.218	82.12
348.445	77.12
348.673	69.12
348.9	84.12
349.128	87.12
349.355	80.12
349.583	69.12
349.81	82.12
350.037	88.12
350.265	84.12
350.492	91.12
350.72	79.12
350.947	83.12
351.174	87.12
351.402	89.12
351.629	70.12
351.856	95.12
352.083	82.12
352.311	94.12
352.538	92.12
352.765	83.12
352.992	84.12
353.22	87.12
353.447	84.12
353.674	94.12
353.901	70.12
354.128	76.12
354.355	88.12
354.583	73.12
354.81	79.12
355.037	77.12
355.264	88.12
355.491	100.12
355.718	87.12
355.945	85.12
356.172	82.12
356.399	83.12
356.626	88.12
356.853	80.12
357.08	80.12
357.307	80.12
357.534	84.12
357.761	87.12
357.988	83.12
358.215	88.12
358.441	84.12
358.668	79.12
358.895	80.12
359.122	76.12
359.349	80.12
359.576	97.12
359.802	91.12
360.029	86.12
360.256	86.12
360.483	87.12
360.709	77.12
360.936	95.12
361.163	83.12
361.39	82.12
361.616	87.12
361.843	80.12
362.07	85.12
362.296	80.12
362.523	76.12
362.749	75.12
362.976	81.12
363.203	84.12
363.429	83.12
363.656	84.12
363.882	87.12
364.109	92.12
364.335	87.12
364.562	91.12
364.788	89.12
365.015	81.12
365.241	73.12
365.468	72.12
365.694	82.12
365.92	84.12
366.147	75.12
366.373	71.12
366.599	78.12
366.826	94.12
367.052	94.12
367.278	82.12
367.505	80.12
367.731	96.12
367.957	87.12
368.184	85.12
368.41	76.12
368.636	79.12
368.862	78.12
369.089	104.12
369.315	86.12
369.541	75.12
369.767	64.12
369.993	74.12
370.219	75.12
370.445	74.12
370.672	92.12
370.898	76.12
371.124	83.12
371.35	102.12
371.576	72.12
371.802	80.12
372.028	81.12
372.254	89.12
372.48	80.12
372.706	94.12
372.932	86.12
373.158	92.12
373.384	84.12
373.61	74.12
373.835	87.12
374.061	69.12
374.287	82.12
374.513	88.12
374.739	89.12
374.965	81.12
375.191	83.12
375.416	86.12
375.642	80.12
375.868	100.12
376.094	85.12
376.319	76.12
376.545	87.12
376.771	81.12
376.997	84.12
377.222	75.12
377.448	78.12
377.674	86.12
377.899	84.12
378.125	70.12
378.35	82.12
378.576	76.12
378.802	71.12
379.027	80.12
379.253	86.12
379.478	77.12
379.704	75.12
379.929	81.12
380.155	74.12
380.38	99.12
380.606	85.12
380.831	79.12
381.057	82.12
381.282	68.12
381.507	100.12
381.733	82.12
381.958	88.12
382.184	85.12
382.409	93.12
382.634	89.12
382.86	75.12
383.085	82.12
383.31	87.12
383.535	78.12
383.761	90.12
383.986	90.12
384.211	88.12
384.436	84.12
384.662	64.12
384.887	79.12
385.112	87.12
385.337	73.12
385.562	71.12
385.787	82.12
386.013	79.12
386.238	85.12
386.463	83.12
386.688	82.12
386.913	72.12
387.138	78.12
387.363	81.12
387.588	76.12
387.813	89.12
388.038	82.12
388.263	87.12
388.488	75.12
388.713	72.12
388.938	84.12
389.163	84.12
389.387	84.12
389.612	92.12
389.837	69.12
390.062	86.12
390.287	76.12
390.512	69.12
390.736	81.12
390.961	90.12
391.186	73.12
391.411	90.12
391.636	95.12
391.86	82.12
392.085	81.12
392.31	78.12
392.534	77.12
392.759	82.12
392.984	85.12
393.208	74.12
393.433	78.12
393.658	84.12
393.882	70.12
394.107	92.12
394.331	101.12
394.556	69.12
394.78	77.12
395.005	89.12
395.229	81.12
395.454	86.12
395.678	86.12
395.903	97.12
396.127	81.12
396.352	80.12
396.576	82.12
396.801	99.12
397.025	64.12
397.249	70.12
397.474	71.12
397.698	83.12
397.922	88.12
398.147	85.12
398.371	80.12
398.595	103.12
398.82	86.12
399.044	83.12
399.268	86.12
399.492	86.12
399.717	79.12
399.941	68.12
400.165	80.12
400.389	100.12
400.613	81.12
400.837	86.12
401.062	66.12
401.286	75.12
401.51	81.12
401.734	74.12
401.958	97.12
402.182	73.12
402.406	64.12
402.63	82.12
402.854	102.12
403.078	97.12
403.302	76.12
403.526	85.12
403.75	91.12
403.974	100.12
404.198	120.12
404.422	149.12
404.645	163.12
404.869	158.12
405.093	122.12
405.317	92.12
405.541	82.12
405.765	86.12
405.988	102.12
406.212	99.12
406.436	87.12
406.66	81.12
406.883	97.12
407.107	78.12
407.331	93.12
407.555	73.12
407.778	87.12
408.002	72.12
408.226	69.12
408.449	89.12
408.673	75.12
408.896	79.12
409.12	82.12
409.344	74.12
409.567	86.12
409.791	75.12
410.014	83.12
410.238	90.12
410.461	68.12
410.685	91.12
410.908	80.12
411.132	92.12
411.355	93.12
411.578	92.12
411.802	82.12
412.025	85.12
412.249	80.12
412.472	96.12
412.695	89.12
412.919	82.12
413.142	85.12
413.365	86.12
413.589	71.12
413.812	84.12
414.035	90.12
414.258	74.12
414.482	70.12
414.705	86.12
414.928	89.12
415.151	79.12
415.374	72.12
415.597	73.12
415.821	79.12
416.044	78.12
416.267	90.12
416.49	73.12
416.713	87.12
416.936	73.12
417.159	83.12
417.382	95.12
417.605	72.12
417.828	68.12
418.051	75.12
418.274	83.12
418.497	84.12
418.72	88.12
418.943	84.12
419.166	79.12
419.389	82.12
419.611	81.12
419.834	83.12
420.057	87.12
420.28	74.12
420.503	89.12
420.726	69.12
420.948	89.12
421.171	83.12
421.394	81.12
421.617	88.12
421.839	75.12
422.062	88.12
422.285	85.12
422.507	92.12
422.73	89.12
422.953	103.12
423.175	90.12
423.398	85.12
423.621	96.12
423.843	91.12
424.066	84.12
424.288	79.12
424.511	76.12
424.733	87.12
424.956	71.12
425.178	74.12
425.401	90.12
425.623	86.12
425.846	80.12
426.068	75.12
426.291	73.12
426.513	67.12
426.735	84.12
426.958	86.12
427.18	81.12
427.402	98.12
427.625	85.12
427.847	64.12
428.069	98.12
428.292	82.12
428.514	90.12
428.736	83.12
428.958	68.12
429.181	69.12
429.403	82.12
429.625	92.12
429.847	78.12
430.069	85.12
430.292	68.12
430.514	87.12
430.736	96.12
430.958	96.12
431.18	78.12
431.402	85.12
431.624	91.12
431.846	78.12
432.068	82.12
432.29	85.12
432.512	85.12
432.734	81.12
432.956	75.12
433.178	82.12
433.4	85.12
433.622	74.12
433.844	94.12
434.066	83.12
434.287	83.12
434.509	85.12
434.731	85.12
434.953	85.12
435.175	97.12
435.397	91.12
435.618	73.12
435.84	97.12
436.062	77.12
436.284	97.12
436.505	86.12
436.727	85.12
436.949	85.12
437.17	85.12
437.392	79.12
437.614	88.12
437.835	76.12
438.057	89.12
438.278	82.12
438.5	80.12
438.721	99.12
438.943	86.12
439.165	96.12
439.386	82.12
439.608	80.12
439.829	100.12
440.05	88.12
440.272	70.12
440.493	84.12
440.715	87.12
440.936	89.12
441.158	83.12
441.379	88.12
441.6	83.12
441.822	88.12
442.043	85.12
442.264	87.12
442.486	88.12
442.707	81.12
442.928	77.12
443.149	77.12
443.371	93.12
443.592	84.12
443.813	94.12
444.034	74.12
444.255	92.12
444.476	87.12
444.698	87.12
444.919	74.12
445.14	143.12
445.361	114.12
445.582	87.12
445.803	88.12
446.024	84.12
446.245	88.12
446.466	90.12
446.687	72.12
446.908	74.12
447.129	81.12
447.35	77.12
447.571	76.12
447.792	85.12
448.013	78.12
448.234	96.12
448.455	72.12
448.675	81.12
448.896	91.12
449.117	94.12
449.338	84.12
449.559	86.12
449.779	78.12
450	80.12
450.221	93.12
450.442	88.12
450.662	88.12
450.883	80.12
451.104	84.12
451.324	78.12
451.545	91.12
451.766	85.12
451.986	76.12
452.207	82.12
452.428	69.12
452.648	92.12
452.869	73.12
453.089	94.12
453.31	91.12
453.53	89.12
453.751	81.12
453.971	77.12
454.192	84.12
454.412	97.12
454.633	79.12
454.853	66.12
455.073	81.12
455.294	80.12
455.514	67.12
455.734	89.12
455.955	91.12
456.175	90.12
456.395	79.12
456.616	80.12
456.836	76.12
457.056	81.12
457.276	73.12
457.497	90.12
457.717	85.12
457.937	87.12
458.157	73.12
458.377	84.12
458.598	85.12
458.818	85.12
459.038	64.12
459.258	85.12
459.478	73.12
459.698	65.12
459.918	88.12
460.138	82.12
460.358	80.12
460.578	97.12
460.798	84.12
461.018	73.12
461.238	91.12
461.458	80.12
461.678	68.12
461.898	82.12
462.118	92.12
462.338	95.12
462.558	84.12
462.777	71.12
462.997	92.12
463.217	87.12
463.437	86.12
463.657	84.12
463.876	77.12
464.096	80.12
464.316	86.12
464.536	76.12
464.755	98.12
464.975	90.12
465.195	81.12
465.414	71.12
465.634	75.12
465.854	83.12
466.073	89.12
466.293	88.12
466.512	86.12
466.732	71.12
466.951	94.12
467.171	94.12
467.391	79.12
467.61	96.12
467.829	76.12
468.049	93.12
468.268	80.12
468.488	91.12
468.707	87.12
468.927	90.12
469.146	83.12
469.365	92.12
469.585	88.12
469.804	84.12
470.023	88.12
470.243	89.12
470.462	79.12
470.681	92.12
470.901	94.12
471.12	62.12
471.339	82.12
471.558	86.12
471.777	74.12
471.997	100.12
472.216	84.12
472.435	83.12
472.654	74.12
472.873	91.12
473.092	88.12
473.311	86.12
473.53	86.12
473.749	86.12
473.968	85.12
474.187	93.12
474.406	89.12
474.625	82.12
474.844	93.12
475.063	85.12
475.282	89.12
475.501	74.12
475.72	91.12
475.939	76.12
476.158	73.12
476.377	73.12
476.596	87.12
476.814	84.12
477.033	94.12
477.252	87.12
477.471	79.12
477.69	94.12
477.908	80.12
478.127	76.12
478.346	78.12
478.564	82.12
478.783	84.12
479.002	82.12
479.22	86.12
479.439	82.12
479.658	73.12
479.876	81.12
480.095	100.12
480.313	73.12
480.532	79.12
480.751	88.12
480.969	87.12
481.188	86.12
481.406	74.12
481.624	73.12
481.843	72.12
482.061	82.12
482.28	68.12
482.498	76.12
482.717	86.12
482.935	81.12
483.153	76.12
483.372	88.12
483.59	80.12
483.808	79.12
484.027	83.12
484.245	104.12
484.463	79.12
484.681	83.12
484.9	98.12
485.118	100.12
485.336	88.12
485.554	93.12
485.772	76.12
485.99	75.12
486.209	79.12
486.427	83.12
486.645	94.12
486.863	92.12
487.081	85.12
487.299	83.12
487.517	83.12
487.735	86.12
487.953	96.12
488.171	95.12
488.389	86.12
488.607	88.12
488.825	83.12
489.043	87.12
489.261	90.12
489.479	99.12
489.696	82.12
489.914	102.12
490.132	81.12
490.35	83.12
490.568	93.12
490.786	84.12
491.003	89.12
491.221	86.12
491.439	91.12
491.657	92.12
491.874	89.12
492.092	73.12
492.31	89.12
492.527	92.12
492.745	104.12
492.963	93.12
493.18	99.12
493.398	85.12
493.615	86.12
493.833	88.12
494.05	87.12
494.268	87.12
494.485	79.12
494.703	98.12
494.92	95.12
495.138	96.12
495.355	86.12
495.573	89.12
495.79	82.12
496.008	74.12
496.225	107.12
496.442	91.12
496.66	98.12
496.877	94.12
497.094	99.12
497.312	87.12
497.529	86.12
497.746	88.12
497.963	79.12
498.181	89.12
498.398	78.12
498.615	84.12
498.832	96.12
499.049	87.12
499.267	82.12
499.484	82.12
499.701	78.12
499.918	89.12
500.135	90.12
500.352	82.12
500.569	94.12
500.786	82.12
501.003	81.12
501.22	85.12
501.437	97.12
501.654	82.12
501.871	81.12
502.088	104.12
502.305	80.12
502.522	94.12
502.739	87.12
502.956	81.12
503.172	81.12
503.389	75.12
503.606	93.12
503.823	89.12
504.04	85.12
504.256	103.12
504.473	87.12
504.69	89.12
504.907	80.12
505.123	91.12
505.34	77.12
505.557	88.12
505.773	84.12
505.99	77.12
506.207	95.12
506.423	81.12
506.64	91.12
506.856	88.12
507.073	84.12
507.289	91.12
507.506	96.12
507.722	97.12
507.939	87.12
508.155	87.12
508.372	76.12
508.588	77.12
508.805	99.12
509.021	81.12
509.238	84.12
509.454	87.12
509.67	86.12
509.887	84.12
510.103	86.12
510.319	98.12
510.536	87.12
510.752	100.12
510.968	85.12
511.184	73.12
511.401	78.12
511.617	96.12
511.833	85.12
512.049	92.12
512.265	70.12
512.481	97.12
512.698	82.12
512.914	88.12
513.13	89.12
513.346	83.12
513.562	73.12
513.778	103.12
513.994	87.12
514.21	80.12
514.426	75.12
514.642	74.12
514.858	77.12
515.074	75.12
515.29	90.12
515.506	87.12
515.721	79.12
515.937	90.12
516.153	85.12
516.369	80.12
516.585	95.12
516.801	79.12
517.016	87.12
517.232	80.12
517.448	84.12
517.664	83.12
517.879	84.12
518.095	95.12
518.311	86.12
518.527	81.12
518.742	94.12
518.958	83.12
519.173	90.12
519.389	90.12
519.605	82.12
519.82	97.12
