Data from KBrNoHeat2_HRD10591_00008.txt Node
Date: Fri Dec 27 14:47:39 EST 2024
User: Yrep
Spectrometer: HR+D1059
Trigger mode: 1
Integration Time (sec): 1.000000E-1
Scans to average: 1
Electric dark correction enabled: true
Nonlinearity correction enabled: false
Boxcar width: 0
XAxis mode: Wavelengths
Number of Pixels in Spectrum: 2048
>>>>>Begin Spectral Data<<<<<
223.165	-22.06
223.4	-22.06
223.635	-22.06
223.869	-26.06
224.104	-13.06
224.338	-11.06
224.573	-23.06
224.808	-13.06
225.042	-22.06
225.277	-16.06
225.511	2.94
225.746	11.94
225.98	17.94
226.215	17.94
226.449	13.94
226.683	22.94
226.918	28.94
227.152	29.94
227.387	43.94
227.621	28.94
227.856	40.94
228.09	54.94
228.324	54.94
228.559	66.94
228.793	59.94
229.027	65.94
229.262	51.94
229.496	72.94
229.73	75.94
229.964	65.94
230.199	69.94
230.433	70.94
230.667	69.94
230.901	81.94
231.136	82.94
231.37	90.94
231.604	106.94
231.838	84.94
232.072	71.94
232.306	89.94
232.541	77.94
232.775	90.94
233.009	65.94
233.243	78.94
233.477	88.94
233.711	91.94
233.945	86.94
234.179	79.94
234.413	86.94
234.647	94.94
234.881	87.94
235.115	83.94
235.349	64.94
235.583	72.94
235.817	69.94
236.051	90.94
236.285	76.94
236.519	77.94
236.753	88.94
236.987	82.94
237.221	77.94
237.455	90.94
237.689	78.94
237.922	79.94
238.156	70.94
238.39	80.94
238.624	83.94
238.858	67.94
239.091	83.94
239.325	81.94
239.559	76.94
239.793	81.94
240.027	77.94
240.26	80.94
240.494	69.94
240.728	79.94
240.961	72.94
241.195	86.94
241.429	73.94
241.662	69.94
241.896	74.94
242.13	78.94
242.363	69.94
242.597	67.94
242.83	72.94
243.064	76.94
243.298	73.94
243.531	85.94
243.765	75.94
243.998	77.94
244.232	67.94
244.465	74.94
244.699	84.94
244.932	81.94
245.166	75.94
245.399	89.94
245.633	76.94
245.866	72.94
246.099	91.94
246.333	77.94
246.566	81.94
246.8	55.94
247.033	70.94
247.266	94.94
247.5	80.94
247.733	73.94
247.966	97.94
248.2	69.94
248.433	74.94
248.666	93.94
248.899	77.94
249.133	82.94
249.366	93.94
249.599	81.94
249.832	87.94
250.066	88.94
250.299	64.94
250.532	83.94
250.765	77.94
250.998	73.94
251.231	70.94
251.465	53.94
251.698	74.94
251.931	97.94
252.164	85.94
252.397	77.94
252.63	69.94
252.863	82.94
253.096	75.94
253.329	79.94
253.562	93.94
253.795	80.94
254.028	103.94
254.261	85.94
254.494	79.94
254.727	73.94
254.96	86.94
255.193	62.94
255.426	89.94
255.659	66.94
255.892	84.94
256.124	94.94
256.357	74.94
256.59	82.94
256.823	90.94
257.056	91.94
257.289	81.94
257.521	70.94
257.754	83.94
257.987	76.94
258.22	88.94
258.452	83.94
258.685	84.94
258.918	67.94
259.151	86.94
259.383	78.94
259.616	71.94
259.849	90.94
260.081	86.94
260.314	70.94
260.547	77.94
260.779	79.94
261.012	81.94
261.244	89.94
261.477	106.94
261.71	82.94
261.942	81.94
262.175	79.94
262.407	87.94
262.64	94.94
262.872	84.94
263.105	79.94
263.337	63.94
263.57	83.94
263.802	82.94
264.035	99.94
264.267	76.94
264.499	87.94
264.732	94.94
264.964	84.94
265.197	97.94
265.429	84.94
265.661	77.94
265.894	89.94
266.126	79.94
266.358	97.94
266.591	73.94
266.823	90.94
267.055	85.94
267.287	98.94
267.52	93.94
267.752	86.94
267.984	91.94
268.216	64.94
268.448	83.94
268.681	88.94
268.913	88.94
269.145	84.94
269.377	97.94
269.609	88.94
269.841	76.94
270.073	92.94
270.306	91.94
270.538	87.94
270.77	76.94
271.002	84.94
271.234	90.94
271.466	86.94
271.698	83.94
271.93	84.94
272.162	81.94
272.394	91.94
272.626	95.94
272.858	89.94
273.09	83.94
273.322	83.94
273.553	76.94
273.785	73.94
274.017	85.94
274.249	98.94
274.481	83.94
274.713	89.94
274.945	68.94
275.176	79.94
275.408	93.94
275.64	82.94
275.872	81.94
276.104	76.94
276.335	81.94
276.567	70.94
276.799	89.94
277.031	90.94
277.262	89.94
277.494	90.94
277.726	79.94
277.957	76.94
278.189	95.94
278.421	72.94
278.652	80.94
278.884	84.94
279.115	83.94
279.347	78.94
279.579	78.94
279.81	92.94
280.042	84.94
280.273	79.94
280.505	89.94
280.736	98.94
280.968	99.94
281.199	74.94
281.431	74.94
281.662	100.94
281.894	77.94
282.125	76.94
282.356	76.94
282.588	83.94
282.819	84.94
283.051	75.94
283.282	73.94
283.513	88.94
283.745	87.94
283.976	91.94
284.207	79.94
284.439	89.94
284.67	77.94
284.901	91.94
285.132	83.94
285.364	78.94
285.595	85.94
285.826	82.94
286.057	95.94
286.288	85.94
286.52	85.94
286.751	86.94
286.982	85.94
287.213	90.94
287.444	75.94
287.675	78.94
287.906	93.94
288.138	91.94
288.369	74.94
288.6	83.94
288.831	92.94
289.062	85.94
289.293	85.94
289.524	91.94
289.755	85.94
289.986	76.94
290.217	85.94
290.448	100.94
290.679	95.94
290.91	90.94
291.141	73.94
291.371	81.94
291.602	87.94
291.833	82.94
292.064	81.94
292.295	93.94
292.526	86.94
292.757	85.94
292.987	90.94
293.218	84.94
293.449	79.94
293.68	95.94
293.91	97.94
294.141	71.94
294.372	82.94
294.603	88.94
294.833	78.94
295.064	85.94
295.295	76.94
295.525	80.94
295.756	88.94
295.987	86.94
296.217	97.94
296.448	87.94
296.679	76.94
296.909	79.94
297.14	83.94
297.37	92.94
297.601	78.94
297.831	87.94
298.062	91.94
298.292	98.94
298.523	81.94
298.753	79.94
298.984	93.94
299.214	91.94
299.445	86.94
299.675	89.94
299.905	89.94
300.136	88.94
300.366	93.94
300.597	86.94
300.827	83.94
301.057	87.94
301.288	71.94
301.518	82.94
301.748	83.94
301.979	99.94
302.209	91.94
302.439	82.94
302.669	72.94
302.9	79.94
303.13	93.94
303.36	76.94
303.59	78.94
303.82	74.94
304.051	77.94
304.281	84.94
304.511	93.94
304.741	99.94
304.971	81.94
305.201	67.94
305.431	94.94
305.661	90.94
305.891	76.94
306.121	95.94
306.352	90.94
306.582	84.94
306.812	91.94
307.042	67.94
307.272	73.94
307.502	91.94
307.731	86.94
307.961	99.94
308.191	92.94
308.421	94.94
308.651	78.94
308.881	84.94
309.111	94.94
309.341	86.94
309.571	71.94
309.8	101.94
310.03	90.94
310.26	88.94
310.49	90.94
310.72	80.94
310.949	83.94
311.179	81.94
311.409	90.94
311.639	83.94
311.868	90.94
312.098	81.94
312.328	103.94
312.557	91.94
312.787	77.94
313.017	84.94
313.246	87.94
313.476	89.94
313.706	86.94
313.935	82.94
314.165	80.94
314.394	88.94
314.624	84.94
314.853	91.94
315.083	79.94
315.312	89.94
315.542	84.94
315.771	87.94
316.001	79.94
316.23	85.94
316.46	82.94
316.689	75.94
316.919	93.94
317.148	83.94
317.377	81.94
317.607	93.94
317.836	85.94
318.065	90.94
318.295	74.94
318.524	71.94
318.753	76.94
318.983	90.94
319.212	94.94
319.441	84.94
319.67	81.94
319.9	72.94
320.129	85.94
320.358	88.94
320.587	79.94
320.816	84.94
321.046	86.94
321.275	92.94
321.504	103.94
321.733	77.94
321.962	90.94
322.191	82.94
322.42	98.94
322.649	88.94
322.878	80.94
323.108	89.94
323.337	86.94
323.566	92.94
323.795	99.94
324.024	74.94
324.253	89.94
324.482	89.94
324.71	94.94
324.939	86.94
325.168	85.94
325.397	79.94
325.626	83.94
325.855	79.94
326.084	76.94
326.313	92.94
326.542	79.94
326.77	101.94
326.999	97.94
327.228	94.94
327.457	89.94
327.686	101.94
327.914	80.94
328.143	71.94
328.372	85.94
328.6	88.94
328.829	86.94
329.058	101.94
329.287	80.94
329.515	70.94
329.744	87.94
329.972	81.94
330.201	94.94
330.43	89.94
330.658	85.94
330.887	79.94
331.115	91.94
331.344	83.94
331.572	78.94
331.801	100.94
332.03	77.94
332.258	86.94
332.486	75.94
332.715	77.94
332.943	88.94
333.172	95.94
333.4	86.94
333.629	81.94
333.857	76.94
334.085	83.94
334.314	81.94
334.542	84.94
334.771	74.94
334.999	87.94
335.227	84.94
335.455	86.94
335.684	82.94
335.912	87.94
336.14	82.94
336.369	92.94
336.597	86.94
336.825	75.94
337.053	75.94
337.281	94.94
337.51	73.94
337.738	85.94
337.966	92.94
338.194	84.94
338.422	89.94
338.65	85.94
338.878	86.94
339.106	97.94
339.334	88.94
339.562	78.94
339.79	86.94
340.018	89.94
340.246	99.94
340.474	86.94
340.702	82.94
340.93	89.94
341.158	79.94
341.386	78.94
341.614	61.94
341.842	85.94
342.07	87.94
342.298	88.94
342.526	75.94
342.754	72.94
342.981	87.94
343.209	86.94
343.437	89.94
343.665	93.94
343.893	85.94
344.12	107.94
344.348	99.94
344.576	100.94
344.804	104.94
345.031	89.94
345.259	90.94
345.487	90.94
345.714	87.94
345.942	82.94
346.17	83.94
346.397	79.94
346.625	80.94
346.853	92.94
347.08	92.94
347.308	78.94
347.535	77.94
347.763	91.94
347.99	95.94
348.218	96.94
348.445	83.94
348.673	87.94
348.9	88.94
349.128	87.94
349.355	85.94
349.583	80.94
349.81	83.94
350.037	85.94
350.265	83.94
350.492	78.94
350.72	70.94
350.947	86.94
351.174	88.94
351.402	97.94
351.629	85.94
351.856	73.94
352.083	94.94
352.311	84.94
352.538	79.94
352.765	91.94
352.992	97.94
353.22	82.94
353.447	84.94
353.674	82.94
353.901	78.94
354.128	78.94
354.355	101.94
354.583	87.94
354.81	75.94
355.037	94.94
355.264	89.94
355.491	85.94
355.718	97.94
355.945	89.94
356.172	82.94
356.399	86.94
356.626	91.94
356.853	91.94
357.08	87.94
357.307	84.94
357.534	99.94
357.761	99.94
357.988	94.94
358.215	86.94
358.441	88.94
358.668	79.94
358.895	87.94
359.122	73.94
359.349	79.94
359.576	78.94
359.802	75.94
360.029	77.94
360.256	97.94
360.483	88.94
360.709	79.94
360.936	100.94
361.163	91.94
361.39	86.94
361.616	61.94
361.843	91.94
362.07	100.94
362.296	85.94
362.523	86.94
362.749	82.94
362.976	82.94
363.203	92.94
363.429	85.94
363.656	79.94
363.882	81.94
364.109	84.94
364.335	76.94
364.562	87.94
364.788	87.94
365.015	96.94
365.241	85.94
365.468	88.94
365.694	85.94
365.92	100.94
366.147	93.94
366.373	87.94
366.599	82.94
366.826	90.94
367.052	75.94
367.278	100.94
367.505	88.94
367.731	106.94
367.957	76.94
368.184	76.94
368.41	82.94
368.636	75.94
368.862	94.94
369.089	91.94
369.315	80.94
369.541	89.94
369.767	92.94
369.993	85.94
370.219	91.94
370.445	76.94
370.672	75.94
370.898	64.94
371.124	71.94
371.35	88.94
371.576	86.94
371.802	89.94
372.028	92.94
372.254	98.94
372.48	91.94
372.706	98.94
372.932	73.94
373.158	85.94
373.384	97.94
373.61	89.94
373.835	80.94
374.061	85.94
374.287	66.94
374.513	90.94
374.739	91.94
374.965	82.94
375.191	92.94
375.416	78.94
375.642	71.94
375.868	80.94
376.094	89.94
376.319	95.94
376.545	91.94
376.771	95.94
376.997	74.94
377.222	68.94
377.448	87.94
377.674	90.94
377.899	75.94
378.125	77.94
378.35	88.94
378.576	86.94
378.802	90.94
379.027	85.94
379.253	100.94
379.478	105.94
379.704	75.94
379.929	77.94
380.155	82.94
380.38	92.94
380.606	80.94
380.831	78.94
381.057	79.94
381.282	71.94
381.507	86.94
381.733	93.94
381.958	77.94
382.184	98.94
382.409	95.94
382.634	89.94
382.86	81.94
383.085	87.94
383.31	72.94
383.535	84.94
383.761	78.94
383.986	88.94
384.211	76.94
384.436	87.94
384.662	95.94
384.887	90.94
385.112	90.94
385.337	77.94
385.562	84.94
385.787	83.94
386.013	86.94
386.238	92.94
386.463	80.94
386.688	103.94
386.913	87.94
387.138	74.94
387.363	94.94
387.588	73.94
387.813	72.94
388.038	93.94
388.263	87.94
388.488	87.94
388.713	81.94
388.938	64.94
389.163	76.94
389.387	74.94
389.612	85.94
389.837	85.94
390.062	91.94
390.287	72.94
390.512	90.94
390.736	83.94
390.961	84.94
391.186	80.94
391.411	84.94
391.636	80.94
391.86	83.94
392.085	83.94
392.31	78.94
392.534	90.94
392.759	98.94
392.984	100.94
393.208	81.94
393.433	77.94
393.658	90.94
393.882	90.94
394.107	84.94
394.331	91.94
394.556	77.94
394.78	82.94
395.005	89.94
395.229	89.94
395.454	99.94
395.678	86.94
395.903	91.94
396.127	98.94
396.352	90.94
396.576	83.94
396.801	92.94
397.025	78.94
397.249	89.94
397.474	76.94
397.698	87.94
397.922	96.94
398.147	91.94
398.371	84.94
398.595	89.94
398.82	75.94
399.044	100.94
399.268	87.94
399.492	90.94
399.717	87.94
399.941	85.94
400.165	90.94
400.389	92.94
400.613	89.94
400.837	85.94
401.062	87.94
401.286	93.94
401.51	96.94
401.734	78.94
401.958	81.94
402.182	89.94
402.406	84.94
402.63	81.94
402.854	82.94
403.078	94.94
403.302	85.94
403.526	73.94
403.75	100.94
403.974	107.94
404.198	115.94
404.422	146.94
404.645	149.94
404.869	145.94
405.093	111.94
405.317	90.94
405.541	88.94
405.765	94.94
405.988	82.94
406.212	89.94
406.436	85.94
406.66	79.94
406.883	83.94
407.107	87.94
407.331	86.94
407.555	101.94
407.778	81.94
408.002	85.94
408.226	86.94
408.449	78.94
408.673	83.94
408.896	98.94
409.12	81.94
409.344	83.94
409.567	85.94
409.791	86.94
410.014	93.94
410.238	82.94
410.461	76.94
410.685	90.94
410.908	82.94
411.132	92.94
411.355	82.94
411.578	79.94
411.802	85.94
412.025	86.94
412.249	82.94
412.472	86.94
412.695	89.94
412.919	99.94
413.142	76.94
413.365	72.94
413.589	91.94
413.812	81.94
414.035	93.94
414.258	90.94
414.482	101.94
414.705	91.94
414.928	83.94
415.151	78.94
415.374	86.94
415.597	92.94
415.821	80.94
416.044	86.94
416.267	88.94
416.49	75.94
416.713	82.94
416.936	96.94
417.159	87.94
417.382	80.94
417.605	85.94
417.828	82.94
418.051	75.94
418.274	98.94
418.497	99.94
418.72	81.94
418.943	86.94
419.166	77.94
419.389	83.94
419.611	88.94
419.834	94.94
420.057	82.94
420.28	88.94
420.503	83.94
420.726	80.94
420.948	96.94
421.171	98.94
421.394	85.94
421.617	85.94
421.839	86.94
422.062	86.94
422.285	81.94
422.507	84.94
422.73	92.94
422.953	85.94
423.175	90.94
423.398	85.94
423.621	79.94
423.843	82.94
424.066	89.94
424.288	91.94
424.511	85.94
424.733	84.94
424.956	93.94
425.178	92.94
425.401	86.94
425.623	76.94
425.846	89.94
426.068	90.94
426.291	94.94
426.513	81.94
426.735	99.94
426.958	76.94
427.18	90.94
427.402	90.94
427.625	97.94
427.847	89.94
428.069	81.94
428.292	80.94
428.514	93.94
428.736	85.94
428.958	91.94
429.181	91.94
429.403	84.94
429.625	78.94
429.847	87.94
430.069	83.94
430.292	86.94
430.514	86.94
430.736	89.94
430.958	101.94
431.18	99.94
431.402	84.94
431.624	99.94
431.846	82.94
432.068	80.94
432.29	76.94
432.512	88.94
432.734	89.94
432.956	90.94
433.178	89.94
433.4	91.94
433.622	85.94
433.844	89.94
434.066	81.94
434.287	82.94
434.509	83.94
434.731	84.94
434.953	74.94
435.175	93.94
435.397	97.94
435.618	82.94
435.84	85.94
436.062	77.94
436.284	84.94
436.505	75.94
436.727	95.94
436.949	84.94
437.17	92.94
437.392	104.94
437.614	99.94
437.835	94.94
438.057	87.94
438.278	82.94
438.5	85.94
438.721	78.94
438.943	93.94
439.165	88.94
439.386	82.94
439.608	85.94
439.829	87.94
440.05	88.94
440.272	101.94
440.493	90.94
440.715	88.94
440.936	83.94
441.158	81.94
441.379	87.94
441.6	83.94
441.822	84.94
442.043	86.94
442.264	94.94
442.486	97.94
442.707	82.94
442.928	89.94
443.149	73.94
443.371	85.94
443.592	88.94
443.813	100.94
444.034	97.94
444.255	83.94
444.476	84.94
444.698	88.94
444.919	91.94
445.14	145.94
445.361	117.94
445.582	91.94
445.803	88.94
446.024	104.94
446.245	86.94
446.466	83.94
446.687	85.94
446.908	98.94
447.129	91.94
447.35	75.94
447.571	91.94
447.792	88.94
448.013	79.94
448.234	90.94
448.455	82.94
448.675	98.94
448.896	86.94
449.117	89.94
449.338	94.94
449.559	75.94
449.779	84.94
450	91.94
450.221	89.94
450.442	82.94
450.662	71.94
450.883	87.94
451.104	92.94
451.324	84.94
451.545	92.94
451.766	99.94
451.986	91.94
452.207	89.94
452.428	77.94
452.648	89.94
452.869	69.94
453.089	87.94
453.31	80.94
453.53	77.94
453.751	86.94
453.971	104.94
454.192	78.94
454.412	91.94
454.633	88.94
454.853	74.94
455.073	83.94
455.294	91.94
455.514	96.94
455.734	85.94
455.955	73.94
456.175	92.94
456.395	86.94
456.616	92.94
456.836	74.94
457.056	78.94
457.276	87.94
457.497	82.94
457.717	92.94
457.937	86.94
458.157	91.94
458.377	71.94
458.598	76.94
458.818	102.94
459.038	98.94
459.258	88.94
459.478	75.94
459.698	86.94
459.918	80.94
460.138	85.94
460.358	74.94
460.578	80.94
460.798	93.94
461.018	90.94
461.238	89.94
461.458	75.94
461.678	97.94
461.898	80.94
462.118	88.94
462.338	85.94
462.558	84.94
462.777	81.94
462.997	90.94
463.217	83.94
463.437	89.94
463.657	89.94
463.876	82.94
464.096	100.94
464.316	90.94
464.536	65.94
464.755	83.94
464.975	81.94
465.195	92.94
465.414	86.94
465.634	92.94
465.854	89.94
466.073	76.94
466.293	99.94
466.512	78.94
466.732	69.94
466.951	93.94
467.171	80.94
467.391	90.94
467.61	94.94
467.829	90.94
468.049	93.94
468.268	83.94
468.488	81.94
468.707	86.94
468.927	78.94
469.146	93.94
469.365	97.94
469.585	81.94
469.804	93.94
470.023	70.94
470.243	82.94
470.462	90.94
470.681	91.94
470.901	97.94
471.12	95.94
471.339	111.94
471.558	100.94
471.777	75.94
471.997	79.94
472.216	79.94
472.435	93.94
472.654	88.94
472.873	91.94
473.092	89.94
473.311	92.94
473.53	99.94
473.749	90.94
473.968	97.94
474.187	93.94
474.406	95.94
474.625	104.94
474.844	88.94
475.063	78.94
475.282	89.94
475.501	79.94
475.72	103.94
475.939	78.94
476.158	82.94
476.377	83.94
476.596	90.94
476.814	71.94
477.033	87.94
477.252	83.94
477.471	86.94
477.69	92.94
477.908	101.94
478.127	89.94
478.346	78.94
478.564	74.94
478.783	99.94
479.002	86.94
479.22	84.94
479.439	85.94
479.658	102.94
479.876	71.94
480.095	87.94
480.313	79.94
480.532	80.94
480.751	85.94
480.969	84.94
481.188	88.94
481.406	92.94
481.624	76.94
481.843	88.94
482.061	83.94
482.28	102.94
482.498	75.94
482.717	77.94
482.935	99.94
483.153	82.94
483.372	91.94
483.59	100.94
483.808	85.94
484.027	87.94
484.245	94.94
484.463	86.94
484.681	101.94
484.9	79.94
485.118	91.94
485.336	78.94
485.554	91.94
485.772	87.94
485.99	112.94
486.209	83.94
486.427	88.94
486.645	102.94
486.863	93.94
487.081	88.94
487.299	80.94
487.517	87.94
487.735	90.94
487.953	96.94
488.171	107.94
488.389	98.94
488.607	71.94
488.825	81.94
489.043	72.94
489.261	88.94
489.479	91.94
489.696	102.94
489.914	85.94
490.132	74.94
490.35	101.94
490.568	97.94
490.786	97.94
491.003	92.94
491.221	98.94
491.439	85.94
491.657	87.94
491.874	95.94
492.092	101.94
492.31	93.94
492.527	96.94
492.745	99.94
492.963	89.94
493.18	88.94
493.398	99.94
493.615	79.94
493.833	89.94
494.05	82.94
494.268	101.94
494.485	92.94
494.703	97.94
494.92	102.94
495.138	88.94
495.355	108.94
495.573	86.94
495.79	105.94
496.008	90.94
496.225	94.94
496.442	88.94
496.66	105.94
496.877	88.94
497.094	86.94
497.312	85.94
497.529	88.94
497.746	101.94
497.963	97.94
498.181	77.94
498.398	98.94
498.615	95.94
498.832	100.94
499.049	111.94
499.267	85.94
499.484	84.94
499.701	89.94
499.918	90.94
500.135	91.94
500.352	94.94
500.569	84.94
500.786	89.94
501.003	101.94
501.22	86.94
501.437	98.94
501.654	93.94
501.871	88.94
502.088	92.94
502.305	99.94
502.522	79.94
502.739	92.94
502.956	90.94
503.172	102.94
503.389	77.94
503.606	105.94
503.823	83.94
504.04	90.94
504.256	87.94
504.473	85.94
504.69	84.94
504.907	106.94
505.123	72.94
505.34	69.94
505.557	80.94
505.773	90.94
505.99	93.94
506.207	74.94
506.423	102.94
506.64	89.94
506.856	94.94
507.073	99.94
507.289	76.94
507.506	81.94
507.722	78.94
507.939	92.94
508.155	83.94
508.372	85.94
508.588	79.94
508.805	99.94
509.021	91.94
509.238	85.94
509.454	99.94
509.67	97.94
509.887	99.94
510.103	84.94
510.319	98.94
510.536	85.94
510.752	97.94
510.968	91.94
511.184	93.94
511.401	100.94
511.617	86.94
511.833	92.94
512.049	102.94
512.265	103.94
512.481	97.94
512.698	93.94
512.914	83.94
513.13	88.94
513.346	88.94
513.562	85.94
513.778	71.94
513.994	90.94
514.21	78.94
514.426	100.94
514.642	83.94
514.858	84.94
515.074	100.94
515.29	75.94
515.506	74.94
515.721	84.94
515.937	75.94
516.153	82.94
516.369	80.94
516.585	89.94
516.801	78.94
517.016	90.94
517.232	88.94
517.448	90.94
517.664	84.94
517.879	87.94
518.095	94.94
518.311	82.94
518.527	92.94
518.742	90.94
518.958	86.94
519.173	79.94
