Data from KBrNoHeat2_HRD10591_00007.txt Node
Date: Fri Dec 27 14:47:38 EST 2024
User: Yrep
Spectrometer: HR+D1059
Trigger mode: 1
Integration Time (sec): 1.000000E-1
Scans to average: 1
Electric dark correction enabled: true
Nonlinearity correction enabled: false
Boxcar width: 0
XAxis mode: Wavelengths
Number of Pixels in Spectrum: 2048
>>>>>Begin Spectral Data<<<<<
223.165	-4.56
223.4	-4.56
223.635	-4.56
223.869	-16.56
224.104	-24.56
224.338	-19.56
224.573	-20.56
224.808	-19.56
225.042	-10.56
225.277	-14.56
225.511	-10.56
225.746	8.44
225.98	19.44
226.215	8.44
226.449	23.44
226.683	20.44
226.918	25.44
227.152	35.44
227.387	42.44
227.621	48.44
227.856	57.44
228.09	38.44
228.324	62.44
228.559	64.44
228.793	68.44
229.027	82.44
229.262	63.44
229.496	54.44
229.73	68.44
229.964	82.44
230.199	82.44
230.433	77.44
230.667	82.44
230.901	78.44
231.136	80.44
231.37	79.44
231.604	85.44
231.838	83.44
232.072	76.44
232.306	74.44
232.541	81.44
232.775	86.44
233.009	82.44
233.243	67.44
233.477	75.44
233.711	66.44
233.945	78.44
234.179	78.44
234.413	83.44
234.647	86.44
234.881	84.44
235.115	64.44
235.349	85.44
235.583	77.44
235.817	87.44
236.051	70.44
236.285	77.44
236.519	71.44
236.753	73.44
236.987	90.44
237.221	81.44
237.455	80.44
237.689	89.44
237.922	70.44
238.156	70.44
238.39	65.44
238.624	70.44
238.858	74.44
239.091	77.44
239.325	61.44
239.559	62.44
239.793	76.44
240.027	67.44
240.26	67.44
240.494	72.44
240.728	74.44
240.961	75.44
241.195	75.44
241.429	83.44
241.662	69.44
241.896	72.44
242.13	72.44
242.363	62.44
242.597	73.44
242.83	72.44
243.064	74.44
243.298	84.44
243.531	74.44
243.765	72.44
243.998	77.44
244.232	61.44
244.465	75.44
244.699	58.44
244.932	73.44
245.166	85.44
245.399	81.44
245.633	84.44
245.866	77.44
246.099	84.44
246.333	82.44
246.566	78.44
246.8	63.44
247.033	58.44
247.266	78.44
247.5	72.44
247.733	75.44
247.966	73.44
248.2	69.44
248.433	83.44
248.666	76.44
248.899	89.44
249.133	80.44
249.366	91.44
249.599	80.44
249.832	66.44
250.066	77.44
250.299	81.44
250.532	84.44
250.765	85.44
250.998	63.44
251.231	67.44
251.465	72.44
251.698	67.44
251.931	88.44
252.164	72.44
252.397	83.44
252.63	89.44
252.863	69.44
253.096	71.44
253.329	76.44
253.562	72.44
253.795	76.44
254.028	92.44
254.261	75.44
254.494	88.44
254.727	88.44
254.96	81.44
255.193	85.44
255.426	77.44
255.659	76.44
255.892	82.44
256.124	73.44
256.357	85.44
256.59	73.44
256.823	78.44
257.056	80.44
257.289	67.44
257.521	66.44
257.754	84.44
257.987	78.44
258.22	84.44
258.452	69.44
258.685	95.44
258.918	94.44
259.151	80.44
259.383	78.44
259.616	75.44
259.849	85.44
260.081	74.44
260.314	81.44
260.547	77.44
260.779	78.44
261.012	71.44
261.244	80.44
261.477	84.44
261.71	82.44
261.942	76.44
262.175	77.44
262.407	79.44
262.64	78.44
262.872	77.44
263.105	86.44
263.337	86.44
263.57	98.44
263.802	72.44
264.035	92.44
264.267	72.44
264.499	86.44
264.732	89.44
264.964	77.44
265.197	67.44
265.429	85.44
265.661	66.44
265.894	83.44
266.126	84.44
266.358	71.44
266.591	70.44
266.823	90.44
267.055	87.44
267.287	75.44
267.52	88.44
267.752	74.44
267.984	90.44
268.216	88.44
268.448	102.44
268.681	80.44
268.913	88.44
269.145	65.44
269.377	84.44
269.609	74.44
269.841	89.44
270.073	94.44
270.306	95.44
270.538	78.44
270.77	81.44
271.002	86.44
271.234	77.44
271.466	91.44
271.698	86.44
271.93	66.44
272.162	82.44
272.394	88.44
272.626	79.44
272.858	71.44
273.09	76.44
273.322	86.44
273.553	84.44
273.785	86.44
274.017	91.44
274.249	89.44
274.481	80.44
274.713	84.44
274.945	94.44
275.176	74.44
275.408	76.44
275.64	82.44
275.872	83.44
276.104	67.44
276.335	83.44
276.567	81.44
276.799	75.44
277.031	89.44
277.262	69.44
277.494	88.44
277.726	80.44
277.957	87.44
278.189	87.44
278.421	81.44
278.652	93.44
278.884	81.44
279.115	82.44
279.347	88.44
279.579	75.44
279.81	83.44
280.042	111.44
280.273	93.44
280.505	77.44
280.736	82.44
280.968	81.44
281.199	85.44
281.431	72.44
281.662	86.44
281.894	85.44
282.125	85.44
282.356	78.44
282.588	81.44
282.819	80.44
283.051	83.44
283.282	84.44
283.513	76.44
283.745	84.44
283.976	93.44
284.207	82.44
284.439	88.44
284.67	82.44
284.901	76.44
285.132	93.44
285.364	83.44
285.595	88.44
285.826	89.44
286.057	92.44
286.288	81.44
286.52	86.44
286.751	87.44
286.982	73.44
287.213	74.44
287.444	88.44
287.675	76.44
287.906	84.44
288.138	82.44
288.369	93.44
288.6	88.44
288.831	86.44
289.062	80.44
289.293	81.44
289.524	85.44
289.755	88.44
289.986	84.44
290.217	100.44
290.448	90.44
290.679	82.44
290.91	85.44
291.141	82.44
291.371	81.44
291.602	90.44
291.833	77.44
292.064	89.44
292.295	67.44
292.526	86.44
292.757	76.44
292.987	79.44
293.218	83.44
293.449	85.44
293.68	97.44
293.91	77.44
294.141	86.44
294.372	92.44
294.603	84.44
294.833	89.44
295.064	87.44
295.295	82.44
295.525	86.44
295.756	85.44
295.987	92.44
296.217	80.44
296.448	81.44
296.679	92.44
296.909	85.44
297.14	87.44
297.37	83.44
297.601	84.44
297.831	85.44
298.062	79.44
298.292	83.44
298.523	87.44
298.753	81.44
298.984	88.44
299.214	84.44
299.445	98.44
299.675	91.44
299.905	92.44
300.136	78.44
300.366	73.44
300.597	86.44
300.827	89.44
301.057	80.44
301.288	83.44
301.518	80.44
301.748	86.44
301.979	98.44
302.209	84.44
302.439	79.44
302.669	78.44
302.9	72.44
303.13	80.44
303.36	80.44
303.59	76.44
303.82	80.44
304.051	99.44
304.281	75.44
304.511	81.44
304.741	90.44
304.971	89.44
305.201	99.44
305.431	74.44
305.661	82.44
305.891	75.44
306.121	99.44
306.352	88.44
306.582	76.44
306.812	93.44
307.042	83.44
307.272	100.44
307.502	86.44
307.731	83.44
307.961	86.44
308.191	78.44
308.421	88.44
308.651	98.44
308.881	88.44
309.111	86.44
309.341	95.44
309.571	87.44
309.8	83.44
310.03	90.44
310.26	83.44
310.49	81.44
310.72	99.44
310.949	79.44
311.179	90.44
311.409	72.44
311.639	84.44
311.868	82.44
312.098	89.44
312.328	77.44
312.557	89.44
312.787	86.44
313.017	90.44
313.246	80.44
313.476	72.44
313.706	75.44
313.935	90.44
314.165	86.44
314.394	95.44
314.624	87.44
314.853	88.44
315.083	78.44
315.312	85.44
315.542	75.44
315.771	101.44
316.001	97.44
316.23	87.44
316.46	75.44
316.689	85.44
316.919	86.44
317.148	80.44
317.377	88.44
317.607	78.44
317.836	78.44
318.065	89.44
318.295	88.44
318.524	88.44
318.753	96.44
318.983	88.44
319.212	84.44
319.441	85.44
319.67	79.44
319.9	84.44
320.129	89.44
320.358	94.44
320.587	81.44
320.816	88.44
321.046	71.44
321.275	85.44
321.504	75.44
321.733	69.44
321.962	79.44
322.191	77.44
322.42	77.44
322.649	97.44
322.878	79.44
323.108	91.44
323.337	69.44
323.566	84.44
323.795	81.44
324.024	100.44
324.253	80.44
324.482	82.44
324.71	91.44
324.939	100.44
325.168	86.44
325.397	99.44
325.626	97.44
325.855	73.44
326.084	76.44
326.313	69.44
326.542	73.44
326.77	86.44
326.999	88.44
327.228	97.44
327.457	84.44
327.686	68.44
327.914	81.44
328.143	96.44
328.372	72.44
328.6	98.44
328.829	88.44
329.058	88.44
329.287	81.44
329.515	81.44
329.744	90.44
329.972	87.44
330.201	83.44
330.43	96.44
330.658	62.44
330.887	83.44
331.115	81.44
331.344	92.44
331.572	97.44
331.801	84.44
332.03	64.44
332.258	91.44
332.486	82.44
332.715	84.44
332.943	78.44
333.172	91.44
333.4	70.44
333.629	94.44
333.857	74.44
334.085	101.44
334.314	98.44
334.542	98.44
334.771	104.44
334.999	94.44
335.227	80.44
335.455	76.44
335.684	99.44
335.912	85.44
336.14	87.44
336.369	77.44
336.597	93.44
336.825	84.44
337.053	68.44
337.281	81.44
337.51	85.44
337.738	76.44
337.966	73.44
338.194	98.44
338.422	74.44
338.65	86.44
338.878	86.44
339.106	70.44
339.334	92.44
339.562	83.44
339.79	80.44
340.018	80.44
340.246	80.44
340.474	86.44
340.702	82.44
340.93	90.44
341.158	73.44
341.386	98.44
341.614	87.44
341.842	80.44
342.07	87.44
342.298	74.44
342.526	89.44
342.754	78.44
342.981	87.44
343.209	71.44
343.437	103.44
343.665	74.44
343.893	100.44
344.12	83.44
344.348	83.44
344.576	90.44
344.804	96.44
345.031	82.44
345.259	88.44
345.487	87.44
345.714	67.44
345.942	92.44
346.17	78.44
346.397	105.44
346.625	102.44
346.853	83.44
347.08	76.44
347.308	81.44
347.535	93.44
347.763	84.44
347.99	74.44
348.218	77.44
348.445	90.44
348.673	88.44
348.9	97.44
349.128	94.44
349.355	103.44
349.583	82.44
349.81	68.44
350.037	92.44
350.265	93.44
350.492	84.44
350.72	82.44
350.947	79.44
351.174	85.44
351.402	92.44
351.629	82.44
351.856	77.44
352.083	81.44
352.311	74.44
352.538	81.44
352.765	86.44
352.992	105.44
353.22	84.44
353.447	80.44
353.674	93.44
353.901	110.44
354.128	87.44
354.355	73.44
354.583	91.44
354.81	83.44
355.037	81.44
355.264	99.44
355.491	98.44
355.718	86.44
355.945	86.44
356.172	102.44
356.399	83.44
356.626	86.44
356.853	86.44
357.08	93.44
357.307	84.44
357.534	100.44
357.761	85.44
357.988	81.44
358.215	90.44
358.441	85.44
358.668	86.44
358.895	86.44
359.122	78.44
359.349	98.44
359.576	91.44
359.802	84.44
360.029	87.44
360.256	82.44
360.483	100.44
360.709	80.44
360.936	86.44
361.163	99.44
361.39	80.44
361.616	93.44
361.843	92.44
362.07	86.44
362.296	93.44
362.523	83.44
362.749	85.44
362.976	69.44
363.203	75.44
363.429	78.44
363.656	90.44
363.882	84.44
364.109	86.44
364.335	96.44
364.562	96.44
364.788	80.44
365.015	70.44
365.241	83.44
365.468	89.44
365.694	75.44
365.92	85.44
366.147	81.44
366.373	78.44
366.599	91.44
366.826	85.44
367.052	86.44
367.278	81.44
367.505	70.44
367.731	72.44
367.957	75.44
368.184	70.44
368.41	70.44
368.636	92.44
368.862	87.44
369.089	92.44
369.315	81.44
369.541	79.44
369.767	70.44
369.993	83.44
370.219	82.44
370.445	70.44
370.672	80.44
370.898	73.44
371.124	90.44
371.35	87.44
371.576	86.44
371.802	92.44
372.028	80.44
372.254	77.44
372.48	81.44
372.706	97.44
372.932	76.44
373.158	73.44
373.384	82.44
373.61	88.44
373.835	92.44
374.061	76.44
374.287	74.44
374.513	89.44
374.739	85.44
374.965	83.44
375.191	91.44
375.416	84.44
375.642	75.44
375.868	77.44
376.094	95.44
376.319	82.44
376.545	86.44
376.771	75.44
376.997	84.44
377.222	83.44
377.448	85.44
377.674	80.44
377.899	88.44
378.125	90.44
378.35	88.44
378.576	87.44
378.802	80.44
379.027	81.44
379.253	97.44
379.478	86.44
379.704	83.44
379.929	80.44
380.155	87.44
380.38	72.44
380.606	89.44
380.831	92.44
381.057	99.44
381.282	93.44
381.507	74.44
381.733	88.44
381.958	77.44
382.184	77.44
382.409	85.44
382.634	88.44
382.86	93.44
383.085	86.44
383.31	90.44
383.535	91.44
383.761	100.44
383.986	88.44
384.211	84.44
384.436	92.44
384.662	78.44
384.887	88.44
385.112	75.44
385.337	80.44
385.562	86.44
385.787	83.44
386.013	93.44
386.238	92.44
386.463	98.44
386.688	109.44
386.913	86.44
387.138	83.44
387.363	83.44
387.588	78.44
387.813	89.44
388.038	82.44
388.263	84.44
388.488	80.44
388.713	79.44
388.938	83.44
389.163	92.44
389.387	80.44
389.612	83.44
389.837	75.44
390.062	85.44
390.287	88.44
390.512	89.44
390.736	84.44
390.961	74.44
391.186	89.44
391.411	81.44
391.636	97.44
391.86	97.44
392.085	77.44
392.31	76.44
392.534	84.44
392.759	89.44
392.984	88.44
393.208	77.44
393.433	76.44
393.658	91.44
393.882	86.44
394.107	84.44
394.331	85.44
394.556	85.44
394.78	82.44
395.005	78.44
395.229	87.44
395.454	77.44
395.678	79.44
395.903	73.44
396.127	83.44
396.352	88.44
396.576	92.44
396.801	84.44
397.025	87.44
397.249	77.44
397.474	98.44
397.698	77.44
397.922	82.44
398.147	83.44
398.371	90.44
398.595	84.44
398.82	92.44
399.044	97.44
399.268	88.44
399.492	89.44
399.717	85.44
399.941	92.44
400.165	80.44
400.389	79.44
400.613	86.44
400.837	83.44
401.062	79.44
401.286	62.44
401.51	103.44
401.734	90.44
401.958	83.44
402.182	81.44
402.406	83.44
402.63	90.44
402.854	95.44
403.078	90.44
403.302	93.44
403.526	79.44
403.75	86.44
403.974	95.44
404.198	126.44
404.422	156.44
404.645	184.44
404.869	164.44
405.093	133.44
405.317	93.44
405.541	106.44
405.765	93.44
405.988	102.44
406.212	80.44
406.436	88.44
406.66	87.44
406.883	97.44
407.107	79.44
407.331	96.44
407.555	85.44
407.778	66.44
408.002	76.44
408.226	83.44
408.449	83.44
408.673	82.44
408.896	83.44
409.12	92.44
409.344	91.44
409.567	80.44
409.791	86.44
410.014	91.44
410.238	82.44
410.461	74.44
410.685	91.44
410.908	86.44
411.132	92.44
411.355	91.44
411.578	90.44
411.802	78.44
412.025	80.44
412.249	96.44
412.472	75.44
412.695	97.44
412.919	77.44
413.142	79.44
413.365	81.44
413.589	93.44
413.812	89.44
414.035	91.44
414.258	97.44
414.482	102.44
414.705	83.44
414.928	91.44
415.151	78.44
415.374	80.44
415.597	84.44
415.821	80.44
416.044	71.44
416.267	80.44
416.49	89.44
416.713	89.44
416.936	93.44
417.159	85.44
417.382	90.44
417.605	84.44
417.828	85.44
418.051	76.44
418.274	68.44
418.497	78.44
418.72	88.44
418.943	85.44
419.166	104.44
419.389	102.44
419.611	83.44
419.834	88.44
420.057	93.44
420.28	97.44
420.503	87.44
420.726	89.44
420.948	80.44
421.171	87.44
421.394	78.44
421.617	104.44
421.839	71.44
422.062	92.44
422.285	87.44
422.507	91.44
422.73	92.44
422.953	80.44
423.175	85.44
423.398	84.44
423.621	80.44
423.843	78.44
424.066	96.44
424.288	74.44
424.511	89.44
424.733	92.44
424.956	81.44
425.178	91.44
425.401	104.44
425.623	82.44
425.846	89.44
426.068	85.44
426.291	72.44
426.513	61.44
426.735	78.44
426.958	94.44
427.18	88.44
427.402	84.44
427.625	84.44
427.847	100.44
428.069	90.44
428.292	82.44
428.514	93.44
428.736	89.44
428.958	86.44
429.181	89.44
429.403	86.44
429.625	85.44
429.847	69.44
430.069	80.44
430.292	80.44
430.514	86.44
430.736	77.44
430.958	88.44
431.18	108.44
431.402	88.44
431.624	78.44
431.846	77.44
432.068	76.44
432.29	80.44
432.512	86.44
432.734	90.44
432.956	88.44
433.178	102.44
433.4	93.44
433.622	96.44
433.844	93.44
434.066	84.44
434.287	85.44
434.509	72.44
434.731	82.44
434.953	80.44
435.175	69.44
435.397	106.44
435.618	78.44
435.84	85.44
436.062	89.44
436.284	73.44
436.505	84.44
436.727	102.44
436.949	80.44
437.17	82.44
437.392	88.44
437.614	80.44
437.835	91.44
438.057	90.44
438.278	90.44
438.5	91.44
438.721	83.44
438.943	98.44
439.165	108.44
439.386	82.44
439.608	98.44
439.829	83.44
440.05	78.44
440.272	98.44
440.493	88.44
440.715	87.44
440.936	82.44
441.158	82.44
441.379	86.44
441.6	68.44
441.822	81.44
442.043	82.44
442.264	84.44
442.486	97.44
442.707	88.44
442.928	77.44
443.149	77.44
443.371	83.44
443.592	77.44
443.813	75.44
444.034	88.44
444.255	83.44
444.476	83.44
444.698	90.44
444.919	87.44
445.14	154.44
445.361	127.44
445.582	91.44
445.803	90.44
446.024	87.44
446.245	106.44
446.466	93.44
446.687	77.44
446.908	93.44
447.129	85.44
447.35	83.44
447.571	77.44
447.792	76.44
448.013	80.44
448.234	94.44
448.455	95.44
448.675	93.44
448.896	86.44
449.117	84.44
449.338	80.44
449.559	89.44
449.779	81.44
450	92.44
450.221	82.44
450.442	91.44
450.662	81.44
450.883	88.44
451.104	86.44
451.324	83.44
451.545	80.44
451.766	92.44
451.986	78.44
452.207	73.44
452.428	79.44
452.648	88.44
452.869	91.44
453.089	77.44
453.31	82.44
453.53	77.44
453.751	90.44
453.971	67.44
454.192	75.44
454.412	86.44
454.633	92.44
454.853	85.44
455.073	101.44
455.294	99.44
455.514	101.44
455.734	89.44
455.955	68.44
456.175	82.44
456.395	94.44
456.616	98.44
456.836	68.44
457.056	94.44
457.276	84.44
457.497	84.44
457.717	94.44
457.937	96.44
458.157	88.44
458.377	92.44
458.598	88.44
458.818	78.44
459.038	75.44
459.258	78.44
459.478	84.44
459.698	93.44
459.918	91.44
460.138	89.44
460.358	81.44
460.578	87.44
460.798	82.44
461.018	93.44
461.238	87.44
461.458	81.44
461.678	81.44
461.898	85.44
462.118	84.44
462.338	80.44
462.558	97.44
462.777	70.44
462.997	89.44
463.217	76.44
463.437	79.44
463.657	77.44
463.876	77.44
464.096	81.44
464.316	86.44
464.536	90.44
464.755	75.44
464.975	72.44
465.195	86.44
465.414	80.44
465.634	94.44
465.854	80.44
466.073	74.44
466.293	94.44
466.512	73.44
466.732	89.44
466.951	76.44
467.171	89.44
467.391	94.44
467.61	74.44
467.829	89.44
468.049	79.44
468.268	101.44
468.488	96.44
468.707	78.44
468.927	77.44
469.146	79.44
469.365	89.44
469.585	99.44
469.804	78.44
470.023	80.44
470.243	100.44
470.462	99.44
470.681	106.44
470.901	76.44
471.12	78.44
471.339	109.44
471.558	82.44
471.777	87.44
471.997	97.44
472.216	92.44
472.435	77.44
472.654	76.44
472.873	87.44
473.092	91.44
473.311	86.44
473.53	82.44
473.749	77.44
473.968	104.44
474.187	91.44
474.406	105.44
474.625	88.44
474.844	97.44
475.063	80.44
475.282	85.44
475.501	83.44
475.72	110.44
475.939	89.44
476.158	88.44
476.377	80.44
476.596	72.44
476.814	86.44
477.033	84.44
477.252	86.44
477.471	97.44
477.69	86.44
477.908	76.44
478.127	85.44
478.346	87.44
478.564	95.44
478.783	77.44
479.002	80.44
479.22	99.44
479.439	92.44
479.658	83.44
479.876	82.44
480.095	82.44
480.313	79.44
480.532	84.44
480.751	90.44
480.969	85.44
481.188	92.44
481.406	82.44
481.624	81.44
481.843	82.44
482.061	81.44
482.28	94.44
482.498	82.44
482.717	102.44
482.935	89.44
483.153	101.44
483.372	86.44
483.59	94.44
483.808	80.44
484.027	80.44
484.245	79.44
484.463	85.44
484.681	93.44
484.9	94.44
485.118	86.44
485.336	92.44
485.554	103.44
485.772	85.44
485.99	88.44
486.209	88.44
486.427	86.44
486.645	77.44
486.863	81.44
487.081	87.44
487.299	80.44
487.517	71.44
487.735	83.44
487.953	105.44
488.171	92.44
488.389	93.44
488.607	80.44
488.825	96.44
489.043	75.44
489.261	84.44
489.479	99.44
489.696	100.44
489.914	99.44
490.132	94.44
490.35	81.44
490.568	81.44
490.786	88.44
491.003	90.44
491.221	84.44
491.439	88.44
491.657	83.44
491.874	93.44
492.092	80.44
492.31	90.44
492.527	100.44
492.745	89.44
492.963	87.44
493.18	96.44
493.398	92.44
493.615	76.44
493.833	82.44
494.05	73.44
494.268	96.44
494.485	85.44
494.703	90.44
494.92	94.44
495.138	91.44
495.355	83.44
495.573	92.44
495.79	100.44
496.008	84.44
496.225	83.44
496.442	96.44
496.66	106.44
496.877	111.44
497.094	106.44
497.312	100.44
497.529	92.44
497.746	80.44
497.963	75.44
498.181	75.44
498.398	98.44
498.615	80.44
498.832	91.44
499.049	83.44
499.267	90.44
499.484	84.44
499.701	90.44
499.918	92.44
500.135	80.44
500.352	95.44
500.569	84.44
500.786	96.44
501.003	81.44
501.22	84.44
501.437	80.44
501.654	96.44
501.871	68.44
502.088	76.44
502.305	93.44
502.522	92.44
502.739	89.44
502.956	84.44
503.172	86.44
503.389	85.44
503.606	93.44
503.823	83.44
504.04	97.44
504.256	81.44
504.473	91.44
504.69	92.44
504.907	82.44
505.123	83.44
505.34	81.44
505.557	85.44
505.773	79.44
505.99	78.44
506.207	87.44
506.423	78.44
506.64	88.44
506.856	90.44
507.073	77.44
507.289	89.44
507.506	81.44
507.722	83.44
507.939	82.44
508.155	83.44
508.372	93.44
508.588	96.44
508.805	88.44
509.021	84.44
509.238	97.44
509.454	89.44
509.67	70.44
509.887	82.44
510.103	90.44
510.319	87.44
510.536	72.44
510.752	101.44
510.968	93.44
511.184	89.44
511.401	69.44
511.617	92.44
511.833	92.44
512.049	106.44
512.265	84.44
512.481	87.44
512.698	93.44
512.914	81.44
513.13	87.44
513.346	83.44
513.562	77.44
513.778	100.44
513.994	91.44
514.21	90.44
514.426	90.44
514.642	78.44
514.858	80.44
515.074	83.44
515.29	100.44
515.506	89.44
515.721	78.44
515.937	100.44
516.153	82.44
516.369	91.44
516.585	92.44
516.801	92.44
517.016	88.44
517.232	81.44
517.448	87.44
517.664	90.44
517.879	98.44
518.095	88.44
518.311	83.44
518.527	94.44
518.742	81.44
518.958	82.44
519.173	89.44
