Data from KBrNoHeat2_HRD10591_00017.txt Node
Date: Fri Dec 27 14:47:48 EST 2024
User: Yrep
Spectrometer: HR+D1059
Trigger mode: 1
Integration Time (sec): 1.000000E-1
Scans to average: 1
Electric dark correction enabled: true
Nonlinearity correction enabled: false
Boxcar width: 0
XAxis mode: Wavelengths
Number of Pixels in Spectrum: 2048
>>>>>Begin Spectral Data<<<<<
223.165	-36.06
223.4	-36.06
223.635	-36.06
223.869	-18.06
224.104	-8.06
224.338	-7.06
224.573	-5.06
224.808	-13.06
225.042	-7.06
225.277	3.94
225.511	-10.06
225.746	-8.06
225.98	5.94
226.215	15.94
226.449	10.94
226.683	13.94
226.918	29.94
227.152	31.94
227.387	26.94
227.621	31.94
227.856	42.94
228.09	37.94
228.324	57.94
228.559	47.94
228.793	55.94
229.027	74.94
229.262	71.94
229.496	63.94
229.73	72.94
229.964	77.94
230.199	69.94
230.433	78.94
230.667	67.94
230.901	70.94
231.136	90.94
231.37	68.94
231.604	65.94
231.838	82.94
232.072	82.94
232.306	77.94
232.541	73.94
232.775	81.94
233.009	86.94
233.243	79.94
233.477	72.94
233.711	74.94
233.945	77.94
234.179	83.94
234.413	82.94
234.647	88.94
234.881	85.94
235.115	81.94
235.349	71.94
235.583	68.94
235.817	76.94
236.051	82.94
236.285	73.94
236.519	82.94
236.753	73.94
236.987	77.94
237.221	73.94
237.455	56.94
237.689	79.94
237.922	73.94
238.156	82.94
238.39	71.94
238.624	77.94
238.858	75.94
239.091	76.94
239.325	75.94
239.559	79.94
239.793	77.94
240.027	65.94
240.26	82.94
240.494	83.94
240.728	70.94
240.961	70.94
241.195	81.94
241.429	75.94
241.662	57.94
241.896	70.94
242.13	81.94
242.363	77.94
242.597	89.94
242.83	95.94
243.064	73.94
243.298	76.94
243.531	67.94
243.765	86.94
243.998	85.94
244.232	78.94
244.465	77.94
244.699	89.94
244.932	74.94
245.166	68.94
245.399	70.94
245.633	73.94
245.866	63.94
246.099	72.94
246.333	72.94
246.566	80.94
246.8	70.94
247.033	88.94
247.266	81.94
247.5	70.94
247.733	76.94
247.966	78.94
248.2	58.94
248.433	77.94
248.666	85.94
248.899	85.94
249.133	70.94
249.366	78.94
249.599	86.94
249.832	65.94
250.066	82.94
250.299	67.94
250.532	76.94
250.765	72.94
250.998	74.94
251.231	77.94
251.465	93.94
251.698	71.94
251.931	73.94
252.164	74.94
252.397	72.94
252.63	66.94
252.863	66.94
253.096	70.94
253.329	79.94
253.562	72.94
253.795	72.94
254.028	78.94
254.261	73.94
254.494	71.94
254.727	77.94
254.96	80.94
255.193	70.94
255.426	73.94
255.659	77.94
255.892	82.94
256.124	72.94
256.357	83.94
256.59	71.94
256.823	71.94
257.056	82.94
257.289	86.94
257.521	75.94
257.754	71.94
257.987	66.94
258.22	74.94
258.452	74.94
258.685	66.94
258.918	75.94
259.151	73.94
259.383	90.94
259.616	82.94
259.849	87.94
260.081	73.94
260.314	85.94
260.547	76.94
260.779	71.94
261.012	67.94
261.244	65.94
261.477	82.94
261.71	78.94
261.942	71.94
262.175	58.94
262.407	78.94
262.64	81.94
262.872	87.94
263.105	96.94
263.337	82.94
263.57	85.94
263.802	80.94
264.035	89.94
264.267	77.94
264.499	70.94
264.732	82.94
264.964	77.94
265.197	86.94
265.429	72.94
265.661	69.94
265.894	73.94
266.126	96.94
266.358	87.94
266.591	77.94
266.823	71.94
267.055	81.94
267.287	79.94
267.52	78.94
267.752	82.94
267.984	73.94
268.216	81.94
268.448	77.94
268.681	94.94
268.913	80.94
269.145	86.94
269.377	80.94
269.609	64.94
269.841	79.94
270.073	83.94
270.306	70.94
270.538	78.94
270.77	84.94
271.002	80.94
271.234	74.94
271.466	86.94
271.698	74.94
271.93	79.94
272.162	80.94
272.394	85.94
272.626	80.94
272.858	85.94
273.09	77.94
273.322	97.94
273.553	85.94
273.785	96.94
274.017	84.94
274.249	88.94
274.481	78.94
274.713	65.94
274.945	60.94
275.176	80.94
275.408	65.94
275.64	80.94
275.872	84.94
276.104	83.94
276.335	84.94
276.567	84.94
276.799	65.94
277.031	83.94
277.262	72.94
277.494	86.94
277.726	82.94
277.957	82.94
278.189	73.94
278.421	82.94
278.652	83.94
278.884	67.94
279.115	82.94
279.347	75.94
279.579	70.94
279.81	85.94
280.042	69.94
280.273	80.94
280.505	84.94
280.736	78.94
280.968	70.94
281.199	72.94
281.431	78.94
281.662	69.94
281.894	79.94
282.125	97.94
282.356	81.94
282.588	83.94
282.819	76.94
283.051	91.94
283.282	94.94
283.513	97.94
283.745	78.94
283.976	82.94
284.207	82.94
284.439	74.94
284.67	80.94
284.901	74.94
285.132	71.94
285.364	70.94
285.595	84.94
285.826	91.94
286.057	83.94
286.288	73.94
286.52	74.94
286.751	89.94
286.982	81.94
287.213	77.94
287.444	75.94
287.675	85.94
287.906	85.94
288.138	98.94
288.369	87.94
288.6	77.94
288.831	103.94
289.062	83.94
289.293	92.94
289.524	69.94
289.755	80.94
289.986	87.94
290.217	95.94
290.448	93.94
290.679	73.94
290.91	99.94
291.141	86.94
291.371	78.94
291.602	92.94
291.833	81.94
292.064	78.94
292.295	77.94
292.526	87.94
292.757	76.94
292.987	75.94
293.218	95.94
293.449	99.94
293.68	71.94
293.91	93.94
294.141	87.94
294.372	90.94
294.603	73.94
294.833	89.94
295.064	98.94
295.295	93.94
295.525	79.94
295.756	78.94
295.987	82.94
296.217	88.94
296.448	86.94
296.679	79.94
296.909	83.94
297.14	85.94
297.37	82.94
297.601	88.94
297.831	83.94
298.062	93.94
298.292	75.94
298.523	64.94
298.753	70.94
298.984	73.94
299.214	70.94
299.445	73.94
299.675	69.94
299.905	93.94
300.136	86.94
300.366	93.94
300.597	98.94
300.827	79.94
301.057	95.94
301.288	76.94
301.518	90.94
301.748	89.94
301.979	104.94
302.209	77.94
302.439	69.94
302.669	80.94
302.9	90.94
303.13	107.94
303.36	80.94
303.59	79.94
303.82	91.94
304.051	98.94
304.281	89.94
304.511	88.94
304.741	77.94
304.971	87.94
305.201	81.94
305.431	90.94
305.661	67.94
305.891	87.94
306.121	77.94
306.352	72.94
306.582	71.94
306.812	79.94
307.042	81.94
307.272	83.94
307.502	82.94
307.731	88.94
307.961	82.94
308.191	70.94
308.421	88.94
308.651	89.94
308.881	87.94
309.111	81.94
309.341	84.94
309.571	77.94
309.8	77.94
310.03	85.94
310.26	88.94
310.49	79.94
310.72	76.94
310.949	75.94
311.179	80.94
311.409	85.94
311.639	92.94
311.868	89.94
312.098	75.94
312.328	81.94
312.557	85.94
312.787	87.94
313.017	99.94
313.246	83.94
313.476	75.94
313.706	78.94
313.935	86.94
314.165	77.94
314.394	72.94
314.624	80.94
314.853	77.94
315.083	91.94
315.312	105.94
315.542	89.94
315.771	74.94
316.001	75.94
316.23	85.94
316.46	76.94
316.689	78.94
316.919	86.94
317.148	72.94
317.377	84.94
317.607	92.94
317.836	86.94
318.065	71.94
318.295	82.94
318.524	78.94
318.753	77.94
318.983	95.94
319.212	109.94
319.441	90.94
319.67	82.94
319.9	80.94
320.129	88.94
320.358	93.94
320.587	86.94
320.816	87.94
321.046	75.94
321.275	76.94
321.504	81.94
321.733	82.94
321.962	82.94
322.191	75.94
322.42	76.94
322.649	74.94
322.878	86.94
323.108	85.94
323.337	83.94
323.566	76.94
323.795	75.94
324.024	101.94
324.253	82.94
324.482	83.94
324.71	82.94
324.939	85.94
325.168	90.94
325.397	77.94
325.626	81.94
325.855	80.94
326.084	87.94
326.313	77.94
326.542	81.94
326.77	85.94
326.999	78.94
327.228	87.94
327.457	89.94
327.686	87.94
327.914	85.94
328.143	78.94
328.372	84.94
328.6	81.94
328.829	88.94
329.058	94.94
329.287	87.94
329.515	79.94
329.744	89.94
329.972	83.94
330.201	86.94
330.43	78.94
330.658	79.94
330.887	87.94
331.115	88.94
331.344	85.94
331.572	78.94
331.801	79.94
332.03	90.94
332.258	94.94
332.486	91.94
332.715	77.94
332.943	83.94
333.172	87.94
333.4	68.94
333.629	100.94
333.857	81.94
334.085	90.94
334.314	77.94
334.542	77.94
334.771	89.94
334.999	93.94
335.227	95.94
335.455	88.94
335.684	86.94
335.912	90.94
336.14	91.94
336.369	84.94
336.597	78.94
336.825	86.94
337.053	101.94
337.281	91.94
337.51	87.94
337.738	97.94
337.966	76.94
338.194	89.94
338.422	82.94
338.65	85.94
338.878	89.94
339.106	87.94
339.334	85.94
339.562	87.94
339.79	95.94
340.018	77.94
340.246	84.94
340.474	81.94
340.702	74.94
340.93	111.94
341.158	87.94
341.386	92.94
341.614	88.94
341.842	77.94
342.07	83.94
342.298	85.94
342.526	69.94
342.754	74.94
342.981	87.94
343.209	79.94
343.437	99.94
343.665	82.94
343.893	80.94
344.12	85.94
344.348	94.94
344.576	79.94
344.804	90.94
345.031	85.94
345.259	82.94
345.487	70.94
345.714	76.94
345.942	84.94
346.17	74.94
346.397	88.94
346.625	78.94
346.853	91.94
347.08	78.94
347.308	83.94
347.535	89.94
347.763	85.94
347.99	82.94
348.218	95.94
348.445	85.94
348.673	83.94
348.9	92.94
349.128	83.94
349.355	75.94
349.583	73.94
349.81	90.94
350.037	82.94
350.265	83.94
350.492	83.94
350.72	85.94
350.947	85.94
351.174	84.94
351.402	77.94
351.629	72.94
351.856	85.94
352.083	73.94
352.311	89.94
352.538	79.94
352.765	68.94
352.992	86.94
353.22	77.94
353.447	84.94
353.674	75.94
353.901	78.94
354.128	92.94
354.355	77.94
354.583	86.94
354.81	82.94
355.037	97.94
355.264	86.94
355.491	95.94
355.718	75.94
355.945	87.94
356.172	86.94
356.399	83.94
356.626	94.94
356.853	79.94
357.08	96.94
357.307	77.94
357.534	71.94
357.761	86.94
357.988	72.94
358.215	78.94
358.441	83.94
358.668	78.94
358.895	77.94
359.122	76.94
359.349	88.94
359.576	89.94
359.802	68.94
360.029	81.94
360.256	99.94
360.483	78.94
360.709	75.94
360.936	95.94
361.163	85.94
361.39	96.94
361.616	80.94
361.843	84.94
362.07	70.94
362.296	83.94
362.523	77.94
362.749	74.94
362.976	97.94
363.203	83.94
363.429	84.94
363.656	83.94
363.882	82.94
364.109	71.94
364.335	96.94
364.562	87.94
364.788	100.94
365.015	98.94
365.241	86.94
365.468	85.94
365.694	86.94
365.92	78.94
366.147	85.94
366.373	96.94
366.599	86.94
366.826	71.94
367.052	87.94
367.278	71.94
367.505	87.94
367.731	81.94
367.957	78.94
368.184	81.94
368.41	81.94
368.636	83.94
368.862	95.94
369.089	78.94
369.315	72.94
369.541	98.94
369.767	75.94
369.993	91.94
370.219	82.94
370.445	87.94
370.672	81.94
370.898	76.94
371.124	83.94
371.35	76.94
371.576	90.94
371.802	79.94
372.028	79.94
372.254	79.94
372.48	81.94
372.706	80.94
372.932	76.94
373.158	84.94
373.384	78.94
373.61	92.94
373.835	113.94
374.061	76.94
374.287	89.94
374.513	74.94
374.739	83.94
374.965	70.94
375.191	77.94
375.416	99.94
375.642	83.94
375.868	78.94
376.094	68.94
376.319	70.94
376.545	75.94
376.771	86.94
376.997	87.94
377.222	83.94
377.448	103.94
377.674	86.94
377.899	84.94
378.125	88.94
378.35	83.94
378.576	64.94
378.802	85.94
379.027	79.94
379.253	85.94
379.478	82.94
379.704	93.94
379.929	95.94
380.155	79.94
380.38	77.94
380.606	89.94
380.831	95.94
381.057	83.94
381.282	84.94
381.507	84.94
381.733	92.94
381.958	87.94
382.184	80.94
382.409	92.94
382.634	98.94
382.86	96.94
383.085	83.94
383.31	80.94
383.535	80.94
383.761	66.94
383.986	78.94
384.211	89.94
384.436	70.94
384.662	81.94
384.887	60.94
385.112	82.94
385.337	80.94
385.562	80.94
385.787	80.94
386.013	89.94
386.238	86.94
386.463	82.94
386.688	110.94
386.913	89.94
387.138	82.94
387.363	72.94
387.588	81.94
387.813	82.94
388.038	76.94
388.263	79.94
388.488	92.94
388.713	90.94
388.938	78.94
389.163	84.94
389.387	88.94
389.612	75.94
389.837	89.94
390.062	80.94
390.287	78.94
390.512	88.94
390.736	100.94
390.961	73.94
391.186	97.94
391.411	78.94
391.636	57.94
391.86	91.94
392.085	84.94
392.31	79.94
392.534	67.94
392.759	77.94
392.984	85.94
393.208	84.94
393.433	91.94
393.658	84.94
393.882	79.94
394.107	99.94
394.331	94.94
394.556	81.94
394.78	97.94
395.005	78.94
395.229	80.94
395.454	78.94
395.678	91.94
395.903	79.94
396.127	89.94
396.352	91.94
396.576	72.94
396.801	98.94
397.025	81.94
397.249	82.94
397.474	89.94
397.698	76.94
397.922	91.94
398.147	78.94
398.371	64.94
398.595	75.94
398.82	80.94
399.044	73.94
399.268	70.94
399.492	88.94
399.717	80.94
399.941	84.94
400.165	74.94
400.389	70.94
400.613	68.94
400.837	98.94
401.062	69.94
401.286	76.94
401.51	75.94
401.734	79.94
401.958	87.94
402.182	77.94
402.406	84.94
402.63	73.94
402.854	90.94
403.078	87.94
403.302	82.94
403.526	86.94
403.75	90.94
403.974	88.94
404.198	112.94
404.422	127.94
404.645	175.94
404.869	143.94
405.093	127.94
405.317	115.94
405.541	87.94
405.765	90.94
405.988	83.94
406.212	90.94
406.436	83.94
406.66	91.94
406.883	84.94
407.107	65.94
407.331	88.94
407.555	73.94
407.778	80.94
408.002	69.94
408.226	69.94
408.449	81.94
408.673	54.94
408.896	103.94
409.12	97.94
409.344	80.94
409.567	85.94
409.791	81.94
410.014	83.94
410.238	90.94
410.461	69.94
410.685	73.94
410.908	90.94
411.132	80.94
411.355	75.94
411.578	79.94
411.802	83.94
412.025	87.94
412.249	82.94
412.472	80.94
412.695	68.94
412.919	78.94
413.142	93.94
413.365	79.94
413.589	69.94
413.812	79.94
414.035	79.94
414.258	94.94
414.482	81.94
414.705	87.94
414.928	82.94
415.151	75.94
415.374	103.94
415.597	86.94
415.821	79.94
416.044	89.94
416.267	87.94
416.49	89.94
416.713	97.94
416.936	81.94
417.159	78.94
417.382	89.94
417.605	78.94
417.828	100.94
418.051	91.94
418.274	89.94
418.497	102.94
418.72	83.94
418.943	90.94
419.166	75.94
419.389	83.94
419.611	86.94
419.834	79.94
420.057	80.94
420.28	63.94
420.503	92.94
420.726	83.94
420.948	80.94
421.171	90.94
421.394	86.94
421.617	90.94
421.839	87.94
422.062	75.94
422.285	78.94
422.507	84.94
422.73	91.94
422.953	86.94
423.175	75.94
423.398	99.94
423.621	85.94
423.843	81.94
424.066	76.94
424.288	90.94
424.511	86.94
424.733	76.94
424.956	83.94
425.178	98.94
425.401	95.94
425.623	77.94
425.846	75.94
426.068	78.94
426.291	77.94
426.513	94.94
426.735	91.94
426.958	85.94
427.18	89.94
427.402	88.94
427.625	99.94
427.847	81.94
428.069	84.94
428.292	82.94
428.514	99.94
428.736	83.94
428.958	84.94
429.181	89.94
429.403	95.94
429.625	82.94
429.847	78.94
430.069	84.94
430.292	96.94
430.514	90.94
430.736	81.94
430.958	86.94
431.18	79.94
431.402	88.94
431.624	90.94
431.846	90.94
432.068	90.94
432.29	94.94
432.512	89.94
432.734	85.94
432.956	93.94
433.178	81.94
433.4	86.94
433.622	74.94
433.844	79.94
434.066	77.94
434.287	76.94
434.509	87.94
434.731	80.94
434.953	85.94
435.175	81.94
435.397	87.94
435.618	80.94
435.84	69.94
436.062	84.94
436.284	79.94
436.505	75.94
436.727	79.94
436.949	70.94
437.17	97.94
437.392	79.94
437.614	85.94
437.835	83.94
438.057	81.94
438.278	76.94
438.5	81.94
438.721	85.94
438.943	76.94
439.165	103.94
439.386	90.94
439.608	78.94
439.829	71.94
440.05	78.94
440.272	73.94
440.493	86.94
440.715	70.94
440.936	78.94
441.158	83.94
441.379	90.94
441.6	90.94
441.822	94.94
442.043	79.94
442.264	90.94
442.486	90.94
442.707	76.94
442.928	84.94
443.149	85.94
443.371	83.94
443.592	70.94
443.813	85.94
444.034	88.94
444.255	73.94
444.476	81.94
444.698	79.94
444.919	96.94
445.14	155.94
445.361	130.94
445.582	78.94
445.803	78.94
446.024	94.94
446.245	83.94
446.466	89.94
446.687	85.94
446.908	84.94
447.129	72.94
447.35	84.94
447.571	71.94
447.792	84.94
448.013	81.94
448.234	96.94
448.455	94.94
448.675	102.94
448.896	98.94
449.117	92.94
449.338	78.94
449.559	98.94
449.779	74.94
450	82.94
450.221	89.94
450.442	104.94
450.662	75.94
450.883	69.94
451.104	86.94
451.324	84.94
451.545	73.94
451.766	89.94
451.986	82.94
452.207	90.94
452.428	82.94
452.648	90.94
452.869	90.94
453.089	66.94
453.31	88.94
453.53	85.94
453.751	80.94
453.971	76.94
454.192	78.94
454.412	75.94
454.633	76.94
454.853	71.94
455.073	81.94
455.294	85.94
455.514	83.94
455.734	81.94
455.955	86.94
456.175	74.94
456.395	80.94
456.616	77.94
456.836	80.94
457.056	85.94
457.276	93.94
457.497	82.94
457.717	91.94
457.937	91.94
458.157	67.94
458.377	78.94
458.598	92.94
458.818	83.94
459.038	79.94
459.258	74.94
459.478	86.94
459.698	88.94
459.918	83.94
460.138	83.94
460.358	86.94
460.578	93.94
460.798	81.94
461.018	76.94
461.238	70.94
461.458	87.94
461.678	88.94
461.898	77.94
462.118	91.94
462.338	81.94
462.558	95.94
462.777	82.94
462.997	89.94
463.217	65.94
463.437	71.94
463.657	79.94
463.876	77.94
464.096	78.94
464.316	87.94
464.536	74.94
464.755	75.94
464.975	78.94
465.195	83.94
465.414	79.94
465.634	78.94
465.854	74.94
466.073	80.94
466.293	97.94
466.512	99.94
466.732	90.94
466.951	81.94
467.171	84.94
467.391	99.94
467.61	82.94
467.829	94.94
468.049	85.94
468.268	95.94
468.488	85.94
468.707	88.94
468.927	81.94
469.146	80.94
469.365	101.94
469.585	79.94
469.804	96.94
470.023	82.94
470.243	88.94
470.462	84.94
470.681	85.94
470.901	78.94
471.12	84.94
471.339	86.94
471.558	73.94
471.777	80.94
471.997	91.94
472.216	82.94
472.435	80.94
472.654	85.94
472.873	90.94
473.092	89.94
473.311	87.94
473.53	81.94
473.749	94.94
473.968	95.94
474.187	99.94
474.406	75.94
474.625	85.94
474.844	71.94
475.063	94.94
475.282	94.94
475.501	93.94
475.72	76.94
475.939	82.94
476.158	83.94
476.377	78.94
476.596	99.94
476.814	84.94
477.033	70.94
477.252	94.94
477.471	91.94
477.69	88.94
477.908	94.94
478.127	76.94
478.346	77.94
478.564	70.94
478.783	57.94
479.002	86.94
479.22	84.94
479.439	95.94
479.658	91.94
479.876	93.94
480.095	82.94
480.313	77.94
480.532	83.94
480.751	84.94
480.969	84.94
481.188	78.94
481.406	91.94
481.624	101.94
481.843	83.94
482.061	101.94
482.28	71.94
482.498	87.94
482.717	95.94
482.935	81.94
483.153	80.94
483.372	85.94
483.59	88.94
483.808	80.94
484.027	93.94
484.245	91.94
484.463	83.94
484.681	83.94
484.9	88.94
485.118	93.94
485.336	98.94
485.554	95.94
485.772	79.94
485.99	76.94
486.209	80.94
486.427	78.94
486.645	88.94
486.863	81.94
487.081	84.94
487.299	88.94
487.517	74.94
487.735	99.94
487.953	88.94
488.171	89.94
488.389	87.94
488.607	86.94
488.825	71.94
489.043	91.94
489.261	83.94
489.479	96.94
489.696	106.94
489.914	96.94
490.132	90.94
490.35	91.94
490.568	87.94
490.786	98.94
491.003	85.94
491.221	78.94
491.439	101.94
491.657	97.94
491.874	102.94
492.092	96.94
492.31	92.94
492.527	74.94
492.745	83.94
492.963	98.94
493.18	88.94
493.398	95.94
493.615	99.94
493.833	85.94
494.05	90.94
494.268	91.94
494.485	88.94
494.703	91.94
494.92	94.94
495.138	97.94
495.355	77.94
495.573	97.94
495.79	87.94
496.008	86.94
496.225	103.94
496.442	75.94
496.66	83.94
496.877	88.94
497.094	104.94
497.312	101.94
497.529	95.94
497.746	98.94
497.963	80.94
498.181	82.94
498.398	87.94
498.615	94.94
498.832	69.94
499.049	88.94
499.267	82.94
499.484	88.94
499.701	89.94
499.918	96.94
500.135	74.94
500.352	91.94
500.569	87.94
500.786	86.94
501.003	84.94
501.22	80.94
501.437	92.94
501.654	99.94
501.871	89.94
502.088	88.94
502.305	94.94
502.522	71.94
502.739	81.94
502.956	87.94
503.172	95.94
503.389	84.94
503.606	97.94
503.823	83.94
504.04	82.94
504.256	79.94
504.473	86.94
504.69	97.94
504.907	87.94
505.123	87.94
505.34	75.94
505.557	88.94
505.773	77.94
505.99	82.94
506.207	75.94
506.423	85.94
506.64	80.94
506.856	96.94
507.073	97.94
507.289	73.94
507.506	89.94
507.722	98.94
507.939	88.94
508.155	99.94
508.372	88.94
508.588	77.94
508.805	83.94
509.021	80.94
509.238	86.94
509.454	71.94
509.67	67.94
509.887	90.94
510.103	102.94
510.319	76.94
510.536	86.94
510.752	96.94
510.968	87.94
511.184	93.94
511.401	99.94
511.617	88.94
511.833	85.94
512.049	73.94
512.265	96.94
512.481	95.94
512.698	84.94
512.914	85.94
513.13	93.94
513.346	89.94
513.562	92.94
513.778	93.94
513.994	82.94
514.21	89.94
514.426	82.94
514.642	79.94
514.858	86.94
515.074	91.94
515.29	67.94
515.506	80.94
515.721	67.94
515.937	84.94
516.153	79.94
516.369	77.94
516.585	88.94
516.801	78.94
517.016	85.94
517.232	77.94
517.448	81.94
517.664	94.94
517.879	69.94
518.095	81.94
518.311	105.94
518.527	86.94
518.742	85.94
518.958	78.94
519.173	84.94
519.389	84.94
519.605	91.94
519.82	74.94
