Data from KBrNoHeat2_HRD10591_00005.txt Node
Date: Fri Dec 27 14:47:36 EST 2024
User: Yrep
Spectrometer: HR+D1059
Trigger mode: 1
Integration Time (sec): 1.000000E-1
Scans to average: 1
Electric dark correction enabled: true
Nonlinearity correction enabled: false
Boxcar width: 0
XAxis mode: Wavelengths
Number of Pixels in Spectrum: 2048
>>>>>Begin Spectral Data<<<<<
223.165	-7.56
223.4	-7.56
223.635	-7.56
223.869	-12.56
224.104	-5.56
224.338	-4.56
224.573	-13.56
224.808	-9.56
225.042	-8.56
225.277	0.44
225.511	-6.56
225.746	10.44
225.98	1.44
226.215	11.44
226.449	8.44
226.683	6.44
226.918	5.44
227.152	24.44
227.387	46.44
227.621	46.44
227.856	44.44
228.09	44.44
228.324	48.44
228.559	54.44
228.793	63.44
229.027	68.44
229.262	63.44
229.496	53.44
229.73	50.44
229.964	80.44
230.199	67.44
230.433	74.44
230.667	80.44
230.901	73.44
231.136	71.44
231.37	87.44
231.604	93.44
231.838	86.44
232.072	77.44
232.306	82.44
232.541	84.44
232.775	84.44
233.009	85.44
233.243	74.44
233.477	88.44
233.711	90.44
233.945	97.44
234.179	99.44
234.413	88.44
234.647	85.44
234.881	77.44
235.115	85.44
235.349	89.44
235.583	85.44
235.817	78.44
236.051	85.44
236.285	80.44
236.519	82.44
236.753	80.44
236.987	77.44
237.221	82.44
237.455	93.44
237.689	78.44
237.922	72.44
238.156	88.44
238.39	79.44
238.624	64.44
238.858	83.44
239.091	80.44
239.325	69.44
239.559	79.44
239.793	72.44
240.027	83.44
240.26	69.44
240.494	75.44
240.728	67.44
240.961	80.44
241.195	64.44
241.429	77.44
241.662	78.44
241.896	85.44
242.13	74.44
242.363	75.44
242.597	83.44
242.83	75.44
243.064	80.44
243.298	66.44
243.531	74.44
243.765	73.44
243.998	87.44
244.232	66.44
244.465	86.44
244.699	88.44
244.932	79.44
245.166	83.44
245.399	103.44
245.633	83.44
245.866	74.44
246.099	74.44
246.333	91.44
246.566	78.44
246.8	67.44
247.033	84.44
247.266	80.44
247.5	88.44
247.733	82.44
247.966	80.44
248.2	68.44
248.433	70.44
248.666	72.44
248.899	91.44
249.133	73.44
249.366	75.44
249.599	68.44
249.832	88.44
250.066	91.44
250.299	73.44
250.532	72.44
250.765	82.44
250.998	93.44
251.231	79.44
251.465	79.44
251.698	74.44
251.931	85.44
252.164	77.44
252.397	88.44
252.63	87.44
252.863	80.44
253.096	82.44
253.329	86.44
253.562	83.44
253.795	85.44
254.028	86.44
254.261	88.44
254.494	69.44
254.727	83.44
254.96	87.44
255.193	80.44
255.426	66.44
255.659	70.44
255.892	90.44
256.124	68.44
256.357	58.44
256.59	74.44
256.823	91.44
257.056	90.44
257.289	105.44
257.521	87.44
257.754	85.44
257.987	91.44
258.22	97.44
258.452	72.44
258.685	82.44
258.918	88.44
259.151	80.44
259.383	78.44
259.616	88.44
259.849	77.44
260.081	74.44
260.314	93.44
260.547	89.44
260.779	89.44
261.012	72.44
261.244	79.44
261.477	85.44
261.71	90.44
261.942	72.44
262.175	86.44
262.407	83.44
262.64	80.44
262.872	89.44
263.105	72.44
263.337	86.44
263.57	73.44
263.802	80.44
264.035	77.44
264.267	82.44
264.499	87.44
264.732	87.44
264.964	82.44
265.197	85.44
265.429	87.44
265.661	72.44
265.894	79.44
266.126	75.44
266.358	79.44
266.591	86.44
266.823	87.44
267.055	92.44
267.287	90.44
267.52	84.44
267.752	83.44
267.984	76.44
268.216	90.44
268.448	89.44
268.681	78.44
268.913	79.44
269.145	79.44
269.377	87.44
269.609	87.44
269.841	82.44
270.073	71.44
270.306	100.44
270.538	90.44
270.77	79.44
271.002	95.44
271.234	78.44
271.466	95.44
271.698	87.44
271.93	76.44
272.162	91.44
272.394	91.44
272.626	77.44
272.858	98.44
273.09	90.44
273.322	89.44
273.553	85.44
273.785	80.44
274.017	79.44
274.249	80.44
274.481	78.44
274.713	90.44
274.945	77.44
275.176	82.44
275.408	87.44
275.64	91.44
275.872	78.44
276.104	84.44
276.335	94.44
276.567	87.44
276.799	86.44
277.031	84.44
277.262	91.44
277.494	89.44
277.726	86.44
277.957	70.44
278.189	77.44
278.421	82.44
278.652	66.44
278.884	90.44
279.115	70.44
279.347	88.44
279.579	83.44
279.81	89.44
280.042	82.44
280.273	76.44
280.505	72.44
280.736	81.44
280.968	78.44
281.199	90.44
281.431	86.44
281.662	79.44
281.894	96.44
282.125	74.44
282.356	88.44
282.588	92.44
282.819	84.44
283.051	92.44
283.282	77.44
283.513	99.44
283.745	96.44
283.976	85.44
284.207	93.44
284.439	81.44
284.67	75.44
284.901	81.44
285.132	88.44
285.364	68.44
285.595	100.44
285.826	73.44
286.057	88.44
286.288	71.44
286.52	95.44
286.751	80.44
286.982	97.44
287.213	95.44
287.444	80.44
287.675	73.44
287.906	89.44
288.138	75.44
288.369	85.44
288.6	91.44
288.831	88.44
289.062	92.44
289.293	83.44
289.524	79.44
289.755	100.44
289.986	87.44
290.217	91.44
290.448	96.44
290.679	85.44
290.91	84.44
291.141	78.44
291.371	86.44
291.602	87.44
291.833	82.44
292.064	80.44
292.295	103.44
292.526	98.44
292.757	80.44
292.987	81.44
293.218	84.44
293.449	98.44
293.68	80.44
293.91	94.44
294.141	88.44
294.372	82.44
294.603	82.44
294.833	83.44
295.064	91.44
295.295	95.44
295.525	86.44
295.756	87.44
295.987	83.44
296.217	87.44
296.448	91.44
296.679	75.44
296.909	85.44
297.14	92.44
297.37	92.44
297.601	75.44
297.831	85.44
298.062	84.44
298.292	76.44
298.523	95.44
298.753	74.44
298.984	87.44
299.214	90.44
299.445	92.44
299.675	101.44
299.905	91.44
300.136	84.44
300.366	77.44
300.597	101.44
300.827	91.44
301.057	79.44
301.288	92.44
301.518	94.44
301.748	92.44
301.979	98.44
302.209	86.44
302.439	86.44
302.669	84.44
302.9	77.44
303.13	80.44
303.36	66.44
303.59	83.44
303.82	96.44
304.051	75.44
304.281	87.44
304.511	97.44
304.741	92.44
304.971	86.44
305.201	106.44
305.431	71.44
305.661	82.44
305.891	87.44
306.121	78.44
306.352	81.44
306.582	84.44
306.812	86.44
307.042	78.44
307.272	102.44
307.502	74.44
307.731	80.44
307.961	87.44
308.191	96.44
308.421	79.44
308.651	97.44
308.881	84.44
309.111	84.44
309.341	82.44
309.571	79.44
309.8	78.44
310.03	72.44
310.26	81.44
310.49	92.44
310.72	73.44
310.949	75.44
311.179	103.44
311.409	95.44
311.639	105.44
311.868	85.44
312.098	92.44
312.328	94.44
312.557	73.44
312.787	91.44
313.017	87.44
313.246	86.44
313.476	82.44
313.706	79.44
313.935	87.44
314.165	86.44
314.394	102.44
314.624	87.44
314.853	84.44
315.083	91.44
315.312	100.44
315.542	82.44
315.771	71.44
316.001	73.44
316.23	87.44
316.46	94.44
316.689	98.44
316.919	90.44
317.148	78.44
317.377	94.44
317.607	91.44
317.836	94.44
318.065	96.44
318.295	92.44
318.524	85.44
318.753	91.44
318.983	90.44
319.212	94.44
319.441	80.44
319.67	88.44
319.9	91.44
320.129	95.44
320.358	89.44
320.587	103.44
320.816	76.44
321.046	90.44
321.275	97.44
321.504	69.44
321.733	87.44
321.962	95.44
322.191	76.44
322.42	78.44
322.649	74.44
322.878	89.44
323.108	84.44
323.337	85.44
323.566	102.44
323.795	83.44
324.024	88.44
324.253	85.44
324.482	85.44
324.71	96.44
324.939	80.44
325.168	93.44
325.397	89.44
325.626	100.44
325.855	72.44
326.084	85.44
326.313	96.44
326.542	72.44
326.77	80.44
326.999	88.44
327.228	83.44
327.457	103.44
327.686	83.44
327.914	83.44
328.143	93.44
328.372	80.44
328.6	98.44
328.829	95.44
329.058	80.44
329.287	94.44
329.515	86.44
329.744	94.44
329.972	90.44
330.201	99.44
330.43	86.44
330.658	98.44
330.887	85.44
331.115	88.44
331.344	89.44
331.572	92.44
331.801	99.44
332.03	107.44
332.258	103.44
332.486	86.44
332.715	84.44
332.943	95.44
333.172	79.44
333.4	87.44
333.629	74.44
333.857	79.44
334.085	101.44
334.314	93.44
334.542	89.44
334.771	90.44
334.999	91.44
335.227	95.44
335.455	90.44
335.684	103.44
335.912	82.44
336.14	77.44
336.369	82.44
336.597	96.44
336.825	94.44
337.053	102.44
337.281	84.44
337.51	85.44
337.738	89.44
337.966	90.44
338.194	87.44
338.422	87.44
338.65	83.44
338.878	88.44
339.106	83.44
339.334	86.44
339.562	93.44
339.79	72.44
340.018	78.44
340.246	85.44
340.474	85.44
340.702	87.44
340.93	96.44
341.158	87.44
341.386	86.44
341.614	84.44
341.842	87.44
342.07	104.44
342.298	92.44
342.526	92.44
342.754	89.44
342.981	94.44
343.209	83.44
343.437	107.44
343.665	80.44
343.893	104.44
344.12	95.44
344.348	79.44
344.576	90.44
344.804	91.44
345.031	103.44
345.259	90.44
345.487	85.44
345.714	78.44
345.942	89.44
346.17	91.44
346.397	83.44
346.625	88.44
346.853	83.44
347.08	76.44
347.308	78.44
347.535	84.44
347.763	103.44
347.99	74.44
348.218	89.44
348.445	82.44
348.673	87.44
348.9	91.44
349.128	97.44
349.355	93.44
349.583	80.44
349.81	82.44
350.037	98.44
350.265	85.44
350.492	96.44
350.72	64.44
350.947	86.44
351.174	100.44
351.402	87.44
351.629	89.44
351.856	97.44
352.083	79.44
352.311	94.44
352.538	76.44
352.765	84.44
352.992	87.44
353.22	85.44
353.447	99.44
353.674	92.44
353.901	91.44
354.128	93.44
354.355	85.44
354.583	91.44
354.81	89.44
355.037	91.44
355.264	88.44
355.491	82.44
355.718	85.44
355.945	100.44
356.172	84.44
356.399	84.44
356.626	83.44
356.853	93.44
357.08	82.44
357.307	107.44
357.534	94.44
357.761	98.44
357.988	106.44
358.215	100.44
358.441	96.44
358.668	88.44
358.895	94.44
359.122	84.44
359.349	84.44
359.576	82.44
359.802	82.44
360.029	92.44
360.256	93.44
360.483	79.44
360.709	85.44
360.936	87.44
361.163	85.44
361.39	86.44
361.616	83.44
361.843	92.44
362.07	98.44
362.296	99.44
362.523	87.44
362.749	87.44
362.976	83.44
363.203	78.44
363.429	82.44
363.656	94.44
363.882	87.44
364.109	100.44
364.335	105.44
364.562	83.44
364.788	92.44
365.015	80.44
365.241	104.44
365.468	84.44
365.694	88.44
365.92	86.44
366.147	74.44
366.373	86.44
366.599	76.44
366.826	89.44
367.052	90.44
367.278	85.44
367.505	94.44
367.731	100.44
367.957	94.44
368.184	82.44
368.41	88.44
368.636	78.44
368.862	107.44
369.089	90.44
369.315	87.44
369.541	76.44
369.767	84.44
369.993	98.44
370.219	82.44
370.445	90.44
370.672	79.44
370.898	66.44
371.124	89.44
371.35	88.44
371.576	100.44
371.802	85.44
372.028	88.44
372.254	83.44
372.48	82.44
372.706	89.44
372.932	74.44
373.158	82.44
373.384	95.44
373.61	86.44
373.835	86.44
374.061	85.44
374.287	78.44
374.513	92.44
374.739	84.44
374.965	70.44
375.191	91.44
375.416	93.44
375.642	95.44
375.868	90.44
376.094	79.44
376.319	79.44
376.545	87.44
376.771	85.44
376.997	82.44
377.222	93.44
377.448	83.44
377.674	88.44
377.899	99.44
378.125	91.44
378.35	88.44
378.576	88.44
378.802	74.44
379.027	79.44
379.253	93.44
379.478	91.44
379.704	77.44
379.929	95.44
380.155	86.44
380.38	92.44
380.606	91.44
380.831	79.44
381.057	86.44
381.282	87.44
381.507	83.44
381.733	94.44
381.958	92.44
382.184	89.44
382.409	75.44
382.634	81.44
382.86	93.44
383.085	72.44
383.31	78.44
383.535	91.44
383.761	100.44
383.986	83.44
384.211	94.44
384.436	98.44
384.662	78.44
384.887	93.44
385.112	79.44
385.337	90.44
385.562	98.44
385.787	77.44
386.013	96.44
386.238	79.44
386.463	85.44
386.688	90.44
386.913	93.44
387.138	94.44
387.363	84.44
387.588	103.44
387.813	104.44
388.038	88.44
388.263	90.44
388.488	89.44
388.713	86.44
388.938	103.44
389.163	70.44
389.387	86.44
389.612	93.44
389.837	79.44
390.062	89.44
390.287	85.44
390.512	90.44
390.736	81.44
390.961	83.44
391.186	86.44
391.411	87.44
391.636	95.44
391.86	86.44
392.085	91.44
392.31	91.44
392.534	100.44
392.759	84.44
392.984	94.44
393.208	104.44
393.433	78.44
393.658	94.44
393.882	78.44
394.107	87.44
394.331	80.44
394.556	102.44
394.78	80.44
395.005	83.44
395.229	90.44
395.454	89.44
395.678	93.44
395.903	73.44
396.127	84.44
396.352	99.44
396.576	78.44
396.801	77.44
397.025	79.44
397.249	84.44
397.474	85.44
397.698	99.44
397.922	86.44
398.147	93.44
398.371	84.44
398.595	85.44
398.82	91.44
399.044	90.44
399.268	88.44
399.492	87.44
399.717	88.44
399.941	86.44
400.165	78.44
400.389	90.44
400.613	75.44
400.837	80.44
401.062	87.44
401.286	83.44
401.51	100.44
401.734	74.44
401.958	87.44
402.182	94.44
402.406	86.44
402.63	80.44
402.854	88.44
403.078	92.44
403.302	98.44
403.526	102.44
403.75	91.44
403.974	104.44
404.198	122.44
404.422	170.44
404.645	178.44
404.869	164.44
405.093	125.44
405.317	102.44
405.541	73.44
405.765	95.44
405.988	87.44
406.212	91.44
406.436	76.44
406.66	92.44
406.883	88.44
407.107	94.44
407.331	87.44
407.555	84.44
407.778	92.44
408.002	88.44
408.226	82.44
408.449	94.44
408.673	87.44
408.896	85.44
409.12	80.44
409.344	89.44
409.567	89.44
409.791	89.44
410.014	98.44
410.238	76.44
410.461	84.44
410.685	94.44
410.908	89.44
411.132	79.44
411.355	84.44
411.578	84.44
411.802	82.44
412.025	84.44
412.249	73.44
412.472	80.44
412.695	96.44
412.919	87.44
413.142	92.44
413.365	78.44
413.589	77.44
413.812	88.44
414.035	99.44
414.258	93.44
414.482	72.44
414.705	93.44
414.928	77.44
415.151	89.44
415.374	83.44
415.597	81.44
415.821	94.44
416.044	91.44
416.267	90.44
416.49	94.44
416.713	92.44
416.936	107.44
417.159	92.44
417.382	92.44
417.605	92.44
417.828	77.44
418.051	86.44
418.274	83.44
418.497	89.44
418.72	81.44
418.943	93.44
419.166	96.44
419.389	84.44
419.611	83.44
419.834	94.44
420.057	80.44
420.28	87.44
420.503	79.44
420.726	87.44
420.948	80.44
421.171	84.44
421.394	74.44
421.617	81.44
421.839	84.44
422.062	89.44
422.285	90.44
422.507	106.44
422.73	106.44
422.953	95.44
423.175	92.44
423.398	71.44
423.621	87.44
423.843	79.44
424.066	95.44
424.288	82.44
424.511	101.44
424.733	88.44
424.956	84.44
425.178	87.44
425.401	83.44
425.623	77.44
425.846	85.44
426.068	87.44
426.291	84.44
426.513	88.44
426.735	95.44
426.958	96.44
427.18	87.44
427.402	104.44
427.625	93.44
427.847	94.44
428.069	95.44
428.292	73.44
428.514	95.44
428.736	97.44
428.958	96.44
429.181	119.44
429.403	96.44
429.625	90.44
429.847	83.44
430.069	104.44
430.292	81.44
430.514	102.44
430.736	85.44
430.958	98.44
431.18	85.44
431.402	104.44
431.624	90.44
431.846	72.44
432.068	99.44
432.29	87.44
432.512	89.44
432.734	93.44
432.956	75.44
433.178	82.44
433.4	80.44
433.622	84.44
433.844	98.44
434.066	74.44
434.287	90.44
434.509	83.44
434.731	86.44
434.953	81.44
435.175	86.44
435.397	94.44
435.618	74.44
435.84	79.44
436.062	100.44
436.284	80.44
436.505	80.44
436.727	84.44
436.949	99.44
437.17	85.44
437.392	85.44
437.614	89.44
437.835	81.44
438.057	77.44
438.278	84.44
438.5	76.44
438.721	91.44
438.943	72.44
439.165	86.44
439.386	91.44
439.608	92.44
439.829	94.44
440.05	85.44
440.272	91.44
440.493	91.44
440.715	65.44
440.936	86.44
441.158	84.44
441.379	86.44
441.6	83.44
441.822	90.44
442.043	98.44
442.264	89.44
442.486	88.44
442.707	72.44
442.928	90.44
443.149	80.44
443.371	95.44
443.592	76.44
443.813	92.44
444.034	81.44
444.255	91.44
444.476	84.44
444.698	80.44
444.919	83.44
445.14	150.44
445.361	111.44
445.582	88.44
445.803	81.44
446.024	88.44
446.245	106.44
446.466	88.44
446.687	70.44
446.908	80.44
447.129	71.44
447.35	91.44
447.571	87.44
447.792	110.44
448.013	83.44
448.234	90.44
448.455	102.44
448.675	79.44
448.896	82.44
449.117	74.44
449.338	94.44
449.559	87.44
449.779	83.44
450	84.44
450.221	93.44
450.442	85.44
450.662	76.44
450.883	80.44
451.104	82.44
451.324	89.44
451.545	92.44
451.766	87.44
451.986	79.44
452.207	91.44
452.428	64.44
452.648	94.44
452.869	81.44
453.089	75.44
453.31	85.44
453.53	78.44
453.751	86.44
453.971	74.44
454.192	75.44
454.412	79.44
454.633	88.44
454.853	81.44
455.073	78.44
455.294	96.44
455.514	105.44
455.734	88.44
455.955	84.44
456.175	92.44
456.395	85.44
456.616	85.44
456.836	83.44
457.056	90.44
457.276	87.44
457.497	86.44
457.717	84.44
457.937	81.44
458.157	84.44
458.377	82.44
458.598	83.44
458.818	100.44
459.038	87.44
459.258	75.44
459.478	86.44
459.698	87.44
459.918	77.44
460.138	83.44
460.358	81.44
460.578	85.44
460.798	88.44
461.018	84.44
461.238	90.44
461.458	79.44
461.678	90.44
461.898	93.44
462.118	90.44
462.338	89.44
462.558	84.44
462.777	89.44
462.997	87.44
463.217	89.44
463.437	62.44
463.657	95.44
463.876	77.44
464.096	99.44
464.316	88.44
464.536	86.44
464.755	88.44
464.975	74.44
465.195	72.44
465.414	86.44
465.634	92.44
465.854	91.44
466.073	99.44
466.293	91.44
466.512	102.44
466.732	94.44
466.951	95.44
467.171	95.44
467.391	82.44
467.61	98.44
467.829	84.44
468.049	80.44
468.268	92.44
468.488	82.44
468.707	84.44
468.927	101.44
469.146	75.44
469.365	92.44
469.585	93.44
469.804	92.44
470.023	86.44
470.243	88.44
470.462	90.44
470.681	78.44
470.901	78.44
471.12	96.44
471.339	99.44
471.558	89.44
471.777	82.44
471.997	94.44
472.216	91.44
472.435	94.44
472.654	103.44
472.873	84.44
473.092	94.44
473.311	74.44
473.53	88.44
473.749	84.44
473.968	92.44
474.187	83.44
474.406	106.44
474.625	93.44
474.844	103.44
475.063	95.44
475.282	82.44
475.501	85.44
475.72	91.44
475.939	88.44
476.158	89.44
476.377	87.44
476.596	89.44
476.814	86.44
477.033	78.44
477.252	96.44
477.471	103.44
477.69	86.44
477.908	88.44
478.127	83.44
478.346	98.44
478.564	80.44
478.783	80.44
479.002	90.44
479.22	94.44
479.439	99.44
479.658	93.44
479.876	83.44
480.095	93.44
480.313	80.44
480.532	92.44
480.751	103.44
480.969	90.44
481.188	89.44
481.406	93.44
481.624	85.44
481.843	98.44
482.061	84.44
482.28	90.44
482.498	98.44
482.717	72.44
482.935	92.44
483.153	93.44
483.372	73.44
483.59	101.44
483.808	84.44
484.027	64.44
484.245	88.44
484.463	99.44
484.681	105.44
484.9	83.44
485.118	90.44
485.336	95.44
485.554	93.44
485.772	86.44
485.99	75.44
486.209	102.44
486.427	72.44
486.645	82.44
486.863	77.44
487.081	91.44
487.299	100.44
487.517	104.44
487.735	88.44
487.953	98.44
488.171	94.44
488.389	94.44
488.607	92.44
488.825	93.44
489.043	94.44
489.261	94.44
489.479	93.44
489.696	95.44
489.914	94.44
490.132	93.44
490.35	96.44
490.568	83.44
490.786	89.44
491.003	85.44
491.221	92.44
491.439	94.44
491.657	93.44
491.874	100.44
492.092	87.44
492.31	94.44
492.527	92.44
492.745	91.44
492.963	88.44
493.18	110.44
493.398	96.44
493.615	85.44
493.833	99.44
494.05	98.44
494.268	93.44
494.485	110.44
494.703	102.44
494.92	98.44
495.138	106.44
495.355	106.44
495.573	107.44
495.79	89.44
496.008	101.44
496.225	100.44
496.442	98.44
496.66	83.44
496.877	100.44
497.094	99.44
497.312	94.44
497.529	100.44
497.746	102.44
497.963	85.44
498.181	93.44
498.398	95.44
498.615	83.44
498.832	95.44
499.049	85.44
499.267	99.44
499.484	92.44
499.701	92.44
499.918	89.44
500.135	86.44
500.352	81.44
500.569	85.44
500.786	98.44
501.003	78.44
501.22	85.44
501.437	102.44
501.654	88.44
501.871	85.44
502.088	90.44
502.305	80.44
502.522	91.44
502.739	74.44
502.956	88.44
503.172	96.44
503.389	100.44
503.606	94.44
503.823	91.44
504.04	96.44
504.256	89.44
504.473	108.44
504.69	94.44
504.907	102.44
505.123	97.44
505.34	75.44
505.557	81.44
505.773	103.44
505.99	96.44
506.207	78.44
506.423	86.44
506.64	94.44
506.856	73.44
507.073	74.44
507.289	78.44
507.506	105.44
507.722	94.44
507.939	103.44
508.155	106.44
508.372	89.44
508.588	84.44
508.805	84.44
509.021	101.44
509.238	100.44
509.454	91.44
509.67	100.44
509.887	91.44
510.103	95.44
510.319	112.44
510.536	80.44
510.752	98.44
510.968	86.44
511.184	82.44
511.401	88.44
511.617	98.44
511.833	99.44
512.049	96.44
512.265	89.44
512.481	107.44
512.698	87.44
512.914	90.44
513.13	89.44
513.346	86.44
513.562	89.44
513.778	99.44
513.994	84.44
514.21	75.44
514.426	93.44
514.642	84.44
514.858	70.44
515.074	90.44
515.29	94.44
515.506	93.44
515.721	87.44
515.937	90.44
516.153	68.44
516.369	88.44
516.585	83.44
516.801	82.44
517.016	88.44
517.232	94.44
517.448	92.44
517.664	91.44
517.879	81.44
518.095	103.44
518.311	87.44
518.527	104.44
518.742	82.44
