Data from KBrNoHeat2_HRD10591_00016.txt Node
Date: Fri Dec 27 14:47:47 EST 2024
User: Yrep
Spectrometer: HR+D1059
Trigger mode: 1
Integration Time (sec): 1.000000E-1
Scans to average: 1
Electric dark correction enabled: true
Nonlinearity correction enabled: false
Boxcar width: 0
XAxis mode: Wavelengths
Number of Pixels in Spectrum: 2048
>>>>>Begin Spectral Data<<<<<
223.165	-25.44
223.4	-25.44
223.635	-25.44
223.869	-7.44
224.104	-10.44
224.338	-11.44
224.573	-15.44
224.808	-24.44
225.042	-6.44
225.277	-8.44
225.511	-10.44
225.746	9.56
225.98	8.56
226.215	19.56
226.449	8.56
226.683	8.56
226.918	24.56
227.152	40.56
227.387	37.56
227.621	36.56
227.856	37.56
228.09	46.56
228.324	53.56
228.559	50.56
228.793	67.56
229.027	61.56
229.262	62.56
229.496	67.56
229.73	70.56
229.964	65.56
230.199	75.56
230.433	67.56
230.667	84.56
230.901	96.56
231.136	84.56
231.37	70.56
231.604	85.56
231.838	88.56
232.072	70.56
232.306	75.56
232.541	87.56
232.775	89.56
233.009	82.56
233.243	79.56
233.477	81.56
233.711	94.56
233.945	76.56
234.179	82.56
234.413	80.56
234.647	79.56
234.881	85.56
235.115	73.56
235.349	76.56
235.583	83.56
235.817	84.56
236.051	69.56
236.285	88.56
236.519	71.56
236.753	80.56
236.987	69.56
237.221	83.56
237.455	81.56
237.689	76.56
237.922	69.56
238.156	82.56
238.39	82.56
238.624	79.56
238.858	71.56
239.091	79.56
239.325	69.56
239.559	76.56
239.793	87.56
240.027	78.56
240.26	78.56
240.494	76.56
240.728	76.56
240.961	90.56
241.195	79.56
241.429	79.56
241.662	89.56
241.896	85.56
242.13	69.56
242.363	67.56
242.597	82.56
242.83	62.56
243.064	73.56
243.298	77.56
243.531	74.56
243.765	77.56
243.998	82.56
244.232	64.56
244.465	76.56
244.699	65.56
244.932	81.56
245.166	69.56
245.399	70.56
245.633	72.56
245.866	93.56
246.099	74.56
246.333	80.56
246.566	74.56
246.8	86.56
247.033	68.56
247.266	84.56
247.5	90.56
247.733	78.56
247.966	80.56
248.2	78.56
248.433	72.56
248.666	77.56
248.899	70.56
249.133	70.56
249.366	91.56
249.599	80.56
249.832	81.56
250.066	82.56
250.299	85.56
250.532	89.56
250.765	81.56
250.998	87.56
251.231	83.56
251.465	83.56
251.698	76.56
251.931	82.56
252.164	66.56
252.397	75.56
252.63	78.56
252.863	92.56
253.096	84.56
253.329	84.56
253.562	90.56
253.795	76.56
254.028	85.56
254.261	77.56
254.494	74.56
254.727	71.56
254.96	74.56
255.193	77.56
255.426	89.56
255.659	78.56
255.892	87.56
256.124	78.56
256.357	83.56
256.59	78.56
256.823	73.56
257.056	80.56
257.289	86.56
257.521	84.56
257.754	82.56
257.987	82.56
258.22	84.56
258.452	78.56
258.685	85.56
258.918	87.56
259.151	81.56
259.383	72.56
259.616	82.56
259.849	70.56
260.081	90.56
260.314	83.56
260.547	64.56
260.779	73.56
261.012	81.56
261.244	93.56
261.477	80.56
261.71	82.56
261.942	79.56
262.175	85.56
262.407	85.56
262.64	94.56
262.872	78.56
263.105	83.56
263.337	82.56
263.57	81.56
263.802	81.56
264.035	89.56
264.267	84.56
264.499	89.56
264.732	94.56
264.964	92.56
265.197	82.56
265.429	71.56
265.661	68.56
265.894	80.56
266.126	73.56
266.358	78.56
266.591	85.56
266.823	93.56
267.055	77.56
267.287	83.56
267.52	76.56
267.752	70.56
267.984	90.56
268.216	85.56
268.448	96.56
268.681	92.56
268.913	88.56
269.145	90.56
269.377	92.56
269.609	75.56
269.841	94.56
270.073	76.56
270.306	74.56
270.538	82.56
270.77	77.56
271.002	87.56
271.234	81.56
271.466	80.56
271.698	86.56
271.93	76.56
272.162	70.56
272.394	74.56
272.626	102.56
272.858	79.56
273.09	92.56
273.322	85.56
273.553	79.56
273.785	101.56
274.017	79.56
274.249	84.56
274.481	97.56
274.713	78.56
274.945	82.56
275.176	88.56
275.408	86.56
275.64	94.56
275.872	72.56
276.104	85.56
276.335	97.56
276.567	77.56
276.799	80.56
277.031	90.56
277.262	86.56
277.494	90.56
277.726	80.56
277.957	87.56
278.189	89.56
278.421	85.56
278.652	72.56
278.884	81.56
279.115	94.56
279.347	96.56
279.579	80.56
279.81	94.56
280.042	91.56
280.273	79.56
280.505	88.56
280.736	84.56
280.968	89.56
281.199	90.56
281.431	91.56
281.662	93.56
281.894	86.56
282.125	76.56
282.356	81.56
282.588	79.56
282.819	80.56
283.051	86.56
283.282	85.56
283.513	96.56
283.745	82.56
283.976	76.56
284.207	90.56
284.439	80.56
284.67	75.56
284.901	81.56
285.132	88.56
285.364	84.56
285.595	76.56
285.826	96.56
286.057	85.56
286.288	86.56
286.52	86.56
286.751	93.56
286.982	76.56
287.213	96.56
287.444	89.56
287.675	82.56
287.906	101.56
288.138	96.56
288.369	73.56
288.6	84.56
288.831	84.56
289.062	90.56
289.293	91.56
289.524	96.56
289.755	85.56
289.986	80.56
290.217	93.56
290.448	91.56
290.679	84.56
290.91	94.56
291.141	95.56
291.371	74.56
291.602	80.56
291.833	75.56
292.064	89.56
292.295	84.56
292.526	87.56
292.757	91.56
292.987	89.56
293.218	77.56
293.449	75.56
293.68	78.56
293.91	78.56
294.141	90.56
294.372	74.56
294.603	86.56
294.833	89.56
295.064	85.56
295.295	90.56
295.525	77.56
295.756	81.56
295.987	85.56
296.217	90.56
296.448	101.56
296.679	87.56
296.909	88.56
297.14	104.56
297.37	84.56
297.601	76.56
297.831	80.56
298.062	93.56
298.292	85.56
298.523	82.56
298.753	75.56
298.984	85.56
299.214	85.56
299.445	80.56
299.675	89.56
299.905	85.56
300.136	97.56
300.366	94.56
300.597	85.56
300.827	84.56
301.057	85.56
301.288	109.56
301.518	84.56
301.748	80.56
301.979	105.56
302.209	92.56
302.439	93.56
302.669	79.56
302.9	89.56
303.13	84.56
303.36	89.56
303.59	91.56
303.82	88.56
304.051	81.56
304.281	74.56
304.511	92.56
304.741	96.56
304.971	83.56
305.201	76.56
305.431	88.56
305.661	98.56
305.891	89.56
306.121	80.56
306.352	79.56
306.582	81.56
306.812	90.56
307.042	74.56
307.272	75.56
307.502	89.56
307.731	96.56
307.961	71.56
308.191	72.56
308.421	88.56
308.651	77.56
308.881	91.56
309.111	84.56
309.341	78.56
309.571	82.56
309.8	87.56
310.03	88.56
310.26	96.56
310.49	81.56
310.72	90.56
310.949	84.56
311.179	82.56
311.409	75.56
311.639	88.56
311.868	84.56
312.098	84.56
312.328	77.56
312.557	102.56
312.787	84.56
313.017	89.56
313.246	75.56
313.476	81.56
313.706	84.56
313.935	83.56
314.165	91.56
314.394	84.56
314.624	73.56
314.853	94.56
315.083	92.56
315.312	86.56
315.542	91.56
315.771	79.56
316.001	85.56
316.23	101.56
316.46	75.56
316.689	85.56
316.919	87.56
317.148	101.56
317.377	86.56
317.607	88.56
317.836	83.56
318.065	85.56
318.295	79.56
318.524	86.56
318.753	88.56
318.983	97.56
319.212	91.56
319.441	95.56
319.67	86.56
319.9	98.56
320.129	64.56
320.358	102.56
320.587	89.56
320.816	92.56
321.046	92.56
321.275	90.56
321.504	79.56
321.733	92.56
321.962	93.56
322.191	80.56
322.42	86.56
322.649	94.56
322.878	109.56
323.108	106.56
323.337	76.56
323.566	90.56
323.795	91.56
324.024	82.56
324.253	83.56
324.482	90.56
324.71	89.56
324.939	92.56
325.168	101.56
325.397	93.56
325.626	89.56
325.855	91.56
326.084	90.56
326.313	100.56
326.542	86.56
326.77	82.56
326.999	101.56
327.228	82.56
327.457	82.56
327.686	89.56
327.914	84.56
328.143	91.56
328.372	75.56
328.6	82.56
328.829	84.56
329.058	85.56
329.287	80.56
329.515	70.56
329.744	86.56
329.972	78.56
330.201	73.56
330.43	92.56
330.658	87.56
330.887	75.56
331.115	97.56
331.344	91.56
331.572	96.56
331.801	90.56
332.03	75.56
332.258	81.56
332.486	96.56
332.715	96.56
332.943	82.56
333.172	87.56
333.4	61.56
333.629	77.56
333.857	85.56
334.085	86.56
334.314	100.56
334.542	78.56
334.771	89.56
334.999	105.56
335.227	101.56
335.455	81.56
335.684	89.56
335.912	88.56
336.14	76.56
336.369	85.56
336.597	80.56
336.825	83.56
337.053	77.56
337.281	100.56
337.51	94.56
337.738	98.56
337.966	82.56
338.194	84.56
338.422	85.56
338.65	80.56
338.878	81.56
339.106	85.56
339.334	115.56
339.562	82.56
339.79	84.56
340.018	77.56
340.246	87.56
340.474	66.56
340.702	77.56
340.93	88.56
341.158	81.56
341.386	86.56
341.614	93.56
341.842	79.56
342.07	82.56
342.298	90.56
342.526	85.56
342.754	88.56
342.981	86.56
343.209	92.56
343.437	99.56
343.665	91.56
343.893	73.56
344.12	103.56
344.348	92.56
344.576	85.56
344.804	83.56
345.031	85.56
345.259	88.56
345.487	79.56
345.714	90.56
345.942	106.56
346.17	87.56
346.397	74.56
346.625	72.56
346.853	81.56
347.08	82.56
347.308	93.56
347.535	80.56
347.763	80.56
347.99	91.56
348.218	86.56
348.445	83.56
348.673	98.56
348.9	80.56
349.128	90.56
349.355	77.56
349.583	85.56
349.81	97.56
350.037	86.56
350.265	92.56
350.492	91.56
350.72	96.56
350.947	84.56
351.174	94.56
351.402	91.56
351.629	106.56
351.856	93.56
352.083	97.56
352.311	91.56
352.538	84.56
352.765	90.56
352.992	97.56
353.22	90.56
353.447	94.56
353.674	83.56
353.901	93.56
354.128	75.56
354.355	78.56
354.583	88.56
354.81	90.56
355.037	83.56
355.264	86.56
355.491	89.56
355.718	86.56
355.945	74.56
356.172	96.56
356.399	96.56
356.626	93.56
356.853	79.56
357.08	84.56
357.307	77.56
357.534	93.56
357.761	93.56
357.988	83.56
358.215	99.56
358.441	96.56
358.668	76.56
358.895	81.56
359.122	84.56
359.349	93.56
359.576	98.56
359.802	89.56
360.029	83.56
360.256	85.56
360.483	89.56
360.709	84.56
360.936	98.56
361.163	88.56
361.39	87.56
361.616	87.56
361.843	93.56
362.07	95.56
362.296	88.56
362.523	84.56
362.749	81.56
362.976	92.56
363.203	85.56
363.429	96.56
363.656	92.56
363.882	90.56
364.109	103.56
364.335	87.56
364.562	79.56
364.788	77.56
365.015	84.56
365.241	92.56
365.468	98.56
365.694	77.56
365.92	80.56
366.147	83.56
366.373	88.56
366.599	66.56
366.826	74.56
367.052	76.56
367.278	84.56
367.505	92.56
367.731	89.56
367.957	79.56
368.184	103.56
368.41	88.56
368.636	86.56
368.862	86.56
369.089	84.56
369.315	90.56
369.541	94.56
369.767	86.56
369.993	96.56
370.219	76.56
370.445	83.56
370.672	71.56
370.898	87.56
371.124	82.56
371.35	86.56
371.576	83.56
371.802	74.56
372.028	82.56
372.254	85.56
372.48	85.56
372.706	85.56
372.932	89.56
373.158	90.56
373.384	93.56
373.61	103.56
373.835	84.56
374.061	78.56
374.287	88.56
374.513	78.56
374.739	78.56
374.965	100.56
375.191	100.56
375.416	96.56
375.642	69.56
375.868	85.56
376.094	84.56
376.319	85.56
376.545	74.56
376.771	88.56
376.997	81.56
377.222	84.56
377.448	100.56
377.674	86.56
377.899	91.56
378.125	93.56
378.35	87.56
378.576	77.56
378.802	71.56
379.027	96.56
379.253	90.56
379.478	77.56
379.704	82.56
379.929	81.56
380.155	97.56
380.38	86.56
380.606	81.56
380.831	94.56
381.057	88.56
381.282	84.56
381.507	96.56
381.733	85.56
381.958	85.56
382.184	91.56
382.409	85.56
382.634	81.56
382.86	73.56
383.085	73.56
383.31	88.56
383.535	81.56
383.761	71.56
383.986	88.56
384.211	90.56
384.436	95.56
384.662	93.56
384.887	101.56
385.112	89.56
385.337	88.56
385.562	89.56
385.787	73.56
386.013	80.56
386.238	80.56
386.463	77.56
386.688	97.56
386.913	84.56
387.138	82.56
387.363	85.56
387.588	83.56
387.813	85.56
388.038	79.56
388.263	99.56
388.488	78.56
388.713	92.56
388.938	76.56
389.163	92.56
389.387	86.56
389.612	86.56
389.837	85.56
390.062	92.56
390.287	86.56
390.512	69.56
390.736	86.56
390.961	98.56
391.186	92.56
391.411	74.56
391.636	82.56
391.86	79.56
392.085	82.56
392.31	86.56
392.534	72.56
392.759	82.56
392.984	88.56
393.208	90.56
393.433	86.56
393.658	87.56
393.882	84.56
394.107	81.56
394.331	82.56
394.556	94.56
394.78	100.56
395.005	89.56
395.229	93.56
395.454	108.56
395.678	92.56
395.903	89.56
396.127	83.56
396.352	93.56
396.576	86.56
396.801	88.56
397.025	84.56
397.249	100.56
397.474	80.56
397.698	85.56
397.922	83.56
398.147	93.56
398.371	101.56
398.595	96.56
398.82	93.56
399.044	84.56
399.268	80.56
399.492	85.56
399.717	90.56
399.941	91.56
400.165	93.56
400.389	82.56
400.613	79.56
400.837	83.56
401.062	80.56
401.286	85.56
401.51	79.56
401.734	93.56
401.958	90.56
402.182	88.56
402.406	86.56
402.63	90.56
402.854	87.56
403.078	84.56
403.302	92.56
403.526	91.56
403.75	90.56
403.974	110.56
404.198	116.56
404.422	159.56
404.645	184.56
404.869	163.56
405.093	122.56
405.317	112.56
405.541	110.56
405.765	101.56
405.988	83.56
406.212	104.56
406.436	85.56
406.66	91.56
406.883	86.56
407.107	75.56
407.331	74.56
407.555	89.56
407.778	85.56
408.002	73.56
408.226	89.56
408.449	66.56
408.673	79.56
408.896	82.56
409.12	85.56
409.344	91.56
409.567	94.56
409.791	75.56
410.014	85.56
410.238	103.56
410.461	98.56
410.685	89.56
410.908	88.56
411.132	98.56
411.355	89.56
411.578	90.56
411.802	91.56
412.025	86.56
412.249	87.56
412.472	98.56
412.695	86.56
412.919	83.56
413.142	72.56
413.365	83.56
413.589	85.56
413.812	90.56
414.035	89.56
414.258	82.56
414.482	89.56
414.705	99.56
414.928	100.56
415.151	85.56
415.374	88.56
415.597	94.56
415.821	79.56
416.044	88.56
416.267	71.56
416.49	87.56
416.713	92.56
416.936	88.56
417.159	87.56
417.382	91.56
417.605	91.56
417.828	82.56
418.051	96.56
418.274	102.56
418.497	119.56
418.72	98.56
418.943	85.56
419.166	81.56
419.389	108.56
419.611	86.56
419.834	79.56
420.057	109.56
420.28	77.56
420.503	67.56
420.726	77.56
420.948	79.56
421.171	78.56
421.394	87.56
421.617	83.56
421.839	84.56
422.062	82.56
422.285	81.56
422.507	104.56
422.73	81.56
422.953	90.56
423.175	85.56
423.398	78.56
423.621	98.56
423.843	88.56
424.066	90.56
424.288	81.56
424.511	86.56
424.733	80.56
424.956	88.56
425.178	76.56
425.401	98.56
425.623	68.56
425.846	85.56
426.068	79.56
426.291	91.56
426.513	88.56
426.735	91.56
426.958	70.56
427.18	85.56
427.402	95.56
427.625	80.56
427.847	83.56
428.069	90.56
428.292	80.56
428.514	93.56
428.736	86.56
428.958	92.56
429.181	90.56
429.403	86.56
429.625	73.56
429.847	91.56
430.069	67.56
430.292	77.56
430.514	64.56
430.736	88.56
430.958	92.56
431.18	93.56
431.402	87.56
431.624	81.56
431.846	80.56
432.068	72.56
432.29	81.56
432.512	96.56
432.734	87.56
432.956	82.56
433.178	92.56
433.4	81.56
433.622	96.56
433.844	92.56
434.066	80.56
434.287	93.56
434.509	82.56
434.731	89.56
434.953	81.56
435.175	93.56
435.397	89.56
435.618	87.56
435.84	91.56
436.062	97.56
436.284	84.56
436.505	81.56
436.727	91.56
436.949	86.56
437.17	75.56
437.392	80.56
437.614	89.56
437.835	76.56
438.057	90.56
438.278	76.56
438.5	75.56
438.721	92.56
438.943	77.56
439.165	98.56
439.386	98.56
439.608	96.56
439.829	93.56
440.05	89.56
440.272	86.56
440.493	90.56
440.715	79.56
440.936	87.56
441.158	85.56
441.379	83.56
441.6	86.56
441.822	86.56
442.043	84.56
442.264	73.56
442.486	84.56
442.707	92.56
442.928	79.56
443.149	75.56
443.371	98.56
443.592	80.56
443.813	90.56
444.034	101.56
444.255	96.56
444.476	80.56
444.698	96.56
444.919	80.56
445.14	143.56
445.361	115.56
445.582	88.56
445.803	84.56
446.024	87.56
446.245	92.56
446.466	74.56
446.687	76.56
446.908	88.56
447.129	80.56
447.35	88.56
447.571	85.56
447.792	94.56
448.013	81.56
448.234	95.56
448.455	88.56
448.675	92.56
448.896	80.56
449.117	94.56
449.338	79.56
449.559	87.56
449.779	89.56
450	75.56
450.221	88.56
450.442	88.56
450.662	96.56
450.883	91.56
451.104	96.56
451.324	96.56
451.545	88.56
451.766	84.56
451.986	88.56
452.207	91.56
452.428	94.56
452.648	76.56
452.869	82.56
453.089	91.56
453.31	83.56
453.53	96.56
453.751	89.56
453.971	77.56
454.192	86.56
454.412	89.56
454.633	85.56
454.853	76.56
455.073	74.56
455.294	91.56
455.514	88.56
455.734	81.56
455.955	82.56
456.175	99.56
456.395	90.56
456.616	75.56
456.836	93.56
457.056	83.56
457.276	93.56
457.497	76.56
457.717	74.56
457.937	93.56
458.157	82.56
458.377	83.56
458.598	76.56
458.818	84.56
459.038	76.56
459.258	68.56
459.478	88.56
459.698	81.56
459.918	91.56
460.138	79.56
460.358	88.56
460.578	91.56
460.798	89.56
461.018	84.56
461.238	94.56
461.458	93.56
461.678	81.56
461.898	92.56
462.118	87.56
462.338	88.56
462.558	90.56
462.777	94.56
462.997	89.56
463.217	80.56
463.437	96.56
463.657	81.56
463.876	86.56
464.096	86.56
464.316	85.56
464.536	99.56
464.755	91.56
464.975	80.56
465.195	84.56
465.414	88.56
465.634	79.56
465.854	83.56
466.073	74.56
466.293	82.56
466.512	86.56
466.732	93.56
466.951	88.56
467.171	92.56
467.391	96.56
467.61	78.56
467.829	84.56
468.049	88.56
468.268	86.56
468.488	85.56
468.707	92.56
468.927	82.56
469.146	102.56
469.365	96.56
469.585	90.56
469.804	93.56
470.023	91.56
470.243	78.56
470.462	88.56
470.681	88.56
470.901	78.56
471.12	84.56
471.339	81.56
471.558	86.56
471.777	89.56
471.997	81.56
472.216	92.56
472.435	89.56
472.654	88.56
472.873	97.56
473.092	96.56
473.311	94.56
473.53	85.56
473.749	87.56
473.968	100.56
474.187	98.56
474.406	83.56
474.625	84.56
474.844	99.56
475.063	89.56
475.282	84.56
475.501	83.56
475.72	87.56
475.939	70.56
476.158	92.56
476.377	86.56
476.596	100.56
476.814	87.56
477.033	94.56
477.252	90.56
477.471	85.56
477.69	82.56
477.908	87.56
478.127	87.56
478.346	79.56
478.564	87.56
478.783	88.56
479.002	88.56
479.22	90.56
479.439	94.56
479.658	70.56
479.876	86.56
480.095	88.56
480.313	76.56
480.532	92.56
480.751	84.56
480.969	80.56
481.188	85.56
481.406	94.56
481.624	76.56
481.843	92.56
482.061	81.56
482.28	84.56
482.498	90.56
482.717	90.56
482.935	95.56
483.153	90.56
483.372	91.56
483.59	87.56
483.808	74.56
484.027	83.56
484.245	96.56
484.463	91.56
484.681	92.56
484.9	82.56
485.118	83.56
485.336	88.56
485.554	84.56
485.772	94.56
485.99	82.56
486.209	90.56
486.427	85.56
486.645	82.56
486.863	94.56
487.081	84.56
487.299	93.56
487.517	77.56
487.735	97.56
487.953	96.56
488.171	90.56
488.389	92.56
488.607	85.56
488.825	94.56
489.043	85.56
489.261	93.56
489.479	94.56
489.696	100.56
489.914	89.56
490.132	92.56
490.35	92.56
490.568	96.56
490.786	102.56
491.003	93.56
491.221	77.56
491.439	89.56
491.657	97.56
491.874	75.56
492.092	87.56
492.31	87.56
492.527	93.56
492.745	89.56
492.963	99.56
493.18	111.56
493.398	101.56
493.615	97.56
493.833	78.56
494.05	82.56
494.268	80.56
494.485	92.56
494.703	97.56
494.92	92.56
495.138	91.56
495.355	90.56
495.573	96.56
495.79	101.56
496.008	88.56
496.225	82.56
496.442	79.56
496.66	92.56
496.877	92.56
497.094	102.56
497.312	82.56
497.529	84.56
497.746	96.56
497.963	84.56
498.181	103.56
498.398	88.56
498.615	82.56
498.832	78.56
499.049	80.56
499.267	75.56
499.484	91.56
499.701	97.56
499.918	96.56
500.135	97.56
500.352	91.56
500.569	94.56
500.786	92.56
501.003	90.56
501.22	85.56
501.437	83.56
501.654	89.56
501.871	83.56
502.088	97.56
502.305	92.56
502.522	86.56
502.739	88.56
502.956	96.56
503.172	86.56
503.389	83.56
503.606	89.56
503.823	85.56
504.04	98.56
504.256	103.56
504.473	78.56
504.69	97.56
504.907	86.56
505.123	86.56
505.34	83.56
505.557	76.56
505.773	101.56
505.99	88.56
506.207	88.56
506.423	90.56
506.64	92.56
506.856	83.56
507.073	79.56
507.289	88.56
507.506	83.56
507.722	94.56
507.939	100.56
508.155	76.56
508.372	87.56
508.588	94.56
508.805	93.56
509.021	88.56
509.238	96.56
509.454	66.56
509.67	91.56
509.887	83.56
510.103	78.56
510.319	74.56
510.536	93.56
510.752	82.56
510.968	96.56
511.184	90.56
511.401	81.56
511.617	97.56
511.833	82.56
512.049	90.56
512.265	85.56
512.481	94.56
512.698	96.56
512.914	88.56
513.13	82.56
513.346	95.56
513.562	80.56
513.778	92.56
513.994	84.56
514.21	86.56
514.426	103.56
514.642	80.56
514.858	87.56
515.074	98.56
515.29	89.56
515.506	81.56
515.721	91.56
515.937	83.56
516.153	85.56
516.369	89.56
516.585	99.56
516.801	70.56
517.016	88.56
517.232	81.56
517.448	115.56
517.664	95.56
517.879	80.56
518.095	85.56
518.311	96.56
518.527	86.56
518.742	94.56
518.958	89.56
519.173	89.56
