Data from KBrNoHeat2_HRD10591_00014.txt Node
Date: Fri Dec 27 14:47:45 EST 2024
User: Yrep
Spectrometer: HR+D1059
Trigger mode: 1
Integration Time (sec): 1.000000E-1
Scans to average: 1
Electric dark correction enabled: true
Nonlinearity correction enabled: false
Boxcar width: 0
XAxis mode: Wavelengths
Number of Pixels in Spectrum: 2048
>>>>>Begin Spectral Data<<<<<
223.165	-21.69
223.4	-21.69
223.635	-21.69
223.869	-11.69
224.104	-20.69
224.338	-21.69
224.573	-5.69
224.808	-17.69
225.042	-4.69
225.277	1.31
225.511	-11.69
225.746	-6.69
225.98	10.31
226.215	4.31
226.449	23.31
226.683	19.31
226.918	23.31
227.152	40.31
227.387	28.31
227.621	42.31
227.856	39.31
228.09	41.31
228.324	56.31
228.559	52.31
228.793	68.31
229.027	55.31
229.262	62.31
229.496	75.31
229.73	75.31
229.964	66.31
230.199	75.31
230.433	84.31
230.667	68.31
230.901	62.31
231.136	84.31
231.37	90.31
231.604	73.31
231.838	81.31
232.072	80.31
232.306	80.31
232.541	76.31
232.775	89.31
233.009	69.31
233.243	73.31
233.477	89.31
233.711	90.31
233.945	83.31
234.179	86.31
234.413	63.31
234.647	79.31
234.881	75.31
235.115	82.31
235.349	85.31
235.583	81.31
235.817	68.31
236.051	79.31
236.285	84.31
236.519	98.31
236.753	64.31
236.987	72.31
237.221	88.31
237.455	70.31
237.689	72.31
237.922	76.31
238.156	80.31
238.39	80.31
238.624	61.31
238.858	89.31
239.091	68.31
239.325	74.31
239.559	74.31
239.793	80.31
240.027	76.31
240.26	66.31
240.494	76.31
240.728	77.31
240.961	69.31
241.195	73.31
241.429	71.31
241.662	80.31
241.896	90.31
242.13	77.31
242.363	75.31
242.597	69.31
242.83	72.31
243.064	81.31
243.298	69.31
243.531	74.31
243.765	70.31
243.998	77.31
244.232	59.31
244.465	79.31
244.699	86.31
244.932	77.31
245.166	86.31
245.399	73.31
245.633	88.31
245.866	75.31
246.099	66.31
246.333	73.31
246.566	81.31
246.8	79.31
247.033	80.31
247.266	90.31
247.5	92.31
247.733	76.31
247.966	77.31
248.2	85.31
248.433	66.31
248.666	73.31
248.899	75.31
249.133	80.31
249.366	68.31
249.599	83.31
249.832	79.31
250.066	77.31
250.299	86.31
250.532	62.31
250.765	77.31
250.998	85.31
251.231	78.31
251.465	85.31
251.698	85.31
251.931	91.31
252.164	73.31
252.397	78.31
252.63	77.31
252.863	81.31
253.096	86.31
253.329	92.31
253.562	78.31
253.795	84.31
254.028	78.31
254.261	68.31
254.494	63.31
254.727	68.31
254.96	76.31
255.193	83.31
255.426	75.31
255.659	98.31
255.892	82.31
256.124	78.31
256.357	62.31
256.59	80.31
256.823	78.31
257.056	72.31
257.289	77.31
257.521	71.31
257.754	90.31
257.987	84.31
258.22	92.31
258.452	86.31
258.685	71.31
258.918	84.31
259.151	87.31
259.383	78.31
259.616	76.31
259.849	87.31
260.081	73.31
260.314	85.31
260.547	90.31
260.779	68.31
261.012	75.31
261.244	78.31
261.477	89.31
261.71	69.31
261.942	90.31
262.175	77.31
262.407	96.31
262.64	88.31
262.872	75.31
263.105	82.31
263.337	89.31
263.57	76.31
263.802	85.31
264.035	89.31
264.267	78.31
264.499	80.31
264.732	85.31
264.964	101.31
265.197	84.31
265.429	83.31
265.661	79.31
265.894	81.31
266.126	101.31
266.358	81.31
266.591	75.31
266.823	90.31
267.055	80.31
267.287	96.31
267.52	77.31
267.752	97.31
267.984	95.31
268.216	72.31
268.448	83.31
268.681	94.31
268.913	76.31
269.145	96.31
269.377	80.31
269.609	84.31
269.841	76.31
270.073	79.31
270.306	90.31
270.538	101.31
270.77	70.31
271.002	74.31
271.234	92.31
271.466	95.31
271.698	80.31
271.93	98.31
272.162	90.31
272.394	76.31
272.626	65.31
272.858	83.31
273.09	83.31
273.322	91.31
273.553	84.31
273.785	89.31
274.017	74.31
274.249	86.31
274.481	82.31
274.713	71.31
274.945	65.31
275.176	79.31
275.408	88.31
275.64	84.31
275.872	72.31
276.104	80.31
276.335	79.31
276.567	68.31
276.799	78.31
277.031	88.31
277.262	74.31
277.494	80.31
277.726	97.31
277.957	80.31
278.189	79.31
278.421	78.31
278.652	85.31
278.884	104.31
279.115	84.31
279.347	83.31
279.579	101.31
279.81	81.31
280.042	86.31
280.273	89.31
280.505	77.31
280.736	79.31
280.968	92.31
281.199	80.31
281.431	87.31
281.662	89.31
281.894	94.31
282.125	98.31
282.356	98.31
282.588	86.31
282.819	86.31
283.051	80.31
283.282	80.31
283.513	92.31
283.745	82.31
283.976	90.31
284.207	90.31
284.439	89.31
284.67	89.31
284.901	92.31
285.132	84.31
285.364	86.31
285.595	88.31
285.826	89.31
286.057	93.31
286.288	74.31
286.52	92.31
286.751	91.31
286.982	91.31
287.213	80.31
287.444	78.31
287.675	93.31
287.906	85.31
288.138	87.31
288.369	74.31
288.6	85.31
288.831	72.31
289.062	85.31
289.293	93.31
289.524	76.31
289.755	82.31
289.986	70.31
290.217	76.31
290.448	99.31
290.679	88.31
290.91	87.31
291.141	78.31
291.371	84.31
291.602	72.31
291.833	75.31
292.064	85.31
292.295	88.31
292.526	89.31
292.757	79.31
292.987	73.31
293.218	77.31
293.449	84.31
293.68	90.31
293.91	86.31
294.141	93.31
294.372	93.31
294.603	82.31
294.833	75.31
295.064	82.31
295.295	77.31
295.525	88.31
295.756	92.31
295.987	85.31
296.217	87.31
296.448	84.31
296.679	81.31
296.909	82.31
297.14	90.31
297.37	81.31
297.601	100.31
297.831	89.31
298.062	85.31
298.292	88.31
298.523	96.31
298.753	77.31
298.984	85.31
299.214	86.31
299.445	81.31
299.675	81.31
299.905	79.31
300.136	90.31
300.366	70.31
300.597	96.31
300.827	84.31
301.057	77.31
301.288	88.31
301.518	71.31
301.748	77.31
301.979	113.31
302.209	83.31
302.439	86.31
302.669	84.31
302.9	67.31
303.13	89.31
303.36	107.31
303.59	102.31
303.82	91.31
304.051	80.31
304.281	84.31
304.511	90.31
304.741	103.31
304.971	77.31
305.201	73.31
305.431	80.31
305.661	80.31
305.891	88.31
306.121	96.31
306.352	90.31
306.582	80.31
306.812	77.31
307.042	73.31
307.272	79.31
307.502	83.31
307.731	92.31
307.961	81.31
308.191	83.31
308.421	93.31
308.651	100.31
308.881	75.31
309.111	86.31
309.341	86.31
309.571	86.31
309.8	73.31
310.03	83.31
310.26	74.31
310.49	88.31
310.72	87.31
310.949	77.31
311.179	84.31
311.409	77.31
311.639	76.31
311.868	91.31
312.098	85.31
312.328	77.31
312.557	85.31
312.787	87.31
313.017	83.31
313.246	90.31
313.476	101.31
313.706	76.31
313.935	95.31
314.165	81.31
314.394	88.31
314.624	87.31
314.853	84.31
315.083	93.31
315.312	85.31
315.542	87.31
315.771	85.31
316.001	80.31
316.23	83.31
316.46	99.31
316.689	98.31
316.919	87.31
317.148	84.31
317.377	105.31
317.607	102.31
317.836	102.31
318.065	86.31
318.295	88.31
318.524	82.31
318.753	96.31
318.983	88.31
319.212	78.31
319.441	80.31
319.67	85.31
319.9	80.31
320.129	83.31
320.358	82.31
320.587	88.31
320.816	84.31
321.046	81.31
321.275	102.31
321.504	93.31
321.733	93.31
321.962	80.31
322.191	76.31
322.42	77.31
322.649	84.31
322.878	81.31
323.108	88.31
323.337	98.31
323.566	91.31
323.795	87.31
324.024	84.31
324.253	86.31
324.482	78.31
324.71	84.31
324.939	91.31
325.168	91.31
325.397	83.31
325.626	78.31
325.855	88.31
326.084	87.31
326.313	97.31
326.542	80.31
326.77	82.31
326.999	86.31
327.228	83.31
327.457	89.31
327.686	91.31
327.914	84.31
328.143	91.31
328.372	72.31
328.6	80.31
328.829	80.31
329.058	89.31
329.287	94.31
329.515	89.31
329.744	89.31
329.972	82.31
330.201	88.31
330.43	84.31
330.658	80.31
330.887	89.31
331.115	83.31
331.344	83.31
331.572	102.31
331.801	101.31
332.03	95.31
332.258	102.31
332.486	88.31
332.715	81.31
332.943	89.31
333.172	76.31
333.4	87.31
333.629	91.31
333.857	72.31
334.085	79.31
334.314	83.31
334.542	86.31
334.771	76.31
334.999	89.31
335.227	76.31
335.455	90.31
335.684	92.31
335.912	98.31
336.14	84.31
336.369	82.31
336.597	83.31
336.825	88.31
337.053	97.31
337.281	101.31
337.51	102.31
337.738	84.31
337.966	86.31
338.194	97.31
338.422	86.31
338.65	83.31
338.878	91.31
339.106	80.31
339.334	86.31
339.562	80.31
339.79	73.31
340.018	84.31
340.246	96.31
340.474	80.31
340.702	91.31
340.93	86.31
341.158	94.31
341.386	84.31
341.614	89.31
341.842	93.31
342.07	96.31
342.298	91.31
342.526	85.31
342.754	80.31
342.981	87.31
343.209	84.31
343.437	97.31
343.665	89.31
343.893	74.31
344.12	98.31
344.348	89.31
344.576	93.31
344.804	88.31
345.031	89.31
345.259	96.31
345.487	86.31
345.714	80.31
345.942	92.31
346.17	77.31
346.397	83.31
346.625	81.31
346.853	83.31
347.08	84.31
347.308	96.31
347.535	80.31
347.763	71.31
347.99	81.31
348.218	89.31
348.445	91.31
348.673	93.31
348.9	77.31
349.128	92.31
349.355	76.31
349.583	81.31
349.81	80.31
350.037	89.31
350.265	88.31
350.492	86.31
350.72	84.31
350.947	89.31
351.174	92.31
351.402	92.31
351.629	88.31
351.856	92.31
352.083	84.31
352.311	87.31
352.538	64.31
352.765	93.31
352.992	101.31
353.22	93.31
353.447	76.31
353.674	94.31
353.901	92.31
354.128	99.31
354.355	84.31
354.583	72.31
354.81	89.31
355.037	89.31
355.264	99.31
355.491	86.31
355.718	82.31
355.945	77.31
356.172	70.31
356.399	81.31
356.626	85.31
356.853	78.31
357.08	72.31
357.307	84.31
357.534	81.31
357.761	80.31
357.988	81.31
358.215	81.31
358.441	89.31
358.668	71.31
358.895	83.31
359.122	79.31
359.349	76.31
359.576	72.31
359.802	78.31
360.029	76.31
360.256	104.31
360.483	81.31
360.709	92.31
360.936	89.31
361.163	72.31
361.39	90.31
361.616	83.31
361.843	98.31
362.07	89.31
362.296	87.31
362.523	88.31
362.749	94.31
362.976	86.31
363.203	100.31
363.429	86.31
363.656	96.31
363.882	91.31
364.109	90.31
364.335	94.31
364.562	98.31
364.788	80.31
365.015	90.31
365.241	82.31
365.468	78.31
365.694	75.31
365.92	83.31
366.147	97.31
366.373	77.31
366.599	75.31
366.826	75.31
367.052	72.31
367.278	96.31
367.505	85.31
367.731	87.31
367.957	87.31
368.184	81.31
368.41	86.31
368.636	84.31
368.862	73.31
369.089	83.31
369.315	82.31
369.541	82.31
369.767	71.31
369.993	84.31
370.219	78.31
370.445	80.31
370.672	86.31
370.898	94.31
371.124	95.31
371.35	85.31
371.576	65.31
371.802	81.31
372.028	84.31
372.254	82.31
372.48	86.31
372.706	87.31
372.932	78.31
373.158	82.31
373.384	88.31
373.61	81.31
373.835	83.31
374.061	77.31
374.287	75.31
374.513	78.31
374.739	62.31
374.965	77.31
375.191	75.31
375.416	91.31
375.642	85.31
375.868	103.31
376.094	111.31
376.319	83.31
376.545	97.31
376.771	82.31
376.997	91.31
377.222	89.31
377.448	76.31
377.674	92.31
377.899	91.31
378.125	69.31
378.35	83.31
378.576	88.31
378.802	90.31
379.027	79.31
379.253	93.31
379.478	80.31
379.704	97.31
379.929	83.31
380.155	80.31
380.38	66.31
380.606	84.31
380.831	85.31
381.057	86.31
381.282	99.31
381.507	77.31
381.733	86.31
381.958	85.31
382.184	91.31
382.409	82.31
382.634	84.31
382.86	74.31
383.085	88.31
383.31	86.31
383.535	88.31
383.761	89.31
383.986	79.31
384.211	81.31
384.436	78.31
384.662	93.31
384.887	78.31
385.112	77.31
385.337	75.31
385.562	81.31
385.787	82.31
386.013	90.31
386.238	76.31
386.463	77.31
386.688	93.31
386.913	77.31
387.138	89.31
387.363	76.31
387.588	82.31
387.813	97.31
388.038	81.31
388.263	82.31
388.488	78.31
388.713	70.31
388.938	83.31
389.163	83.31
389.387	91.31
389.612	86.31
389.837	93.31
390.062	89.31
390.287	78.31
390.512	83.31
390.736	91.31
390.961	92.31
391.186	75.31
391.411	93.31
391.636	87.31
391.86	80.31
392.085	85.31
392.31	89.31
392.534	90.31
392.759	82.31
392.984	91.31
393.208	101.31
393.433	84.31
393.658	74.31
393.882	88.31
394.107	91.31
394.331	77.31
394.556	88.31
394.78	90.31
395.005	89.31
395.229	90.31
395.454	93.31
395.678	82.31
395.903	83.31
396.127	82.31
396.352	95.31
396.576	94.31
396.801	80.31
397.025	88.31
397.249	89.31
397.474	72.31
397.698	96.31
397.922	89.31
398.147	89.31
398.371	83.31
398.595	86.31
398.82	84.31
399.044	75.31
399.268	83.31
399.492	93.31
399.717	93.31
399.941	101.31
400.165	87.31
400.389	102.31
400.613	84.31
400.837	96.31
401.062	89.31
401.286	78.31
401.51	85.31
401.734	100.31
401.958	75.31
402.182	82.31
402.406	99.31
402.63	83.31
402.854	82.31
403.078	92.31
403.302	84.31
403.526	97.31
403.75	96.31
403.974	98.31
404.198	123.31
404.422	176.31
404.645	193.31
404.869	152.31
405.093	125.31
405.317	105.31
405.541	98.31
405.765	91.31
405.988	96.31
406.212	98.31
406.436	80.31
406.66	88.31
406.883	99.31
407.107	96.31
407.331	80.31
407.555	97.31
407.778	86.31
408.002	83.31
408.226	76.31
408.449	80.31
408.673	82.31
408.896	78.31
409.12	83.31
409.344	88.31
409.567	82.31
409.791	92.31
410.014	91.31
410.238	88.31
410.461	76.31
410.685	84.31
410.908	89.31
411.132	98.31
411.355	75.31
411.578	85.31
411.802	78.31
412.025	80.31
412.249	86.31
412.472	70.31
412.695	76.31
412.919	76.31
413.142	81.31
413.365	87.31
413.589	75.31
413.812	73.31
414.035	85.31
414.258	89.31
414.482	85.31
414.705	81.31
414.928	91.31
415.151	92.31
415.374	72.31
415.597	77.31
415.821	87.31
416.044	87.31
416.267	93.31
416.49	93.31
416.713	92.31
416.936	84.31
417.159	86.31
417.382	85.31
417.605	94.31
417.828	95.31
418.051	86.31
418.274	94.31
418.497	86.31
418.72	83.31
418.943	93.31
419.166	78.31
419.389	80.31
419.611	86.31
419.834	88.31
420.057	95.31
420.28	89.31
420.503	92.31
420.726	97.31
420.948	70.31
421.171	82.31
421.394	86.31
421.617	87.31
421.839	82.31
422.062	91.31
422.285	86.31
422.507	87.31
422.73	97.31
422.953	80.31
423.175	79.31
423.398	72.31
423.621	72.31
423.843	87.31
424.066	92.31
424.288	85.31
424.511	79.31
424.733	84.31
424.956	81.31
425.178	92.31
425.401	72.31
425.623	94.31
425.846	72.31
426.068	97.31
426.291	78.31
426.513	78.31
426.735	82.31
426.958	103.31
427.18	78.31
427.402	85.31
427.625	87.31
427.847	64.31
428.069	87.31
428.292	108.31
428.514	88.31
428.736	85.31
428.958	94.31
429.181	88.31
429.403	73.31
429.625	91.31
429.847	72.31
430.069	80.31
430.292	92.31
430.514	84.31
430.736	81.31
430.958	92.31
431.18	84.31
431.402	96.31
431.624	82.31
431.846	81.31
432.068	84.31
432.29	98.31
432.512	88.31
432.734	78.31
432.956	99.31
433.178	90.31
433.4	82.31
433.622	82.31
433.844	81.31
434.066	92.31
434.287	103.31
434.509	90.31
434.731	91.31
434.953	84.31
435.175	87.31
435.397	81.31
435.618	92.31
435.84	74.31
436.062	95.31
436.284	76.31
436.505	90.31
436.727	88.31
436.949	76.31
437.17	86.31
437.392	80.31
437.614	76.31
437.835	67.31
438.057	93.31
438.278	83.31
438.5	74.31
438.721	82.31
438.943	87.31
439.165	89.31
439.386	98.31
439.608	87.31
439.829	94.31
440.05	82.31
440.272	85.31
440.493	82.31
440.715	82.31
440.936	73.31
441.158	96.31
441.379	93.31
441.6	85.31
441.822	106.31
442.043	84.31
442.264	73.31
442.486	86.31
442.707	82.31
442.928	80.31
443.149	85.31
443.371	83.31
443.592	91.31
443.813	91.31
444.034	80.31
444.255	89.31
444.476	90.31
444.698	82.31
444.919	85.31
445.14	154.31
445.361	117.31
445.582	97.31
445.803	88.31
446.024	87.31
446.245	90.31
446.466	93.31
446.687	83.31
446.908	93.31
447.129	89.31
447.35	81.31
447.571	87.31
447.792	103.31
448.013	80.31
448.234	77.31
448.455	88.31
448.675	85.31
448.896	77.31
449.117	96.31
449.338	86.31
449.559	82.31
449.779	88.31
450	85.31
450.221	94.31
450.442	86.31
450.662	73.31
450.883	91.31
451.104	114.31
451.324	83.31
451.545	82.31
451.766	82.31
451.986	74.31
452.207	90.31
452.428	74.31
452.648	73.31
452.869	74.31
453.089	81.31
453.31	81.31
453.53	78.31
453.751	83.31
453.971	93.31
454.192	88.31
454.412	81.31
454.633	74.31
454.853	82.31
455.073	82.31
455.294	90.31
455.514	86.31
455.734	74.31
455.955	89.31
456.175	86.31
456.395	92.31
456.616	74.31
456.836	78.31
457.056	75.31
457.276	70.31
457.497	77.31
457.717	95.31
457.937	80.31
458.157	88.31
458.377	86.31
458.598	80.31
458.818	80.31
459.038	67.31
459.258	76.31
459.478	74.31
459.698	74.31
459.918	74.31
460.138	85.31
460.358	71.31
460.578	79.31
460.798	104.31
461.018	102.31
461.238	89.31
461.458	88.31
461.678	77.31
461.898	92.31
462.118	100.31
462.338	71.31
462.558	90.31
462.777	90.31
462.997	52.31
463.217	80.31
463.437	74.31
463.657	74.31
463.876	92.31
464.096	81.31
464.316	96.31
464.536	88.31
464.755	82.31
464.975	80.31
465.195	81.31
465.414	94.31
465.634	82.31
465.854	83.31
466.073	87.31
466.293	78.31
466.512	78.31
466.732	70.31
466.951	79.31
467.171	91.31
467.391	91.31
467.61	79.31
467.829	88.31
468.049	77.31
468.268	86.31
468.488	85.31
468.707	94.31
468.927	88.31
469.146	89.31
469.365	92.31
469.585	86.31
469.804	100.31
470.023	91.31
470.243	80.31
470.462	98.31
470.681	87.31
470.901	88.31
471.12	88.31
471.339	84.31
471.558	83.31
471.777	94.31
471.997	86.31
472.216	84.31
472.435	73.31
472.654	79.31
472.873	81.31
473.092	83.31
473.311	87.31
473.53	84.31
473.749	85.31
473.968	105.31
474.187	84.31
474.406	79.31
474.625	72.31
474.844	85.31
475.063	88.31
475.282	78.31
475.501	81.31
475.72	91.31
475.939	90.31
476.158	87.31
476.377	94.31
476.596	81.31
476.814	87.31
477.033	76.31
477.252	88.31
477.471	98.31
477.69	88.31
477.908	85.31
478.127	91.31
478.346	88.31
478.564	93.31
478.783	88.31
479.002	101.31
479.22	88.31
479.439	91.31
479.658	87.31
479.876	96.31
480.095	73.31
480.313	81.31
480.532	104.31
480.751	69.31
480.969	78.31
481.188	84.31
481.406	89.31
481.624	91.31
481.843	70.31
482.061	80.31
482.28	92.31
482.498	96.31
482.717	97.31
482.935	100.31
483.153	83.31
483.372	91.31
483.59	68.31
483.808	89.31
484.027	89.31
484.245	93.31
484.463	97.31
484.681	90.31
484.9	83.31
485.118	83.31
485.336	85.31
485.554	89.31
485.772	92.31
485.99	84.31
486.209	83.31
486.427	82.31
486.645	87.31
486.863	85.31
487.081	92.31
487.299	93.31
487.517	101.31
487.735	85.31
487.953	92.31
488.171	95.31
488.389	70.31
488.607	75.31
488.825	97.31
489.043	102.31
489.261	105.31
489.479	91.31
489.696	96.31
489.914	74.31
490.132	85.31
490.35	90.31
490.568	94.31
490.786	107.31
491.003	85.31
491.221	96.31
491.439	98.31
491.657	93.31
491.874	93.31
492.092	87.31
492.31	100.31
492.527	94.31
492.745	101.31
492.963	97.31
493.18	88.31
493.398	96.31
493.615	88.31
493.833	84.31
494.05	98.31
494.268	103.31
494.485	86.31
494.703	100.31
494.92	89.31
495.138	96.31
495.355	89.31
495.573	92.31
495.79	92.31
496.008	78.31
496.225	76.31
496.442	89.31
496.66	84.31
496.877	87.31
497.094	93.31
497.312	88.31
497.529	84.31
497.746	88.31
497.963	87.31
498.181	86.31
498.398	86.31
498.615	89.31
498.832	85.31
499.049	87.31
499.267	92.31
499.484	89.31
499.701	86.31
499.918	96.31
500.135	92.31
500.352	96.31
500.569	96.31
500.786	93.31
501.003	83.31
501.22	85.31
501.437	88.31
501.654	85.31
501.871	71.31
502.088	80.31
502.305	86.31
502.522	91.31
502.739	89.31
502.956	88.31
503.172	82.31
503.389	82.31
503.606	83.31
503.823	86.31
504.04	85.31
504.256	82.31
504.473	92.31
504.69	98.31
504.907	100.31
505.123	87.31
505.34	81.31
505.557	81.31
505.773	86.31
505.99	101.31
506.207	80.31
506.423	97.31
506.64	91.31
506.856	75.31
507.073	83.31
507.289	100.31
507.506	89.31
507.722	92.31
507.939	81.31
508.155	77.31
508.372	94.31
508.588	78.31
508.805	81.31
509.021	87.31
509.238	91.31
509.454	81.31
509.67	84.31
509.887	91.31
510.103	85.31
510.319	90.31
510.536	94.31
510.752	94.31
510.968	77.31
511.184	97.31
511.401	89.31
511.617	91.31
511.833	97.31
512.049	79.31
512.265	99.31
512.481	98.31
512.698	91.31
512.914	93.31
513.13	69.31
513.346	90.31
513.562	70.31
513.778	78.31
513.994	80.31
514.21	83.31
514.426	91.31
514.642	91.31
514.858	72.31
515.074	76.31
515.29	94.31
515.506	79.31
515.721	78.31
515.937	88.31
516.153	86.31
516.369	97.31
516.585	80.31
516.801	74.31
517.016	95.31
517.232	69.31
517.448	87.31
517.664	91.31
517.879	89.31
518.095	92.31
518.311	104.31
518.527	91.31
518.742	80.31
518.958	81.31
519.173	98.31
519.389	90.31
