Data from KBrNoHeat2_HRD10591_00018.txt Node
Date: Fri Dec 27 14:47:49 EST 2024
User: Yrep
Spectrometer: HR+D1059
Trigger mode: 1
Integration Time (sec): 1.000000E-1
Scans to average: 1
Electric dark correction enabled: true
Nonlinearity correction enabled: false
Boxcar width: 0
XAxis mode: Wavelengths
Number of Pixels in Spectrum: 2048
>>>>>Begin Spectral Data<<<<<
223.165	-15.25
223.4	-15.25
223.635	-15.25
223.869	-18.25
224.104	-21.25
224.338	-5.25
224.573	-19.25
224.808	-16.25
225.042	-14.25
225.277	-27.25
225.511	9.75
225.746	2.75
225.98	-0.25
226.215	10.75
226.449	23.75
226.683	23.75
226.918	24.75
227.152	41.75
227.387	48.75
227.621	49.75
227.856	40.75
228.09	62.75
228.324	72.75
228.559	56.75
228.793	84.75
229.027	68.75
229.262	57.75
229.496	68.75
229.73	71.75
229.964	77.75
230.199	74.75
230.433	77.75
230.667	79.75
230.901	89.75
231.136	85.75
231.37	85.75
231.604	73.75
231.838	104.75
232.072	82.75
232.306	87.75
232.541	91.75
232.775	95.75
233.009	92.75
233.243	81.75
233.477	89.75
233.711	94.75
233.945	79.75
234.179	81.75
234.413	79.75
234.647	78.75
234.881	73.75
235.115	91.75
235.349	85.75
235.583	92.75
235.817	79.75
236.051	71.75
236.285	81.75
236.519	74.75
236.753	69.75
236.987	71.75
237.221	83.75
237.455	73.75
237.689	80.75
237.922	86.75
238.156	87.75
238.39	77.75
238.624	86.75
238.858	79.75
239.091	90.75
239.325	88.75
239.559	87.75
239.793	74.75
240.027	77.75
240.26	72.75
240.494	75.75
240.728	82.75
240.961	77.75
241.195	82.75
241.429	76.75
241.662	78.75
241.896	99.75
242.13	86.75
242.363	85.75
242.597	77.75
242.83	77.75
243.064	78.75
243.298	81.75
243.531	93.75
243.765	80.75
243.998	73.75
244.232	86.75
244.465	77.75
244.699	87.75
244.932	92.75
245.166	92.75
245.399	68.75
245.633	89.75
245.866	81.75
246.099	77.75
246.333	86.75
246.566	88.75
246.8	85.75
247.033	78.75
247.266	84.75
247.5	70.75
247.733	85.75
247.966	77.75
248.2	79.75
248.433	77.75
248.666	82.75
248.899	87.75
249.133	89.75
249.366	96.75
249.599	81.75
249.832	81.75
250.066	78.75
250.299	87.75
250.532	85.75
250.765	87.75
250.998	97.75
251.231	82.75
251.465	90.75
251.698	90.75
251.931	89.75
252.164	86.75
252.397	73.75
252.63	76.75
252.863	85.75
253.096	80.75
253.329	65.75
253.562	79.75
253.795	86.75
254.028	94.75
254.261	80.75
254.494	82.75
254.727	80.75
254.96	84.75
255.193	84.75
255.426	73.75
255.659	78.75
255.892	86.75
256.124	94.75
256.357	68.75
256.59	87.75
256.823	70.75
257.056	89.75
257.289	92.75
257.521	87.75
257.754	76.75
257.987	82.75
258.22	92.75
258.452	81.75
258.685	92.75
258.918	92.75
259.151	86.75
259.383	84.75
259.616	89.75
259.849	87.75
260.081	83.75
260.314	76.75
260.547	79.75
260.779	83.75
261.012	88.75
261.244	64.75
261.477	92.75
261.71	80.75
261.942	76.75
262.175	92.75
262.407	90.75
262.64	83.75
262.872	93.75
263.105	81.75
263.337	96.75
263.57	83.75
263.802	72.75
264.035	84.75
264.267	93.75
264.499	82.75
264.732	94.75
264.964	80.75
265.197	86.75
265.429	87.75
265.661	74.75
265.894	90.75
266.126	88.75
266.358	84.75
266.591	77.75
266.823	99.75
267.055	71.75
267.287	95.75
267.52	84.75
267.752	86.75
267.984	94.75
268.216	87.75
268.448	99.75
268.681	84.75
268.913	93.75
269.145	95.75
269.377	85.75
269.609	103.75
269.841	101.75
270.073	87.75
270.306	81.75
270.538	100.75
270.77	102.75
271.002	85.75
271.234	81.75
271.466	101.75
271.698	79.75
271.93	73.75
272.162	84.75
272.394	89.75
272.626	72.75
272.858	87.75
273.09	91.75
273.322	89.75
273.553	86.75
273.785	102.75
274.017	81.75
274.249	81.75
274.481	85.75
274.713	94.75
274.945	88.75
275.176	81.75
275.408	87.75
275.64	97.75
275.872	90.75
276.104	89.75
276.335	88.75
276.567	82.75
276.799	84.75
277.031	85.75
277.262	90.75
277.494	89.75
277.726	89.75
277.957	106.75
278.189	90.75
278.421	77.75
278.652	78.75
278.884	96.75
279.115	94.75
279.347	89.75
279.579	79.75
279.81	91.75
280.042	78.75
280.273	86.75
280.505	86.75
280.736	88.75
280.968	92.75
281.199	94.75
281.431	71.75
281.662	83.75
281.894	90.75
282.125	83.75
282.356	86.75
282.588	87.75
282.819	88.75
283.051	86.75
283.282	91.75
283.513	87.75
283.745	88.75
283.976	79.75
284.207	75.75
284.439	85.75
284.67	90.75
284.901	75.75
285.132	92.75
285.364	94.75
285.595	90.75
285.826	80.75
286.057	98.75
286.288	96.75
286.52	68.75
286.751	79.75
286.982	91.75
287.213	92.75
287.444	71.75
287.675	85.75
287.906	76.75
288.138	96.75
288.369	77.75
288.6	103.75
288.831	100.75
289.062	90.75
289.293	97.75
289.524	87.75
289.755	96.75
289.986	91.75
290.217	75.75
290.448	85.75
290.679	86.75
290.91	92.75
291.141	92.75
291.371	81.75
291.602	86.75
291.833	86.75
292.064	74.75
292.295	82.75
292.526	95.75
292.757	82.75
292.987	89.75
293.218	89.75
293.449	84.75
293.68	83.75
293.91	83.75
294.141	113.75
294.372	92.75
294.603	86.75
294.833	93.75
295.064	82.75
295.295	83.75
295.525	83.75
295.756	79.75
295.987	88.75
296.217	93.75
296.448	88.75
296.679	103.75
296.909	84.75
297.14	82.75
297.37	96.75
297.601	101.75
297.831	92.75
298.062	84.75
298.292	96.75
298.523	100.75
298.753	87.75
298.984	73.75
299.214	93.75
299.445	99.75
299.675	91.75
299.905	82.75
300.136	101.75
300.366	100.75
300.597	95.75
300.827	87.75
301.057	89.75
301.288	102.75
301.518	85.75
301.748	82.75
301.979	110.75
302.209	96.75
302.439	86.75
302.669	91.75
302.9	76.75
303.13	90.75
303.36	100.75
303.59	99.75
303.82	96.75
304.051	91.75
304.281	94.75
304.511	96.75
304.741	88.75
304.971	86.75
305.201	85.75
305.431	89.75
305.661	90.75
305.891	101.75
306.121	94.75
306.352	88.75
306.582	96.75
306.812	82.75
307.042	83.75
307.272	85.75
307.502	96.75
307.731	99.75
307.961	99.75
308.191	103.75
308.421	94.75
308.651	92.75
308.881	105.75
309.111	80.75
309.341	85.75
309.571	82.75
309.8	87.75
310.03	91.75
310.26	96.75
310.49	91.75
310.72	81.75
310.949	81.75
311.179	75.75
311.409	63.75
311.639	93.75
311.868	103.75
312.098	94.75
312.328	82.75
312.557	92.75
312.787	96.75
313.017	101.75
313.246	94.75
313.476	89.75
313.706	79.75
313.935	76.75
314.165	100.75
314.394	95.75
314.624	91.75
314.853	93.75
315.083	84.75
315.312	92.75
315.542	64.75
315.771	83.75
316.001	91.75
316.23	101.75
316.46	86.75
316.689	80.75
316.919	93.75
317.148	99.75
317.377	101.75
317.607	94.75
317.836	103.75
318.065	93.75
318.295	83.75
318.524	93.75
318.753	90.75
318.983	91.75
319.212	97.75
319.441	99.75
319.67	85.75
319.9	83.75
320.129	84.75
320.358	78.75
320.587	85.75
320.816	75.75
321.046	93.75
321.275	90.75
321.504	88.75
321.733	89.75
321.962	90.75
322.191	82.75
322.42	94.75
322.649	95.75
322.878	79.75
323.108	94.75
323.337	99.75
323.566	89.75
323.795	92.75
324.024	89.75
324.253	83.75
324.482	98.75
324.71	90.75
324.939	117.75
325.168	81.75
325.397	99.75
325.626	85.75
325.855	99.75
326.084	81.75
326.313	75.75
326.542	95.75
326.77	89.75
326.999	111.75
327.228	98.75
327.457	96.75
327.686	86.75
327.914	79.75
328.143	86.75
328.372	78.75
328.6	80.75
328.829	91.75
329.058	103.75
329.287	82.75
329.515	81.75
329.744	80.75
329.972	99.75
330.201	94.75
330.43	87.75
330.658	87.75
330.887	82.75
331.115	85.75
331.344	108.75
331.572	87.75
331.801	90.75
332.03	94.75
332.258	94.75
332.486	92.75
332.715	94.75
332.943	76.75
333.172	92.75
333.4	94.75
333.629	87.75
333.857	83.75
334.085	96.75
334.314	94.75
334.542	73.75
334.771	95.75
334.999	88.75
335.227	92.75
335.455	88.75
335.684	90.75
335.912	96.75
336.14	80.75
336.369	91.75
336.597	79.75
336.825	77.75
337.053	90.75
337.281	96.75
337.51	87.75
337.738	91.75
337.966	81.75
338.194	95.75
338.422	104.75
338.65	83.75
338.878	94.75
339.106	101.75
339.334	89.75
339.562	77.75
339.79	101.75
340.018	75.75
340.246	93.75
340.474	77.75
340.702	94.75
340.93	99.75
341.158	99.75
341.386	76.75
341.614	95.75
341.842	85.75
342.07	87.75
342.298	88.75
342.526	80.75
342.754	107.75
342.981	94.75
343.209	82.75
343.437	103.75
343.665	89.75
343.893	94.75
344.12	107.75
344.348	105.75
344.576	105.75
344.804	82.75
345.031	97.75
345.259	91.75
345.487	83.75
345.714	83.75
345.942	77.75
346.17	95.75
346.397	84.75
346.625	85.75
346.853	80.75
347.08	85.75
347.308	76.75
347.535	84.75
347.763	90.75
347.99	83.75
348.218	93.75
348.445	102.75
348.673	78.75
348.9	82.75
349.128	84.75
349.355	84.75
349.583	80.75
349.81	77.75
350.037	89.75
350.265	80.75
350.492	94.75
350.72	92.75
350.947	98.75
351.174	110.75
351.402	96.75
351.629	80.75
351.856	75.75
352.083	90.75
352.311	90.75
352.538	77.75
352.765	96.75
352.992	101.75
353.22	89.75
353.447	95.75
353.674	91.75
353.901	87.75
354.128	86.75
354.355	85.75
354.583	94.75
354.81	85.75
355.037	83.75
355.264	97.75
355.491	84.75
355.718	97.75
355.945	89.75
356.172	81.75
356.399	81.75
356.626	92.75
356.853	98.75
357.08	85.75
357.307	88.75
357.534	86.75
357.761	84.75
357.988	94.75
358.215	86.75
358.441	88.75
358.668	84.75
358.895	90.75
359.122	85.75
359.349	88.75
359.576	96.75
359.802	91.75
360.029	87.75
360.256	77.75
360.483	89.75
360.709	92.75
360.936	100.75
361.163	96.75
361.39	81.75
361.616	89.75
361.843	95.75
362.07	95.75
362.296	102.75
362.523	86.75
362.749	78.75
362.976	83.75
363.203	94.75
363.429	89.75
363.656	94.75
363.882	81.75
364.109	97.75
364.335	88.75
364.562	75.75
364.788	82.75
365.015	82.75
365.241	88.75
365.468	84.75
365.694	93.75
365.92	87.75
366.147	97.75
366.373	88.75
366.599	74.75
366.826	85.75
367.052	70.75
367.278	77.75
367.505	90.75
367.731	99.75
367.957	82.75
368.184	107.75
368.41	85.75
368.636	86.75
368.862	97.75
369.089	90.75
369.315	86.75
369.541	88.75
369.767	86.75
369.993	94.75
370.219	87.75
370.445	85.75
370.672	72.75
370.898	87.75
371.124	92.75
371.35	96.75
371.576	95.75
371.802	78.75
372.028	79.75
372.254	76.75
372.48	99.75
372.706	90.75
372.932	109.75
373.158	101.75
373.384	89.75
373.61	88.75
373.835	88.75
374.061	70.75
374.287	86.75
374.513	96.75
374.739	87.75
374.965	85.75
375.191	80.75
375.416	94.75
375.642	85.75
375.868	94.75
376.094	95.75
376.319	90.75
376.545	85.75
376.771	83.75
376.997	94.75
377.222	91.75
377.448	96.75
377.674	87.75
377.899	83.75
378.125	83.75
378.35	86.75
378.576	96.75
378.802	95.75
379.027	85.75
379.253	86.75
379.478	80.75
379.704	94.75
379.929	79.75
380.155	88.75
380.38	80.75
380.606	85.75
380.831	80.75
381.057	95.75
381.282	90.75
381.507	84.75
381.733	101.75
381.958	88.75
382.184	79.75
382.409	91.75
382.634	72.75
382.86	86.75
383.085	82.75
383.31	75.75
383.535	92.75
383.761	77.75
383.986	89.75
384.211	93.75
384.436	83.75
384.662	80.75
384.887	87.75
385.112	98.75
385.337	108.75
385.562	90.75
385.787	91.75
386.013	100.75
386.238	94.75
386.463	84.75
386.688	109.75
386.913	99.75
387.138	101.75
387.363	82.75
387.588	102.75
387.813	87.75
388.038	99.75
388.263	95.75
388.488	89.75
388.713	81.75
388.938	87.75
389.163	97.75
389.387	94.75
389.612	79.75
389.837	80.75
390.062	106.75
390.287	71.75
390.512	87.75
390.736	89.75
390.961	91.75
391.186	95.75
391.411	85.75
391.636	104.75
391.86	100.75
392.085	94.75
392.31	87.75
392.534	78.75
392.759	99.75
392.984	83.75
393.208	85.75
393.433	94.75
393.658	74.75
393.882	85.75
394.107	97.75
394.331	89.75
394.556	80.75
394.78	86.75
395.005	95.75
395.229	86.75
395.454	91.75
395.678	72.75
395.903	88.75
396.127	88.75
396.352	90.75
396.576	90.75
396.801	83.75
397.025	88.75
397.249	100.75
397.474	91.75
397.698	83.75
397.922	84.75
398.147	94.75
398.371	94.75
398.595	93.75
398.82	94.75
399.044	79.75
399.268	81.75
399.492	64.75
399.717	88.75
399.941	81.75
400.165	103.75
400.389	91.75
400.613	85.75
400.837	93.75
401.062	82.75
401.286	101.75
401.51	84.75
401.734	93.75
401.958	75.75
402.182	65.75
402.406	101.75
402.63	77.75
402.854	101.75
403.078	87.75
403.302	89.75
403.526	95.75
403.75	90.75
403.974	109.75
404.198	115.75
404.422	163.75
404.645	181.75
404.869	154.75
405.093	128.75
405.317	100.75
405.541	108.75
405.765	107.75
405.988	93.75
406.212	110.75
406.436	87.75
406.66	87.75
406.883	82.75
407.107	97.75
407.331	93.75
407.555	85.75
407.778	84.75
408.002	89.75
408.226	101.75
408.449	81.75
408.673	97.75
408.896	92.75
409.12	73.75
409.344	103.75
409.567	84.75
409.791	90.75
410.014	100.75
410.238	87.75
410.461	85.75
410.685	87.75
410.908	94.75
411.132	87.75
411.355	80.75
411.578	103.75
411.802	82.75
412.025	85.75
412.249	91.75
412.472	84.75
412.695	81.75
412.919	78.75
413.142	76.75
413.365	82.75
413.589	99.75
413.812	86.75
414.035	87.75
414.258	92.75
414.482	89.75
414.705	92.75
414.928	93.75
415.151	82.75
415.374	75.75
415.597	97.75
415.821	87.75
416.044	94.75
416.267	87.75
416.49	87.75
416.713	81.75
416.936	78.75
417.159	103.75
417.382	87.75
417.605	90.75
417.828	83.75
418.051	90.75
418.274	97.75
418.497	80.75
418.72	76.75
418.943	91.75
419.166	91.75
419.389	103.75
419.611	103.75
419.834	88.75
420.057	88.75
420.28	95.75
420.503	97.75
420.726	84.75
420.948	83.75
421.171	79.75
421.394	91.75
421.617	90.75
421.839	83.75
422.062	88.75
422.285	83.75
422.507	81.75
422.73	99.75
422.953	93.75
423.175	74.75
423.398	84.75
423.621	89.75
423.843	89.75
424.066	96.75
424.288	100.75
424.511	105.75
424.733	89.75
424.956	93.75
425.178	79.75
425.401	91.75
425.623	78.75
425.846	82.75
426.068	73.75
426.291	96.75
426.513	104.75
426.735	96.75
426.958	99.75
427.18	83.75
427.402	96.75
427.625	102.75
427.847	95.75
428.069	93.75
428.292	83.75
428.514	83.75
428.736	91.75
428.958	87.75
429.181	93.75
429.403	84.75
429.625	87.75
429.847	75.75
430.069	85.75
430.292	113.75
430.514	97.75
430.736	72.75
430.958	83.75
431.18	85.75
431.402	84.75
431.624	84.75
431.846	80.75
432.068	77.75
432.29	100.75
432.512	96.75
432.734	89.75
432.956	81.75
433.178	106.75
433.4	85.75
433.622	80.75
433.844	89.75
434.066	95.75
434.287	99.75
434.509	89.75
434.731	92.75
434.953	76.75
435.175	91.75
435.397	83.75
435.618	81.75
435.84	89.75
436.062	100.75
436.284	91.75
436.505	87.75
436.727	91.75
436.949	94.75
437.17	86.75
437.392	79.75
437.614	81.75
437.835	72.75
438.057	75.75
438.278	87.75
438.5	72.75
438.721	92.75
438.943	91.75
439.165	99.75
439.386	101.75
439.608	100.75
439.829	93.75
440.05	93.75
440.272	95.75
440.493	82.75
440.715	95.75
440.936	95.75
441.158	78.75
441.379	84.75
441.6	88.75
441.822	85.75
442.043	77.75
442.264	88.75
442.486	91.75
442.707	85.75
442.928	94.75
443.149	96.75
443.371	95.75
443.592	93.75
443.813	91.75
444.034	96.75
444.255	97.75
444.476	84.75
444.698	99.75
444.919	80.75
445.14	145.75
445.361	113.75
445.582	90.75
445.803	85.75
446.024	87.75
446.245	81.75
446.466	90.75
446.687	87.75
446.908	91.75
447.129	96.75
447.35	94.75
447.571	89.75
447.792	80.75
448.013	80.75
448.234	75.75
448.455	93.75
448.675	97.75
448.896	94.75
449.117	87.75
449.338	88.75
449.559	91.75
449.779	92.75
450	96.75
450.221	72.75
450.442	82.75
450.662	90.75
450.883	94.75
451.104	110.75
451.324	84.75
451.545	107.75
451.766	99.75
451.986	99.75
452.207	98.75
452.428	89.75
452.648	83.75
452.869	87.75
453.089	99.75
453.31	91.75
453.53	87.75
453.751	93.75
453.971	84.75
454.192	80.75
454.412	96.75
454.633	90.75
454.853	105.75
455.073	87.75
455.294	87.75
455.514	86.75
455.734	79.75
455.955	91.75
456.175	92.75
456.395	89.75
456.616	90.75
456.836	94.75
457.056	107.75
457.276	90.75
457.497	107.75
457.717	92.75
457.937	91.75
458.157	93.75
458.377	99.75
458.598	95.75
458.818	91.75
459.038	76.75
459.258	88.75
459.478	83.75
459.698	96.75
459.918	81.75
460.138	105.75
460.358	93.75
460.578	77.75
460.798	87.75
461.018	88.75
461.238	101.75
461.458	99.75
461.678	79.75
461.898	95.75
462.118	92.75
462.338	96.75
462.558	95.75
462.777	84.75
462.997	77.75
463.217	85.75
463.437	86.75
463.657	85.75
463.876	97.75
464.096	84.75
464.316	97.75
464.536	90.75
464.755	80.75
464.975	86.75
465.195	83.75
465.414	87.75
465.634	102.75
465.854	94.75
466.073	81.75
466.293	83.75
466.512	96.75
466.732	87.75
466.951	92.75
467.171	82.75
467.391	95.75
467.61	97.75
467.829	91.75
468.049	87.75
468.268	99.75
468.488	87.75
468.707	84.75
468.927	104.75
469.146	94.75
469.365	83.75
469.585	100.75
469.804	87.75
470.023	95.75
470.243	109.75
470.462	99.75
470.681	103.75
470.901	80.75
471.12	97.75
471.339	88.75
471.558	99.75
471.777	105.75
471.997	105.75
472.216	90.75
472.435	90.75
472.654	87.75
472.873	106.75
473.092	105.75
473.311	111.75
473.53	86.75
473.749	94.75
473.968	111.75
474.187	109.75
474.406	98.75
474.625	96.75
474.844	90.75
475.063	88.75
475.282	103.75
475.501	89.75
475.72	94.75
475.939	77.75
476.158	85.75
476.377	90.75
476.596	90.75
476.814	101.75
477.033	92.75
477.252	82.75
477.471	97.75
477.69	95.75
477.908	79.75
478.127	96.75
478.346	95.75
478.564	101.75
478.783	88.75
479.002	93.75
479.22	101.75
479.439	96.75
479.658	89.75
479.876	81.75
480.095	97.75
480.313	81.75
480.532	84.75
480.751	97.75
480.969	100.75
481.188	75.75
481.406	80.75
481.624	78.75
481.843	84.75
482.061	90.75
482.28	83.75
482.498	100.75
482.717	92.75
482.935	101.75
483.153	100.75
483.372	85.75
483.59	91.75
483.808	91.75
484.027	103.75
484.245	105.75
484.463	89.75
484.681	88.75
484.9	85.75
485.118	87.75
485.336	88.75
485.554	96.75
485.772	87.75
485.99	90.75
486.209	99.75
486.427	102.75
486.645	102.75
486.863	109.75
487.081	89.75
487.299	88.75
487.517	85.75
487.735	86.75
487.953	93.75
488.171	94.75
488.389	97.75
488.607	91.75
488.825	93.75
489.043	86.75
489.261	99.75
489.479	90.75
489.696	84.75
489.914	75.75
490.132	89.75
490.35	98.75
490.568	87.75
490.786	95.75
491.003	102.75
491.221	102.75
491.439	96.75
491.657	89.75
491.874	104.75
492.092	101.75
492.31	104.75
492.527	96.75
492.745	100.75
492.963	99.75
493.18	89.75
493.398	100.75
493.615	97.75
493.833	99.75
494.05	91.75
494.268	101.75
494.485	91.75
494.703	113.75
494.92	111.75
495.138	97.75
495.355	100.75
495.573	109.75
495.79	101.75
496.008	96.75
496.225	94.75
496.442	99.75
496.66	117.75
496.877	110.75
497.094	88.75
497.312	97.75
497.529	87.75
497.746	93.75
497.963	103.75
498.181	75.75
498.398	83.75
498.615	89.75
498.832	96.75
499.049	94.75
499.267	92.75
499.484	100.75
499.701	75.75
499.918	93.75
500.135	68.75
500.352	85.75
500.569	101.75
500.786	97.75
501.003	94.75
501.22	109.75
501.437	77.75
501.654	102.75
501.871	90.75
502.088	95.75
502.305	81.75
502.522	95.75
502.739	99.75
502.956	99.75
503.172	92.75
503.389	92.75
503.606	95.75
503.823	88.75
504.04	96.75
504.256	97.75
504.473	87.75
504.69	89.75
504.907	87.75
505.123	103.75
505.34	96.75
505.557	96.75
505.773	92.75
505.99	78.75
506.207	90.75
506.423	92.75
506.64	90.75
506.856	85.75
507.073	102.75
507.289	97.75
507.506	81.75
507.722	99.75
507.939	99.75
508.155	87.75
508.372	109.75
508.588	83.75
508.805	81.75
509.021	85.75
509.238	104.75
509.454	90.75
509.67	99.75
509.887	89.75
510.103	99.75
510.319	110.75
510.536	96.75
510.752	85.75
510.968	101.75
511.184	100.75
511.401	92.75
511.617	99.75
511.833	89.75
512.049	98.75
512.265	78.75
512.481	98.75
512.698	79.75
512.914	94.75
513.13	92.75
513.346	99.75
513.562	103.75
513.778	107.75
513.994	83.75
514.21	91.75
514.426	93.75
514.642	83.75
514.858	100.75
515.074	89.75
515.29	89.75
515.506	99.75
515.721	83.75
515.937	86.75
516.153	89.75
516.369	91.75
516.585	103.75
516.801	90.75
517.016	83.75
517.232	91.75
517.448	86.75
517.664	85.75
517.879	92.75
518.095	84.75
