Data from KBrNoHeat2_HRD10591_00001.txt Node
Date: Fri Dec 27 14:47:32 EST 2024
User: Yrep
Spectrometer: HR+D1059
Trigger mode: 1
Integration Time (sec): 1.000000E-1
Scans to average: 1
Electric dark correction enabled: true
Nonlinearity correction enabled: false
Boxcar width: 0
XAxis mode: Wavelengths
Number of Pixels in Spectrum: 2048
>>>>>Begin Spectral Data<<<<<
223.165	-19.94
223.4	-19.94
223.635	-19.94
223.869	-3.94
224.104	-29.94
224.338	-11.94
224.573	-11.94
224.808	-11.94
225.042	-12.94
225.277	1.06
225.511	-0.94
225.746	-2.94
225.98	19.06
226.215	3.06
226.449	17.06
226.683	12.06
226.918	21.06
227.152	33.06
227.387	33.06
227.621	42.06
227.856	45.06
228.09	47.06
228.324	49.06
228.559	55.06
228.793	71.06
229.027	48.06
229.262	63.06
229.496	64.06
229.73	53.06
229.964	62.06
230.199	80.06
230.433	83.06
230.667	69.06
230.901	65.06
231.136	72.06
231.37	77.06
231.604	78.06
231.838	71.06
232.072	84.06
232.306	76.06
232.541	85.06
232.775	86.06
233.009	86.06
233.243	86.06
233.477	81.06
233.711	89.06
233.945	70.06
234.179	70.06
234.413	81.06
234.647	68.06
234.881	72.06
235.115	77.06
235.349	82.06
235.583	84.06
235.817	73.06
236.051	57.06
236.285	76.06
236.519	80.06
236.753	61.06
236.987	80.06
237.221	83.06
237.455	94.06
237.689	69.06
237.922	78.06
238.156	80.06
238.39	62.06
238.624	55.06
238.858	73.06
239.091	84.06
239.325	83.06
239.559	88.06
239.793	71.06
240.027	79.06
240.26	71.06
240.494	82.06
240.728	77.06
240.961	82.06
241.195	90.06
241.429	82.06
241.662	88.06
241.896	77.06
242.13	70.06
242.363	75.06
242.597	81.06
242.83	72.06
243.064	79.06
243.298	71.06
243.531	61.06
243.765	83.06
243.998	75.06
244.232	79.06
244.465	95.06
244.699	81.06
244.932	76.06
245.166	76.06
245.399	78.06
245.633	69.06
245.866	71.06
246.099	82.06
246.333	76.06
246.566	82.06
246.8	69.06
247.033	75.06
247.266	74.06
247.5	76.06
247.733	82.06
247.966	85.06
248.2	79.06
248.433	86.06
248.666	75.06
248.899	72.06
249.133	75.06
249.366	82.06
249.599	81.06
249.832	87.06
250.066	77.06
250.299	74.06
250.532	76.06
250.765	63.06
250.998	83.06
251.231	71.06
251.465	69.06
251.698	68.06
251.931	77.06
252.164	83.06
252.397	84.06
252.63	75.06
252.863	68.06
253.096	74.06
253.329	90.06
253.562	70.06
253.795	76.06
254.028	80.06
254.261	81.06
254.494	77.06
254.727	85.06
254.96	80.06
255.193	80.06
255.426	77.06
255.659	74.06
255.892	91.06
256.124	74.06
256.357	72.06
256.59	81.06
256.823	84.06
257.056	75.06
257.289	85.06
257.521	68.06
257.754	81.06
257.987	88.06
258.22	90.06
258.452	68.06
258.685	76.06
258.918	76.06
259.151	90.06
259.383	83.06
259.616	86.06
259.849	81.06
260.081	84.06
260.314	88.06
260.547	72.06
260.779	76.06
261.012	83.06
261.244	80.06
261.477	101.06
261.71	79.06
261.942	82.06
262.175	70.06
262.407	83.06
262.64	86.06
262.872	70.06
263.105	88.06
263.337	92.06
263.57	74.06
263.802	75.06
264.035	93.06
264.267	95.06
264.499	79.06
264.732	80.06
264.964	72.06
265.197	77.06
265.429	82.06
265.661	88.06
265.894	75.06
266.126	71.06
266.358	75.06
266.591	66.06
266.823	85.06
267.055	84.06
267.287	86.06
267.52	91.06
267.752	84.06
267.984	84.06
268.216	79.06
268.448	73.06
268.681	71.06
268.913	96.06
269.145	61.06
269.377	82.06
269.609	87.06
269.841	77.06
270.073	86.06
270.306	72.06
270.538	77.06
270.77	75.06
271.002	86.06
271.234	82.06
271.466	95.06
271.698	84.06
271.93	76.06
272.162	71.06
272.394	85.06
272.626	89.06
272.858	81.06
273.09	86.06
273.322	87.06
273.553	76.06
273.785	90.06
274.017	71.06
274.249	73.06
274.481	75.06
274.713	87.06
274.945	90.06
275.176	83.06
275.408	73.06
275.64	69.06
275.872	75.06
276.104	97.06
276.335	73.06
276.567	84.06
276.799	86.06
277.031	102.06
277.262	83.06
277.494	87.06
277.726	73.06
277.957	89.06
278.189	83.06
278.421	75.06
278.652	79.06
278.884	85.06
279.115	95.06
279.347	79.06
279.579	75.06
279.81	79.06
280.042	78.06
280.273	86.06
280.505	75.06
280.736	72.06
280.968	88.06
281.199	74.06
281.431	88.06
281.662	84.06
281.894	91.06
282.125	91.06
282.356	72.06
282.588	85.06
282.819	81.06
283.051	82.06
283.282	61.06
283.513	80.06
283.745	68.06
283.976	72.06
284.207	76.06
284.439	89.06
284.67	70.06
284.901	77.06
285.132	85.06
285.364	76.06
285.595	77.06
285.826	84.06
286.057	68.06
286.288	91.06
286.52	96.06
286.751	101.06
286.982	69.06
287.213	82.06
287.444	79.06
287.675	79.06
287.906	92.06
288.138	79.06
288.369	79.06
288.6	88.06
288.831	71.06
289.062	89.06
289.293	94.06
289.524	90.06
289.755	79.06
289.986	75.06
290.217	95.06
290.448	72.06
290.679	87.06
290.91	107.06
291.141	89.06
291.371	76.06
291.602	71.06
291.833	96.06
292.064	86.06
292.295	77.06
292.526	79.06
292.757	90.06
292.987	88.06
293.218	72.06
293.449	77.06
293.68	86.06
293.91	82.06
294.141	90.06
294.372	76.06
294.603	96.06
294.833	65.06
295.064	82.06
295.295	76.06
295.525	89.06
295.756	75.06
295.987	77.06
296.217	92.06
296.448	90.06
296.679	91.06
296.909	87.06
297.14	81.06
297.37	96.06
297.601	83.06
297.831	71.06
298.062	69.06
298.292	80.06
298.523	79.06
298.753	80.06
298.984	80.06
299.214	78.06
299.445	88.06
299.675	81.06
299.905	87.06
300.136	77.06
300.366	82.06
300.597	79.06
300.827	86.06
301.057	83.06
301.288	82.06
301.518	81.06
301.748	85.06
301.979	104.06
302.209	90.06
302.439	76.06
302.669	83.06
302.9	83.06
303.13	80.06
303.36	92.06
303.59	74.06
303.82	79.06
304.051	100.06
304.281	97.06
304.511	91.06
304.741	79.06
304.971	89.06
305.201	85.06
305.431	79.06
305.661	77.06
305.891	86.06
306.121	76.06
306.352	82.06
306.582	83.06
306.812	80.06
307.042	80.06
307.272	85.06
307.502	79.06
307.731	87.06
307.961	99.06
308.191	99.06
308.421	74.06
308.651	72.06
308.881	75.06
309.111	71.06
309.341	79.06
309.571	80.06
309.8	83.06
310.03	87.06
310.26	87.06
310.49	63.06
310.72	91.06
310.949	89.06
311.179	98.06
311.409	87.06
311.639	67.06
311.868	87.06
312.098	80.06
312.328	84.06
312.557	83.06
312.787	88.06
313.017	81.06
313.246	81.06
313.476	83.06
313.706	87.06
313.935	88.06
314.165	85.06
314.394	89.06
314.624	76.06
314.853	87.06
315.083	83.06
315.312	71.06
315.542	87.06
315.771	77.06
316.001	84.06
316.23	79.06
316.46	74.06
316.689	89.06
316.919	90.06
317.148	100.06
317.377	73.06
317.607	74.06
317.836	83.06
318.065	98.06
318.295	87.06
318.524	93.06
318.753	96.06
318.983	69.06
319.212	77.06
319.441	84.06
319.67	82.06
319.9	67.06
320.129	92.06
320.358	86.06
320.587	96.06
320.816	75.06
321.046	89.06
321.275	81.06
321.504	90.06
321.733	83.06
321.962	92.06
322.191	87.06
322.42	72.06
322.649	79.06
322.878	88.06
323.108	90.06
323.337	91.06
323.566	83.06
323.795	82.06
324.024	78.06
324.253	90.06
324.482	64.06
324.71	76.06
324.939	90.06
325.168	70.06
325.397	86.06
325.626	94.06
325.855	80.06
326.084	80.06
326.313	73.06
326.542	72.06
326.77	73.06
326.999	92.06
327.228	75.06
327.457	89.06
327.686	83.06
327.914	92.06
328.143	81.06
328.372	90.06
328.6	81.06
328.829	81.06
329.058	85.06
329.287	81.06
329.515	80.06
329.744	103.06
329.972	79.06
330.201	92.06
330.43	95.06
330.658	79.06
330.887	96.06
331.115	78.06
331.344	61.06
331.572	88.06
331.801	82.06
332.03	79.06
332.258	90.06
332.486	85.06
332.715	76.06
332.943	89.06
333.172	79.06
333.4	71.06
333.629	105.06
333.857	90.06
334.085	76.06
334.314	81.06
334.542	72.06
334.771	95.06
334.999	85.06
335.227	93.06
335.455	85.06
335.684	85.06
335.912	73.06
336.14	90.06
336.369	80.06
336.597	74.06
336.825	76.06
337.053	87.06
337.281	73.06
337.51	79.06
337.738	90.06
337.966	84.06
338.194	80.06
338.422	84.06
338.65	88.06
338.878	82.06
339.106	89.06
339.334	75.06
339.562	89.06
339.79	83.06
340.018	93.06
340.246	82.06
340.474	81.06
340.702	95.06
340.93	87.06
341.158	79.06
341.386	88.06
341.614	89.06
341.842	68.06
342.07	76.06
342.298	84.06
342.526	77.06
342.754	86.06
342.981	89.06
343.209	99.06
343.437	102.06
343.665	95.06
343.893	80.06
344.12	82.06
344.348	90.06
344.576	102.06
344.804	91.06
345.031	105.06
345.259	77.06
345.487	78.06
345.714	96.06
345.942	74.06
346.17	86.06
346.397	90.06
346.625	88.06
346.853	90.06
347.08	73.06
347.308	101.06
347.535	85.06
347.763	82.06
347.99	73.06
348.218	90.06
348.445	84.06
348.673	82.06
348.9	83.06
349.128	92.06
349.355	86.06
349.583	89.06
349.81	76.06
350.037	89.06
350.265	87.06
350.492	84.06
350.72	79.06
350.947	91.06
351.174	83.06
351.402	71.06
351.629	76.06
351.856	79.06
352.083	81.06
352.311	98.06
352.538	84.06
352.765	92.06
352.992	96.06
353.22	78.06
353.447	82.06
353.674	90.06
353.901	85.06
354.128	95.06
354.355	86.06
354.583	92.06
354.81	89.06
355.037	81.06
355.264	76.06
355.491	86.06
355.718	98.06
355.945	76.06
356.172	80.06
356.399	83.06
356.626	73.06
356.853	99.06
357.08	70.06
357.307	93.06
357.534	89.06
357.761	83.06
357.988	80.06
358.215	103.06
358.441	81.06
358.668	89.06
358.895	87.06
359.122	80.06
359.349	76.06
359.576	71.06
359.802	75.06
360.029	81.06
360.256	92.06
360.483	85.06
360.709	77.06
360.936	88.06
361.163	73.06
361.39	76.06
361.616	81.06
361.843	83.06
362.07	84.06
362.296	86.06
362.523	84.06
362.749	105.06
362.976	103.06
363.203	92.06
363.429	76.06
363.656	81.06
363.882	75.06
364.109	98.06
364.335	98.06
364.562	90.06
364.788	76.06
365.015	77.06
365.241	77.06
365.468	91.06
365.694	74.06
365.92	91.06
366.147	86.06
366.373	82.06
366.599	81.06
366.826	89.06
367.052	81.06
367.278	81.06
367.505	101.06
367.731	75.06
367.957	75.06
368.184	78.06
368.41	81.06
368.636	85.06
368.862	81.06
369.089	97.06
369.315	77.06
369.541	88.06
369.767	79.06
369.993	89.06
370.219	83.06
370.445	81.06
370.672	95.06
370.898	86.06
371.124	82.06
371.35	90.06
371.576	80.06
371.802	79.06
372.028	82.06
372.254	75.06
372.48	87.06
372.706	89.06
372.932	85.06
373.158	88.06
373.384	78.06
373.61	67.06
373.835	77.06
374.061	71.06
374.287	60.06
374.513	75.06
374.739	83.06
374.965	75.06
375.191	85.06
375.416	97.06
375.642	89.06
375.868	89.06
376.094	82.06
376.319	78.06
376.545	85.06
376.771	89.06
376.997	71.06
377.222	66.06
377.448	82.06
377.674	89.06
377.899	94.06
378.125	90.06
378.35	70.06
378.576	78.06
378.802	84.06
379.027	86.06
379.253	93.06
379.478	79.06
379.704	80.06
379.929	85.06
380.155	85.06
380.38	78.06
380.606	85.06
380.831	83.06
381.057	92.06
381.282	91.06
381.507	89.06
381.733	84.06
381.958	84.06
382.184	95.06
382.409	83.06
382.634	86.06
382.86	68.06
383.085	81.06
383.31	71.06
383.535	82.06
383.761	86.06
383.986	94.06
384.211	90.06
384.436	80.06
384.662	78.06
384.887	74.06
385.112	81.06
385.337	84.06
385.562	82.06
385.787	80.06
386.013	90.06
386.238	82.06
386.463	96.06
386.688	103.06
386.913	76.06
387.138	105.06
387.363	81.06
387.588	95.06
387.813	90.06
388.038	88.06
388.263	84.06
388.488	80.06
388.713	69.06
388.938	75.06
389.163	76.06
389.387	85.06
389.612	98.06
389.837	73.06
390.062	68.06
390.287	93.06
390.512	100.06
390.736	78.06
390.961	79.06
391.186	82.06
391.411	77.06
391.636	86.06
391.86	75.06
392.085	94.06
392.31	80.06
392.534	79.06
392.759	84.06
392.984	92.06
393.208	79.06
393.433	88.06
393.658	85.06
393.882	77.06
394.107	87.06
394.331	89.06
394.556	71.06
394.78	96.06
395.005	87.06
395.229	81.06
395.454	81.06
395.678	80.06
395.903	66.06
396.127	94.06
396.352	96.06
396.576	85.06
396.801	90.06
397.025	87.06
397.249	77.06
397.474	82.06
397.698	102.06
397.922	84.06
398.147	78.06
398.371	81.06
398.595	86.06
398.82	74.06
399.044	91.06
399.268	82.06
399.492	87.06
399.717	83.06
399.941	76.06
400.165	88.06
400.389	90.06
400.613	83.06
400.837	82.06
401.062	91.06
401.286	76.06
401.51	75.06
401.734	97.06
401.958	92.06
402.182	87.06
402.406	76.06
402.63	74.06
402.854	84.06
403.078	107.06
403.302	85.06
403.526	90.06
403.75	100.06
403.974	113.06
404.198	147.06
404.422	223.06
404.645	220.06
404.869	227.06
405.093	154.06
405.317	109.06
405.541	100.06
405.765	95.06
405.988	98.06
406.212	81.06
406.436	92.06
406.66	84.06
406.883	92.06
407.107	88.06
407.331	79.06
407.555	82.06
407.778	98.06
408.002	89.06
408.226	92.06
408.449	94.06
408.673	76.06
408.896	83.06
409.12	87.06
409.344	86.06
409.567	76.06
409.791	85.06
410.014	96.06
410.238	83.06
410.461	85.06
410.685	84.06
410.908	70.06
411.132	82.06
411.355	83.06
411.578	88.06
411.802	88.06
412.025	83.06
412.249	81.06
412.472	75.06
412.695	88.06
412.919	84.06
413.142	74.06
413.365	94.06
413.589	95.06
413.812	89.06
414.035	85.06
414.258	80.06
414.482	77.06
414.705	79.06
414.928	83.06
415.151	93.06
415.374	92.06
415.597	83.06
415.821	84.06
416.044	82.06
416.267	89.06
416.49	84.06
416.713	95.06
416.936	83.06
417.159	84.06
417.382	87.06
417.605	95.06
417.828	77.06
418.051	83.06
418.274	89.06
418.497	92.06
418.72	97.06
418.943	89.06
419.166	87.06
419.389	83.06
419.611	85.06
419.834	86.06
420.057	95.06
420.28	89.06
420.503	90.06
420.726	79.06
420.948	67.06
421.171	91.06
421.394	84.06
421.617	84.06
421.839	86.06
422.062	82.06
422.285	84.06
422.507	101.06
422.73	120.06
422.953	100.06
423.175	84.06
423.398	89.06
423.621	83.06
423.843	97.06
424.066	105.06
424.288	78.06
424.511	95.06
424.733	83.06
424.956	92.06
425.178	102.06
425.401	95.06
425.623	82.06
425.846	87.06
426.068	97.06
426.291	83.06
426.513	87.06
426.735	94.06
426.958	98.06
427.18	89.06
427.402	87.06
427.625	80.06
427.847	85.06
428.069	87.06
428.292	70.06
428.514	94.06
428.736	81.06
428.958	86.06
429.181	89.06
429.403	76.06
429.625	102.06
429.847	89.06
430.069	86.06
430.292	93.06
430.514	85.06
430.736	83.06
430.958	90.06
431.18	77.06
431.402	86.06
431.624	89.06
431.846	74.06
432.068	84.06
432.29	73.06
432.512	77.06
432.734	83.06
432.956	99.06
433.178	85.06
433.4	90.06
433.622	94.06
433.844	71.06
434.066	95.06
434.287	87.06
434.509	80.06
434.731	89.06
434.953	92.06
435.175	83.06
435.397	82.06
435.618	86.06
435.84	72.06
436.062	86.06
436.284	86.06
436.505	85.06
436.727	91.06
436.949	90.06
437.17	80.06
437.392	80.06
437.614	86.06
437.835	80.06
438.057	75.06
438.278	82.06
438.5	80.06
438.721	84.06
438.943	86.06
439.165	82.06
439.386	88.06
439.608	79.06
439.829	81.06
440.05	103.06
440.272	81.06
440.493	77.06
440.715	81.06
440.936	91.06
441.158	92.06
441.379	87.06
441.6	86.06
441.822	88.06
442.043	80.06
442.264	83.06
442.486	89.06
442.707	99.06
442.928	90.06
443.149	91.06
443.371	80.06
443.592	80.06
443.813	82.06
444.034	81.06
444.255	95.06
444.476	92.06
444.698	82.06
444.919	95.06
445.14	149.06
445.361	122.06
445.582	87.06
445.803	85.06
446.024	104.06
446.245	80.06
446.466	90.06
446.687	74.06
446.908	76.06
447.129	92.06
447.35	89.06
447.571	86.06
447.792	96.06
448.013	90.06
448.234	85.06
448.455	90.06
448.675	96.06
448.896	77.06
449.117	95.06
449.338	89.06
449.559	89.06
449.779	82.06
450	84.06
450.221	80.06
450.442	96.06
450.662	80.06
450.883	83.06
451.104	101.06
451.324	86.06
451.545	82.06
451.766	71.06
451.986	95.06
452.207	92.06
452.428	98.06
452.648	99.06
452.869	83.06
453.089	82.06
453.31	85.06
453.53	76.06
453.751	71.06
453.971	96.06
454.192	81.06
454.412	85.06
454.633	89.06
454.853	87.06
455.073	93.06
455.294	79.06
455.514	77.06
455.734	90.06
455.955	91.06
456.175	93.06
456.395	94.06
456.616	86.06
456.836	86.06
457.056	82.06
457.276	90.06
457.497	91.06
457.717	92.06
457.937	93.06
458.157	96.06
458.377	97.06
458.598	80.06
458.818	81.06
459.038	75.06
459.258	82.06
459.478	90.06
459.698	103.06
459.918	88.06
460.138	81.06
460.358	72.06
460.578	81.06
460.798	96.06
461.018	81.06
461.238	88.06
461.458	91.06
461.678	80.06
461.898	86.06
462.118	90.06
462.338	91.06
462.558	100.06
462.777	89.06
462.997	78.06
463.217	86.06
463.437	83.06
463.657	77.06
463.876	77.06
464.096	92.06
464.316	88.06
464.536	81.06
464.755	92.06
464.975	84.06
465.195	91.06
465.414	97.06
465.634	101.06
465.854	84.06
466.073	96.06
466.293	90.06
466.512	84.06
466.732	85.06
466.951	89.06
467.171	98.06
467.391	97.06
467.61	70.06
467.829	84.06
468.049	91.06
468.268	79.06
468.488	90.06
468.707	88.06
468.927	79.06
469.146	89.06
469.365	76.06
469.585	82.06
469.804	93.06
470.023	82.06
470.243	85.06
470.462	96.06
470.681	94.06
470.901	84.06
471.12	84.06
471.339	89.06
471.558	100.06
471.777	99.06
471.997	84.06
472.216	88.06
472.435	90.06
472.654	87.06
472.873	93.06
473.092	88.06
473.311	85.06
473.53	87.06
473.749	83.06
473.968	92.06
474.187	80.06
474.406	101.06
474.625	89.06
474.844	90.06
475.063	79.06
475.282	85.06
475.501	89.06
475.72	98.06
475.939	87.06
476.158	91.06
476.377	112.06
476.596	89.06
476.814	86.06
477.033	86.06
477.252	88.06
477.471	84.06
477.69	94.06
477.908	107.06
478.127	99.06
478.346	84.06
478.564	88.06
478.783	83.06
479.002	86.06
479.22	88.06
479.439	87.06
479.658	63.06
479.876	92.06
480.095	97.06
480.313	106.06
480.532	92.06
480.751	72.06
480.969	84.06
481.188	77.06
481.406	75.06
481.624	81.06
481.843	100.06
482.061	111.06
482.28	96.06
482.498	91.06
482.717	91.06
482.935	79.06
483.153	95.06
483.372	85.06
483.59	90.06
483.808	100.06
484.027	87.06
484.245	82.06
484.463	87.06
484.681	96.06
484.9	94.06
485.118	93.06
485.336	98.06
485.554	90.06
485.772	84.06
485.99	88.06
486.209	62.06
486.427	74.06
486.645	98.06
486.863	100.06
487.081	93.06
487.299	97.06
487.517	88.06
487.735	88.06
487.953	103.06
488.171	98.06
488.389	104.06
488.607	87.06
488.825	91.06
489.043	91.06
489.261	87.06
489.479	103.06
489.696	88.06
489.914	93.06
490.132	100.06
490.35	84.06
490.568	85.06
490.786	103.06
491.003	93.06
491.221	91.06
491.439	87.06
491.657	89.06
491.874	94.06
492.092	95.06
492.31	98.06
492.527	94.06
492.745	86.06
492.963	91.06
493.18	88.06
493.398	98.06
493.615	100.06
493.833	89.06
494.05	90.06
494.268	103.06
494.485	97.06
494.703	89.06
494.92	118.06
495.138	95.06
495.355	97.06
495.573	110.06
495.79	87.06
496.008	99.06
496.225	84.06
496.442	83.06
496.66	94.06
496.877	105.06
497.094	94.06
497.312	89.06
497.529	93.06
497.746	79.06
497.963	93.06
498.181	90.06
498.398	103.06
498.615	83.06
498.832	97.06
499.049	81.06
499.267	81.06
499.484	88.06
499.701	88.06
499.918	87.06
500.135	78.06
500.352	81.06
500.569	98.06
500.786	96.06
501.003	80.06
501.22	81.06
501.437	76.06
501.654	97.06
501.871	90.06
502.088	74.06
502.305	88.06
502.522	91.06
502.739	88.06
502.956	84.06
503.172	81.06
503.389	96.06
503.606	94.06
503.823	105.06
504.04	109.06
504.256	91.06
504.473	90.06
504.69	90.06
504.907	102.06
505.123	103.06
505.34	103.06
505.557	100.06
505.773	92.06
505.99	83.06
506.207	95.06
506.423	80.06
506.64	81.06
506.856	91.06
507.073	85.06
507.289	85.06
507.506	103.06
507.722	75.06
507.939	99.06
508.155	89.06
508.372	91.06
508.588	101.06
508.805	103.06
509.021	90.06
509.238	83.06
509.454	79.06
509.67	83.06
509.887	96.06
510.103	97.06
510.319	96.06
510.536	92.06
510.752	91.06
510.968	84.06
511.184	99.06
511.401	87.06
511.617	89.06
511.833	100.06
512.049	97.06
512.265	102.06
512.481	88.06
512.698	94.06
512.914	88.06
513.13	90.06
513.346	79.06
513.562	88.06
513.778	79.06
513.994	90.06
514.21	86.06
514.426	81.06
514.642	97.06
514.858	93.06
515.074	87.06
515.29	82.06
515.506	75.06
515.721	87.06
515.937	97.06
516.153	101.06
516.369	101.06
516.585	93.06
516.801	87.06
517.016	101.06
517.232	103.06
517.448	82.06
517.664	66.06
517.879	85.06
518.095	91.06
518.311	84.06
518.527	90.06
518.742	95.06
518.958	81.06
519.173	80.06
