Data from KBrNoHeat2_HRD10591_00003.txt Node
Date: Fri Dec 27 14:47:34 EST 2024
User: Yrep
Spectrometer: HR+D1059
Trigger mode: 1
Integration Time (sec): 1.000000E-1
Scans to average: 1
Electric dark correction enabled: true
Nonlinearity correction enabled: false
Boxcar width: 0
XAxis mode: Wavelengths
Number of Pixels in Spectrum: 2048
>>>>>Begin Spectral Data<<<<<
223.165	-10.88
223.4	-10.88
223.635	-10.88
223.869	-18.88
224.104	-9.88
224.338	-18.88
224.573	-22.88
224.808	-10.88
225.042	10.12
225.277	-14.88
225.511	2.12
225.746	3.12
225.98	0.12
226.215	2.12
226.449	31.12
226.683	7.12
226.918	28.12
227.152	23.12
227.387	42.12
227.621	45.12
227.856	51.12
228.09	55.12
228.324	50.12
228.559	59.12
228.793	61.12
229.027	55.12
229.262	54.12
229.496	58.12
229.73	71.12
229.964	75.12
230.199	67.12
230.433	90.12
230.667	75.12
230.901	82.12
231.136	76.12
231.37	75.12
231.604	83.12
231.838	82.12
232.072	78.12
232.306	84.12
232.541	77.12
232.775	78.12
233.009	71.12
233.243	86.12
233.477	77.12
233.711	85.12
233.945	82.12
234.179	85.12
234.413	95.12
234.647	77.12
234.881	84.12
235.115	92.12
235.349	80.12
235.583	85.12
235.817	69.12
236.051	87.12
236.285	83.12
236.519	71.12
236.753	87.12
236.987	70.12
237.221	87.12
237.455	68.12
237.689	86.12
237.922	70.12
238.156	76.12
238.39	76.12
238.624	75.12
238.858	82.12
239.091	60.12
239.325	82.12
239.559	82.12
239.793	84.12
240.027	91.12
240.26	98.12
240.494	71.12
240.728	83.12
240.961	74.12
241.195	83.12
241.429	73.12
241.662	81.12
241.896	80.12
242.13	77.12
242.363	88.12
242.597	74.12
242.83	75.12
243.064	86.12
243.298	75.12
243.531	68.12
243.765	77.12
243.998	67.12
244.232	89.12
244.465	87.12
244.699	81.12
244.932	83.12
245.166	78.12
245.399	72.12
245.633	81.12
245.866	66.12
246.099	80.12
246.333	84.12
246.566	75.12
246.8	73.12
247.033	77.12
247.266	71.12
247.5	72.12
247.733	63.12
247.966	75.12
248.2	83.12
248.433	74.12
248.666	64.12
248.899	74.12
249.133	79.12
249.366	89.12
249.599	88.12
249.832	83.12
250.066	89.12
250.299	76.12
250.532	63.12
250.765	78.12
250.998	84.12
251.231	86.12
251.465	99.12
251.698	87.12
251.931	94.12
252.164	69.12
252.397	69.12
252.63	76.12
252.863	75.12
253.096	85.12
253.329	74.12
253.562	62.12
253.795	76.12
254.028	80.12
254.261	79.12
254.494	85.12
254.727	89.12
254.96	81.12
255.193	75.12
255.426	73.12
255.659	77.12
255.892	87.12
256.124	86.12
256.357	78.12
256.59	102.12
256.823	71.12
257.056	87.12
257.289	79.12
257.521	79.12
257.754	77.12
257.987	70.12
258.22	80.12
258.452	70.12
258.685	76.12
258.918	82.12
259.151	75.12
259.383	86.12
259.616	85.12
259.849	87.12
260.081	82.12
260.314	85.12
260.547	87.12
260.779	80.12
261.012	77.12
261.244	72.12
261.477	90.12
261.71	103.12
261.942	79.12
262.175	69.12
262.407	90.12
262.64	94.12
262.872	81.12
263.105	104.12
263.337	75.12
263.57	83.12
263.802	92.12
264.035	75.12
264.267	76.12
264.499	81.12
264.732	78.12
264.964	61.12
265.197	76.12
265.429	88.12
265.661	87.12
265.894	80.12
266.126	93.12
266.358	86.12
266.591	78.12
266.823	86.12
267.055	87.12
267.287	75.12
267.52	70.12
267.752	85.12
267.984	93.12
268.216	89.12
268.448	83.12
268.681	98.12
268.913	65.12
269.145	88.12
269.377	89.12
269.609	75.12
269.841	86.12
270.073	77.12
270.306	75.12
270.538	88.12
270.77	77.12
271.002	94.12
271.234	93.12
271.466	89.12
271.698	80.12
271.93	91.12
272.162	86.12
272.394	85.12
272.626	84.12
272.858	78.12
273.09	93.12
273.322	100.12
273.553	85.12
273.785	78.12
274.017	85.12
274.249	84.12
274.481	79.12
274.713	75.12
274.945	84.12
275.176	74.12
275.408	76.12
275.64	75.12
275.872	87.12
276.104	92.12
276.335	86.12
276.567	84.12
276.799	94.12
277.031	82.12
277.262	76.12
277.494	97.12
277.726	74.12
277.957	91.12
278.189	90.12
278.421	97.12
278.652	92.12
278.884	82.12
279.115	79.12
279.347	83.12
279.579	79.12
279.81	81.12
280.042	79.12
280.273	76.12
280.505	78.12
280.736	82.12
280.968	102.12
281.199	73.12
281.431	72.12
281.662	74.12
281.894	73.12
282.125	85.12
282.356	89.12
282.588	95.12
282.819	92.12
283.051	94.12
283.282	98.12
283.513	93.12
283.745	83.12
283.976	85.12
284.207	81.12
284.439	89.12
284.67	86.12
284.901	87.12
285.132	80.12
285.364	73.12
285.595	91.12
285.826	89.12
286.057	94.12
286.288	78.12
286.52	81.12
286.751	88.12
286.982	94.12
287.213	91.12
287.444	82.12
287.675	79.12
287.906	83.12
288.138	92.12
288.369	91.12
288.6	95.12
288.831	97.12
289.062	86.12
289.293	93.12
289.524	76.12
289.755	94.12
289.986	81.12
290.217	99.12
290.448	87.12
290.679	74.12
290.91	101.12
291.141	93.12
291.371	104.12
291.602	85.12
291.833	87.12
292.064	77.12
292.295	86.12
292.526	97.12
292.757	75.12
292.987	83.12
293.218	83.12
293.449	77.12
293.68	79.12
293.91	83.12
294.141	84.12
294.372	84.12
294.603	81.12
294.833	74.12
295.064	91.12
295.295	95.12
295.525	92.12
295.756	99.12
295.987	87.12
296.217	97.12
296.448	93.12
296.679	79.12
296.909	92.12
297.14	88.12
297.37	77.12
297.601	88.12
297.831	73.12
298.062	90.12
298.292	93.12
298.523	79.12
298.753	73.12
298.984	97.12
299.214	89.12
299.445	97.12
299.675	92.12
299.905	85.12
300.136	75.12
300.366	76.12
300.597	87.12
300.827	89.12
301.057	84.12
301.288	75.12
301.518	86.12
301.748	85.12
301.979	81.12
302.209	77.12
302.439	84.12
302.669	74.12
302.9	97.12
303.13	92.12
303.36	84.12
303.59	71.12
303.82	88.12
304.051	60.12
304.281	81.12
304.511	83.12
304.741	77.12
304.971	94.12
305.201	87.12
305.431	69.12
305.661	86.12
305.891	89.12
306.121	93.12
306.352	77.12
306.582	93.12
306.812	86.12
307.042	91.12
307.272	83.12
307.502	94.12
307.731	77.12
307.961	88.12
308.191	97.12
308.421	90.12
308.651	99.12
308.881	83.12
309.111	92.12
309.341	90.12
309.571	87.12
309.8	103.12
310.03	82.12
310.26	71.12
310.49	86.12
310.72	79.12
310.949	100.12
311.179	75.12
311.409	74.12
311.639	90.12
311.868	95.12
312.098	100.12
312.328	97.12
312.557	83.12
312.787	84.12
313.017	94.12
313.246	91.12
313.476	87.12
313.706	76.12
313.935	87.12
314.165	77.12
314.394	95.12
314.624	91.12
314.853	91.12
315.083	83.12
315.312	86.12
315.542	94.12
315.771	85.12
316.001	85.12
316.23	82.12
316.46	92.12
316.689	78.12
316.919	68.12
317.148	102.12
317.377	86.12
317.607	90.12
317.836	87.12
318.065	89.12
318.295	92.12
318.524	95.12
318.753	71.12
318.983	81.12
319.212	94.12
319.441	96.12
319.67	96.12
319.9	104.12
320.129	97.12
320.358	85.12
320.587	94.12
320.816	97.12
321.046	93.12
321.275	97.12
321.504	79.12
321.733	92.12
321.962	83.12
322.191	100.12
322.42	84.12
322.649	90.12
322.878	79.12
323.108	83.12
323.337	89.12
323.566	74.12
323.795	100.12
324.024	99.12
324.253	83.12
324.482	80.12
324.71	84.12
324.939	101.12
325.168	79.12
325.397	90.12
325.626	77.12
325.855	81.12
326.084	89.12
326.313	88.12
326.542	97.12
326.77	89.12
326.999	84.12
327.228	97.12
327.457	74.12
327.686	83.12
327.914	90.12
328.143	98.12
328.372	93.12
328.6	94.12
328.829	89.12
329.058	84.12
329.287	92.12
329.515	90.12
329.744	77.12
329.972	105.12
330.201	81.12
330.43	85.12
330.658	93.12
330.887	83.12
331.115	86.12
331.344	94.12
331.572	77.12
331.801	89.12
332.03	81.12
332.258	86.12
332.486	97.12
332.715	88.12
332.943	83.12
333.172	95.12
333.4	75.12
333.629	86.12
333.857	74.12
334.085	85.12
334.314	81.12
334.542	75.12
334.771	84.12
334.999	82.12
335.227	76.12
335.455	86.12
335.684	86.12
335.912	79.12
336.14	81.12
336.369	82.12
336.597	101.12
336.825	73.12
337.053	79.12
337.281	78.12
337.51	88.12
337.738	89.12
337.966	99.12
338.194	94.12
338.422	90.12
338.65	86.12
338.878	76.12
339.106	83.12
339.334	102.12
339.562	86.12
339.79	97.12
340.018	89.12
340.246	82.12
340.474	74.12
340.702	88.12
340.93	81.12
341.158	93.12
341.386	86.12
341.614	85.12
341.842	80.12
342.07	91.12
342.298	80.12
342.526	92.12
342.754	79.12
342.981	85.12
343.209	86.12
343.437	100.12
343.665	95.12
343.893	98.12
344.12	85.12
344.348	78.12
344.576	95.12
344.804	104.12
345.031	105.12
345.259	96.12
345.487	84.12
345.714	92.12
345.942	89.12
346.17	80.12
346.397	92.12
346.625	85.12
346.853	81.12
347.08	93.12
347.308	80.12
347.535	75.12
347.763	83.12
347.99	88.12
348.218	87.12
348.445	94.12
348.673	84.12
348.9	78.12
349.128	86.12
349.355	86.12
349.583	87.12
349.81	85.12
350.037	85.12
350.265	103.12
350.492	92.12
350.72	78.12
350.947	86.12
351.174	93.12
351.402	85.12
351.629	91.12
351.856	82.12
352.083	89.12
352.311	88.12
352.538	79.12
352.765	88.12
352.992	106.12
353.22	93.12
353.447	78.12
353.674	78.12
353.901	78.12
354.128	77.12
354.355	87.12
354.583	91.12
354.81	86.12
355.037	71.12
355.264	89.12
355.491	87.12
355.718	82.12
355.945	90.12
356.172	89.12
356.399	73.12
356.626	83.12
356.853	95.12
357.08	83.12
357.307	94.12
357.534	73.12
357.761	78.12
357.988	89.12
358.215	104.12
358.441	93.12
358.668	80.12
358.895	75.12
359.122	86.12
359.349	95.12
359.576	87.12
359.802	79.12
360.029	86.12
360.256	97.12
360.483	89.12
360.709	88.12
360.936	94.12
361.163	92.12
361.39	90.12
361.616	78.12
361.843	79.12
362.07	90.12
362.296	82.12
362.523	86.12
362.749	77.12
362.976	84.12
363.203	93.12
363.429	84.12
363.656	81.12
363.882	92.12
364.109	94.12
364.335	91.12
364.562	85.12
364.788	88.12
365.015	83.12
365.241	84.12
365.468	88.12
365.694	92.12
365.92	85.12
366.147	81.12
366.373	77.12
366.599	85.12
366.826	80.12
367.052	90.12
367.278	81.12
367.505	88.12
367.731	96.12
367.957	89.12
368.184	77.12
368.41	71.12
368.636	87.12
368.862	84.12
369.089	92.12
369.315	88.12
369.541	74.12
369.767	86.12
369.993	92.12
370.219	77.12
370.445	92.12
370.672	85.12
370.898	95.12
371.124	91.12
371.35	78.12
371.576	95.12
371.802	71.12
372.028	79.12
372.254	83.12
372.48	86.12
372.706	85.12
372.932	90.12
373.158	84.12
373.384	75.12
373.61	89.12
373.835	80.12
374.061	85.12
374.287	83.12
374.513	85.12
374.739	96.12
374.965	77.12
375.191	83.12
375.416	87.12
375.642	80.12
375.868	97.12
376.094	84.12
376.319	89.12
376.545	79.12
376.771	82.12
376.997	79.12
377.222	86.12
377.448	91.12
377.674	90.12
377.899	85.12
378.125	87.12
378.35	80.12
378.576	93.12
378.802	75.12
379.027	85.12
379.253	83.12
379.478	84.12
379.704	91.12
379.929	67.12
380.155	91.12
380.38	90.12
380.606	71.12
380.831	82.12
381.057	100.12
381.282	90.12
381.507	74.12
381.733	95.12
381.958	90.12
382.184	83.12
382.409	98.12
382.634	100.12
382.86	95.12
383.085	85.12
383.31	86.12
383.535	110.12
383.761	89.12
383.986	91.12
384.211	84.12
384.436	76.12
384.662	88.12
384.887	80.12
385.112	86.12
385.337	77.12
385.562	85.12
385.787	88.12
386.013	83.12
386.238	98.12
386.463	89.12
386.688	93.12
386.913	82.12
387.138	91.12
387.363	85.12
387.588	86.12
387.813	89.12
388.038	86.12
388.263	84.12
388.488	87.12
388.713	79.12
388.938	90.12
389.163	91.12
389.387	86.12
389.612	91.12
389.837	75.12
390.062	81.12
390.287	74.12
390.512	75.12
390.736	87.12
390.961	71.12
391.186	82.12
391.411	75.12
391.636	80.12
391.86	86.12
392.085	90.12
392.31	90.12
392.534	78.12
392.759	75.12
392.984	95.12
393.208	71.12
393.433	93.12
393.658	85.12
393.882	89.12
394.107	92.12
394.331	89.12
394.556	81.12
394.78	82.12
395.005	81.12
395.229	73.12
395.454	91.12
395.678	77.12
395.903	87.12
396.127	71.12
396.352	81.12
396.576	95.12
396.801	86.12
397.025	77.12
397.249	93.12
397.474	107.12
397.698	78.12
397.922	79.12
398.147	70.12
398.371	82.12
398.595	93.12
398.82	95.12
399.044	84.12
399.268	76.12
399.492	92.12
399.717	86.12
399.941	92.12
400.165	92.12
400.389	93.12
400.613	85.12
400.837	86.12
401.062	98.12
401.286	89.12
401.51	94.12
401.734	92.12
401.958	91.12
402.182	88.12
402.406	93.12
402.63	94.12
402.854	82.12
403.078	85.12
403.302	90.12
403.526	93.12
403.75	98.12
403.974	101.12
404.198	146.12
404.422	188.12
404.645	205.12
404.869	174.12
405.093	131.12
405.317	120.12
405.541	101.12
405.765	104.12
405.988	94.12
406.212	83.12
406.436	73.12
406.66	84.12
406.883	87.12
407.107	93.12
407.331	82.12
407.555	81.12
407.778	84.12
408.002	86.12
408.226	84.12
408.449	90.12
408.673	80.12
408.896	83.12
409.12	92.12
409.344	78.12
409.567	91.12
409.791	78.12
410.014	91.12
410.238	75.12
410.461	81.12
410.685	87.12
410.908	92.12
411.132	83.12
411.355	82.12
411.578	95.12
411.802	95.12
412.025	86.12
412.249	76.12
412.472	87.12
412.695	87.12
412.919	77.12
413.142	73.12
413.365	84.12
413.589	81.12
413.812	78.12
414.035	76.12
414.258	86.12
414.482	83.12
414.705	88.12
414.928	91.12
415.151	80.12
415.374	89.12
415.597	86.12
415.821	90.12
416.044	77.12
416.267	84.12
416.49	84.12
416.713	79.12
416.936	82.12
417.159	90.12
417.382	94.12
417.605	91.12
417.828	84.12
418.051	91.12
418.274	86.12
418.497	88.12
418.72	83.12
418.943	86.12
419.166	77.12
419.389	95.12
419.611	98.12
419.834	96.12
420.057	81.12
420.28	80.12
420.503	100.12
420.726	93.12
420.948	95.12
421.171	79.12
421.394	92.12
421.617	87.12
421.839	87.12
422.062	82.12
422.285	92.12
422.507	85.12
422.73	94.12
422.953	92.12
423.175	91.12
423.398	86.12
423.621	97.12
423.843	92.12
424.066	91.12
424.288	89.12
424.511	90.12
424.733	90.12
424.956	89.12
425.178	78.12
425.401	86.12
425.623	88.12
425.846	89.12
426.068	86.12
426.291	83.12
426.513	84.12
426.735	78.12
426.958	95.12
427.18	82.12
427.402	86.12
427.625	87.12
427.847	89.12
428.069	81.12
428.292	81.12
428.514	93.12
428.736	88.12
428.958	95.12
429.181	86.12
429.403	71.12
429.625	83.12
429.847	83.12
430.069	83.12
430.292	99.12
430.514	98.12
430.736	82.12
430.958	74.12
431.18	98.12
431.402	81.12
431.624	70.12
431.846	80.12
432.068	87.12
432.29	95.12
432.512	92.12
432.734	82.12
432.956	85.12
433.178	94.12
433.4	90.12
433.622	89.12
433.844	84.12
434.066	74.12
434.287	74.12
434.509	99.12
434.731	89.12
434.953	80.12
435.175	92.12
435.397	83.12
435.618	94.12
435.84	91.12
436.062	88.12
436.284	79.12
436.505	99.12
436.727	85.12
436.949	78.12
437.17	88.12
437.392	93.12
437.614	92.12
437.835	94.12
438.057	89.12
438.278	87.12
438.5	72.12
438.721	83.12
438.943	95.12
439.165	102.12
439.386	79.12
439.608	83.12
439.829	93.12
440.05	77.12
440.272	92.12
440.493	79.12
440.715	85.12
440.936	85.12
441.158	80.12
441.379	75.12
441.6	83.12
441.822	97.12
442.043	71.12
442.264	90.12
442.486	91.12
442.707	90.12
442.928	85.12
443.149	93.12
443.371	78.12
443.592	87.12
443.813	86.12
444.034	91.12
444.255	90.12
444.476	89.12
444.698	81.12
444.919	86.12
445.14	139.12
445.361	105.12
445.582	88.12
445.803	87.12
446.024	86.12
446.245	93.12
446.466	90.12
446.687	91.12
446.908	87.12
447.129	90.12
447.35	90.12
447.571	79.12
447.792	89.12
448.013	91.12
448.234	86.12
448.455	88.12
448.675	92.12
448.896	90.12
449.117	82.12
449.338	78.12
449.559	89.12
449.779	79.12
450	80.12
450.221	94.12
450.442	89.12
450.662	81.12
450.883	87.12
451.104	82.12
451.324	96.12
451.545	81.12
451.766	79.12
451.986	81.12
452.207	89.12
452.428	84.12
452.648	85.12
452.869	96.12
453.089	91.12
453.31	75.12
453.53	87.12
453.751	106.12
453.971	91.12
454.192	84.12
454.412	97.12
454.633	100.12
454.853	89.12
455.073	100.12
455.294	81.12
455.514	101.12
455.734	81.12
455.955	89.12
456.175	82.12
456.395	78.12
456.616	98.12
456.836	89.12
457.056	90.12
457.276	82.12
457.497	91.12
457.717	93.12
457.937	85.12
458.157	88.12
458.377	80.12
458.598	75.12
458.818	85.12
459.038	84.12
459.258	87.12
459.478	75.12
459.698	98.12
459.918	77.12
460.138	82.12
460.358	76.12
460.578	78.12
460.798	84.12
461.018	94.12
461.238	95.12
461.458	98.12
461.678	93.12
461.898	75.12
462.118	75.12
462.338	86.12
462.558	101.12
462.777	92.12
462.997	89.12
463.217	84.12
463.437	86.12
463.657	88.12
463.876	101.12
464.096	81.12
464.316	88.12
464.536	95.12
464.755	71.12
464.975	87.12
465.195	95.12
465.414	106.12
465.634	93.12
465.854	81.12
466.073	97.12
466.293	91.12
466.512	96.12
466.732	93.12
466.951	80.12
467.171	97.12
467.391	82.12
467.61	103.12
467.829	91.12
468.049	99.12
468.268	69.12
468.488	87.12
468.707	79.12
468.927	83.12
469.146	75.12
469.365	90.12
469.585	85.12
469.804	83.12
470.023	85.12
470.243	86.12
470.462	89.12
470.681	92.12
470.901	83.12
471.12	79.12
471.339	101.12
471.558	103.12
471.777	95.12
471.997	95.12
472.216	98.12
472.435	88.12
472.654	82.12
472.873	90.12
473.092	94.12
473.311	98.12
473.53	79.12
473.749	95.12
473.968	94.12
474.187	89.12
474.406	82.12
474.625	87.12
474.844	94.12
475.063	96.12
475.282	79.12
475.501	72.12
475.72	91.12
475.939	91.12
476.158	96.12
476.377	100.12
476.596	86.12
476.814	77.12
477.033	87.12
477.252	88.12
477.471	89.12
477.69	77.12
477.908	90.12
478.127	78.12
478.346	91.12
478.564	77.12
478.783	78.12
479.002	95.12
479.22	87.12
479.439	90.12
479.658	100.12
479.876	89.12
480.095	82.12
480.313	89.12
480.532	100.12
480.751	93.12
480.969	78.12
481.188	73.12
481.406	81.12
481.624	94.12
481.843	91.12
482.061	87.12
482.28	99.12
482.498	96.12
482.717	92.12
482.935	83.12
483.153	101.12
483.372	102.12
483.59	81.12
483.808	83.12
484.027	100.12
484.245	95.12
484.463	97.12
484.681	91.12
484.9	81.12
485.118	90.12
485.336	89.12
485.554	95.12
485.772	102.12
485.99	87.12
486.209	97.12
486.427	77.12
486.645	74.12
486.863	80.12
487.081	88.12
487.299	97.12
487.517	81.12
487.735	92.12
487.953	95.12
488.171	98.12
488.389	91.12
488.607	72.12
488.825	101.12
489.043	94.12
489.261	107.12
489.479	77.12
489.696	105.12
489.914	79.12
490.132	81.12
490.35	97.12
490.568	100.12
490.786	87.12
491.003	101.12
491.221	88.12
491.439	88.12
491.657	102.12
491.874	101.12
492.092	81.12
492.31	83.12
492.527	98.12
492.745	81.12
492.963	105.12
493.18	96.12
493.398	91.12
493.615	117.12
493.833	94.12
494.05	85.12
494.268	93.12
494.485	97.12
494.703	97.12
494.92	86.12
495.138	91.12
495.355	102.12
495.573	92.12
495.79	97.12
496.008	113.12
496.225	107.12
496.442	98.12
496.66	97.12
496.877	93.12
497.094	91.12
497.312	106.12
497.529	85.12
497.746	77.12
497.963	86.12
498.181	89.12
498.398	95.12
498.615	88.12
498.832	88.12
499.049	89.12
499.267	91.12
499.484	74.12
499.701	78.12
499.918	96.12
500.135	104.12
500.352	102.12
500.569	91.12
500.786	89.12
501.003	100.12
501.22	89.12
501.437	97.12
501.654	83.12
501.871	91.12
502.088	84.12
502.305	94.12
502.522	86.12
502.739	91.12
502.956	90.12
503.172	100.12
503.389	105.12
503.606	79.12
503.823	101.12
504.04	93.12
504.256	90.12
504.473	96.12
504.69	89.12
504.907	96.12
505.123	93.12
505.34	96.12
505.557	82.12
505.773	92.12
505.99	94.12
506.207	93.12
506.423	96.12
506.64	94.12
506.856	97.12
507.073	93.12
507.289	94.12
507.506	87.12
507.722	103.12
507.939	82.12
508.155	95.12
508.372	88.12
508.588	88.12
508.805	90.12
509.021	90.12
509.238	84.12
509.454	95.12
509.67	107.12
509.887	91.12
510.103	89.12
510.319	100.12
510.536	87.12
510.752	83.12
510.968	83.12
511.184	86.12
511.401	92.12
511.617	105.12
511.833	64.12
512.049	88.12
512.265	86.12
512.481	97.12
512.698	90.12
512.914	87.12
513.13	94.12
513.346	90.12
513.562	86.12
513.778	98.12
513.994	88.12
514.21	75.12
514.426	92.12
514.642	90.12
514.858	89.12
515.074	78.12
515.29	92.12
515.506	71.12
515.721	79.12
515.937	95.12
516.153	80.12
516.369	80.12
516.585	101.12
516.801	80.12
517.016	94.12
517.232	88.12
517.448	97.12
517.664	78.12
517.879	95.12
518.095	84.12
518.311	102.12
518.527	80.12
518.742	96.12
518.958	91.12
519.173	82.12
