Data from KBrNoHeat2_HRD10591_00020.txt Node
Date: Fri Dec 27 14:47:51 EST 2024
User: Yrep
Spectrometer: HR+D1059
Trigger mode: 1
Integration Time (sec): 1.000000E-1
Scans to average: 1
Electric dark correction enabled: true
Nonlinearity correction enabled: false
Boxcar width: 0
XAxis mode: Wavelengths
Number of Pixels in Spectrum: 2048
>>>>>Begin Spectral Data<<<<<
223.165	-12
223.4	-12
223.635	-12
223.869	-20
224.104	-23
224.338	-8
224.573	-21
224.808	-5
225.042	-12
225.277	9
225.511	0
225.746	7
225.98	2
226.215	12
226.449	18
226.683	20
226.918	12
227.152	21
227.387	48
227.621	38
227.856	51
228.09	44
228.324	35
228.559	52
228.793	57
229.027	64
229.262	67
229.496	61
229.73	74
229.964	59
230.199	70
230.433	85
230.667	83
230.901	79
231.136	68
231.37	66
231.604	71
231.838	58
232.072	74
232.306	82
232.541	75
232.775	84
233.009	95
233.243	80
233.477	57
233.711	84
233.945	85
234.179	71
234.413	64
234.647	75
234.881	85
235.115	67
235.349	77
235.583	64
235.817	84
236.051	77
236.285	74
236.519	83
236.753	77
236.987	77
237.221	81
237.455	77
237.689	89
237.922	84
238.156	75
238.39	76
238.624	68
238.858	80
239.091	77
239.325	83
239.559	76
239.793	66
240.027	77
240.26	73
240.494	64
240.728	60
240.961	63
241.195	84
241.429	73
241.662	66
241.896	93
242.13	70
242.363	57
242.597	82
242.83	73
243.064	64
243.298	76
243.531	70
243.765	76
243.998	73
244.232	64
244.465	78
244.699	92
244.932	61
245.166	85
245.399	75
245.633	80
245.866	74
246.099	83
246.333	82
246.566	68
246.8	66
247.033	82
247.266	76
247.5	66
247.733	63
247.966	60
248.2	74
248.433	82
248.666	75
248.899	74
249.133	81
249.366	80
249.599	85
249.832	85
250.066	70
250.299	82
250.532	70
250.765	84
250.998	64
251.231	72
251.465	76
251.698	73
251.931	82
252.164	80
252.397	65
252.63	73
252.863	76
253.096	72
253.329	60
253.562	74
253.795	71
254.028	84
254.261	66
254.494	60
254.727	87
254.96	82
255.193	88
255.426	80
255.659	73
255.892	80
256.124	73
256.357	83
256.59	88
256.823	61
257.056	72
257.289	79
257.521	83
257.754	71
257.987	73
258.22	77
258.452	74
258.685	80
258.918	85
259.151	85
259.383	81
259.616	65
259.849	78
260.081	86
260.314	92
260.547	82
260.779	59
261.012	71
261.244	77
261.477	76
261.71	82
261.942	82
262.175	86
262.407	71
262.64	85
262.872	69
263.105	71
263.337	78
263.57	70
263.802	79
264.035	68
264.267	64
264.499	80
264.732	85
264.964	66
265.197	80
265.429	72
265.661	79
265.894	76
266.126	68
266.358	73
266.591	83
266.823	88
267.055	67
267.287	62
267.52	82
267.752	81
267.984	74
268.216	77
268.448	78
268.681	93
268.913	85
269.145	97
269.377	73
269.609	62
269.841	78
270.073	86
270.306	79
270.538	78
270.77	89
271.002	81
271.234	65
271.466	81
271.698	77
271.93	77
272.162	74
272.394	79
272.626	89
272.858	79
273.09	88
273.322	89
273.553	77
273.785	68
274.017	75
274.249	70
274.481	100
274.713	62
274.945	73
275.176	90
275.408	76
275.64	73
275.872	87
276.104	92
276.335	83
276.567	72
276.799	75
277.031	72
277.262	93
277.494	76
277.726	86
277.957	90
278.189	70
278.421	71
278.652	85
278.884	93
279.115	80
279.347	88
279.579	75
279.81	82
280.042	82
280.273	75
280.505	82
280.736	78
280.968	81
281.199	80
281.431	86
281.662	77
281.894	80
282.125	70
282.356	77
282.588	78
282.819	86
283.051	91
283.282	87
283.513	78
283.745	76
283.976	91
284.207	93
284.439	79
284.67	96
284.901	89
285.132	88
285.364	96
285.595	92
285.826	82
286.057	97
286.288	77
286.52	78
286.751	86
286.982	81
287.213	77
287.444	92
287.675	86
287.906	80
288.138	94
288.369	73
288.6	71
288.831	80
289.062	85
289.293	66
289.524	76
289.755	84
289.986	77
290.217	80
290.448	76
290.679	101
290.91	86
291.141	90
291.371	83
291.602	89
291.833	80
292.064	84
292.295	86
292.526	79
292.757	92
292.987	84
293.218	89
293.449	79
293.68	93
293.91	76
294.141	92
294.372	80
294.603	83
294.833	83
295.064	83
295.295	80
295.525	76
295.756	82
295.987	98
296.217	88
296.448	89
296.679	79
296.909	82
297.14	96
297.37	88
297.601	76
297.831	69
298.062	79
298.292	80
298.523	83
298.753	71
298.984	81
299.214	77
299.445	78
299.675	86
299.905	95
300.136	90
300.366	68
300.597	81
300.827	94
301.057	92
301.288	85
301.518	82
301.748	74
301.979	84
302.209	92
302.439	80
302.669	77
302.9	79
303.13	68
303.36	72
303.59	88
303.82	81
304.051	99
304.281	82
304.511	72
304.741	73
304.971	81
305.201	88
305.431	87
305.661	82
305.891	79
306.121	85
306.352	90
306.582	75
306.812	78
307.042	72
307.272	62
307.502	76
307.731	78
307.961	72
308.191	94
308.421	83
308.651	68
308.881	82
309.111	83
309.341	78
309.571	70
309.8	89
310.03	78
310.26	98
310.49	76
310.72	92
310.949	78
311.179	84
311.409	88
311.639	90
311.868	77
312.098	85
312.328	92
312.557	66
312.787	80
313.017	92
313.246	92
313.476	84
313.706	84
313.935	85
314.165	73
314.394	87
314.624	78
314.853	92
315.083	87
315.312	88
315.542	80
315.771	92
316.001	81
316.23	83
316.46	78
316.689	73
316.919	68
317.148	79
317.377	84
317.607	97
317.836	74
318.065	77
318.295	81
318.524	80
318.753	82
318.983	72
319.212	86
319.441	81
319.67	93
319.9	84
320.129	88
320.358	88
320.587	73
320.816	92
321.046	85
321.275	73
321.504	83
321.733	73
321.962	77
322.191	78
322.42	81
322.649	98
322.878	78
323.108	82
323.337	86
323.566	100
323.795	79
324.024	88
324.253	93
324.482	78
324.71	86
324.939	95
325.168	98
325.397	96
325.626	79
325.855	78
326.084	91
326.313	68
326.542	76
326.77	85
326.999	81
327.228	79
327.457	84
327.686	78
327.914	79
328.143	74
328.372	79
328.6	79
328.829	78
329.058	72
329.287	81
329.515	70
329.744	78
329.972	76
330.201	86
330.43	82
330.658	76
330.887	63
331.115	77
331.344	84
331.572	69
331.801	76
332.03	86
332.258	86
332.486	70
332.715	80
332.943	86
333.172	84
333.4	74
333.629	77
333.857	88
334.085	77
334.314	86
334.542	84
334.771	69
334.999	83
335.227	78
335.455	77
335.684	84
335.912	88
336.14	76
336.369	80
336.597	73
336.825	78
337.053	73
337.281	73
337.51	74
337.738	78
337.966	83
338.194	72
338.422	72
338.65	90
338.878	84
339.106	78
339.334	78
339.562	81
339.79	82
340.018	75
340.246	75
340.474	88
340.702	87
340.93	73
341.158	69
341.386	85
341.614	80
341.842	87
342.07	69
342.298	76
342.526	84
342.754	82
342.981	83
343.209	84
343.437	95
343.665	76
343.893	88
344.12	92
344.348	86
344.576	87
344.804	87
345.031	94
345.259	74
345.487	89
345.714	72
345.942	80
346.17	79
346.397	78
346.625	78
346.853	88
347.08	70
347.308	78
347.535	88
347.763	87
347.99	72
348.218	85
348.445	86
348.673	69
348.9	93
349.128	93
349.355	84
349.583	86
349.81	78
350.037	83
350.265	84
350.492	77
350.72	79
350.947	89
351.174	78
351.402	78
351.629	67
351.856	98
352.083	79
352.311	98
352.538	89
352.765	90
352.992	80
353.22	86
353.447	75
353.674	78
353.901	76
354.128	97
354.355	86
354.583	73
354.81	83
355.037	81
355.264	94
355.491	94
355.718	92
355.945	93
356.172	74
356.399	98
356.626	77
356.853	81
357.08	80
357.307	85
357.534	87
357.761	86
357.988	84
358.215	82
358.441	107
358.668	69
358.895	86
359.122	78
359.349	83
359.576	85
359.802	82
360.029	84
360.256	69
360.483	86
360.709	74
360.936	101
361.163	82
361.39	81
361.616	95
361.843	73
362.07	81
362.296	70
362.523	78
362.749	92
362.976	80
363.203	93
363.429	73
363.656	90
363.882	77
364.109	89
364.335	68
364.562	67
364.788	78
365.015	77
365.241	79
365.468	76
365.694	83
365.92	77
366.147	86
366.373	82
366.599	89
366.826	80
367.052	84
367.278	76
367.505	86
367.731	98
367.957	90
368.184	89
368.41	81
368.636	77
368.862	80
369.089	79
369.315	80
369.541	84
369.767	79
369.993	76
370.219	84
370.445	80
370.672	88
370.898	72
371.124	78
371.35	84
371.576	83
371.802	86
372.028	81
372.254	72
372.48	67
372.706	78
372.932	104
373.158	84
373.384	78
373.61	83
373.835	67
374.061	74
374.287	83
374.513	89
374.739	73
374.965	74
375.191	95
375.416	89
375.642	82
375.868	78
376.094	76
376.319	68
376.545	73
376.771	77
376.997	65
377.222	90
377.448	85
377.674	87
377.899	89
378.125	75
378.35	77
378.576	73
378.802	70
379.027	96
379.253	75
379.478	76
379.704	63
379.929	89
380.155	75
380.38	80
380.606	75
380.831	74
381.057	70
381.282	80
381.507	74
381.733	72
381.958	79
382.184	83
382.409	79
382.634	96
382.86	82
383.085	81
383.31	87
383.535	85
383.761	83
383.986	76
384.211	98
384.436	81
384.662	80
384.887	94
385.112	93
385.337	93
385.562	73
385.787	77
386.013	95
386.238	85
386.463	77
386.688	80
386.913	81
387.138	86
387.363	84
387.588	80
387.813	98
388.038	81
388.263	71
388.488	94
388.713	86
388.938	90
389.163	81
389.387	76
389.612	82
389.837	86
390.062	76
390.287	74
390.512	72
390.736	79
390.961	80
391.186	82
391.411	71
391.636	83
391.86	84
392.085	78
392.31	87
392.534	78
392.759	71
392.984	76
393.208	88
393.433	104
393.658	87
393.882	72
394.107	71
394.331	92
394.556	80
394.78	91
395.005	86
395.229	88
395.454	84
395.678	82
395.903	88
396.127	89
396.352	85
396.576	85
396.801	72
397.025	93
397.249	70
397.474	71
397.698	89
397.922	84
398.147	88
398.371	82
398.595	94
398.82	80
399.044	73
399.268	73
399.492	88
399.717	76
399.941	71
400.165	86
400.389	77
400.613	81
400.837	77
401.062	88
401.286	88
401.51	89
401.734	77
401.958	85
402.182	82
402.406	85
402.63	83
402.854	80
403.078	105
403.302	97
403.526	93
403.75	89
403.974	105
404.198	112
404.422	162
404.645	172
404.869	148
405.093	124
405.317	81
405.541	99
405.765	79
405.988	80
406.212	94
406.436	64
406.66	80
406.883	89
407.107	76
407.331	86
407.555	79
407.778	80
408.002	85
408.226	88
408.449	88
408.673	88
408.896	84
409.12	75
409.344	80
409.567	86
409.791	83
410.014	74
410.238	92
410.461	81
410.685	83
410.908	96
411.132	83
411.355	85
411.578	87
411.802	84
412.025	84
412.249	85
412.472	87
412.695	83
412.919	74
413.142	81
413.365	83
413.589	79
413.812	80
414.035	76
414.258	65
414.482	68
414.705	80
414.928	82
415.151	83
415.374	87
415.597	81
415.821	80
416.044	70
416.267	94
416.49	80
416.713	79
416.936	66
417.159	70
417.382	86
417.605	89
417.828	90
418.051	80
418.274	83
418.497	86
418.72	78
418.943	82
419.166	71
419.389	98
419.611	69
419.834	88
420.057	81
420.28	81
420.503	73
420.726	76
420.948	95
421.171	79
421.394	80
421.617	83
421.839	77
422.062	88
422.285	84
422.507	93
422.73	93
422.953	82
423.175	84
423.398	69
423.621	62
423.843	74
424.066	88
424.288	80
424.511	96
424.733	76
424.956	94
425.178	62
425.401	73
425.623	82
425.846	89
426.068	79
426.291	78
426.513	84
426.735	96
426.958	90
427.18	76
427.402	95
427.625	78
427.847	84
428.069	87
428.292	80
428.514	77
428.736	80
428.958	89
429.181	93
429.403	94
429.625	79
429.847	86
430.069	84
430.292	82
430.514	83
430.736	72
430.958	85
431.18	80
431.402	74
431.624	82
431.846	70
432.068	83
432.29	81
432.512	78
432.734	81
432.956	82
433.178	89
433.4	89
433.622	71
433.844	72
434.066	82
434.287	71
434.509	58
434.731	82
434.953	84
435.175	86
435.397	73
435.618	78
435.84	73
436.062	67
436.284	76
436.505	87
436.727	66
436.949	90
437.17	71
437.392	81
437.614	70
437.835	65
438.057	84
438.278	97
438.5	100
438.721	84
438.943	92
439.165	79
439.386	83
439.608	80
439.829	87
440.05	73
440.272	72
440.493	77
440.715	88
440.936	85
441.158	87
441.379	84
441.6	78
441.822	67
442.043	73
442.264	63
442.486	85
442.707	84
442.928	81
443.149	89
443.371	91
443.592	82
443.813	82
444.034	88
444.255	83
444.476	83
444.698	84
444.919	82
445.14	156
445.361	122
445.582	83
445.803	103
446.024	75
446.245	69
446.466	84
446.687	78
446.908	71
447.129	92
447.35	83
447.571	85
447.792	81
448.013	80
448.234	82
448.455	82
448.675	80
448.896	77
449.117	81
449.338	73
449.559	93
449.779	85
450	79
450.221	85
450.442	86
450.662	73
450.883	94
451.104	93
451.324	88
451.545	81
451.766	86
451.986	69
452.207	85
452.428	89
452.648	79
452.869	84
453.089	79
453.31	80
453.53	70
453.751	86
453.971	85
454.192	69
454.412	85
454.633	70
454.853	89
455.073	83
455.294	90
455.514	90
455.734	74
455.955	86
456.175	89
456.395	72
456.616	82
456.836	73
457.056	80
457.276	77
457.497	81
457.717	86
457.937	93
458.157	92
458.377	82
458.598	86
458.818	76
459.038	76
459.258	88
459.478	81
459.698	93
459.918	77
460.138	70
460.358	77
460.578	78
460.798	83
461.018	85
461.238	88
461.458	89
461.678	71
461.898	72
462.118	106
462.338	100
462.558	86
462.777	68
462.997	71
463.217	80
463.437	76
463.657	73
463.876	68
464.096	79
464.316	89
464.536	90
464.755	76
464.975	71
465.195	86
465.414	88
465.634	92
465.854	68
466.073	78
466.293	86
466.512	72
466.732	94
466.951	86
467.171	79
467.391	79
467.61	72
467.829	78
468.049	92
468.268	82
468.488	88
468.707	79
468.927	70
469.146	79
469.365	88
469.585	95
469.804	94
470.023	80
470.243	89
470.462	92
470.681	97
470.901	81
471.12	89
471.339	83
471.558	76
471.777	78
471.997	87
472.216	71
472.435	86
472.654	79
472.873	86
473.092	82
473.311	88
473.53	95
473.749	90
473.968	92
474.187	92
474.406	88
474.625	82
474.844	84
475.063	84
475.282	80
475.501	81
475.72	76
475.939	86
476.158	98
476.377	80
476.596	73
476.814	81
477.033	84
477.252	97
477.471	86
477.69	79
477.908	71
478.127	88
478.346	88
478.564	93
478.783	92
479.002	94
479.22	80
479.439	86
479.658	88
479.876	86
480.095	99
480.313	77
480.532	87
480.751	81
480.969	77
481.188	88
481.406	89
481.624	82
481.843	81
482.061	80
482.28	80
482.498	76
482.717	65
482.935	87
483.153	85
483.372	85
483.59	80
483.808	91
484.027	88
484.245	76
484.463	78
484.681	88
484.9	90
485.118	92
485.336	77
485.554	86
485.772	80
485.99	88
486.209	101
486.427	94
486.645	74
486.863	81
487.081	84
487.299	83
487.517	85
487.735	98
487.953	88
488.171	91
488.389	81
488.607	100
488.825	82
489.043	71
489.261	75
489.479	90
489.696	106
489.914	73
490.132	81
490.35	95
490.568	90
490.786	94
491.003	82
491.221	94
491.439	96
491.657	105
491.874	93
492.092	89
492.31	89
492.527	85
492.745	74
492.963	96
493.18	88
493.398	96
493.615	96
493.833	91
494.05	99
494.268	59
494.485	89
494.703	92
494.92	86
495.138	96
495.355	90
495.573	80
495.79	101
496.008	102
496.225	83
496.442	78
496.66	92
496.877	86
497.094	85
497.312	80
497.529	90
497.746	95
497.963	86
498.181	75
498.398	89
498.615	87
498.832	86
499.049	88
499.267	81
499.484	94
499.701	84
499.918	76
500.135	68
500.352	79
500.569	92
500.786	81
501.003	95
501.22	89
501.437	89
501.654	89
501.871	85
502.088	88
502.305	79
502.522	81
502.739	90
502.956	88
503.172	78
503.389	76
503.606	95
503.823	89
504.04	89
504.256	93
504.473	78
504.69	66
504.907	94
505.123	82
505.34	86
505.557	92
505.773	85
505.99	77
506.207	98
506.423	92
506.64	80
506.856	96
507.073	81
507.289	94
507.506	86
507.722	85
507.939	82
508.155	85
508.372	73
508.588	89
508.805	80
509.021	91
509.238	94
509.454	78
509.67	80
509.887	85
510.103	92
510.319	94
510.536	89
510.752	76
510.968	87
511.184	81
511.401	81
511.617	84
511.833	91
512.049	94
512.265	95
512.481	82
512.698	85
512.914	95
513.13	86
513.346	86
513.562	75
513.778	91
513.994	88
514.21	73
514.426	80
514.642	81
514.858	94
515.074	73
515.29	87
515.506	87
515.721	91
515.937	80
516.153	81
516.369	86
516.585	75
516.801	82
517.016	89
517.232	73
517.448	83
517.664	105
517.879	86
518.095	80
518.311	103
518.527	81
518.742	74
518.958	85
519.173	90
519.389	92
519.605	78
519.82	85
520.036	85
520.251	77
520.467	80
520.682	87
520.898	84
521.113	82
521.329	61
521.544	85
521.76	84
521.975	104
522.19	87
522.406	86
522.621	89
522.836	96
523.052	94
523.267	80
523.482	96
523.698	79
523.913	81
524.128	87
524.343	84
524.559	88
524.774	86
524.989	86
525.204	105
525.419	87
525.634	80
525.849	93
526.064	86
526.28	70
526.495	94
526.71	76
526.925	82
527.14	81
527.355	81
527.57	82
527.785	76
527.999	76
528.214	78
528.429	81
528.644	81
528.859	91
529.074	86
529.289	80
529.503	86
529.718	78
529.933	71
530.148	68
530.363	81
530.577	91
530.792	79
531.007	77
531.221	89
531.436	78
531.651	94
531.865	87
532.08	85
532.295	93
532.509	86
532.724	95
532.938	92
533.153	83
533.367	92
533.582	88
533.796	71
534.011	100
534.225	92
534.44	105
534.654	90
534.868	91
535.083	104
535.297	75
535.511	92
535.726	87
535.94	92
536.154	105
536.369	107
536.583	86
536.797	96
537.011	98
537.225	87
537.44	87
537.654	96
537.868	88
538.082	80
538.296	96
538.51	79
538.724	94
538.938	96
539.153	88
539.367	97
539.581	100
539.795	96
540.009	86
540.222	79
540.436	105
540.65	81
540.864	73
541.078	85
541.292	78
541.506	81
541.72	79
541.934	89
542.147	101
542.361	92
542.575	88
542.789	77
543.002	90
543.216	89
543.43	78
543.644	82
543.857	84
544.071	81
544.285	101
544.498	86
544.712	78
544.925	90
545.139	86
545.352	73
545.566	95
545.779	96
545.993	97
546.206	90
546.42	98
546.633	104
546.847	89
547.06	82
547.274	71
547.487	85
547.7	71
547.914	86
548.127	97
548.34	72
548.554	70
548.767	95
548.98	94
549.193	95
549.407	89
549.62	84
549.833	94
550.046	84
550.259	80
550.473	87
550.686	87
550.899	93
551.112	98
551.325	81
551.538	94
551.751	92
551.964	93
552.177	97
552.39	89
552.603	87
552.816	95
553.029	96
553.242	96
553.455	86
553.667	90
553.88	94
554.093	80
554.306	97
554.519	80
554.732	85
554.944	101
555.157	98
555.37	85
555.583	86
555.795	95
556.008	83
556.221	88
556.433	96
556.646	74
556.859	90
557.071	86
557.284	89
557.496	89
557.709	86
557.921	101
558.134	89
558.346	78
558.559	81
558.771	79
558.984	83
559.196	95
559.409	90
559.621	92
559.833	85
560.046	80
560.258	81
560.47	88
560.683	83
560.895	87
561.107	87
561.32	88
561.532	86
561.744	98
561.956	84
562.168	92
562.381	90
562.593	100
562.805	94
563.017	104
563.229	91
563.441	80
563.653	89
563.865	92
564.077	80
564.289	82
564.501	80
564.713	85
564.925	87
565.137	93
565.349	80
565.561	89
565.773	85
565.985	80
566.197	88
566.408	72
566.62	99
566.832	93
567.044	88
567.255	79
567.467	86
567.679	85
567.891	72
568.102	96
568.314	80
568.526	67
568.737	82
568.949	95
569.161	84
569.372	82
569.584	87
569.795	84
570.007	79
570.218	78
570.43	91
570.641	72
570.853	85
571.064	92
571.276	88
571.487	90
571.698	93
571.91	89
572.121	80
572.333	81
572.544	94
572.755	83
572.966	92
573.178	81
573.389	89
573.6	79
573.811	83
574.023	79
574.234	80
574.445	78
574.656	84
574.867	88
575.078	78
575.289	91
575.501	93
575.712	95
575.923	94
576.134	75
576.345	89
576.556	92
576.767	103
576.978	70
577.188	84
577.399	75
577.61	88
577.821	78
578.032	88
578.243	79
578.454	97
578.665	94
578.875	101
579.086	93
579.297	94
579.508	84
579.718	85
579.929	111
580.14	98
580.35	112
580.561	116
580.772	112
580.982	94
581.193	84
581.403	108
581.614	96
581.825	94
582.035	92
582.246	91
582.456	99
582.667	83
582.877	83
583.087	95
583.298	96
583.508	94
583.719	89
583.929	86
584.139	86
584.35	99
584.56	102
584.77	88
584.981	77
585.191	91
585.401	86
585.611	77
585.821	98
586.032	92
586.242	86
586.452	92
586.662	85
586.872	77
587.082	97
587.292	76
587.502	76
587.713	83
587.923	104
588.133	92
588.343	95
588.553	88
588.762	110
588.972	154
589.182	255
589.392	180
589.602	142
589.812	220
590.022	140
