Data from 1600_3_HRD10591_00025.txt Node
Date: Mon Jan 19 13:55:05 EST 2026
User: Yrep
Spectrometer: HR+D1059
Trigger mode: 1
Integration Time (sec): 1.000000E-1
Scans to average: 1
Electric dark correction enabled: true
Nonlinearity correction enabled: false
Boxcar width: 0
XAxis mode: Wavelengths
Number of Pixels in Spectrum: 2048
>>>>>Begin Spectral Data<<<<<
223.165	-27.38
223.4	-27.38
223.635	-27.38
223.869	-27.38
224.104	-15.38
224.338	-7.38
224.573	-14.38
224.808	-11.38
225.042	-7.38
225.277	-6.38
225.511	-6.38
225.746	-4.38
225.98	9.62
226.215	22.62
226.449	11.62
226.683	32.62
226.918	21.62
227.152	29.62
227.387	27.62
227.621	49.62
227.856	60.62
228.09	46.62
228.324	57.62
228.559	68.62
228.793	69.62
229.027	60.62
229.262	60.62
229.496	68.62
229.73	59.62
229.964	80.62
230.199	66.62
230.433	67.62
230.667	62.62
230.901	84.62
231.136	78.62
231.37	90.62
231.604	92.62
231.838	88.62
232.072	69.62
232.306	82.62
232.541	94.62
232.775	79.62
233.009	72.62
233.243	75.62
233.477	71.62
233.711	93.62
233.945	82.62
234.179	70.62
234.413	66.62
234.647	87.62
234.881	68.62
235.115	87.62
235.349	75.62
235.583	72.62
235.817	76.62
236.051	88.62
236.285	75.62
236.519	82.62
236.753	82.62
236.987	65.62
237.221	81.62
237.455	82.62
237.689	73.62
237.922	72.62
238.156	74.62
238.39	73.62
238.624	80.62
238.858	81.62
239.091	69.62
239.325	91.62
239.559	72.62
239.793	86.62
240.027	84.62
240.26	66.62
240.494	62.62
240.728	67.62
240.961	84.62
241.195	75.62
241.429	87.62
241.662	66.62
241.896	82.62
242.13	71.62
242.363	64.62
242.597	66.62
242.83	75.62
243.064	66.62
243.298	82.62
243.531	79.62
243.765	92.62
243.998	81.62
244.232	82.62
244.465	76.62
244.699	74.62
244.932	80.62
245.166	69.62
245.399	82.62
245.633	87.62
245.866	71.62
246.099	64.62
246.333	71.62
246.566	71.62
246.8	79.62
247.033	84.62
247.266	78.62
247.5	65.62
247.733	77.62
247.966	93.62
248.2	86.62
248.433	86.62
248.666	73.62
248.899	69.62
249.133	81.62
249.366	90.62
249.599	77.62
249.832	82.62
250.066	70.62
250.299	78.62
250.532	75.62
250.765	81.62
250.998	77.62
251.231	88.62
251.465	79.62
251.698	82.62
251.931	87.62
252.164	68.62
252.397	79.62
252.63	73.62
252.863	71.62
253.096	68.62
253.329	83.62
253.562	73.62
253.795	58.62
254.028	80.62
254.261	65.62
254.494	83.62
254.727	94.62
254.96	78.62
255.193	84.62
255.426	78.62
255.659	77.62
255.892	73.62
256.124	74.62
256.357	87.62
256.59	92.62
256.823	82.62
257.056	73.62
257.289	84.62
257.521	60.62
257.754	62.62
257.987	79.62
258.22	93.62
258.452	76.62
258.685	67.62
258.918	78.62
259.151	62.62
259.383	80.62
259.616	84.62
259.849	78.62
260.081	69.62
260.314	74.62
260.547	76.62
260.779	96.62
261.012	94.62
261.244	71.62
261.477	78.62
261.71	73.62
261.942	89.62
262.175	68.62
262.407	82.62
262.64	74.62
262.872	87.62
263.105	85.62
263.337	83.62
263.57	84.62
263.802	89.62
264.035	88.62
264.267	86.62
264.499	83.62
264.732	99.62
264.964	80.62
265.197	84.62
265.429	84.62
265.661	86.62
265.894	70.62
266.126	80.62
266.358	78.62
266.591	84.62
266.823	81.62
267.055	64.62
267.287	70.62
267.52	88.62
267.752	90.62
267.984	82.62
268.216	77.62
268.448	65.62
268.681	82.62
268.913	95.62
269.145	86.62
269.377	82.62
269.609	100.62
269.841	89.62
270.073	75.62
270.306	94.62
270.538	80.62
270.77	101.62
271.002	86.62
271.234	85.62
271.466	85.62
271.698	77.62
271.93	90.62
272.162	80.62
272.394	73.62
272.626	71.62
272.858	85.62
273.09	73.62
273.322	87.62
273.553	79.62
273.785	82.62
274.017	75.62
274.249	83.62
274.481	79.62
274.713	95.62
274.945	95.62
275.176	75.62
275.408	80.62
275.64	72.62
275.872	71.62
276.104	80.62
276.335	83.62
276.567	94.62
276.799	88.62
277.031	84.62
277.262	78.62
277.494	77.62
277.726	84.62
277.957	80.62
278.189	93.62
278.421	79.62
278.652	80.62
278.884	81.62
279.115	78.62
279.347	74.62
279.579	87.62
279.81	76.62
280.042	77.62
280.273	91.62
280.505	83.62
280.736	85.62
280.968	84.62
281.199	70.62
281.431	84.62
281.662	86.62
281.894	101.62
282.125	92.62
282.356	84.62
282.588	75.62
282.819	82.62
283.051	75.62
283.282	81.62
283.513	80.62
283.745	91.62
283.976	77.62
284.207	81.62
284.439	79.62
284.67	85.62
284.901	88.62
285.132	85.62
285.364	88.62
285.595	89.62
285.826	89.62
286.057	87.62
286.288	93.62
286.52	92.62
286.751	77.62
286.982	76.62
287.213	92.62
287.444	80.62
287.675	91.62
287.906	84.62
288.138	80.62
288.369	84.62
288.6	77.62
288.831	82.62
289.062	75.62
289.293	78.62
289.524	88.62
289.755	89.62
289.986	100.62
290.217	79.62
290.448	74.62
290.679	88.62
290.91	83.62
291.141	98.62
291.371	87.62
291.602	82.62
291.833	75.62
292.064	90.62
292.295	86.62
292.526	89.62
292.757	87.62
292.987	83.62
293.218	83.62
293.449	80.62
293.68	82.62
293.91	79.62
294.141	96.62
294.372	81.62
294.603	80.62
294.833	82.62
295.064	93.62
295.295	82.62
295.525	85.62
295.756	84.62
295.987	82.62
296.217	88.62
296.448	87.62
296.679	106.62
296.909	92.62
297.14	102.62
297.37	81.62
297.601	81.62
297.831	76.62
298.062	89.62
298.292	90.62
298.523	81.62
298.753	80.62
298.984	86.62
299.214	103.62
299.445	88.62
299.675	80.62
299.905	85.62
300.136	114.62
300.366	81.62
300.597	85.62
300.827	86.62
301.057	82.62
301.288	76.62
301.518	80.62
301.748	99.62
301.979	96.62
302.209	64.62
302.439	80.62
302.669	87.62
302.9	92.62
303.13	72.62
303.36	95.62
303.59	99.62
303.82	80.62
304.051	92.62
304.281	86.62
304.511	89.62
304.741	101.62
304.971	100.62
305.201	62.62
305.431	78.62
305.661	75.62
305.891	84.62
306.121	71.62
306.352	89.62
306.582	73.62
306.812	86.62
307.042	90.62
307.272	90.62
307.502	77.62
307.731	84.62
307.961	85.62
308.191	80.62
308.421	79.62
308.651	83.62
308.881	80.62
309.111	78.62
309.341	86.62
309.571	88.62
309.8	81.62
310.03	94.62
310.26	85.62
310.49	80.62
310.72	88.62
310.949	86.62
311.179	76.62
311.409	102.62
311.639	90.62
311.868	77.62
312.098	73.62
312.328	79.62
312.557	68.62
312.787	74.62
313.017	74.62
313.246	89.62
313.476	84.62
313.706	67.62
313.935	83.62
314.165	80.62
314.394	90.62
314.624	78.62
314.853	82.62
315.083	83.62
315.312	88.62
315.542	77.62
315.771	81.62
316.001	82.62
316.23	90.62
316.46	81.62
316.689	76.62
316.919	77.62
317.148	78.62
317.377	91.62
317.607	81.62
317.836	72.62
318.065	94.62
318.295	90.62
318.524	79.62
318.753	87.62
318.983	88.62
319.212	89.62
319.441	85.62
319.67	80.62
319.9	91.62
320.129	91.62
320.358	72.62
320.587	90.62
320.816	82.62
321.046	101.62
321.275	88.62
321.504	88.62
321.733	80.62
321.962	80.62
322.191	87.62
322.42	89.62
322.649	94.62
322.878	81.62
323.108	80.62
323.337	79.62
323.566	81.62
323.795	90.62
324.024	89.62
324.253	73.62
324.482	88.62
324.71	91.62
324.939	80.62
325.168	74.62
325.397	74.62
325.626	88.62
325.855	79.62
326.084	84.62
326.313	81.62
326.542	63.62
326.77	73.62
326.999	79.62
327.228	76.62
327.457	95.62
327.686	86.62
327.914	90.62
328.143	79.62
328.372	100.62
328.6	81.62
328.829	95.62
329.058	88.62
329.287	86.62
329.515	83.62
329.744	84.62
329.972	71.62
330.201	96.62
330.43	87.62
330.658	80.62
330.887	99.62
331.115	82.62
331.344	94.62
331.572	80.62
331.801	80.62
332.03	76.62
332.258	92.62
332.486	84.62
332.715	69.62
332.943	84.62
333.172	81.62
333.4	75.62
333.629	77.62
333.857	85.62
334.085	72.62
334.314	90.62
334.542	83.62
334.771	82.62
334.999	74.62
335.227	81.62
335.455	70.62
335.684	87.62
335.912	84.62
336.14	80.62
336.369	87.62
336.597	88.62
336.825	78.62
337.053	74.62
337.281	82.62
337.51	80.62
337.738	98.62
337.966	83.62
338.194	73.62
338.422	76.62
338.65	97.62
338.878	89.62
339.106	94.62
339.334	75.62
339.562	87.62
339.79	93.62
340.018	80.62
340.246	75.62
340.474	91.62
340.702	88.62
340.93	73.62
341.158	75.62
341.386	72.62
341.614	78.62
341.842	86.62
342.07	77.62
342.298	78.62
342.526	82.62
342.754	75.62
342.981	83.62
343.209	90.62
343.437	94.62
343.665	80.62
343.893	102.62
344.12	74.62
344.348	71.62
344.576	76.62
344.804	91.62
345.031	81.62
345.259	85.62
345.487	81.62
345.714	93.62
345.942	91.62
346.17	82.62
346.397	65.62
346.625	69.62
346.853	84.62
347.08	92.62
347.308	83.62
347.535	88.62
347.763	66.62
347.99	96.62
348.218	94.62
348.445	84.62
348.673	79.62
348.9	84.62
349.128	82.62
349.355	75.62
349.583	89.62
349.81	77.62
350.037	83.62
350.265	89.62
350.492	62.62
350.72	84.62
350.947	97.62
351.174	92.62
351.402	76.62
351.629	81.62
351.856	79.62
352.083	74.62
352.311	88.62
352.538	80.62
352.765	95.62
352.992	79.62
353.22	86.62
353.447	89.62
353.674	73.62
353.901	83.62
354.128	76.62
354.355	84.62
354.583	77.62
354.81	82.62
355.037	94.62
355.264	92.62
355.491	81.62
355.718	81.62
355.945	85.62
356.172	86.62
356.399	74.62
356.626	83.62
356.853	86.62
357.08	105.62
357.307	81.62
357.534	77.62
357.761	84.62
357.988	80.62
358.215	98.62
358.441	80.62
358.668	73.62
358.895	78.62
359.122	84.62
359.349	73.62
359.576	77.62
359.802	63.62
360.029	72.62
360.256	73.62
360.483	86.62
360.709	72.62
360.936	69.62
361.163	73.62
361.39	79.62
361.616	84.62
361.843	76.62
362.07	85.62
362.296	86.62
362.523	86.62
362.749	85.62
362.976	80.62
363.203	79.62
363.429	93.62
363.656	84.62
363.882	90.62
364.109	86.62
364.335	90.62
364.562	83.62
364.788	89.62
365.015	90.62
365.241	86.62
365.468	79.62
365.694	75.62
365.92	82.62
366.147	86.62
366.373	85.62
366.599	92.62
366.826	79.62
367.052	85.62
367.278	74.62
367.505	71.62
367.731	98.62
367.957	77.62
368.184	77.62
368.41	90.62
368.636	80.62
368.862	84.62
369.089	70.62
369.315	82.62
369.541	83.62
369.767	82.62
369.993	83.62
370.219	92.62
370.445	88.62
370.672	72.62
370.898	77.62
371.124	79.62
371.35	92.62
371.576	86.62
371.802	89.62
372.028	92.62
372.254	86.62
372.48	78.62
372.706	93.62
372.932	86.62
373.158	77.62
373.384	88.62
373.61	86.62
373.835	105.62
374.061	78.62
374.287	87.62
374.513	86.62
374.739	75.62
374.965	81.62
375.191	79.62
375.416	97.62
375.642	86.62
375.868	92.62
376.094	74.62
376.319	83.62
376.545	82.62
376.771	78.62
376.997	75.62
377.222	85.62
377.448	89.62
377.674	81.62
377.899	85.62
378.125	77.62
378.35	84.62
378.576	90.62
378.802	85.62
379.027	88.62
379.253	77.62
379.478	82.62
379.704	76.62
379.929	76.62
380.155	99.62
380.38	85.62
380.606	94.62
380.831	91.62
381.057	84.62
381.282	85.62
381.507	77.62
381.733	96.62
381.958	86.62
382.184	93.62
382.409	95.62
382.634	82.62
382.86	82.62
383.085	96.62
383.31	80.62
383.535	102.62
383.761	89.62
383.986	75.62
384.211	81.62
384.436	73.62
384.662	105.62
384.887	84.62
385.112	90.62
385.337	90.62
385.562	80.62
385.787	97.62
386.013	75.62
386.238	79.62
386.463	83.62
386.688	99.62
386.913	70.62
387.138	80.62
387.363	63.62
387.588	74.62
387.813	87.62
388.038	96.62
388.263	80.62
388.488	86.62
388.713	89.62
388.938	82.62
389.163	83.62
389.387	85.62
389.612	87.62
389.837	96.62
390.062	96.62
390.287	102.62
390.512	81.62
390.736	71.62
390.961	72.62
391.186	81.62
391.411	89.62
391.636	88.62
391.86	75.62
392.085	88.62
392.31	81.62
392.534	98.62
392.759	82.62
392.984	80.62
393.208	131.62
393.433	153.62
393.658	116.62
393.882	97.62
394.107	82.62
394.331	97.62
394.556	101.62
394.78	82.62
395.005	78.62
395.229	90.62
395.454	94.62
395.678	70.62
395.903	91.62
396.127	99.62
396.352	116.62
396.576	103.62
396.801	137.62
397.025	123.62
397.249	106.62
397.474	86.62
397.698	84.62
397.922	98.62
398.147	81.62
398.371	87.62
398.595	73.62
398.82	78.62
399.044	88.62
399.268	76.62
399.492	86.62
399.717	91.62
399.941	91.62
400.165	85.62
400.389	68.62
400.613	90.62
400.837	81.62
401.062	67.62
401.286	76.62
401.51	82.62
401.734	78.62
401.958	78.62
402.182	103.62
402.406	73.62
402.63	79.62
402.854	88.62
403.078	82.62
403.302	84.62
403.526	84.62
403.75	81.62
403.974	82.62
404.198	88.62
404.422	87.62
404.645	81.62
404.869	83.62
405.093	85.62
405.317	82.62
405.541	75.62
405.765	85.62
405.988	86.62
406.212	67.62
406.436	80.62
406.66	80.62
406.883	66.62
407.107	80.62
407.331	92.62
407.555	84.62
407.778	70.62
408.002	79.62
408.226	70.62
408.449	74.62
408.673	72.62
408.896	85.62
409.12	80.62
409.344	89.62
409.567	78.62
409.791	74.62
410.014	80.62
410.238	76.62
410.461	87.62
410.685	76.62
410.908	73.62
411.132	70.62
411.355	87.62
411.578	74.62
411.802	86.62
412.025	71.62
412.249	97.62
412.472	94.62
412.695	71.62
412.919	76.62
413.142	71.62
413.365	88.62
413.589	81.62
413.812	76.62
414.035	82.62
414.258	74.62
414.482	73.62
414.705	77.62
414.928	67.62
415.151	69.62
415.374	78.62
415.597	83.62
415.821	92.62
416.044	86.62
416.267	101.62
416.49	81.62
416.713	72.62
416.936	85.62
417.159	91.62
417.382	79.62
417.605	77.62
417.828	78.62
418.051	86.62
418.274	79.62
418.497	85.62
418.72	76.62
418.943	73.62
419.166	78.62
419.389	84.62
419.611	65.62
419.834	80.62
420.057	92.62
420.28	75.62
420.503	70.62
420.726	95.62
420.948	78.62
421.171	74.62
421.394	83.62
421.617	79.62
421.839	94.62
422.062	75.62
422.285	84.62
422.507	110.62
422.73	122.62
422.953	118.62
423.175	89.62
423.398	82.62
423.621	81.62
423.843	84.62
424.066	81.62
424.288	85.62
424.511	86.62
424.733	83.62
424.956	84.62
425.178	83.62
425.401	89.62
425.623	74.62
425.846	89.62
426.068	92.62
426.291	87.62
426.513	90.62
426.735	72.62
426.958	80.62
427.18	69.62
427.402	81.62
427.625	71.62
427.847	68.62
428.069	80.62
428.292	77.62
428.514	95.62
428.736	89.62
428.958	79.62
429.181	95.62
429.403	81.62
429.625	77.62
429.847	85.62
430.069	92.62
430.292	97.62
430.514	91.62
430.736	100.62
430.958	87.62
431.18	82.62
431.402	92.62
431.624	88.62
431.846	99.62
432.068	93.62
432.29	73.62
432.512	85.62
432.734	85.62
432.956	77.62
433.178	90.62
433.4	65.62
433.622	88.62
433.844	70.62
434.066	75.62
434.287	88.62
434.509	84.62
434.731	84.62
434.953	65.62
435.175	75.62
435.397	88.62
435.618	77.62
435.84	84.62
436.062	88.62
436.284	75.62
436.505	79.62
436.727	92.62
436.949	72.62
437.17	73.62
437.392	74.62
437.614	95.62
437.835	88.62
438.057	92.62
438.278	90.62
438.5	86.62
438.721	73.62
438.943	87.62
439.165	73.62
439.386	58.62
439.608	62.62
439.829	67.62
440.05	96.62
440.272	94.62
440.493	60.62
440.715	79.62
440.936	92.62
441.158	68.62
441.379	85.62
441.6	75.62
441.822	80.62
442.043	81.62
442.264	71.62
442.486	88.62
442.707	93.62
442.928	80.62
443.149	78.62
443.371	80.62
443.592	88.62
443.813	92.62
444.034	79.62
444.255	83.62
444.476	84.62
444.698	81.62
444.919	78.62
445.14	139.62
445.361	97.62
445.582	95.62
445.803	106.62
446.024	84.62
446.245	99.62
446.466	80.62
446.687	70.62
446.908	83.62
447.129	88.62
447.35	81.62
447.571	82.62
447.792	84.62
448.013	81.62
448.234	80.62
448.455	77.62
448.675	87.62
448.896	85.62
449.117	90.62
449.338	64.62
449.559	80.62
449.779	92.62
450	80.62
450.221	79.62
450.442	79.62
450.662	71.62
450.883	78.62
451.104	84.62
451.324	64.62
451.545	76.62
451.766	82.62
451.986	82.62
452.207	64.62
452.428	87.62
452.648	81.62
452.869	77.62
453.089	87.62
453.31	78.62
453.53	77.62
453.751	77.62
453.971	79.62
454.192	78.62
454.412	77.62
454.633	75.62
454.853	92.62
455.073	85.62
455.294	89.62
455.514	84.62
455.734	80.62
455.955	79.62
456.175	88.62
456.395	89.62
456.616	71.62
456.836	79.62
457.056	84.62
457.276	65.62
457.497	74.62
457.717	71.62
457.937	83.62
458.157	77.62
458.377	78.62
458.598	91.62
458.818	78.62
459.038	83.62
459.258	89.62
459.478	88.62
459.698	74.62
459.918	72.62
460.138	78.62
460.358	87.62
460.578	88.62
460.798	85.62
461.018	92.62
461.238	93.62
461.458	66.62
461.678	61.62
461.898	81.62
462.118	82.62
462.338	89.62
462.558	85.62
462.777	75.62
462.997	81.62
463.217	87.62
463.437	72.62
463.657	75.62
463.876	72.62
464.096	88.62
464.316	78.62
464.536	74.62
464.755	66.62
464.975	77.62
465.195	70.62
465.414	81.62
465.634	67.62
465.854	94.62
466.073	82.62
466.293	82.62
466.512	78.62
466.732	82.62
466.951	86.62
467.171	78.62
467.391	84.62
467.61	73.62
467.829	62.62
468.049	75.62
468.268	76.62
468.488	81.62
468.707	79.62
468.927	75.62
469.146	86.62
469.365	85.62
469.585	86.62
469.804	79.62
470.023	89.62
470.243	85.62
470.462	68.62
470.681	89.62
470.901	80.62
471.12	88.62
471.339	86.62
471.558	84.62
471.777	81.62
471.997	70.62
472.216	73.62
472.435	74.62
472.654	73.62
472.873	80.62
473.092	84.62
473.311	87.62
473.53	64.62
473.749	78.62
473.968	84.62
474.187	82.62
474.406	80.62
474.625	82.62
474.844	64.62
475.063	73.62
475.282	79.62
475.501	89.62
475.72	86.62
475.939	66.62
476.158	80.62
476.377	93.62
476.596	87.62
476.814	80.62
477.033	78.62
477.252	90.62
477.471	88.62
477.69	104.62
477.908	78.62
478.127	80.62
478.346	77.62
478.564	85.62
478.783	68.62
479.002	88.62
479.22	70.62
479.439	72.62
479.658	93.62
479.876	91.62
480.095	86.62
480.313	78.62
480.532	85.62
480.751	74.62
480.969	88.62
481.188	76.62
481.406	78.62
481.624	85.62
481.843	78.62
482.061	62.62
482.28	83.62
482.498	98.62
482.717	90.62
482.935	85.62
483.153	88.62
483.372	85.62
483.59	94.62
483.808	80.62
484.027	86.62
484.245	73.62
484.463	92.62
484.681	92.62
484.9	78.62
485.118	68.62
485.336	88.62
485.554	87.62
485.772	83.62
485.99	80.62
486.209	80.62
486.427	91.62
486.645	89.62
486.863	90.62
487.081	91.62
487.299	78.62
487.517	92.62
487.735	82.62
487.953	89.62
488.171	86.62
488.389	82.62
488.607	70.62
488.825	86.62
489.043	94.62
489.261	84.62
489.479	96.62
489.696	87.62
489.914	89.62
490.132	85.62
490.35	83.62
490.568	62.62
490.786	73.62
491.003	75.62
491.221	66.62
491.439	80.62
491.657	80.62
491.874	90.62
492.092	82.62
492.31	85.62
492.527	74.62
492.745	88.62
492.963	96.62
493.18	84.62
493.398	91.62
493.615	88.62
493.833	69.62
494.05	77.62
494.268	87.62
494.485	91.62
494.703	84.62
494.92	90.62
495.138	71.62
495.355	78.62
495.573	92.62
495.79	71.62
496.008	80.62
496.225	82.62
496.442	90.62
496.66	100.62
496.877	90.62
497.094	94.62
497.312	92.62
497.529	81.62
497.746	78.62
497.963	84.62
498.181	89.62
498.398	94.62
498.615	83.62
498.832	91.62
499.049	67.62
499.267	78.62
499.484	78.62
499.701	73.62
499.918	100.62
500.135	87.62
500.352	83.62
500.569	70.62
500.786	85.62
501.003	87.62
501.22	80.62
501.437	99.62
501.654	79.62
501.871	90.62
502.088	89.62
502.305	74.62
502.522	83.62
502.739	76.62
502.956	85.62
503.172	86.62
503.389	79.62
503.606	96.62
503.823	85.62
504.04	81.62
504.256	71.62
504.473	94.62
504.69	85.62
504.907	95.62
505.123	87.62
505.34	75.62
505.557	74.62
505.773	108.62
505.99	79.62
506.207	86.62
506.423	100.62
506.64	86.62
506.856	89.62
507.073	92.62
507.289	85.62
507.506	87.62
507.722	80.62
507.939	84.62
508.155	74.62
508.372	83.62
508.588	88.62
508.805	82.62
509.021	81.62
509.238	82.62
509.454	68.62
509.67	91.62
509.887	76.62
510.103	91.62
510.319	98.62
510.536	83.62
510.752	77.62
510.968	87.62
511.184	84.62
511.401	79.62
511.617	87.62
511.833	93.62
512.049	90.62
512.265	86.62
512.481	88.62
512.698	82.62
512.914	90.62
513.13	98.62
513.346	85.62
513.562	88.62
513.778	81.62
513.994	80.62
514.21	92.62
514.426	81.62
514.642	88.62
514.858	85.62
515.074	81.62
515.29	68.62
515.506	87.62
515.721	87.62
515.937	95.62
516.153	94.62
516.369	76.62
516.585	83.62
516.801	70.62
517.016	104.62
517.232	73.62
517.448	94.62
517.664	98.62
517.879	83.62
518.095	86.62
518.311	71.62
518.527	94.62
518.742	87.62
518.958	101.62
519.173	74.62
519.389	86.62
519.605	83.62
