Data from 1600_3_HRD10591_00017.txt Node
Date: Mon Jan 19 13:55:01 EST 2026
User: Yrep
Spectrometer: HR+D1059
Trigger mode: 1
Integration Time (sec): 1.000000E-1
Scans to average: 1
Electric dark correction enabled: true
Nonlinearity correction enabled: false
Boxcar width: 0
XAxis mode: Wavelengths
Number of Pixels in Spectrum: 2048
>>>>>Begin Spectral Data<<<<<
223.165	-22.12
223.4	-22.12
223.635	-22.12
223.869	-14.12
224.104	-16.12
224.338	-11.12
224.573	-15.12
224.808	-8.12
225.042	-10.12
225.277	5.88
225.511	2.88
225.746	-12.12
225.98	-4.12
226.215	20.88
226.449	10.88
226.683	15.88
226.918	26.88
227.152	29.88
227.387	29.88
227.621	55.88
227.856	42.88
228.09	52.88
228.324	60.88
228.559	55.88
228.793	55.88
229.027	50.88
229.262	65.88
229.496	73.88
229.73	61.88
229.964	77.88
230.199	72.88
230.433	89.88
230.667	75.88
230.901	85.88
231.136	85.88
231.37	75.88
231.604	73.88
231.838	66.88
232.072	82.88
232.306	74.88
232.541	78.88
232.775	71.88
233.009	85.88
233.243	69.88
233.477	73.88
233.711	87.88
233.945	73.88
234.179	77.88
234.413	90.88
234.647	87.88
234.881	84.88
235.115	74.88
235.349	77.88
235.583	81.88
235.817	83.88
236.051	82.88
236.285	80.88
236.519	71.88
236.753	77.88
236.987	75.88
237.221	98.88
237.455	91.88
237.689	88.88
237.922	83.88
238.156	75.88
238.39	73.88
238.624	75.88
238.858	86.88
239.091	78.88
239.325	72.88
239.559	87.88
239.793	66.88
240.027	75.88
240.26	82.88
240.494	91.88
240.728	74.88
240.961	79.88
241.195	64.88
241.429	71.88
241.662	60.88
241.896	66.88
242.13	78.88
242.363	71.88
242.597	69.88
242.83	79.88
243.064	81.88
243.298	91.88
243.531	88.88
243.765	83.88
243.998	78.88
244.232	73.88
244.465	83.88
244.699	73.88
244.932	74.88
245.166	63.88
245.399	67.88
245.633	81.88
245.866	67.88
246.099	78.88
246.333	80.88
246.566	82.88
246.8	83.88
247.033	76.88
247.266	82.88
247.5	70.88
247.733	85.88
247.966	89.88
248.2	83.88
248.433	71.88
248.666	77.88
248.899	79.88
249.133	79.88
249.366	87.88
249.599	75.88
249.832	78.88
250.066	75.88
250.299	80.88
250.532	85.88
250.765	67.88
250.998	79.88
251.231	72.88
251.465	69.88
251.698	79.88
251.931	91.88
252.164	71.88
252.397	80.88
252.63	89.88
252.863	87.88
253.096	83.88
253.329	83.88
253.562	81.88
253.795	84.88
254.028	94.88
254.261	94.88
254.494	84.88
254.727	80.88
254.96	78.88
255.193	74.88
255.426	76.88
255.659	84.88
255.892	89.88
256.124	75.88
256.357	67.88
256.59	72.88
256.823	74.88
257.056	87.88
257.289	85.88
257.521	85.88
257.754	81.88
257.987	59.88
258.22	87.88
258.452	71.88
258.685	82.88
258.918	97.88
259.151	72.88
259.383	74.88
259.616	82.88
259.849	87.88
260.081	71.88
260.314	92.88
260.547	89.88
260.779	81.88
261.012	76.88
261.244	75.88
261.477	77.88
261.71	79.88
261.942	85.88
262.175	85.88
262.407	83.88
262.64	78.88
262.872	86.88
263.105	66.88
263.337	63.88
263.57	79.88
263.802	87.88
264.035	91.88
264.267	84.88
264.499	74.88
264.732	69.88
264.964	85.88
265.197	82.88
265.429	83.88
265.661	85.88
265.894	83.88
266.126	82.88
266.358	95.88
266.591	84.88
266.823	70.88
267.055	74.88
267.287	68.88
267.52	75.88
267.752	80.88
267.984	91.88
268.216	81.88
268.448	82.88
268.681	85.88
268.913	89.88
269.145	86.88
269.377	88.88
269.609	81.88
269.841	64.88
270.073	75.88
270.306	83.88
270.538	88.88
270.77	73.88
271.002	87.88
271.234	58.88
271.466	85.88
271.698	77.88
271.93	87.88
272.162	67.88
272.394	83.88
272.626	90.88
272.858	86.88
273.09	81.88
273.322	103.88
273.553	73.88
273.785	81.88
274.017	79.88
274.249	71.88
274.481	80.88
274.713	86.88
274.945	83.88
275.176	92.88
275.408	98.88
275.64	79.88
275.872	91.88
276.104	85.88
276.335	74.88
276.567	73.88
276.799	82.88
277.031	86.88
277.262	83.88
277.494	73.88
277.726	86.88
277.957	80.88
278.189	83.88
278.421	83.88
278.652	94.88
278.884	87.88
279.115	84.88
279.347	85.88
279.579	81.88
279.81	86.88
280.042	88.88
280.273	85.88
280.505	87.88
280.736	80.88
280.968	88.88
281.199	79.88
281.431	85.88
281.662	97.88
281.894	95.88
282.125	75.88
282.356	97.88
282.588	93.88
282.819	85.88
283.051	83.88
283.282	82.88
283.513	90.88
283.745	100.88
283.976	85.88
284.207	87.88
284.439	91.88
284.67	83.88
284.901	88.88
285.132	103.88
285.364	93.88
285.595	102.88
285.826	91.88
286.057	71.88
286.288	76.88
286.52	94.88
286.751	85.88
286.982	89.88
287.213	79.88
287.444	91.88
287.675	89.88
287.906	87.88
288.138	94.88
288.369	74.88
288.6	82.88
288.831	95.88
289.062	81.88
289.293	88.88
289.524	74.88
289.755	84.88
289.986	84.88
290.217	80.88
290.448	83.88
290.679	81.88
290.91	83.88
291.141	65.88
291.371	90.88
291.602	79.88
291.833	79.88
292.064	81.88
292.295	83.88
292.526	87.88
292.757	84.88
292.987	91.88
293.218	90.88
293.449	89.88
293.68	82.88
293.91	70.88
294.141	87.88
294.372	101.88
294.603	83.88
294.833	74.88
295.064	76.88
295.295	73.88
295.525	90.88
295.756	83.88
295.987	79.88
296.217	89.88
296.448	85.88
296.679	81.88
296.909	68.88
297.14	89.88
297.37	91.88
297.601	94.88
297.831	95.88
298.062	75.88
298.292	84.88
298.523	95.88
298.753	91.88
298.984	88.88
299.214	93.88
299.445	85.88
299.675	86.88
299.905	92.88
300.136	101.88
300.366	90.88
300.597	87.88
300.827	79.88
301.057	91.88
301.288	86.88
301.518	89.88
301.748	93.88
301.979	96.88
302.209	90.88
302.439	99.88
302.669	92.88
302.9	97.88
303.13	78.88
303.36	70.88
303.59	91.88
303.82	90.88
304.051	87.88
304.281	94.88
304.511	96.88
304.741	83.88
304.971	92.88
305.201	87.88
305.431	83.88
305.661	92.88
305.891	92.88
306.121	79.88
306.352	89.88
306.582	89.88
306.812	99.88
307.042	76.88
307.272	85.88
307.502	93.88
307.731	86.88
307.961	96.88
308.191	95.88
308.421	96.88
308.651	93.88
308.881	83.88
309.111	104.88
309.341	101.88
309.571	88.88
309.8	95.88
310.03	100.88
310.26	88.88
310.49	83.88
310.72	85.88
310.949	90.88
311.179	91.88
311.409	72.88
311.639	75.88
311.868	84.88
312.098	97.88
312.328	99.88
312.557	85.88
312.787	80.88
313.017	98.88
313.246	105.88
313.476	78.88
313.706	87.88
313.935	93.88
314.165	85.88
314.394	86.88
314.624	90.88
314.853	88.88
315.083	76.88
315.312	85.88
315.542	85.88
315.771	74.88
316.001	105.88
316.23	83.88
316.46	90.88
316.689	79.88
316.919	86.88
317.148	87.88
317.377	90.88
317.607	88.88
317.836	89.88
318.065	104.88
318.295	88.88
318.524	95.88
318.753	79.88
318.983	68.88
319.212	85.88
319.441	80.88
319.67	97.88
319.9	87.88
320.129	78.88
320.358	87.88
320.587	87.88
320.816	87.88
321.046	80.88
321.275	82.88
321.504	85.88
321.733	89.88
321.962	87.88
322.191	88.88
322.42	101.88
322.649	93.88
322.878	86.88
323.108	85.88
323.337	93.88
323.566	87.88
323.795	79.88
324.024	78.88
324.253	96.88
324.482	89.88
324.71	89.88
324.939	80.88
325.168	90.88
325.397	69.88
325.626	99.88
325.855	84.88
326.084	86.88
326.313	74.88
326.542	79.88
326.77	87.88
326.999	87.88
327.228	95.88
327.457	87.88
327.686	100.88
327.914	79.88
328.143	98.88
328.372	78.88
328.6	76.88
328.829	75.88
329.058	95.88
329.287	89.88
329.515	79.88
329.744	93.88
329.972	79.88
330.201	87.88
330.43	83.88
330.658	92.88
330.887	87.88
331.115	88.88
331.344	91.88
331.572	87.88
331.801	77.88
332.03	95.88
332.258	81.88
332.486	88.88
332.715	85.88
332.943	79.88
333.172	79.88
333.4	92.88
333.629	98.88
333.857	70.88
334.085	92.88
334.314	85.88
334.542	84.88
334.771	86.88
334.999	89.88
335.227	86.88
335.455	95.88
335.684	89.88
335.912	87.88
336.14	102.88
336.369	88.88
336.597	88.88
336.825	112.88
337.053	89.88
337.281	83.88
337.51	86.88
337.738	87.88
337.966	86.88
338.194	74.88
338.422	81.88
338.65	93.88
338.878	85.88
339.106	85.88
339.334	84.88
339.562	82.88
339.79	82.88
340.018	80.88
340.246	79.88
340.474	70.88
340.702	81.88
340.93	73.88
341.158	82.88
341.386	93.88
341.614	86.88
341.842	71.88
342.07	86.88
342.298	74.88
342.526	89.88
342.754	74.88
342.981	90.88
343.209	93.88
343.437	95.88
343.665	84.88
343.893	80.88
344.12	80.88
344.348	95.88
344.576	92.88
344.804	99.88
345.031	79.88
345.259	93.88
345.487	97.88
345.714	84.88
345.942	88.88
346.17	93.88
346.397	78.88
346.625	89.88
346.853	77.88
347.08	79.88
347.308	86.88
347.535	97.88
347.763	99.88
347.99	93.88
348.218	93.88
348.445	87.88
348.673	85.88
348.9	95.88
349.128	105.88
349.355	75.88
349.583	93.88
349.81	88.88
350.037	95.88
350.265	85.88
350.492	86.88
350.72	80.88
350.947	80.88
351.174	93.88
351.402	69.88
351.629	76.88
351.856	87.88
352.083	70.88
352.311	94.88
352.538	87.88
352.765	98.88
352.992	95.88
353.22	89.88
353.447	94.88
353.674	91.88
353.901	85.88
354.128	75.88
354.355	90.88
354.583	98.88
354.81	83.88
355.037	89.88
355.264	80.88
355.491	93.88
355.718	80.88
355.945	106.88
356.172	99.88
356.399	94.88
356.626	89.88
356.853	85.88
357.08	93.88
357.307	91.88
357.534	88.88
357.761	81.88
357.988	88.88
358.215	101.88
358.441	93.88
358.668	97.88
358.895	93.88
359.122	79.88
359.349	78.88
359.576	101.88
359.802	84.88
360.029	87.88
360.256	86.88
360.483	91.88
360.709	96.88
360.936	100.88
361.163	82.88
361.39	95.88
361.616	89.88
361.843	89.88
362.07	88.88
362.296	87.88
362.523	88.88
362.749	98.88
362.976	97.88
363.203	113.88
363.429	105.88
363.656	80.88
363.882	95.88
364.109	106.88
364.335	112.88
364.562	106.88
364.788	97.88
365.015	112.88
365.241	99.88
365.468	90.88
365.694	86.88
365.92	80.88
366.147	88.88
366.373	94.88
366.599	92.88
366.826	99.88
367.052	90.88
367.278	77.88
367.505	82.88
367.731	93.88
367.957	94.88
368.184	71.88
368.41	82.88
368.636	87.88
368.862	89.88
369.089	85.88
369.315	96.88
369.541	81.88
369.767	93.88
369.993	99.88
370.219	95.88
370.445	85.88
370.672	77.88
370.898	92.88
371.124	89.88
371.35	89.88
371.576	86.88
371.802	93.88
372.028	93.88
372.254	94.88
372.48	84.88
372.706	99.88
372.932	97.88
373.158	99.88
373.384	98.88
373.61	117.88
373.835	120.88
374.061	89.88
374.287	93.88
374.513	87.88
374.739	105.88
374.965	110.88
375.191	97.88
375.416	79.88
375.642	87.88
375.868	98.88
376.094	89.88
376.319	107.88
376.545	86.88
376.771	76.88
376.997	97.88
377.222	94.88
377.448	71.88
377.674	96.88
377.899	92.88
378.125	83.88
378.35	87.88
378.576	96.88
378.802	94.88
379.027	87.88
379.253	97.88
379.478	78.88
379.704	89.88
379.929	87.88
380.155	87.88
380.38	104.88
380.606	85.88
380.831	86.88
381.057	84.88
381.282	96.88
381.507	95.88
381.733	105.88
381.958	104.88
382.184	103.88
382.409	99.88
382.634	98.88
382.86	119.88
383.085	118.88
383.31	120.88
383.535	122.88
383.761	114.88
383.986	129.88
384.211	99.88
384.436	92.88
384.662	88.88
384.887	93.88
385.112	90.88
385.337	95.88
385.562	92.88
385.787	101.88
386.013	93.88
386.238	98.88
386.463	85.88
386.688	110.88
386.913	87.88
387.138	94.88
387.363	91.88
387.588	93.88
387.813	105.88
388.038	104.88
388.263	97.88
388.488	88.88
388.713	105.88
388.938	102.88
389.163	100.88
389.387	91.88
389.612	86.88
389.837	95.88
390.062	96.88
390.287	95.88
390.512	110.88
390.736	85.88
390.961	83.88
391.186	92.88
391.411	84.88
391.636	103.88
391.86	94.88
392.085	90.88
392.31	93.88
392.534	117.88
392.759	107.88
392.984	147.88
393.208	206.88
393.433	306.88
393.658	238.88
393.882	127.88
394.107	110.88
394.331	110.88
394.556	119.88
394.78	113.88
395.005	79.88
395.229	97.88
395.454	88.88
395.678	85.88
395.903	134.88
396.127	138.88
396.352	155.88
396.576	151.88
396.801	212.88
397.025	239.88
397.249	141.88
397.474	104.88
397.698	89.88
397.922	85.88
398.147	94.88
398.371	95.88
398.595	87.88
398.82	88.88
399.044	88.88
399.268	87.88
399.492	93.88
399.717	97.88
399.941	101.88
400.165	93.88
400.389	94.88
400.613	97.88
400.837	85.88
401.062	88.88
401.286	81.88
401.51	81.88
401.734	80.88
401.958	84.88
402.182	75.88
402.406	82.88
402.63	79.88
402.854	77.88
403.078	94.88
403.302	91.88
403.526	90.88
403.75	88.88
403.974	100.88
404.198	93.88
404.422	105.88
404.645	110.88
404.869	100.88
405.093	79.88
405.317	96.88
405.541	83.88
405.765	79.88
405.988	88.88
406.212	84.88
406.436	98.88
406.66	101.88
406.883	80.88
407.107	99.88
407.331	89.88
407.555	85.88
407.778	97.88
408.002	110.88
408.226	84.88
408.449	85.88
408.673	88.88
408.896	97.88
409.12	96.88
409.344	91.88
409.567	86.88
409.791	102.88
410.014	109.88
410.238	93.88
410.461	88.88
410.685	83.88
410.908	81.88
411.132	98.88
411.355	77.88
411.578	93.88
411.802	80.88
412.025	75.88
412.249	82.88
412.472	79.88
412.695	95.88
412.919	86.88
413.142	86.88
413.365	76.88
413.589	82.88
413.812	82.88
414.035	82.88
414.258	81.88
414.482	80.88
414.705	79.88
414.928	82.88
415.151	85.88
415.374	83.88
415.597	85.88
415.821	79.88
416.044	104.88
416.267	80.88
416.49	76.88
416.713	87.88
416.936	73.88
417.159	89.88
417.382	76.88
417.605	94.88
417.828	85.88
418.051	89.88
418.274	82.88
418.497	63.88
418.72	79.88
418.943	107.88
419.166	82.88
419.389	85.88
419.611	72.88
419.834	83.88
420.057	86.88
420.28	91.88
420.503	94.88
420.726	78.88
420.948	72.88
421.171	85.88
421.394	93.88
421.617	95.88
421.839	84.88
422.062	102.88
422.285	114.88
422.507	185.88
422.73	306.88
422.953	273.88
423.175	157.88
423.398	107.88
423.621	91.88
423.843	77.88
424.066	98.88
424.288	95.88
424.511	79.88
424.733	85.88
424.956	75.88
425.178	83.88
425.401	90.88
425.623	79.88
425.846	79.88
426.068	85.88
426.291	90.88
426.513	101.88
426.735	88.88
426.958	87.88
427.18	86.88
427.402	110.88
427.625	85.88
427.847	90.88
428.069	87.88
428.292	118.88
428.514	131.88
428.736	104.88
428.958	105.88
429.181	98.88
429.403	75.88
429.625	99.88
429.847	114.88
430.069	134.88
430.292	131.88
430.514	133.88
430.736	125.88
430.958	137.88
431.18	98.88
431.402	75.88
431.624	95.88
431.846	110.88
432.068	121.88
432.29	96.88
432.512	93.88
432.734	109.88
432.956	91.88
433.178	88.88
433.4	83.88
433.622	90.88
433.844	90.88
434.066	64.88
434.287	74.88
434.509	81.88
434.731	88.88
434.953	93.88
435.175	75.88
435.397	77.88
435.618	89.88
435.84	87.88
436.062	78.88
436.284	93.88
436.505	83.88
436.727	93.88
436.949	83.88
437.17	82.88
437.392	78.88
437.614	91.88
437.835	86.88
438.057	79.88
438.278	87.88
438.5	104.88
438.721	81.88
438.943	86.88
439.165	89.88
439.386	80.88
439.608	85.88
439.829	90.88
440.05	92.88
440.272	87.88
440.493	102.88
440.715	94.88
440.936	90.88
441.158	78.88
441.379	88.88
441.6	96.88
441.822	91.88
442.043	94.88
442.264	81.88
442.486	103.88
442.707	135.88
442.928	113.88
443.149	88.88
443.371	115.88
443.592	171.88
443.813	163.88
444.034	83.88
444.255	101.88
444.476	90.88
444.698	99.88
444.919	90.88
445.14	167.88
445.361	151.88
445.582	205.88
445.803	178.88
446.024	111.88
446.245	100.88
446.466	89.88
446.687	85.88
446.908	72.88
447.129	84.88
447.35	79.88
447.571	84.88
447.792	85.88
448.013	71.88
448.234	93.88
448.455	86.88
448.675	101.88
448.896	83.88
449.117	93.88
449.338	88.88
449.559	74.88
449.779	95.88
450	79.88
450.221	78.88
450.442	77.88
450.662	81.88
450.883	87.88
451.104	101.88
451.324	92.88
451.545	68.88
451.766	68.88
451.986	82.88
452.207	90.88
452.428	80.88
452.648	93.88
452.869	85.88
453.089	93.88
453.31	86.88
453.53	97.88
453.751	80.88
453.971	76.88
454.192	76.88
454.412	85.88
454.633	90.88
454.853	91.88
455.073	89.88
455.294	70.88
455.514	100.88
455.734	86.88
455.955	89.88
456.175	90.88
456.395	90.88
456.616	95.88
456.836	81.88
457.056	83.88
457.276	82.88
457.497	89.88
457.717	75.88
457.937	91.88
458.157	106.88
458.377	100.88
458.598	101.88
458.818	107.88
459.038	94.88
459.258	75.88
459.478	85.88
459.698	86.88
459.918	93.88
460.138	97.88
460.358	96.88
460.578	98.88
460.798	106.88
461.018	94.88
461.238	87.88
461.458	74.88
461.678	87.88
461.898	86.88
462.118	83.88
462.338	79.88
462.558	96.88
462.777	86.88
462.997	67.88
463.217	79.88
463.437	72.88
463.657	102.88
463.876	83.88
464.096	96.88
464.316	93.88
464.536	84.88
464.755	79.88
464.975	70.88
465.195	83.88
465.414	92.88
465.634	82.88
465.854	97.88
466.073	94.88
466.293	89.88
466.512	88.88
466.732	77.88
466.951	85.88
467.171	82.88
467.391	99.88
467.61	83.88
467.829	81.88
468.049	90.88
468.268	74.88
468.488	89.88
468.707	83.88
468.927	91.88
469.146	81.88
469.365	77.88
469.585	85.88
469.804	97.88
470.023	87.88
470.243	88.88
470.462	77.88
470.681	85.88
470.901	92.88
471.12	81.88
471.339	106.88
471.558	85.88
471.777	100.88
471.997	83.88
472.216	81.88
472.435	97.88
472.654	79.88
472.873	88.88
473.092	100.88
473.311	87.88
473.53	75.88
473.749	87.88
473.968	89.88
474.187	82.88
474.406	79.88
474.625	74.88
474.844	83.88
475.063	84.88
475.282	89.88
475.501	95.88
475.72	71.88
475.939	79.88
476.158	82.88
476.377	73.88
476.596	103.88
476.814	72.88
477.033	83.88
477.252	89.88
477.471	93.88
477.69	81.88
477.908	78.88
478.127	78.88
478.346	86.88
478.564	94.88
478.783	89.88
479.002	77.88
479.22	85.88
479.439	86.88
479.658	83.88
479.876	95.88
480.095	77.88
480.313	84.88
480.532	90.88
480.751	94.88
480.969	100.88
481.188	103.88
481.406	80.88
481.624	90.88
481.843	78.88
482.061	83.88
482.28	95.88
482.498	82.88
482.717	100.88
482.935	76.88
483.153	87.88
483.372	79.88
483.59	85.88
483.808	89.88
484.027	82.88
484.245	74.88
484.463	93.88
484.681	93.88
484.9	92.88
485.118	85.88
485.336	83.88
485.554	69.88
485.772	67.88
485.99	91.88
486.209	83.88
486.427	96.88
486.645	90.88
486.863	98.88
487.081	90.88
487.299	80.88
487.517	89.88
487.735	92.88
487.953	134.88
488.171	111.88
488.389	99.88
488.607	93.88
488.825	91.88
489.043	91.88
489.261	86.88
489.479	85.88
489.696	86.88
489.914	81.88
490.132	90.88
490.35	94.88
490.568	85.88
490.786	87.88
491.003	80.88
491.221	87.88
491.439	82.88
491.657	84.88
491.874	93.88
492.092	89.88
492.31	95.88
492.527	89.88
492.745	79.88
492.963	74.88
493.18	66.88
493.398	82.88
493.615	100.88
493.833	73.88
494.05	89.88
494.268	94.88
494.485	91.88
494.703	90.88
494.92	86.88
495.138	89.88
495.355	91.88
495.573	92.88
495.79	77.88
496.008	91.88
496.225	89.88
496.442	95.88
496.66	105.88
496.877	85.88
497.094	78.88
497.312	93.88
497.529	83.88
497.746	83.88
497.963	81.88
498.181	99.88
498.398	101.88
498.615	95.88
498.832	87.88
499.049	93.88
499.267	79.88
499.484	91.88
499.701	97.88
499.918	84.88
500.135	93.88
500.352	88.88
500.569	96.88
500.786	98.88
501.003	84.88
501.22	75.88
501.437	88.88
501.654	87.88
501.871	94.88
502.088	95.88
502.305	89.88
502.522	79.88
502.739	80.88
502.956	83.88
503.172	93.88
503.389	96.88
503.606	91.88
503.823	98.88
504.04	99.88
504.256	121.88
504.473	99.88
504.69	95.88
504.907	74.88
505.123	88.88
505.34	86.88
505.557	96.88
505.773	83.88
505.99	93.88
506.207	83.88
506.423	98.88
506.64	98.88
506.856	81.88
507.073	84.88
507.289	73.88
507.506	81.88
507.722	95.88
507.939	88.88
508.155	99.88
508.372	70.88
508.588	84.88
508.805	82.88
509.021	84.88
509.238	97.88
509.454	82.88
509.67	79.88
509.887	87.88
510.103	93.88
510.319	77.88
510.536	81.88
510.752	86.88
510.968	88.88
511.184	83.88
511.401	90.88
511.617	90.88
511.833	82.88
512.049	91.88
512.265	92.88
512.481	72.88
512.698	80.88
512.914	87.88
513.13	75.88
513.346	96.88
513.562	99.88
513.778	88.88
513.994	90.88
514.21	94.88
514.426	97.88
514.642	90.88
514.858	91.88
515.074	90.88
515.29	92.88
515.506	77.88
515.721	90.88
515.937	101.88
516.153	101.88
516.369	90.88
516.585	87.88
516.801	106.88
517.016	115.88
517.232	107.88
517.448	129.88
517.664	106.88
517.879	96.88
518.095	101.88
