Data from 1600_3_HRD10591_00016.txt Node
Date: Mon Jan 19 13:55:01 EST 2026
User: Yrep
Spectrometer: HR+D1059
Trigger mode: 1
Integration Time (sec): 1.000000E-1
Scans to average: 1
Electric dark correction enabled: true
Nonlinearity correction enabled: false
Boxcar width: 0
XAxis mode: Wavelengths
Number of Pixels in Spectrum: 2048
>>>>>Begin Spectral Data<<<<<
223.165	-31.56
223.4	-31.56
223.635	-31.56
223.869	-17.56
224.104	-22.56
224.338	-15.56
224.573	-11.56
224.808	-2.56
225.042	-9.56
225.277	-4.56
225.511	-6.56
225.746	-2.56
225.98	5.44
226.215	19.44
226.449	7.44
226.683	23.44
226.918	27.44
227.152	41.44
227.387	24.44
227.621	35.44
227.856	45.44
228.09	43.44
228.324	57.44
228.559	58.44
228.793	60.44
229.027	54.44
229.262	53.44
229.496	62.44
229.73	85.44
229.964	65.44
230.199	64.44
230.433	83.44
230.667	74.44
230.901	79.44
231.136	77.44
231.37	80.44
231.604	81.44
231.838	75.44
232.072	87.44
232.306	81.44
232.541	86.44
232.775	77.44
233.009	75.44
233.243	73.44
233.477	77.44
233.711	80.44
233.945	90.44
234.179	71.44
234.413	80.44
234.647	71.44
234.881	77.44
235.115	81.44
235.349	61.44
235.583	74.44
235.817	89.44
236.051	63.44
236.285	70.44
236.519	91.44
236.753	79.44
236.987	70.44
237.221	82.44
237.455	83.44
237.689	75.44
237.922	71.44
238.156	77.44
238.39	68.44
238.624	79.44
238.858	77.44
239.091	76.44
239.325	58.44
239.559	63.44
239.793	81.44
240.027	74.44
240.26	79.44
240.494	74.44
240.728	71.44
240.961	79.44
241.195	66.44
241.429	71.44
241.662	89.44
241.896	72.44
242.13	80.44
242.363	82.44
242.597	69.44
242.83	84.44
243.064	69.44
243.298	69.44
243.531	74.44
243.765	87.44
243.998	70.44
244.232	79.44
244.465	69.44
244.699	87.44
244.932	91.44
245.166	70.44
245.399	75.44
245.633	77.44
245.866	82.44
246.099	68.44
246.333	86.44
246.566	68.44
246.8	77.44
247.033	59.44
247.266	59.44
247.5	82.44
247.733	65.44
247.966	91.44
248.2	81.44
248.433	85.44
248.666	82.44
248.899	73.44
249.133	72.44
249.366	84.44
249.599	71.44
249.832	89.44
250.066	87.44
250.299	74.44
250.532	89.44
250.765	93.44
250.998	73.44
251.231	71.44
251.465	59.44
251.698	60.44
251.931	73.44
252.164	74.44
252.397	76.44
252.63	77.44
252.863	70.44
253.096	82.44
253.329	81.44
253.562	78.44
253.795	77.44
254.028	83.44
254.261	69.44
254.494	70.44
254.727	69.44
254.96	75.44
255.193	74.44
255.426	90.44
255.659	65.44
255.892	66.44
256.124	71.44
256.357	93.44
256.59	71.44
256.823	78.44
257.056	83.44
257.289	71.44
257.521	85.44
257.754	67.44
257.987	77.44
258.22	84.44
258.452	69.44
258.685	67.44
258.918	89.44
259.151	77.44
259.383	97.44
259.616	80.44
259.849	71.44
260.081	70.44
260.314	79.44
260.547	73.44
260.779	74.44
261.012	78.44
261.244	86.44
261.477	72.44
261.71	78.44
261.942	73.44
262.175	94.44
262.407	74.44
262.64	75.44
262.872	86.44
263.105	75.44
263.337	87.44
263.57	92.44
263.802	79.44
264.035	57.44
264.267	80.44
264.499	69.44
264.732	84.44
264.964	76.44
265.197	75.44
265.429	63.44
265.661	76.44
265.894	84.44
266.126	72.44
266.358	81.44
266.591	71.44
266.823	75.44
267.055	75.44
267.287	77.44
267.52	83.44
267.752	76.44
267.984	78.44
268.216	77.44
268.448	84.44
268.681	85.44
268.913	81.44
269.145	67.44
269.377	66.44
269.609	81.44
269.841	83.44
270.073	79.44
270.306	67.44
270.538	73.44
270.77	72.44
271.002	87.44
271.234	75.44
271.466	85.44
271.698	73.44
271.93	69.44
272.162	85.44
272.394	72.44
272.626	74.44
272.858	74.44
273.09	77.44
273.322	90.44
273.553	79.44
273.785	80.44
274.017	71.44
274.249	70.44
274.481	93.44
274.713	89.44
274.945	84.44
275.176	84.44
275.408	78.44
275.64	78.44
275.872	83.44
276.104	79.44
276.335	88.44
276.567	70.44
276.799	89.44
277.031	85.44
277.262	89.44
277.494	79.44
277.726	78.44
277.957	70.44
278.189	85.44
278.421	77.44
278.652	80.44
278.884	90.44
279.115	82.44
279.347	81.44
279.579	70.44
279.81	72.44
280.042	69.44
280.273	58.44
280.505	68.44
280.736	78.44
280.968	73.44
281.199	91.44
281.431	74.44
281.662	77.44
281.894	97.44
282.125	71.44
282.356	83.44
282.588	87.44
282.819	86.44
283.051	69.44
283.282	79.44
283.513	84.44
283.745	84.44
283.976	77.44
284.207	72.44
284.439	79.44
284.67	77.44
284.901	87.44
285.132	81.44
285.364	72.44
285.595	90.44
285.826	84.44
286.057	80.44
286.288	74.44
286.52	86.44
286.751	94.44
286.982	89.44
287.213	79.44
287.444	61.44
287.675	71.44
287.906	78.44
288.138	91.44
288.369	81.44
288.6	87.44
288.831	83.44
289.062	79.44
289.293	79.44
289.524	87.44
289.755	69.44
289.986	84.44
290.217	90.44
290.448	81.44
290.679	74.44
290.91	95.44
291.141	74.44
291.371	73.44
291.602	72.44
291.833	87.44
292.064	77.44
292.295	82.44
292.526	77.44
292.757	83.44
292.987	85.44
293.218	74.44
293.449	76.44
293.68	81.44
293.91	73.44
294.141	75.44
294.372	93.44
294.603	86.44
294.833	78.44
295.064	70.44
295.295	79.44
295.525	78.44
295.756	66.44
295.987	85.44
296.217	75.44
296.448	79.44
296.679	77.44
296.909	75.44
297.14	86.44
297.37	89.44
297.601	73.44
297.831	83.44
298.062	93.44
298.292	77.44
298.523	82.44
298.753	88.44
298.984	90.44
299.214	81.44
299.445	86.44
299.675	89.44
299.905	73.44
300.136	71.44
300.366	84.44
300.597	97.44
300.827	88.44
301.057	96.44
301.288	90.44
301.518	74.44
301.748	89.44
301.979	81.44
302.209	84.44
302.439	74.44
302.669	87.44
302.9	80.44
303.13	76.44
303.36	71.44
303.59	83.44
303.82	70.44
304.051	77.44
304.281	69.44
304.511	83.44
304.741	82.44
304.971	80.44
305.201	87.44
305.431	78.44
305.661	93.44
305.891	88.44
306.121	79.44
306.352	82.44
306.582	91.44
306.812	92.44
307.042	76.44
307.272	91.44
307.502	94.44
307.731	81.44
307.961	86.44
308.191	81.44
308.421	91.44
308.651	85.44
308.881	89.44
309.111	85.44
309.341	80.44
309.571	78.44
309.8	97.44
310.03	85.44
310.26	85.44
310.49	80.44
310.72	89.44
310.949	85.44
311.179	80.44
311.409	81.44
311.639	89.44
311.868	83.44
312.098	85.44
312.328	80.44
312.557	86.44
312.787	83.44
313.017	69.44
313.246	73.44
313.476	75.44
313.706	71.44
313.935	75.44
314.165	71.44
314.394	82.44
314.624	91.44
314.853	69.44
315.083	87.44
315.312	77.44
315.542	72.44
315.771	85.44
316.001	85.44
316.23	77.44
316.46	64.44
316.689	85.44
316.919	73.44
317.148	80.44
317.377	93.44
317.607	90.44
317.836	87.44
318.065	69.44
318.295	72.44
318.524	66.44
318.753	83.44
318.983	86.44
319.212	82.44
319.441	80.44
319.67	85.44
319.9	80.44
320.129	88.44
320.358	85.44
320.587	81.44
320.816	89.44
321.046	65.44
321.275	63.44
321.504	93.44
321.733	81.44
321.962	88.44
322.191	90.44
322.42	78.44
322.649	89.44
322.878	75.44
323.108	82.44
323.337	68.44
323.566	79.44
323.795	79.44
324.024	86.44
324.253	78.44
324.482	82.44
324.71	87.44
324.939	86.44
325.168	71.44
325.397	92.44
325.626	81.44
325.855	80.44
326.084	77.44
326.313	78.44
326.542	79.44
326.77	86.44
326.999	77.44
327.228	68.44
327.457	84.44
327.686	83.44
327.914	83.44
328.143	83.44
328.372	86.44
328.6	74.44
328.829	69.44
329.058	79.44
329.287	77.44
329.515	81.44
329.744	84.44
329.972	75.44
330.201	81.44
330.43	80.44
330.658	97.44
330.887	70.44
331.115	77.44
331.344	63.44
331.572	85.44
331.801	77.44
332.03	83.44
332.258	83.44
332.486	71.44
332.715	90.44
332.943	83.44
333.172	77.44
333.4	85.44
333.629	80.44
333.857	100.44
334.085	74.44
334.314	72.44
334.542	76.44
334.771	80.44
334.999	84.44
335.227	84.44
335.455	77.44
335.684	72.44
335.912	75.44
336.14	73.44
336.369	74.44
336.597	77.44
336.825	71.44
337.053	92.44
337.281	98.44
337.51	69.44
337.738	83.44
337.966	79.44
338.194	80.44
338.422	86.44
338.65	87.44
338.878	80.44
339.106	76.44
339.334	82.44
339.562	89.44
339.79	85.44
340.018	105.44
340.246	85.44
340.474	81.44
340.702	83.44
340.93	84.44
341.158	65.44
341.386	75.44
341.614	86.44
341.842	100.44
342.07	79.44
342.298	77.44
342.526	88.44
342.754	70.44
342.981	89.44
343.209	87.44
343.437	88.44
343.665	81.44
343.893	85.44
344.12	61.44
344.348	90.44
344.576	73.44
344.804	79.44
345.031	72.44
345.259	89.44
345.487	80.44
345.714	84.44
345.942	81.44
346.17	78.44
346.397	85.44
346.625	85.44
346.853	83.44
347.08	94.44
347.308	87.44
347.535	82.44
347.763	91.44
347.99	76.44
348.218	75.44
348.445	69.44
348.673	90.44
348.9	82.44
349.128	77.44
349.355	71.44
349.583	77.44
349.81	63.44
350.037	80.44
350.265	85.44
350.492	73.44
350.72	76.44
350.947	79.44
351.174	85.44
351.402	82.44
351.629	86.44
351.856	80.44
352.083	89.44
352.311	72.44
352.538	63.44
352.765	81.44
352.992	79.44
353.22	70.44
353.447	86.44
353.674	89.44
353.901	79.44
354.128	87.44
354.355	73.44
354.583	85.44
354.81	83.44
355.037	71.44
355.264	89.44
355.491	78.44
355.718	83.44
355.945	77.44
356.172	83.44
356.399	87.44
356.626	88.44
356.853	65.44
357.08	67.44
357.307	71.44
357.534	79.44
357.761	87.44
357.988	77.44
358.215	88.44
358.441	90.44
358.668	75.44
358.895	79.44
359.122	70.44
359.349	81.44
359.576	85.44
359.802	70.44
360.029	85.44
360.256	66.44
360.483	82.44
360.709	72.44
360.936	88.44
361.163	80.44
361.39	75.44
361.616	80.44
361.843	83.44
362.07	86.44
362.296	73.44
362.523	81.44
362.749	89.44
362.976	92.44
363.203	70.44
363.429	82.44
363.656	93.44
363.882	86.44
364.109	90.44
364.335	75.44
364.562	80.44
364.788	78.44
365.015	85.44
365.241	83.44
365.468	91.44
365.694	78.44
365.92	95.44
366.147	78.44
366.373	82.44
366.599	72.44
366.826	76.44
367.052	84.44
367.278	82.44
367.505	80.44
367.731	78.44
367.957	84.44
368.184	80.44
368.41	79.44
368.636	76.44
368.862	77.44
369.089	83.44
369.315	90.44
369.541	93.44
369.767	89.44
369.993	88.44
370.219	72.44
370.445	92.44
370.672	75.44
370.898	85.44
371.124	70.44
371.35	67.44
371.576	72.44
371.802	79.44
372.028	80.44
372.254	97.44
372.48	83.44
372.706	82.44
372.932	81.44
373.158	84.44
373.384	97.44
373.61	98.44
373.835	77.44
374.061	89.44
374.287	100.44
374.513	80.44
374.739	83.44
374.965	75.44
375.191	94.44
375.416	74.44
375.642	78.44
375.868	95.44
376.094	83.44
376.319	93.44
376.545	84.44
376.771	77.44
376.997	91.44
377.222	83.44
377.448	73.44
377.674	78.44
377.899	83.44
378.125	67.44
378.35	97.44
378.576	80.44
378.802	89.44
379.027	90.44
379.253	91.44
379.478	79.44
379.704	85.44
379.929	75.44
380.155	71.44
380.38	68.44
380.606	90.44
380.831	79.44
381.057	85.44
381.282	70.44
381.507	91.44
381.733	84.44
381.958	79.44
382.184	87.44
382.409	91.44
382.634	89.44
382.86	88.44
383.085	85.44
383.31	81.44
383.535	95.44
383.761	84.44
383.986	82.44
384.211	83.44
384.436	72.44
384.662	66.44
384.887	89.44
385.112	78.44
385.337	78.44
385.562	78.44
385.787	86.44
386.013	74.44
386.238	86.44
386.463	81.44
386.688	85.44
386.913	87.44
387.138	82.44
387.363	82.44
387.588	86.44
387.813	72.44
388.038	89.44
388.263	81.44
388.488	86.44
388.713	82.44
388.938	85.44
389.163	76.44
389.387	93.44
389.612	73.44
389.837	76.44
390.062	82.44
390.287	71.44
390.512	75.44
390.736	83.44
390.961	74.44
391.186	76.44
391.411	77.44
391.636	84.44
391.86	75.44
392.085	82.44
392.31	76.44
392.534	82.44
392.759	74.44
392.984	86.44
393.208	102.44
393.433	134.44
393.658	108.44
393.882	80.44
394.107	78.44
394.331	94.44
394.556	72.44
394.78	76.44
395.005	78.44
395.229	77.44
395.454	82.44
395.678	74.44
395.903	80.44
396.127	80.44
396.352	91.44
396.576	89.44
396.801	94.44
397.025	110.44
397.249	81.44
397.474	82.44
397.698	84.44
397.922	84.44
398.147	76.44
398.371	66.44
398.595	75.44
398.82	68.44
399.044	77.44
399.268	74.44
399.492	85.44
399.717	93.44
399.941	84.44
400.165	79.44
400.389	83.44
400.613	86.44
400.837	69.44
401.062	64.44
401.286	80.44
401.51	78.44
401.734	78.44
401.958	82.44
402.182	84.44
402.406	86.44
402.63	84.44
402.854	78.44
403.078	81.44
403.302	82.44
403.526	63.44
403.75	88.44
403.974	77.44
404.198	74.44
404.422	85.44
404.645	85.44
404.869	103.44
405.093	76.44
405.317	74.44
405.541	72.44
405.765	83.44
405.988	84.44
406.212	93.44
406.436	97.44
406.66	94.44
406.883	70.44
407.107	62.44
407.331	76.44
407.555	88.44
407.778	83.44
408.002	85.44
408.226	63.44
408.449	88.44
408.673	87.44
408.896	74.44
409.12	79.44
409.344	71.44
409.567	78.44
409.791	71.44
410.014	71.44
410.238	82.44
410.461	74.44
410.685	84.44
410.908	69.44
411.132	79.44
411.355	86.44
411.578	88.44
411.802	82.44
412.025	85.44
412.249	67.44
412.472	89.44
412.695	84.44
412.919	66.44
413.142	79.44
413.365	79.44
413.589	77.44
413.812	77.44
414.035	85.44
414.258	77.44
414.482	71.44
414.705	74.44
414.928	59.44
415.151	89.44
415.374	79.44
415.597	70.44
415.821	78.44
416.044	80.44
416.267	70.44
416.49	82.44
416.713	72.44
416.936	80.44
417.159	75.44
417.382	75.44
417.605	86.44
417.828	77.44
418.051	86.44
418.274	95.44
418.497	68.44
418.72	70.44
418.943	65.44
419.166	69.44
419.389	75.44
419.611	74.44
419.834	62.44
420.057	85.44
420.28	80.44
420.503	91.44
420.726	87.44
420.948	81.44
421.171	78.44
421.394	79.44
421.617	93.44
421.839	68.44
422.062	83.44
422.285	72.44
422.507	94.44
422.73	138.44
422.953	124.44
423.175	87.44
423.398	66.44
423.621	81.44
423.843	85.44
424.066	93.44
424.288	89.44
424.511	86.44
424.733	77.44
424.956	72.44
425.178	81.44
425.401	79.44
425.623	80.44
425.846	64.44
426.068	85.44
426.291	77.44
426.513	77.44
426.735	90.44
426.958	70.44
427.18	71.44
427.402	84.44
427.625	69.44
427.847	72.44
428.069	84.44
428.292	83.44
428.514	73.44
428.736	77.44
428.958	93.44
429.181	98.44
429.403	72.44
429.625	73.44
429.847	69.44
430.069	87.44
430.292	99.44
430.514	87.44
430.736	78.44
430.958	89.44
431.18	91.44
431.402	70.44
431.624	77.44
431.846	82.44
432.068	86.44
432.29	85.44
432.512	69.44
432.734	80.44
432.956	81.44
433.178	102.44
433.4	67.44
433.622	83.44
433.844	76.44
434.066	79.44
434.287	70.44
434.509	87.44
434.731	81.44
434.953	78.44
435.175	93.44
435.397	90.44
435.618	79.44
435.84	80.44
436.062	59.44
436.284	79.44
436.505	69.44
436.727	79.44
436.949	83.44
437.17	75.44
437.392	74.44
437.614	73.44
437.835	79.44
438.057	90.44
438.278	81.44
438.5	86.44
438.721	97.44
438.943	86.44
439.165	79.44
439.386	81.44
439.608	91.44
439.829	92.44
440.05	76.44
440.272	75.44
440.493	67.44
440.715	83.44
440.936	82.44
441.158	65.44
441.379	71.44
441.6	83.44
441.822	73.44
442.043	75.44
442.264	85.44
442.486	84.44
442.707	84.44
442.928	85.44
443.149	80.44
443.371	83.44
443.592	102.44
443.813	93.44
444.034	67.44
444.255	82.44
444.476	82.44
444.698	63.44
444.919	82.44
445.14	138.44
445.361	112.44
445.582	96.44
445.803	100.44
446.024	84.44
446.245	77.44
446.466	90.44
446.687	75.44
446.908	79.44
447.129	77.44
447.35	76.44
447.571	74.44
447.792	79.44
448.013	92.44
448.234	87.44
448.455	72.44
448.675	73.44
448.896	86.44
449.117	80.44
449.338	67.44
449.559	65.44
449.779	66.44
450	83.44
450.221	86.44
450.442	83.44
450.662	69.44
450.883	85.44
451.104	76.44
451.324	66.44
451.545	82.44
451.766	75.44
451.986	81.44
452.207	84.44
452.428	77.44
452.648	73.44
452.869	94.44
453.089	79.44
453.31	76.44
453.53	65.44
453.751	73.44
453.971	91.44
454.192	71.44
454.412	71.44
454.633	70.44
454.853	79.44
455.073	95.44
455.294	70.44
455.514	68.44
455.734	87.44
455.955	71.44
456.175	80.44
456.395	76.44
456.616	89.44
456.836	80.44
457.056	85.44
457.276	85.44
457.497	80.44
457.717	77.44
457.937	93.44
458.157	81.44
458.377	89.44
458.598	77.44
458.818	84.44
459.038	90.44
459.258	78.44
459.478	74.44
459.698	79.44
459.918	71.44
460.138	61.44
460.358	86.44
460.578	84.44
460.798	82.44
461.018	77.44
461.238	91.44
461.458	78.44
461.678	89.44
461.898	69.44
462.118	77.44
462.338	91.44
462.558	76.44
462.777	83.44
462.997	81.44
463.217	77.44
463.437	77.44
463.657	71.44
463.876	74.44
464.096	67.44
464.316	81.44
464.536	71.44
464.755	81.44
464.975	83.44
465.195	73.44
465.414	81.44
465.634	72.44
465.854	83.44
466.073	72.44
466.293	81.44
466.512	82.44
466.732	86.44
466.951	82.44
467.171	69.44
467.391	77.44
467.61	83.44
467.829	75.44
468.049	86.44
468.268	85.44
468.488	78.44
468.707	70.44
468.927	78.44
469.146	74.44
469.365	78.44
469.585	68.44
469.804	72.44
470.023	78.44
470.243	72.44
470.462	82.44
470.681	70.44
470.901	78.44
471.12	82.44
471.339	81.44
471.558	82.44
471.777	79.44
471.997	87.44
472.216	85.44
472.435	80.44
472.654	76.44
472.873	73.44
473.092	81.44
473.311	91.44
473.53	67.44
473.749	80.44
473.968	98.44
474.187	75.44
474.406	59.44
474.625	70.44
474.844	78.44
475.063	84.44
475.282	79.44
475.501	75.44
475.72	85.44
475.939	80.44
476.158	80.44
476.377	69.44
476.596	85.44
476.814	89.44
477.033	85.44
477.252	89.44
477.471	83.44
477.69	83.44
477.908	78.44
478.127	95.44
478.346	85.44
478.564	92.44
478.783	68.44
479.002	90.44
479.22	74.44
479.439	78.44
479.658	77.44
479.876	82.44
480.095	67.44
480.313	70.44
480.532	63.44
480.751	81.44
480.969	83.44
481.188	83.44
481.406	90.44
481.624	79.44
481.843	78.44
482.061	93.44
482.28	77.44
482.498	90.44
482.717	75.44
482.935	71.44
483.153	82.44
483.372	88.44
483.59	80.44
483.808	83.44
484.027	88.44
484.245	84.44
484.463	79.44
484.681	89.44
484.9	80.44
485.118	86.44
485.336	82.44
485.554	77.44
485.772	64.44
485.99	89.44
486.209	90.44
486.427	76.44
486.645	81.44
486.863	79.44
487.081	89.44
487.299	93.44
487.517	86.44
487.735	90.44
487.953	75.44
488.171	77.44
488.389	80.44
488.607	75.44
488.825	69.44
489.043	79.44
489.261	85.44
489.479	78.44
489.696	73.44
489.914	72.44
490.132	76.44
490.35	88.44
490.568	82.44
490.786	84.44
491.003	81.44
491.221	79.44
491.439	68.44
491.657	83.44
491.874	72.44
492.092	92.44
492.31	76.44
492.527	73.44
492.745	78.44
492.963	86.44
493.18	78.44
493.398	88.44
493.615	83.44
493.833	64.44
494.05	91.44
494.268	105.44
494.485	101.44
494.703	78.44
494.92	89.44
495.138	95.44
495.355	83.44
495.573	100.44
495.79	82.44
496.008	78.44
496.225	81.44
496.442	76.44
496.66	77.44
496.877	71.44
497.094	91.44
497.312	85.44
497.529	86.44
497.746	85.44
497.963	76.44
498.181	88.44
498.398	83.44
498.615	92.44
498.832	81.44
499.049	79.44
499.267	79.44
499.484	83.44
499.701	85.44
499.918	86.44
500.135	81.44
500.352	78.44
500.569	87.44
500.786	84.44
501.003	77.44
501.22	87.44
501.437	70.44
501.654	72.44
501.871	69.44
502.088	70.44
502.305	83.44
502.522	78.44
502.739	86.44
502.956	79.44
503.172	88.44
503.389	73.44
503.606	79.44
503.823	85.44
504.04	66.44
504.256	87.44
504.473	105.44
504.69	79.44
504.907	85.44
505.123	92.44
505.34	83.44
505.557	74.44
505.773	79.44
505.99	77.44
506.207	78.44
506.423	81.44
506.64	77.44
506.856	85.44
507.073	86.44
507.289	96.44
507.506	86.44
507.722	77.44
507.939	77.44
508.155	77.44
508.372	80.44
508.588	87.44
508.805	85.44
509.021	78.44
509.238	85.44
509.454	83.44
509.67	79.44
509.887	82.44
510.103	89.44
510.319	69.44
510.536	75.44
510.752	75.44
510.968	85.44
511.184	78.44
511.401	89.44
511.617	83.44
511.833	74.44
512.049	83.44
512.265	78.44
512.481	83.44
512.698	88.44
512.914	79.44
513.13	72.44
513.346	67.44
513.562	80.44
513.778	84.44
513.994	84.44
514.21	91.44
514.426	75.44
514.642	93.44
514.858	84.44
515.074	78.44
515.29	77.44
515.506	92.44
515.721	77.44
515.937	80.44
516.153	75.44
516.369	77.44
516.585	83.44
516.801	95.44
517.016	77.44
517.232	81.44
517.448	77.44
517.664	89.44
517.879	90.44
518.095	83.44
518.311	78.44
518.527	82.44
518.742	74.44
518.958	82.44
519.173	83.44
519.389	91.44
519.605	81.44
519.82	82.44
520.036	80.44
