Data from 1600_3_HRD10591_00043.txt Node
Date: Mon Jan 19 13:55:14 EST 2026
User: Yrep
Spectrometer: HR+D1059
Trigger mode: 1
Integration Time (sec): 1.000000E-1
Scans to average: 1
Electric dark correction enabled: true
Nonlinearity correction enabled: false
Boxcar width: 0
XAxis mode: Wavelengths
Number of Pixels in Spectrum: 2048
>>>>>Begin Spectral Data<<<<<
223.165	-24.25
223.4	-24.25
223.635	-24.25
223.869	-13.25
224.104	-15.25
224.338	-10.25
224.573	-12.25
224.808	-14.25
225.042	-14.25
225.277	2.75
225.511	10.75
225.746	9.75
225.98	-10.25
226.215	7.75
226.449	5.75
226.683	18.75
226.918	24.75
227.152	33.75
227.387	45.75
227.621	23.75
227.856	45.75
228.09	54.75
228.324	54.75
228.559	57.75
228.793	65.75
229.027	52.75
229.262	73.75
229.496	74.75
229.73	53.75
229.964	73.75
230.199	69.75
230.433	82.75
230.667	71.75
230.901	83.75
231.136	91.75
231.37	77.75
231.604	89.75
231.838	76.75
232.072	88.75
232.306	99.75
232.541	80.75
232.775	74.75
233.009	87.75
233.243	82.75
233.477	84.75
233.711	85.75
233.945	70.75
234.179	86.75
234.413	87.75
234.647	86.75
234.881	71.75
235.115	69.75
235.349	64.75
235.583	86.75
235.817	66.75
236.051	96.75
236.285	65.75
236.519	71.75
236.753	77.75
236.987	81.75
237.221	67.75
237.455	79.75
237.689	75.75
237.922	66.75
238.156	70.75
238.39	83.75
238.624	65.75
238.858	82.75
239.091	66.75
239.325	66.75
239.559	63.75
239.793	66.75
240.027	87.75
240.26	93.75
240.494	76.75
240.728	77.75
240.961	67.75
241.195	79.75
241.429	77.75
241.662	80.75
241.896	87.75
242.13	72.75
242.363	70.75
242.597	78.75
242.83	84.75
243.064	81.75
243.298	86.75
243.531	79.75
243.765	65.75
243.998	69.75
244.232	75.75
244.465	79.75
244.699	85.75
244.932	79.75
245.166	76.75
245.399	80.75
245.633	86.75
245.866	75.75
246.099	75.75
246.333	69.75
246.566	77.75
246.8	79.75
247.033	83.75
247.266	79.75
247.5	93.75
247.733	81.75
247.966	74.75
248.2	97.75
248.433	81.75
248.666	89.75
248.899	76.75
249.133	79.75
249.366	90.75
249.599	84.75
249.832	78.75
250.066	80.75
250.299	93.75
250.532	79.75
250.765	86.75
250.998	81.75
251.231	73.75
251.465	89.75
251.698	95.75
251.931	87.75
252.164	93.75
252.397	97.75
252.63	79.75
252.863	90.75
253.096	72.75
253.329	87.75
253.562	71.75
253.795	85.75
254.028	87.75
254.261	80.75
254.494	72.75
254.727	81.75
254.96	85.75
255.193	71.75
255.426	82.75
255.659	85.75
255.892	84.75
256.124	73.75
256.357	79.75
256.59	81.75
256.823	78.75
257.056	73.75
257.289	92.75
257.521	87.75
257.754	59.75
257.987	81.75
258.22	77.75
258.452	70.75
258.685	75.75
258.918	74.75
259.151	81.75
259.383	86.75
259.616	74.75
259.849	90.75
260.081	97.75
260.314	80.75
260.547	83.75
260.779	87.75
261.012	76.75
261.244	87.75
261.477	83.75
261.71	80.75
261.942	76.75
262.175	85.75
262.407	81.75
262.64	81.75
262.872	95.75
263.105	83.75
263.337	82.75
263.57	71.75
263.802	76.75
264.035	69.75
264.267	75.75
264.499	80.75
264.732	79.75
264.964	87.75
265.197	81.75
265.429	85.75
265.661	79.75
265.894	75.75
266.126	76.75
266.358	89.75
266.591	93.75
266.823	89.75
267.055	82.75
267.287	83.75
267.52	97.75
267.752	88.75
267.984	90.75
268.216	95.75
268.448	87.75
268.681	83.75
268.913	79.75
269.145	81.75
269.377	77.75
269.609	78.75
269.841	89.75
270.073	90.75
270.306	74.75
270.538	88.75
270.77	81.75
271.002	82.75
271.234	82.75
271.466	97.75
271.698	95.75
271.93	88.75
272.162	94.75
272.394	81.75
272.626	77.75
272.858	95.75
273.09	88.75
273.322	79.75
273.553	79.75
273.785	92.75
274.017	86.75
274.249	77.75
274.481	85.75
274.713	78.75
274.945	92.75
275.176	80.75
275.408	94.75
275.64	74.75
275.872	90.75
276.104	90.75
276.335	82.75
276.567	84.75
276.799	89.75
277.031	81.75
277.262	92.75
277.494	83.75
277.726	101.75
277.957	85.75
278.189	90.75
278.421	95.75
278.652	82.75
278.884	95.75
279.115	87.75
279.347	91.75
279.579	103.75
279.81	82.75
280.042	90.75
280.273	93.75
280.505	85.75
280.736	80.75
280.968	97.75
281.199	84.75
281.431	85.75
281.662	94.75
281.894	87.75
282.125	84.75
282.356	66.75
282.588	79.75
282.819	93.75
283.051	83.75
283.282	83.75
283.513	89.75
283.745	81.75
283.976	78.75
284.207	98.75
284.439	85.75
284.67	89.75
284.901	102.75
285.132	92.75
285.364	91.75
285.595	93.75
285.826	88.75
286.057	81.75
286.288	67.75
286.52	88.75
286.751	69.75
286.982	89.75
287.213	83.75
287.444	93.75
287.675	93.75
287.906	98.75
288.138	76.75
288.369	83.75
288.6	91.75
288.831	97.75
289.062	103.75
289.293	75.75
289.524	74.75
289.755	89.75
289.986	93.75
290.217	82.75
290.448	81.75
290.679	103.75
290.91	93.75
291.141	90.75
291.371	83.75
291.602	93.75
291.833	66.75
292.064	85.75
292.295	83.75
292.526	88.75
292.757	83.75
292.987	90.75
293.218	87.75
293.449	73.75
293.68	76.75
293.91	85.75
294.141	88.75
294.372	96.75
294.603	95.75
294.833	89.75
295.064	93.75
295.295	87.75
295.525	100.75
295.756	93.75
295.987	79.75
296.217	93.75
296.448	78.75
296.679	100.75
296.909	91.75
297.14	93.75
297.37	77.75
297.601	85.75
297.831	97.75
298.062	99.75
298.292	92.75
298.523	97.75
298.753	104.75
298.984	81.75
299.214	98.75
299.445	94.75
299.675	82.75
299.905	93.75
300.136	103.75
300.366	84.75
300.597	91.75
300.827	91.75
301.057	91.75
301.288	88.75
301.518	73.75
301.748	72.75
301.979	129.75
302.209	97.75
302.439	99.75
302.669	91.75
302.9	93.75
303.13	89.75
303.36	87.75
303.59	84.75
303.82	95.75
304.051	93.75
304.281	90.75
304.511	95.75
304.741	93.75
304.971	82.75
305.201	96.75
305.431	81.75
305.661	76.75
305.891	84.75
306.121	94.75
306.352	94.75
306.582	91.75
306.812	94.75
307.042	82.75
307.272	81.75
307.502	79.75
307.731	89.75
307.961	90.75
308.191	98.75
308.421	104.75
308.651	92.75
308.881	85.75
309.111	88.75
309.341	91.75
309.571	103.75
309.8	89.75
310.03	82.75
310.26	71.75
310.49	87.75
310.72	78.75
310.949	74.75
311.179	89.75
311.409	83.75
311.639	93.75
311.868	104.75
312.098	83.75
312.328	96.75
312.557	81.75
312.787	89.75
313.017	93.75
313.246	93.75
313.476	82.75
313.706	78.75
313.935	79.75
314.165	84.75
314.394	76.75
314.624	93.75
314.853	82.75
315.083	86.75
315.312	92.75
315.542	80.75
315.771	101.75
316.001	85.75
316.23	97.75
316.46	92.75
316.689	87.75
316.919	98.75
317.148	89.75
317.377	90.75
317.607	86.75
317.836	97.75
318.065	105.75
318.295	109.75
318.524	79.75
318.753	83.75
318.983	81.75
319.212	95.75
319.441	79.75
319.67	83.75
319.9	87.75
320.129	80.75
320.358	89.75
320.587	94.75
320.816	88.75
321.046	89.75
321.275	83.75
321.504	95.75
321.733	77.75
321.962	89.75
322.191	94.75
322.42	84.75
322.649	93.75
322.878	87.75
323.108	87.75
323.337	88.75
323.566	93.75
323.795	95.75
324.024	94.75
324.253	82.75
324.482	77.75
324.71	80.75
324.939	89.75
325.168	87.75
325.397	71.75
325.626	105.75
325.855	75.75
326.084	75.75
326.313	83.75
326.542	98.75
326.77	95.75
326.999	82.75
327.228	110.75
327.457	101.75
327.686	87.75
327.914	82.75
328.143	81.75
328.372	80.75
328.6	81.75
328.829	95.75
329.058	89.75
329.287	72.75
329.515	70.75
329.744	90.75
329.972	86.75
330.201	93.75
330.43	81.75
330.658	77.75
330.887	99.75
331.115	93.75
331.344	95.75
331.572	93.75
331.801	70.75
332.03	77.75
332.258	89.75
332.486	95.75
332.715	96.75
332.943	100.75
333.172	77.75
333.4	79.75
333.629	76.75
333.857	85.75
334.085	82.75
334.314	94.75
334.542	99.75
334.771	95.75
334.999	100.75
335.227	89.75
335.455	91.75
335.684	94.75
335.912	90.75
336.14	87.75
336.369	89.75
336.597	92.75
336.825	92.75
337.053	95.75
337.281	71.75
337.51	86.75
337.738	86.75
337.966	89.75
338.194	89.75
338.422	98.75
338.65	74.75
338.878	85.75
339.106	93.75
339.334	85.75
339.562	79.75
339.79	75.75
340.018	88.75
340.246	101.75
340.474	91.75
340.702	94.75
340.93	82.75
341.158	87.75
341.386	78.75
341.614	83.75
341.842	85.75
342.07	99.75
342.298	94.75
342.526	88.75
342.754	95.75
342.981	86.75
343.209	94.75
343.437	97.75
343.665	96.75
343.893	85.75
344.12	89.75
344.348	71.75
344.576	87.75
344.804	79.75
345.031	75.75
345.259	88.75
345.487	93.75
345.714	73.75
345.942	86.75
346.17	82.75
346.397	90.75
346.625	94.75
346.853	77.75
347.08	82.75
347.308	89.75
347.535	75.75
347.763	90.75
347.99	98.75
348.218	78.75
348.445	85.75
348.673	75.75
348.9	89.75
349.128	95.75
349.355	96.75
349.583	96.75
349.81	102.75
350.037	94.75
350.265	75.75
350.492	72.75
350.72	85.75
350.947	75.75
351.174	95.75
351.402	85.75
351.629	82.75
351.856	79.75
352.083	90.75
352.311	81.75
352.538	83.75
352.765	81.75
352.992	89.75
353.22	83.75
353.447	87.75
353.674	89.75
353.901	96.75
354.128	82.75
354.355	83.75
354.583	81.75
354.81	88.75
355.037	80.75
355.264	90.75
355.491	83.75
355.718	82.75
355.945	94.75
356.172	93.75
356.399	89.75
356.626	87.75
356.853	94.75
357.08	96.75
357.307	85.75
357.534	93.75
357.761	90.75
357.988	97.75
358.215	90.75
358.441	105.75
358.668	90.75
358.895	85.75
359.122	61.75
359.349	75.75
359.576	70.75
359.802	86.75
360.029	101.75
360.256	94.75
360.483	88.75
360.709	80.75
360.936	90.75
361.163	80.75
361.39	82.75
361.616	84.75
361.843	89.75
362.07	83.75
362.296	80.75
362.523	85.75
362.749	98.75
362.976	86.75
363.203	81.75
363.429	88.75
363.656	95.75
363.882	105.75
364.109	87.75
364.335	89.75
364.562	103.75
364.788	87.75
365.015	90.75
365.241	88.75
365.468	83.75
365.694	81.75
365.92	81.75
366.147	74.75
366.373	59.75
366.599	102.75
366.826	84.75
367.052	85.75
367.278	73.75
367.505	85.75
367.731	90.75
367.957	96.75
368.184	92.75
368.41	93.75
368.636	90.75
368.862	81.75
369.089	80.75
369.315	83.75
369.541	77.75
369.767	83.75
369.993	82.75
370.219	94.75
370.445	91.75
370.672	96.75
370.898	90.75
371.124	85.75
371.35	91.75
371.576	89.75
371.802	84.75
372.028	85.75
372.254	109.75
372.48	94.75
372.706	91.75
372.932	105.75
373.158	92.75
373.384	100.75
373.61	115.75
373.835	103.75
374.061	95.75
374.287	96.75
374.513	111.75
374.739	106.75
374.965	93.75
375.191	90.75
375.416	75.75
375.642	89.75
375.868	96.75
376.094	103.75
376.319	92.75
376.545	97.75
376.771	91.75
376.997	82.75
377.222	79.75
377.448	75.75
377.674	81.75
377.899	93.75
378.125	73.75
378.35	87.75
378.576	76.75
378.802	91.75
379.027	84.75
379.253	97.75
379.478	87.75
379.704	86.75
379.929	65.75
380.155	97.75
380.38	93.75
380.606	92.75
380.831	90.75
381.057	83.75
381.282	71.75
381.507	83.75
381.733	97.75
381.958	97.75
382.184	106.75
382.409	86.75
382.634	98.75
382.86	88.75
383.085	101.75
383.31	106.75
383.535	95.75
383.761	98.75
383.986	110.75
384.211	95.75
384.436	89.75
384.662	74.75
384.887	89.75
385.112	89.75
385.337	98.75
385.562	87.75
385.787	91.75
386.013	105.75
386.238	88.75
386.463	89.75
386.688	98.75
386.913	93.75
387.138	91.75
387.363	95.75
387.588	91.75
387.813	83.75
388.038	95.75
388.263	87.75
388.488	99.75
388.713	88.75
388.938	96.75
389.163	101.75
389.387	90.75
389.612	82.75
389.837	83.75
390.062	109.75
390.287	90.75
390.512	88.75
390.736	87.75
390.961	72.75
391.186	102.75
391.411	93.75
391.636	73.75
391.86	92.75
392.085	85.75
392.31	92.75
392.534	81.75
392.759	94.75
392.984	160.75
393.208	243.75
393.433	385.75
393.658	288.75
393.882	139.75
394.107	97.75
394.331	87.75
394.556	109.75
394.78	109.75
395.005	87.75
395.229	91.75
395.454	89.75
395.678	99.75
395.903	109.75
396.127	121.75
396.352	138.75
396.576	153.75
396.801	281.75
397.025	303.75
397.249	162.75
397.474	94.75
397.698	85.75
397.922	89.75
398.147	79.75
398.371	82.75
398.595	86.75
398.82	82.75
399.044	89.75
399.268	85.75
399.492	85.75
399.717	72.75
399.941	89.75
400.165	100.75
400.389	98.75
400.613	91.75
400.837	78.75
401.062	82.75
401.286	81.75
401.51	77.75
401.734	93.75
401.958	75.75
402.182	90.75
402.406	79.75
402.63	74.75
402.854	74.75
403.078	101.75
403.302	83.75
403.526	84.75
403.75	88.75
403.974	95.75
404.198	82.75
404.422	94.75
404.645	105.75
404.869	96.75
405.093	77.75
405.317	69.75
405.541	84.75
405.765	87.75
405.988	84.75
406.212	82.75
406.436	69.75
406.66	80.75
406.883	98.75
407.107	90.75
407.331	88.75
407.555	88.75
407.778	81.75
408.002	101.75
408.226	75.75
408.449	88.75
408.673	91.75
408.896	88.75
409.12	74.75
409.344	83.75
409.567	76.75
409.791	77.75
410.014	87.75
410.238	82.75
410.461	70.75
410.685	71.75
410.908	86.75
411.132	96.75
411.355	78.75
411.578	82.75
411.802	81.75
412.025	91.75
412.249	84.75
412.472	73.75
412.695	80.75
412.919	76.75
413.142	80.75
413.365	79.75
413.589	89.75
413.812	79.75
414.035	87.75
414.258	74.75
414.482	83.75
414.705	81.75
414.928	94.75
415.151	75.75
415.374	99.75
415.597	73.75
415.821	99.75
416.044	91.75
416.267	82.75
416.49	62.75
416.713	86.75
416.936	78.75
417.159	89.75
417.382	85.75
417.605	73.75
417.828	97.75
418.051	72.75
418.274	86.75
418.497	88.75
418.72	89.75
418.943	92.75
419.166	77.75
419.389	62.75
419.611	89.75
419.834	92.75
420.057	94.75
420.28	83.75
420.503	96.75
420.726	84.75
420.948	93.75
421.171	95.75
421.394	85.75
421.617	86.75
421.839	93.75
422.062	93.75
422.285	93.75
422.507	156.75
422.73	219.75
422.953	192.75
423.175	113.75
423.398	92.75
423.621	93.75
423.843	91.75
424.066	77.75
424.288	88.75
424.511	75.75
424.733	85.75
424.956	80.75
425.178	82.75
425.401	74.75
425.623	81.75
425.846	80.75
426.068	75.75
426.291	73.75
426.513	78.75
426.735	85.75
426.958	81.75
427.18	75.75
427.402	89.75
427.625	83.75
427.847	79.75
428.069	86.75
428.292	82.75
428.514	107.75
428.736	97.75
428.958	97.75
429.181	93.75
429.403	84.75
429.625	92.75
429.847	91.75
430.069	114.75
430.292	139.75
430.514	129.75
430.736	104.75
430.958	120.75
431.18	79.75
431.402	85.75
431.624	94.75
431.846	103.75
432.068	106.75
432.29	83.75
432.512	89.75
432.734	88.75
432.956	82.75
433.178	78.75
433.4	83.75
433.622	86.75
433.844	91.75
434.066	86.75
434.287	85.75
434.509	83.75
434.731	87.75
434.953	85.75
435.175	97.75
435.397	86.75
435.618	79.75
435.84	74.75
436.062	84.75
436.284	69.75
436.505	88.75
436.727	81.75
436.949	81.75
437.17	89.75
437.392	78.75
437.614	84.75
437.835	93.75
438.057	80.75
438.278	83.75
438.5	102.75
438.721	82.75
438.943	87.75
439.165	84.75
439.386	87.75
439.608	81.75
439.829	91.75
440.05	81.75
440.272	75.75
440.493	79.75
440.715	77.75
440.936	92.75
441.158	93.75
441.379	81.75
441.6	89.75
441.822	101.75
442.043	92.75
442.264	79.75
442.486	91.75
442.707	93.75
442.928	79.75
443.149	85.75
443.371	113.75
443.592	124.75
443.813	114.75
444.034	96.75
444.255	94.75
444.476	83.75
444.698	85.75
444.919	92.75
445.14	152.75
445.361	143.75
445.582	145.75
445.803	130.75
446.024	102.75
446.245	75.75
446.466	91.75
446.687	89.75
446.908	85.75
447.129	74.75
447.35	94.75
447.571	87.75
447.792	97.75
448.013	83.75
448.234	95.75
448.455	83.75
448.675	86.75
448.896	76.75
449.117	75.75
449.338	74.75
449.559	85.75
449.779	80.75
450	89.75
450.221	84.75
450.442	90.75
450.662	84.75
450.883	81.75
451.104	73.75
451.324	86.75
451.545	78.75
451.766	94.75
451.986	76.75
452.207	89.75
452.428	67.75
452.648	75.75
452.869	75.75
453.089	73.75
453.31	72.75
453.53	73.75
453.751	85.75
453.971	89.75
454.192	85.75
454.412	84.75
454.633	71.75
454.853	81.75
455.073	90.75
455.294	86.75
455.514	79.75
455.734	81.75
455.955	66.75
456.175	82.75
456.395	74.75
456.616	69.75
456.836	67.75
457.056	83.75
457.276	87.75
457.497	69.75
457.717	83.75
457.937	77.75
458.157	88.75
458.377	83.75
458.598	89.75
458.818	99.75
459.038	82.75
459.258	79.75
459.478	82.75
459.698	85.75
459.918	92.75
460.138	83.75
460.358	76.75
460.578	83.75
460.798	101.75
461.018	73.75
461.238	88.75
461.458	75.75
461.678	91.75
461.898	81.75
462.118	92.75
462.338	77.75
462.558	90.75
462.777	83.75
462.997	83.75
463.217	93.75
463.437	83.75
463.657	85.75
463.876	89.75
464.096	91.75
464.316	72.75
464.536	84.75
464.755	82.75
464.975	77.75
465.195	79.75
465.414	91.75
465.634	87.75
465.854	80.75
466.073	65.75
466.293	90.75
466.512	83.75
466.732	88.75
466.951	66.75
467.171	76.75
467.391	98.75
467.61	92.75
467.829	87.75
468.049	97.75
468.268	89.75
468.488	79.75
468.707	68.75
468.927	87.75
469.146	83.75
469.365	71.75
469.585	88.75
469.804	85.75
470.023	88.75
470.243	80.75
470.462	100.75
470.681	74.75
470.901	86.75
471.12	87.75
471.339	100.75
471.558	87.75
471.777	85.75
471.997	82.75
472.216	76.75
472.435	61.75
472.654	102.75
472.873	83.75
473.092	93.75
473.311	91.75
473.53	89.75
473.749	74.75
473.968	85.75
474.187	93.75
474.406	75.75
474.625	91.75
474.844	101.75
475.063	83.75
475.282	79.75
475.501	88.75
475.72	89.75
475.939	99.75
476.158	79.75
476.377	70.75
476.596	88.75
476.814	89.75
477.033	76.75
477.252	74.75
477.471	69.75
477.69	69.75
477.908	82.75
478.127	83.75
478.346	87.75
478.564	91.75
478.783	71.75
479.002	85.75
479.22	92.75
479.439	82.75
479.658	74.75
479.876	73.75
480.095	79.75
480.313	87.75
480.532	86.75
480.751	98.75
480.969	76.75
481.188	81.75
481.406	79.75
481.624	88.75
481.843	97.75
482.061	83.75
482.28	84.75
482.498	89.75
482.717	74.75
482.935	71.75
483.153	81.75
483.372	91.75
483.59	105.75
483.808	80.75
484.027	73.75
484.245	82.75
484.463	94.75
484.681	93.75
484.9	85.75
485.118	93.75
485.336	88.75
485.554	75.75
485.772	86.75
485.99	74.75
486.209	78.75
486.427	82.75
486.645	81.75
486.863	85.75
487.081	95.75
487.299	95.75
487.517	81.75
487.735	78.75
487.953	100.75
488.171	87.75
488.389	84.75
488.607	83.75
488.825	97.75
489.043	78.75
489.261	73.75
489.479	81.75
489.696	86.75
489.914	93.75
490.132	80.75
490.35	89.75
490.568	85.75
490.786	89.75
491.003	75.75
491.221	75.75
491.439	76.75
491.657	82.75
491.874	84.75
492.092	85.75
492.31	97.75
492.527	69.75
492.745	79.75
492.963	81.75
493.18	89.75
493.398	93.75
493.615	97.75
493.833	86.75
494.05	81.75
494.268	78.75
494.485	78.75
494.703	78.75
494.92	77.75
495.138	90.75
495.355	90.75
495.573	102.75
495.79	90.75
496.008	85.75
496.225	83.75
496.442	86.75
496.66	84.75
496.877	93.75
497.094	90.75
497.312	78.75
497.529	96.75
497.746	85.75
497.963	97.75
498.181	90.75
498.398	73.75
498.615	69.75
498.832	79.75
499.049	81.75
499.267	86.75
499.484	83.75
499.701	90.75
499.918	74.75
500.135	89.75
500.352	97.75
500.569	83.75
500.786	79.75
501.003	90.75
501.22	86.75
501.437	79.75
501.654	83.75
501.871	95.75
502.088	74.75
502.305	88.75
502.522	71.75
502.739	95.75
502.956	93.75
503.172	86.75
503.389	95.75
503.606	83.75
503.823	83.75
504.04	97.75
504.256	96.75
504.473	86.75
504.69	71.75
504.907	88.75
505.123	73.75
505.34	79.75
505.557	88.75
505.773	87.75
505.99	87.75
506.207	89.75
506.423	85.75
506.64	89.75
506.856	83.75
507.073	91.75
507.289	78.75
507.506	91.75
507.722	67.75
507.939	101.75
508.155	73.75
508.372	87.75
508.588	81.75
508.805	85.75
509.021	79.75
509.238	84.75
509.454	82.75
509.67	75.75
509.887	74.75
510.103	86.75
510.319	86.75
510.536	87.75
510.752	97.75
510.968	86.75
511.184	90.75
511.401	97.75
511.617	85.75
511.833	79.75
512.049	78.75
512.265	71.75
512.481	85.75
512.698	87.75
512.914	81.75
513.13	95.75
513.346	80.75
513.562	85.75
513.778	97.75
513.994	96.75
514.21	88.75
514.426	93.75
514.642	103.75
514.858	98.75
515.074	88.75
515.29	97.75
515.506	79.75
515.721	94.75
515.937	96.75
516.153	77.75
516.369	79.75
516.585	82.75
516.801	102.75
517.016	91.75
517.232	95.75
517.448	104.75
517.664	103.75
517.879	85.75
518.095	91.75
518.311	103.75
518.527	101.75
518.742	92.75
518.958	79.75
