Data from 1600_3_HRD10591_00004.txt Node
Date: Mon Jan 19 13:54:55 EST 2026
User: Yrep
Spectrometer: HR+D1059
Trigger mode: 1
Integration Time (sec): 1.000000E-1
Scans to average: 1
Electric dark correction enabled: true
Nonlinearity correction enabled: false
Boxcar width: 0
XAxis mode: Wavelengths
Number of Pixels in Spectrum: 2048
>>>>>Begin Spectral Data<<<<<
223.165	-11.94
223.4	-11.94
223.635	-11.94
223.869	-27.94
224.104	-6.94
224.338	-19.94
224.573	-3.94
224.808	-15.94
225.042	9.06
225.277	-17.94
225.511	-1.94
225.746	16.06
225.98	-3.94
226.215	8.06
226.449	19.06
226.683	13.06
226.918	24.06
227.152	21.06
227.387	30.06
227.621	35.06
227.856	40.06
228.09	28.06
228.324	42.06
228.559	63.06
228.793	61.06
229.027	50.06
229.262	68.06
229.496	72.06
229.73	62.06
229.964	59.06
230.199	74.06
230.433	79.06
230.667	60.06
230.901	59.06
231.136	65.06
231.37	69.06
231.604	72.06
231.838	71.06
232.072	83.06
232.306	73.06
232.541	84.06
232.775	63.06
233.009	71.06
233.243	84.06
233.477	92.06
233.711	90.06
233.945	89.06
234.179	70.06
234.413	80.06
234.647	86.06
234.881	86.06
235.115	75.06
235.349	102.06
235.583	84.06
235.817	82.06
236.051	71.06
236.285	60.06
236.519	59.06
236.753	73.06
236.987	70.06
237.221	88.06
237.455	78.06
237.689	67.06
237.922	68.06
238.156	74.06
238.39	76.06
238.624	76.06
238.858	71.06
239.091	89.06
239.325	84.06
239.559	75.06
239.793	69.06
240.027	65.06
240.26	64.06
240.494	78.06
240.728	62.06
240.961	74.06
241.195	87.06
241.429	68.06
241.662	77.06
241.896	88.06
242.13	62.06
242.363	62.06
242.597	70.06
242.83	70.06
243.064	73.06
243.298	78.06
243.531	72.06
243.765	92.06
243.998	67.06
244.232	86.06
244.465	93.06
244.699	76.06
244.932	76.06
245.166	79.06
245.399	73.06
245.633	84.06
245.866	74.06
246.099	79.06
246.333	63.06
246.566	61.06
246.8	79.06
247.033	62.06
247.266	82.06
247.5	70.06
247.733	80.06
247.966	60.06
248.2	72.06
248.433	84.06
248.666	80.06
248.899	73.06
249.133	70.06
249.366	74.06
249.599	70.06
249.832	73.06
250.066	73.06
250.299	78.06
250.532	74.06
250.765	70.06
250.998	78.06
251.231	70.06
251.465	78.06
251.698	64.06
251.931	66.06
252.164	74.06
252.397	71.06
252.63	81.06
252.863	84.06
253.096	67.06
253.329	74.06
253.562	72.06
253.795	71.06
254.028	67.06
254.261	86.06
254.494	72.06
254.727	74.06
254.96	76.06
255.193	80.06
255.426	89.06
255.659	80.06
255.892	69.06
256.124	68.06
256.357	70.06
256.59	85.06
256.823	75.06
257.056	68.06
257.289	84.06
257.521	69.06
257.754	85.06
257.987	82.06
258.22	78.06
258.452	88.06
258.685	70.06
258.918	68.06
259.151	87.06
259.383	74.06
259.616	77.06
259.849	78.06
260.081	66.06
260.314	90.06
260.547	65.06
260.779	71.06
261.012	79.06
261.244	89.06
261.477	78.06
261.71	73.06
261.942	65.06
262.175	80.06
262.407	83.06
262.64	92.06
262.872	77.06
263.105	69.06
263.337	85.06
263.57	74.06
263.802	67.06
264.035	78.06
264.267	80.06
264.499	85.06
264.732	71.06
264.964	84.06
265.197	84.06
265.429	68.06
265.661	80.06
265.894	62.06
266.126	71.06
266.358	77.06
266.591	81.06
266.823	77.06
267.055	85.06
267.287	78.06
267.52	85.06
267.752	93.06
267.984	82.06
268.216	70.06
268.448	80.06
268.681	85.06
268.913	67.06
269.145	66.06
269.377	73.06
269.609	78.06
269.841	88.06
270.073	80.06
270.306	75.06
270.538	81.06
270.77	88.06
271.002	84.06
271.234	70.06
271.466	79.06
271.698	82.06
271.93	96.06
272.162	79.06
272.394	79.06
272.626	64.06
272.858	84.06
273.09	81.06
273.322	86.06
273.553	85.06
273.785	77.06
274.017	89.06
274.249	70.06
274.481	93.06
274.713	78.06
274.945	71.06
275.176	83.06
275.408	64.06
275.64	75.06
275.872	76.06
276.104	87.06
276.335	78.06
276.567	80.06
276.799	84.06
277.031	80.06
277.262	75.06
277.494	71.06
277.726	69.06
277.957	77.06
278.189	85.06
278.421	88.06
278.652	88.06
278.884	83.06
279.115	78.06
279.347	89.06
279.579	87.06
279.81	77.06
280.042	79.06
280.273	80.06
280.505	84.06
280.736	90.06
280.968	75.06
281.199	79.06
281.431	73.06
281.662	90.06
281.894	70.06
282.125	79.06
282.356	80.06
282.588	85.06
282.819	89.06
283.051	76.06
283.282	83.06
283.513	79.06
283.745	76.06
283.976	66.06
284.207	84.06
284.439	88.06
284.67	76.06
284.901	97.06
285.132	75.06
285.364	95.06
285.595	68.06
285.826	85.06
286.057	90.06
286.288	78.06
286.52	86.06
286.751	80.06
286.982	93.06
287.213	76.06
287.444	85.06
287.675	84.06
287.906	81.06
288.138	80.06
288.369	80.06
288.6	75.06
288.831	69.06
289.062	72.06
289.293	82.06
289.524	74.06
289.755	78.06
289.986	92.06
290.217	75.06
290.448	77.06
290.679	91.06
290.91	101.06
291.141	88.06
291.371	87.06
291.602	85.06
291.833	68.06
292.064	84.06
292.295	89.06
292.526	92.06
292.757	86.06
292.987	85.06
293.218	97.06
293.449	79.06
293.68	78.06
293.91	73.06
294.141	89.06
294.372	77.06
294.603	79.06
294.833	66.06
295.064	84.06
295.295	83.06
295.525	80.06
295.756	94.06
295.987	81.06
296.217	94.06
296.448	87.06
296.679	79.06
296.909	81.06
297.14	89.06
297.37	81.06
297.601	91.06
297.831	80.06
298.062	73.06
298.292	71.06
298.523	85.06
298.753	91.06
298.984	71.06
299.214	91.06
299.445	75.06
299.675	70.06
299.905	90.06
300.136	88.06
300.366	89.06
300.597	74.06
300.827	86.06
301.057	89.06
301.288	93.06
301.518	80.06
301.748	88.06
301.979	92.06
302.209	96.06
302.439	76.06
302.669	91.06
302.9	74.06
303.13	60.06
303.36	74.06
303.59	84.06
303.82	70.06
304.051	76.06
304.281	78.06
304.511	91.06
304.741	88.06
304.971	90.06
305.201	87.06
305.431	85.06
305.661	75.06
305.891	84.06
306.121	82.06
306.352	92.06
306.582	80.06
306.812	92.06
307.042	78.06
307.272	77.06
307.502	79.06
307.731	64.06
307.961	83.06
308.191	88.06
308.421	85.06
308.651	81.06
308.881	84.06
309.111	96.06
309.341	81.06
309.571	87.06
309.8	76.06
310.03	91.06
310.26	68.06
310.49	89.06
310.72	78.06
310.949	88.06
311.179	83.06
311.409	90.06
311.639	80.06
311.868	69.06
312.098	77.06
312.328	84.06
312.557	89.06
312.787	90.06
313.017	84.06
313.246	74.06
313.476	83.06
313.706	78.06
313.935	91.06
314.165	77.06
314.394	83.06
314.624	80.06
314.853	82.06
315.083	74.06
315.312	82.06
315.542	80.06
315.771	95.06
316.001	90.06
316.23	88.06
316.46	89.06
316.689	83.06
316.919	72.06
317.148	85.06
317.377	88.06
317.607	82.06
317.836	88.06
318.065	77.06
318.295	91.06
318.524	71.06
318.753	94.06
318.983	71.06
319.212	80.06
319.441	86.06
319.67	88.06
319.9	91.06
320.129	79.06
320.358	78.06
320.587	94.06
320.816	74.06
321.046	88.06
321.275	92.06
321.504	84.06
321.733	76.06
321.962	77.06
322.191	72.06
322.42	73.06
322.649	81.06
322.878	92.06
323.108	85.06
323.337	80.06
323.566	78.06
323.795	83.06
324.024	101.06
324.253	90.06
324.482	92.06
324.71	84.06
324.939	79.06
325.168	84.06
325.397	80.06
325.626	76.06
325.855	77.06
326.084	66.06
326.313	89.06
326.542	100.06
326.77	85.06
326.999	76.06
327.228	79.06
327.457	90.06
327.686	79.06
327.914	92.06
328.143	83.06
328.372	74.06
328.6	64.06
328.829	76.06
329.058	73.06
329.287	93.06
329.515	79.06
329.744	80.06
329.972	94.06
330.201	79.06
330.43	72.06
330.658	92.06
330.887	82.06
331.115	78.06
331.344	78.06
331.572	86.06
331.801	80.06
332.03	85.06
332.258	73.06
332.486	82.06
332.715	84.06
332.943	73.06
333.172	76.06
333.4	85.06
333.629	65.06
333.857	89.06
334.085	82.06
334.314	78.06
334.542	82.06
334.771	76.06
334.999	74.06
335.227	70.06
335.455	91.06
335.684	93.06
335.912	89.06
336.14	84.06
336.369	79.06
336.597	71.06
336.825	76.06
337.053	87.06
337.281	78.06
337.51	81.06
337.738	99.06
337.966	75.06
338.194	90.06
338.422	81.06
338.65	78.06
338.878	80.06
339.106	90.06
339.334	85.06
339.562	69.06
339.79	84.06
340.018	78.06
340.246	75.06
340.474	75.06
340.702	81.06
340.93	87.06
341.158	84.06
341.386	82.06
341.614	77.06
341.842	69.06
342.07	83.06
342.298	92.06
342.526	68.06
342.754	82.06
342.981	86.06
343.209	92.06
343.437	104.06
343.665	80.06
343.893	76.06
344.12	85.06
344.348	80.06
344.576	93.06
344.804	85.06
345.031	87.06
345.259	87.06
345.487	69.06
345.714	75.06
345.942	85.06
346.17	81.06
346.397	93.06
346.625	77.06
346.853	84.06
347.08	74.06
347.308	93.06
347.535	86.06
347.763	86.06
347.99	71.06
348.218	81.06
348.445	63.06
348.673	71.06
348.9	81.06
349.128	81.06
349.355	73.06
349.583	85.06
349.81	82.06
350.037	94.06
350.265	90.06
350.492	98.06
350.72	91.06
350.947	78.06
351.174	79.06
351.402	77.06
351.629	81.06
351.856	82.06
352.083	84.06
352.311	74.06
352.538	92.06
352.765	84.06
352.992	95.06
353.22	75.06
353.447	71.06
353.674	76.06
353.901	85.06
354.128	69.06
354.355	72.06
354.583	71.06
354.81	82.06
355.037	82.06
355.264	85.06
355.491	78.06
355.718	80.06
355.945	86.06
356.172	56.06
356.399	75.06
356.626	78.06
356.853	87.06
357.08	87.06
357.307	74.06
357.534	67.06
357.761	65.06
357.988	83.06
358.215	81.06
358.441	88.06
358.668	85.06
358.895	86.06
359.122	77.06
359.349	95.06
359.576	76.06
359.802	70.06
360.029	85.06
360.256	71.06
360.483	82.06
360.709	84.06
360.936	89.06
361.163	80.06
361.39	92.06
361.616	77.06
361.843	76.06
362.07	87.06
362.296	73.06
362.523	97.06
362.749	85.06
362.976	65.06
363.203	92.06
363.429	92.06
363.656	89.06
363.882	81.06
364.109	80.06
364.335	104.06
364.562	76.06
364.788	77.06
365.015	77.06
365.241	83.06
365.468	76.06
365.694	69.06
365.92	74.06
366.147	83.06
366.373	88.06
366.599	82.06
366.826	66.06
367.052	76.06
367.278	77.06
367.505	81.06
367.731	82.06
367.957	77.06
368.184	80.06
368.41	81.06
368.636	82.06
368.862	67.06
369.089	78.06
369.315	88.06
369.541	91.06
369.767	66.06
369.993	69.06
370.219	81.06
370.445	78.06
370.672	94.06
370.898	84.06
371.124	78.06
371.35	78.06
371.576	68.06
371.802	74.06
372.028	90.06
372.254	86.06
372.48	75.06
372.706	68.06
372.932	70.06
373.158	89.06
373.384	86.06
373.61	83.06
373.835	86.06
374.061	86.06
374.287	80.06
374.513	94.06
374.739	79.06
374.965	84.06
375.191	85.06
375.416	84.06
375.642	76.06
375.868	80.06
376.094	98.06
376.319	76.06
376.545	78.06
376.771	70.06
376.997	92.06
377.222	75.06
377.448	67.06
377.674	69.06
377.899	73.06
378.125	70.06
378.35	94.06
378.576	75.06
378.802	72.06
379.027	73.06
379.253	92.06
379.478	78.06
379.704	79.06
379.929	76.06
380.155	92.06
380.38	86.06
380.606	78.06
380.831	85.06
381.057	79.06
381.282	71.06
381.507	80.06
381.733	88.06
381.958	66.06
382.184	78.06
382.409	82.06
382.634	72.06
382.86	81.06
383.085	96.06
383.31	90.06
383.535	88.06
383.761	92.06
383.986	80.06
384.211	77.06
384.436	69.06
384.662	67.06
384.887	88.06
385.112	72.06
385.337	85.06
385.562	88.06
385.787	72.06
386.013	94.06
386.238	80.06
386.463	91.06
386.688	95.06
386.913	84.06
387.138	83.06
387.363	78.06
387.588	87.06
387.813	97.06
388.038	95.06
388.263	76.06
388.488	69.06
388.713	93.06
388.938	82.06
389.163	80.06
389.387	76.06
389.612	76.06
389.837	78.06
390.062	74.06
390.287	82.06
390.512	88.06
390.736	72.06
390.961	79.06
391.186	76.06
391.411	75.06
391.636	74.06
391.86	71.06
392.085	71.06
392.31	90.06
392.534	62.06
392.759	104.06
392.984	91.06
393.208	111.06
393.433	137.06
393.658	110.06
393.882	85.06
394.107	84.06
394.331	90.06
394.556	97.06
394.78	96.06
395.005	82.06
395.229	74.06
395.454	81.06
395.678	74.06
395.903	85.06
396.127	99.06
396.352	107.06
396.576	89.06
396.801	120.06
397.025	129.06
397.249	90.06
397.474	79.06
397.698	82.06
397.922	85.06
398.147	80.06
398.371	82.06
398.595	74.06
398.82	76.06
399.044	77.06
399.268	84.06
399.492	80.06
399.717	79.06
399.941	80.06
400.165	75.06
400.389	74.06
400.613	85.06
400.837	72.06
401.062	88.06
401.286	85.06
401.51	66.06
401.734	77.06
401.958	72.06
402.182	69.06
402.406	70.06
402.63	81.06
402.854	76.06
403.078	71.06
403.302	77.06
403.526	70.06
403.75	82.06
403.974	73.06
404.198	88.06
404.422	90.06
404.645	92.06
404.869	95.06
405.093	76.06
405.317	90.06
405.541	79.06
405.765	79.06
405.988	76.06
406.212	80.06
406.436	84.06
406.66	77.06
406.883	93.06
407.107	81.06
407.331	70.06
407.555	89.06
407.778	101.06
408.002	84.06
408.226	79.06
408.449	69.06
408.673	82.06
408.896	80.06
409.12	76.06
409.344	74.06
409.567	83.06
409.791	80.06
410.014	70.06
410.238	80.06
410.461	71.06
410.685	80.06
410.908	81.06
411.132	76.06
411.355	82.06
411.578	71.06
411.802	69.06
412.025	76.06
412.249	75.06
412.472	71.06
412.695	61.06
412.919	68.06
413.142	80.06
413.365	78.06
413.589	90.06
413.812	77.06
414.035	81.06
414.258	70.06
414.482	80.06
414.705	80.06
414.928	84.06
415.151	69.06
415.374	63.06
415.597	66.06
415.821	79.06
416.044	74.06
416.267	96.06
416.49	82.06
416.713	87.06
416.936	85.06
417.159	76.06
417.382	83.06
417.605	65.06
417.828	81.06
418.051	79.06
418.274	77.06
418.497	81.06
418.72	82.06
418.943	85.06
419.166	70.06
419.389	80.06
419.611	76.06
419.834	83.06
420.057	76.06
420.28	90.06
420.503	92.06
420.726	81.06
420.948	70.06
421.171	77.06
421.394	88.06
421.617	85.06
421.839	76.06
422.062	93.06
422.285	98.06
422.507	122.06
422.73	158.06
422.953	157.06
423.175	100.06
423.398	86.06
423.621	77.06
423.843	65.06
424.066	74.06
424.288	78.06
424.511	82.06
424.733	70.06
424.956	81.06
425.178	78.06
425.401	64.06
425.623	70.06
425.846	82.06
426.068	78.06
426.291	70.06
426.513	81.06
426.735	88.06
426.958	88.06
427.18	85.06
427.402	84.06
427.625	75.06
427.847	80.06
428.069	89.06
428.292	86.06
428.514	92.06
428.736	88.06
428.958	86.06
429.181	90.06
429.403	74.06
429.625	82.06
429.847	80.06
430.069	96.06
430.292	93.06
430.514	102.06
430.736	101.06
430.958	106.06
431.18	84.06
431.402	70.06
431.624	79.06
431.846	89.06
432.068	89.06
432.29	73.06
432.512	82.06
432.734	80.06
432.956	81.06
433.178	80.06
433.4	71.06
433.622	90.06
433.844	60.06
434.066	82.06
434.287	71.06
434.509	62.06
434.731	92.06
434.953	78.06
435.175	71.06
435.397	96.06
435.618	88.06
435.84	73.06
436.062	81.06
436.284	77.06
436.505	77.06
436.727	78.06
436.949	91.06
437.17	83.06
437.392	74.06
437.614	85.06
437.835	74.06
438.057	84.06
438.278	88.06
438.5	83.06
438.721	93.06
438.943	74.06
439.165	78.06
439.386	67.06
439.608	70.06
439.829	86.06
440.05	82.06
440.272	80.06
440.493	84.06
440.715	79.06
440.936	88.06
441.158	77.06
441.379	84.06
441.6	94.06
441.822	76.06
442.043	89.06
442.264	82.06
442.486	95.06
442.707	96.06
442.928	92.06
443.149	88.06
443.371	84.06
443.592	123.06
443.813	104.06
444.034	88.06
444.255	95.06
444.476	81.06
444.698	85.06
444.919	85.06
445.14	132.06
445.361	138.06
445.582	137.06
445.803	122.06
446.024	93.06
446.245	78.06
446.466	74.06
446.687	90.06
446.908	78.06
447.129	73.06
447.35	70.06
447.571	77.06
447.792	77.06
448.013	75.06
448.234	71.06
448.455	66.06
448.675	81.06
448.896	89.06
449.117	84.06
449.338	74.06
449.559	75.06
449.779	64.06
450	100.06
450.221	81.06
450.442	74.06
450.662	76.06
450.883	83.06
451.104	76.06
451.324	75.06
451.545	81.06
451.766	84.06
451.986	77.06
452.207	90.06
452.428	81.06
452.648	88.06
452.869	78.06
453.089	67.06
453.31	74.06
453.53	92.06
453.751	91.06
453.971	80.06
454.192	79.06
454.412	76.06
454.633	86.06
454.853	85.06
455.073	79.06
455.294	82.06
455.514	77.06
455.734	74.06
455.955	87.06
456.175	88.06
456.395	66.06
456.616	83.06
456.836	77.06
457.056	88.06
457.276	85.06
457.497	86.06
457.717	73.06
457.937	85.06
458.157	79.06
458.377	81.06
458.598	76.06
458.818	93.06
459.038	82.06
459.258	90.06
459.478	64.06
459.698	66.06
459.918	78.06
460.138	82.06
460.358	76.06
460.578	64.06
460.798	84.06
461.018	69.06
461.238	85.06
461.458	86.06
461.678	71.06
461.898	76.06
462.118	75.06
462.338	70.06
462.558	74.06
462.777	70.06
462.997	85.06
463.217	84.06
463.437	71.06
463.657	74.06
463.876	69.06
464.096	70.06
464.316	61.06
464.536	88.06
464.755	68.06
464.975	83.06
465.195	92.06
465.414	74.06
465.634	76.06
465.854	72.06
466.073	89.06
466.293	77.06
466.512	85.06
466.732	76.06
466.951	89.06
467.171	74.06
467.391	76.06
467.61	89.06
467.829	77.06
468.049	89.06
468.268	64.06
468.488	60.06
468.707	86.06
468.927	78.06
469.146	91.06
469.365	77.06
469.585	85.06
469.804	83.06
470.023	71.06
470.243	89.06
470.462	78.06
470.681	82.06
470.901	86.06
471.12	77.06
471.339	80.06
471.558	90.06
471.777	71.06
471.997	67.06
472.216	76.06
472.435	82.06
472.654	86.06
472.873	75.06
473.092	81.06
473.311	83.06
473.53	83.06
473.749	84.06
473.968	97.06
474.187	78.06
474.406	87.06
474.625	93.06
474.844	77.06
475.063	79.06
475.282	84.06
475.501	88.06
475.72	81.06
475.939	67.06
476.158	80.06
476.377	66.06
476.596	77.06
476.814	89.06
477.033	81.06
477.252	100.06
477.471	83.06
477.69	77.06
477.908	84.06
478.127	72.06
478.346	86.06
478.564	83.06
478.783	79.06
479.002	66.06
479.22	66.06
479.439	91.06
479.658	86.06
479.876	68.06
480.095	78.06
480.313	69.06
480.532	69.06
480.751	75.06
480.969	89.06
481.188	77.06
481.406	85.06
481.624	71.06
481.843	74.06
482.061	81.06
482.28	77.06
482.498	82.06
482.717	80.06
482.935	71.06
483.153	75.06
483.372	77.06
483.59	80.06
483.808	82.06
484.027	81.06
484.245	83.06
484.463	82.06
484.681	85.06
484.9	69.06
485.118	71.06
485.336	57.06
485.554	86.06
485.772	85.06
485.99	83.06
486.209	82.06
486.427	82.06
486.645	96.06
486.863	102.06
487.081	84.06
487.299	82.06
487.517	104.06
487.735	88.06
487.953	90.06
488.171	84.06
488.389	75.06
488.607	85.06
488.825	78.06
489.043	77.06
489.261	90.06
489.479	94.06
489.696	88.06
489.914	83.06
490.132	76.06
490.35	94.06
490.568	77.06
490.786	78.06
491.003	71.06
491.221	81.06
491.439	82.06
491.657	84.06
491.874	72.06
492.092	78.06
492.31	92.06
492.527	84.06
492.745	76.06
492.963	89.06
493.18	84.06
493.398	83.06
493.615	85.06
493.833	90.06
494.05	82.06
494.268	66.06
494.485	81.06
494.703	80.06
494.92	86.06
495.138	84.06
495.355	84.06
495.573	85.06
495.79	85.06
496.008	82.06
496.225	76.06
496.442	76.06
496.66	91.06
496.877	82.06
497.094	90.06
497.312	88.06
497.529	82.06
497.746	81.06
497.963	75.06
498.181	80.06
498.398	79.06
498.615	85.06
498.832	80.06
499.049	80.06
499.267	80.06
499.484	79.06
499.701	86.06
499.918	106.06
500.135	90.06
500.352	75.06
500.569	80.06
500.786	71.06
501.003	90.06
501.22	77.06
501.437	79.06
501.654	80.06
501.871	84.06
502.088	90.06
502.305	73.06
502.522	94.06
502.739	81.06
502.956	80.06
503.172	79.06
503.389	77.06
503.606	81.06
503.823	79.06
504.04	85.06
504.256	86.06
504.473	97.06
504.69	95.06
504.907	86.06
505.123	83.06
505.34	80.06
505.557	85.06
505.773	90.06
505.99	71.06
506.207	67.06
506.423	96.06
506.64	84.06
506.856	93.06
507.073	85.06
507.289	74.06
507.506	74.06
507.722	73.06
507.939	71.06
508.155	77.06
508.372	69.06
508.588	76.06
508.805	81.06
509.021	72.06
509.238	76.06
509.454	80.06
509.67	82.06
509.887	69.06
510.103	78.06
510.319	93.06
510.536	75.06
510.752	81.06
510.968	68.06
511.184	92.06
511.401	90.06
511.617	94.06
511.833	72.06
512.049	88.06
512.265	69.06
512.481	86.06
512.698	84.06
512.914	88.06
513.13	64.06
513.346	78.06
513.562	77.06
513.778	78.06
513.994	76.06
514.21	73.06
514.426	97.06
514.642	84.06
514.858	82.06
515.074	72.06
515.29	86.06
515.506	79.06
515.721	80.06
515.937	94.06
516.153	81.06
516.369	77.06
516.585	83.06
516.801	93.06
517.016	97.06
517.232	76.06
517.448	76.06
517.664	85.06
517.879	91.06
518.095	76.06
518.311	88.06
518.527	100.06
518.742	91.06
518.958	84.06
519.173	95.06
519.389	90.06
519.605	91.06
519.82	88.06
