Data from 1600_3_HRD10591_00019.txt Node
Date: Mon Jan 19 13:55:02 EST 2026
User: Yrep
Spectrometer: HR+D1059
Trigger mode: 1
Integration Time (sec): 1.000000E-1
Scans to average: 1
Electric dark correction enabled: true
Nonlinearity correction enabled: false
Boxcar width: 0
XAxis mode: Wavelengths
Number of Pixels in Spectrum: 2048
>>>>>Begin Spectral Data<<<<<
223.165	-15
223.4	-15
223.635	-15
223.869	-9
224.104	-39
224.338	-15
224.573	-23
224.808	-16
225.042	6
225.277	-15
225.511	-1
225.746	1
225.98	13
226.215	7
226.449	27
226.683	15
226.918	34
227.152	30
227.387	32
227.621	35
227.856	55
228.09	24
228.324	45
228.559	62
228.793	48
229.027	54
229.262	53
229.496	49
229.73	62
229.964	75
230.199	70
230.433	59
230.667	69
230.901	65
231.136	75
231.37	77
231.604	87
231.838	69
232.072	71
232.306	72
232.541	73
232.775	84
233.009	85
233.243	80
233.477	72
233.711	78
233.945	68
234.179	85
234.413	71
234.647	71
234.881	82
235.115	84
235.349	81
235.583	78
235.817	87
236.051	81
236.285	85
236.519	65
236.753	69
236.987	64
237.221	73
237.455	73
237.689	71
237.922	75
238.156	81
238.39	80
238.624	77
238.858	72
239.091	63
239.325	62
239.559	72
239.793	85
240.027	71
240.26	80
240.494	75
240.728	68
240.961	73
241.195	70
241.429	68
241.662	82
241.896	78
242.13	66
242.363	54
242.597	81
242.83	81
243.064	66
243.298	77
243.531	67
243.765	67
243.998	53
244.232	68
244.465	72
244.699	77
244.932	66
245.166	81
245.399	79
245.633	65
245.866	77
246.099	72
246.333	71
246.566	80
246.8	70
247.033	77
247.266	81
247.5	71
247.733	69
247.966	59
248.2	89
248.433	84
248.666	74
248.899	77
249.133	88
249.366	72
249.599	92
249.832	69
250.066	70
250.299	84
250.532	62
250.765	79
250.998	71
251.231	82
251.465	83
251.698	85
251.931	73
252.164	77
252.397	80
252.63	78
252.863	81
253.096	91
253.329	74
253.562	72
253.795	68
254.028	91
254.261	71
254.494	88
254.727	79
254.96	86
255.193	90
255.426	68
255.659	86
255.892	77
256.124	78
256.357	65
256.59	77
256.823	76
257.056	67
257.289	82
257.521	71
257.754	73
257.987	83
258.22	85
258.452	91
258.685	72
258.918	86
259.151	69
259.383	68
259.616	72
259.849	83
260.081	71
260.314	73
260.547	68
260.779	70
261.012	92
261.244	88
261.477	82
261.71	90
261.942	83
262.175	67
262.407	82
262.64	71
262.872	86
263.105	79
263.337	85
263.57	96
263.802	88
264.035	87
264.267	79
264.499	73
264.732	72
264.964	74
265.197	82
265.429	85
265.661	75
265.894	62
266.126	64
266.358	89
266.591	81
266.823	74
267.055	92
267.287	79
267.52	73
267.752	81
267.984	86
268.216	78
268.448	70
268.681	75
268.913	90
269.145	83
269.377	83
269.609	75
269.841	83
270.073	84
270.306	74
270.538	91
270.77	81
271.002	85
271.234	93
271.466	81
271.698	78
271.93	76
272.162	79
272.394	78
272.626	71
272.858	69
273.09	77
273.322	72
273.553	74
273.785	62
274.017	62
274.249	72
274.481	84
274.713	68
274.945	81
275.176	75
275.408	84
275.64	67
275.872	80
276.104	78
276.335	74
276.567	89
276.799	89
277.031	78
277.262	86
277.494	96
277.726	85
277.957	82
278.189	77
278.421	88
278.652	75
278.884	91
279.115	96
279.347	85
279.579	82
279.81	91
280.042	86
280.273	94
280.505	72
280.736	74
280.968	79
281.199	81
281.431	85
281.662	73
281.894	68
282.125	101
282.356	84
282.588	85
282.819	85
283.051	81
283.282	74
283.513	88
283.745	85
283.976	84
284.207	77
284.439	85
284.67	82
284.901	78
285.132	88
285.364	93
285.595	99
285.826	86
286.057	78
286.288	73
286.52	77
286.751	69
286.982	70
287.213	92
287.444	95
287.675	81
287.906	86
288.138	77
288.369	92
288.6	81
288.831	83
289.062	84
289.293	66
289.524	83
289.755	79
289.986	81
290.217	91
290.448	89
290.679	83
290.91	77
291.141	83
291.371	76
291.602	68
291.833	81
292.064	77
292.295	89
292.526	80
292.757	85
292.987	73
293.218	77
293.449	81
293.68	96
293.91	85
294.141	87
294.372	62
294.603	95
294.833	84
295.064	81
295.295	81
295.525	86
295.756	77
295.987	79
296.217	85
296.448	77
296.679	86
296.909	83
297.14	84
297.37	83
297.601	84
297.831	76
298.062	74
298.292	85
298.523	77
298.753	90
298.984	81
299.214	92
299.445	84
299.675	94
299.905	86
300.136	72
300.366	84
300.597	79
300.827	82
301.057	88
301.288	89
301.518	77
301.748	79
301.979	100
302.209	92
302.439	86
302.669	95
302.9	94
303.13	79
303.36	70
303.59	80
303.82	79
304.051	75
304.281	101
304.511	78
304.741	73
304.971	94
305.201	84
305.431	86
305.661	76
305.891	76
306.121	77
306.352	82
306.582	85
306.812	81
307.042	93
307.272	89
307.502	81
307.731	89
307.961	81
308.191	99
308.421	89
308.651	89
308.881	86
309.111	84
309.341	104
309.571	99
309.8	70
310.03	72
310.26	84
310.49	83
310.72	70
310.949	79
311.179	96
311.409	98
311.639	84
311.868	92
312.098	82
312.328	80
312.557	87
312.787	72
313.017	83
313.246	90
313.476	88
313.706	73
313.935	80
314.165	71
314.394	91
314.624	78
314.853	84
315.083	79
315.312	91
315.542	85
315.771	93
316.001	91
316.23	72
316.46	80
316.689	82
316.919	77
317.148	90
317.377	94
317.607	85
317.836	94
318.065	87
318.295	83
318.524	85
318.753	73
318.983	74
319.212	69
319.441	86
319.67	86
319.9	91
320.129	89
320.358	84
320.587	81
320.816	95
321.046	89
321.275	86
321.504	84
321.733	81
321.962	101
322.191	79
322.42	81
322.649	82
322.878	92
323.108	92
323.337	69
323.566	77
323.795	71
324.024	80
324.253	83
324.482	77
324.71	72
324.939	93
325.168	79
325.397	89
325.626	68
325.855	81
326.084	75
326.313	78
326.542	78
326.77	81
326.999	95
327.228	80
327.457	83
327.686	90
327.914	81
328.143	77
328.372	88
328.6	91
328.829	79
329.058	83
329.287	84
329.515	85
329.744	85
329.972	85
330.201	86
330.43	86
330.658	72
330.887	79
331.115	89
331.344	83
331.572	84
331.801	86
332.03	84
332.258	92
332.486	91
332.715	77
332.943	91
333.172	83
333.4	77
333.629	77
333.857	95
334.085	88
334.314	82
334.542	87
334.771	89
334.999	95
335.227	93
335.455	91
335.684	87
335.912	101
336.14	77
336.369	78
336.597	77
336.825	92
337.053	90
337.281	88
337.51	73
337.738	87
337.966	79
338.194	79
338.422	87
338.65	81
338.878	74
339.106	82
339.334	91
339.562	81
339.79	81
340.018	75
340.246	67
340.474	83
340.702	93
340.93	69
341.158	85
341.386	89
341.614	61
341.842	83
342.07	78
342.298	73
342.526	77
342.754	79
342.981	91
343.209	71
343.437	97
343.665	79
343.893	85
344.12	64
344.348	96
344.576	84
344.804	71
345.031	70
345.259	88
345.487	81
345.714	90
345.942	79
346.17	89
346.397	81
346.625	89
346.853	85
347.08	77
347.308	85
347.535	73
347.763	87
347.99	89
348.218	97
348.445	83
348.673	94
348.9	85
349.128	81
349.355	76
349.583	81
349.81	87
350.037	83
350.265	83
350.492	77
350.72	73
350.947	82
351.174	74
351.402	75
351.629	65
351.856	73
352.083	75
352.311	71
352.538	86
352.765	95
352.992	89
353.22	79
353.447	72
353.674	88
353.901	77
354.128	77
354.355	71
354.583	88
354.81	87
355.037	80
355.264	95
355.491	81
355.718	85
355.945	74
356.172	76
356.399	84
356.626	77
356.853	89
357.08	96
357.307	86
357.534	82
357.761	82
357.988	90
358.215	95
358.441	80
358.668	79
358.895	93
359.122	77
359.349	77
359.576	82
359.802	76
360.029	90
360.256	75
360.483	85
360.709	91
360.936	89
361.163	79
361.39	91
361.616	99
361.843	83
362.07	82
362.296	90
362.523	72
362.749	90
362.976	98
363.203	93
363.429	82
363.656	81
363.882	86
364.109	84
364.335	75
364.562	88
364.788	85
365.015	84
365.241	70
365.468	75
365.694	79
365.92	78
366.147	93
366.373	89
366.599	74
366.826	92
367.052	84
367.278	84
367.505	79
367.731	81
367.957	80
368.184	90
368.41	88
368.636	82
368.862	94
369.089	81
369.315	65
369.541	80
369.767	81
369.993	92
370.219	99
370.445	82
370.672	73
370.898	78
371.124	78
371.35	78
371.576	99
371.802	83
372.028	80
372.254	82
372.48	80
372.706	92
372.932	95
373.158	84
373.384	89
373.61	85
373.835	101
374.061	92
374.287	89
374.513	86
374.739	98
374.965	92
375.191	92
375.416	95
375.642	80
375.868	93
376.094	86
376.319	93
376.545	79
376.771	81
376.997	97
377.222	71
377.448	83
377.674	72
377.899	80
378.125	61
378.35	74
378.576	83
378.802	86
379.027	84
379.253	89
379.478	78
379.704	75
379.929	82
380.155	82
380.38	87
380.606	83
380.831	87
381.057	83
381.282	85
381.507	81
381.733	90
381.958	85
382.184	87
382.409	91
382.634	96
382.86	82
383.085	90
383.31	82
383.535	89
383.761	90
383.986	86
384.211	79
384.436	84
384.662	80
384.887	87
385.112	70
385.337	85
385.562	87
385.787	87
386.013	99
386.238	97
386.463	81
386.688	90
386.913	79
387.138	81
387.363	93
387.588	84
387.813	98
388.038	101
388.263	81
388.488	92
388.713	83
388.938	75
389.163	83
389.387	66
389.612	83
389.837	78
390.062	89
390.287	82
390.512	80
390.736	79
390.961	89
391.186	85
391.411	92
391.636	86
391.86	95
392.085	85
392.31	82
392.534	86
392.759	98
392.984	123
393.208	170
393.433	251
393.658	186
393.882	104
394.107	91
394.331	91
394.556	110
394.78	93
395.005	96
395.229	81
395.454	67
395.678	77
395.903	83
396.127	115
396.352	117
396.576	137
396.801	183
397.025	213
397.249	115
397.474	73
397.698	96
397.922	87
398.147	77
398.371	84
398.595	77
398.82	72
399.044	85
399.268	83
399.492	66
399.717	83
399.941	83
400.165	83
400.389	80
400.613	82
400.837	80
401.062	84
401.286	79
401.51	82
401.734	98
401.958	78
402.182	76
402.406	76
402.63	85
402.854	82
403.078	89
403.302	81
403.526	84
403.75	95
403.974	85
404.198	79
404.422	81
404.645	87
404.869	77
405.093	82
405.317	88
405.541	86
405.765	74
405.988	84
406.212	82
406.436	74
406.66	77
406.883	97
407.107	89
407.331	82
407.555	80
407.778	83
408.002	80
408.226	84
408.449	94
408.673	83
408.896	70
409.12	73
409.344	93
409.567	74
409.791	75
410.014	90
410.238	78
410.461	66
410.685	77
410.908	78
411.132	90
411.355	76
411.578	91
411.802	65
412.025	76
412.249	81
412.472	93
412.695	80
412.919	85
413.142	85
413.365	81
413.589	73
413.812	75
414.035	78
414.258	80
414.482	89
414.705	78
414.928	74
415.151	75
415.374	80
415.597	61
415.821	73
416.044	83
416.267	74
416.49	84
416.713	79
416.936	76
417.159	77
417.382	87
417.605	77
417.828	85
418.051	70
418.274	80
418.497	87
418.72	65
418.943	83
419.166	83
419.389	83
419.611	74
419.834	75
420.057	78
420.28	73
420.503	81
420.726	76
420.948	77
421.171	75
421.394	76
421.617	82
421.839	88
422.062	97
422.285	96
422.507	132
422.73	200
422.953	175
423.175	123
423.398	75
423.621	90
423.843	79
424.066	93
424.288	90
424.511	74
424.733	80
424.956	96
425.178	100
425.401	73
425.623	65
425.846	89
426.068	69
426.291	81
426.513	79
426.735	91
426.958	102
427.18	90
427.402	85
427.625	71
427.847	80
428.069	97
428.292	103
428.514	87
428.736	79
428.958	91
429.181	98
429.403	89
429.625	91
429.847	91
430.069	98
430.292	101
430.514	100
430.736	98
430.958	101
431.18	92
431.402	84
431.624	87
431.846	95
432.068	87
432.29	92
432.512	79
432.734	85
432.956	84
433.178	73
433.4	93
433.622	81
433.844	84
434.066	65
434.287	82
434.509	79
434.731	74
434.953	82
435.175	77
435.397	83
435.618	87
435.84	81
436.062	74
436.284	73
436.505	81
436.727	71
436.949	87
437.17	90
437.392	82
437.614	83
437.835	90
438.057	85
438.278	69
438.5	97
438.721	84
438.943	77
439.165	92
439.386	73
439.608	82
439.829	69
440.05	80
440.272	77
440.493	77
440.715	75
440.936	77
441.158	82
441.379	65
441.6	76
441.822	71
442.043	69
442.264	74
442.486	83
442.707	102
442.928	81
443.149	81
443.371	91
443.592	97
443.813	100
444.034	84
444.255	89
444.476	70
444.698	63
444.919	91
445.14	143
445.361	131
445.582	139
445.803	115
446.024	89
446.245	89
446.466	75
446.687	81
446.908	85
447.129	86
447.35	93
447.571	70
447.792	70
448.013	76
448.234	70
448.455	82
448.675	75
448.896	79
449.117	83
449.338	84
449.559	87
449.779	86
450	78
450.221	72
450.442	91
450.662	85
450.883	83
451.104	74
451.324	77
451.545	78
451.766	91
451.986	91
452.207	69
452.428	86
452.648	73
452.869	89
453.089	85
453.31	84
453.53	83
453.751	85
453.971	83
454.192	57
454.412	78
454.633	95
454.853	86
455.073	81
455.294	79
455.514	87
455.734	83
455.955	79
456.175	84
456.395	61
456.616	73
456.836	78
457.056	85
457.276	81
457.497	85
457.717	74
457.937	79
458.157	79
458.377	95
458.598	90
458.818	83
459.038	74
459.258	58
459.478	78
459.698	76
459.918	86
460.138	66
460.358	78
460.578	80
460.798	87
461.018	97
461.238	69
461.458	91
461.678	62
461.898	71
462.118	76
462.338	87
462.558	86
462.777	80
462.997	84
463.217	82
463.437	77
463.657	77
463.876	85
464.096	87
464.316	67
464.536	74
464.755	96
464.975	86
465.195	83
465.414	82
465.634	89
465.854	78
466.073	84
466.293	79
466.512	85
466.732	93
466.951	83
467.171	89
467.391	77
467.61	88
467.829	90
468.049	79
468.268	85
468.488	79
468.707	87
468.927	81
469.146	81
469.365	94
469.585	83
469.804	84
470.023	76
470.243	78
470.462	84
470.681	74
470.901	80
471.12	91
471.339	85
471.558	81
471.777	81
471.997	85
472.216	78
472.435	81
472.654	85
472.873	89
473.092	75
473.311	92
473.53	75
473.749	88
473.968	77
474.187	83
474.406	71
474.625	90
474.844	77
475.063	72
475.282	101
475.501	82
475.72	83
475.939	69
476.158	81
476.377	85
476.596	67
476.814	73
477.033	79
477.252	78
477.471	72
477.69	93
477.908	72
478.127	77
478.346	85
478.564	93
478.783	79
479.002	82
479.22	85
479.439	76
479.658	73
479.876	75
480.095	91
480.313	81
480.532	89
480.751	71
480.969	77
481.188	69
481.406	71
481.624	78
481.843	87
482.061	68
482.28	71
482.498	91
482.717	77
482.935	77
483.153	66
483.372	99
483.59	86
483.808	90
484.027	92
484.245	99
484.463	83
484.681	82
484.9	94
485.118	77
485.336	77
485.554	84
485.772	73
485.99	65
486.209	75
486.427	77
486.645	96
486.863	78
487.081	80
487.299	79
487.517	77
487.735	81
487.953	83
488.171	84
488.389	90
488.607	71
488.825	87
489.043	94
489.261	85
489.479	81
489.696	86
489.914	59
490.132	80
490.35	77
490.568	86
490.786	83
491.003	89
491.221	93
491.439	90
491.657	85
491.874	84
492.092	75
492.31	92
492.527	90
492.745	74
492.963	73
493.18	89
493.398	89
493.615	73
493.833	73
494.05	77
494.268	78
494.485	71
494.703	89
494.92	63
495.138	86
495.355	74
495.573	89
495.79	91
496.008	87
496.225	89
496.442	82
496.66	83
496.877	86
497.094	86
497.312	90
497.529	85
497.746	81
497.963	85
498.181	75
498.398	85
498.615	75
498.832	83
499.049	76
499.267	87
499.484	82
499.701	93
499.918	81
500.135	82
500.352	87
500.569	82
500.786	71
501.003	76
501.22	79
501.437	82
501.654	89
501.871	73
502.088	76
502.305	79
502.522	75
502.739	81
502.956	87
503.172	96
503.389	84
503.606	79
503.823	85
504.04	78
504.256	105
504.473	98
504.69	82
504.907	95
505.123	73
505.34	85
505.557	95
505.773	93
505.99	71
506.207	79
506.423	83
506.64	92
506.856	97
507.073	83
507.289	87
507.506	88
507.722	69
507.939	73
508.155	90
508.372	92
508.588	85
508.805	75
509.021	77
509.238	80
509.454	107
509.67	89
509.887	78
510.103	80
510.319	85
510.536	93
510.752	76
510.968	79
511.184	84
511.401	73
511.617	81
511.833	82
512.049	76
512.265	84
512.481	80
512.698	98
512.914	88
513.13	97
513.346	77
513.562	82
513.778	72
513.994	89
514.21	81
514.426	83
514.642	81
514.858	79
515.074	74
515.29	93
515.506	85
515.721	74
515.937	97
516.153	91
516.369	91
516.585	85
516.801	79
517.016	89
517.232	75
517.448	94
517.664	95
517.879	91
518.095	82
518.311	91
518.527	101
518.742	88
518.958	95
519.173	101
519.389	91
519.605	92
519.82	82
520.036	65
520.251	72
520.467	77
520.682	86
520.898	81
521.113	93
521.329	73
521.544	77
521.76	86
521.975	82
522.19	92
522.406	89
522.621	93
522.836	94
523.052	88
523.267	90
523.482	80
523.698	93
523.913	89
524.128	81
524.343	63
524.559	84
524.774	89
524.989	93
525.204	83
525.419	81
525.634	73
525.849	89
526.064	83
526.28	106
526.495	110
526.71	109
526.925	110
527.14	133
527.355	112
527.57	90
527.785	79
527.999	93
528.214	77
528.429	84
528.644	91
528.859	94
529.074	81
529.289	92
529.503	85
529.718	74
529.933	87
530.148	86
530.363	75
530.577	84
530.792	98
531.007	76
531.221	72
531.436	95
531.651	79
531.865	69
532.08	79
532.295	87
532.509	81
532.724	98
532.938	102
533.153	93
533.367	84
533.582	89
533.796	95
534.011	86
534.225	77
534.44	77
534.654	90
534.868	94
535.083	96
535.297	105
535.511	91
535.726	93
535.94	72
536.154	80
536.369	95
536.583	86
536.797	94
537.011	81
537.225	104
537.44	85
537.654	78
537.868	94
538.082	90
538.296	91
538.51	93
538.724	88
538.938	86
539.153	89
539.367	71
539.581	83
539.795	76
540.009	85
540.222	89
540.436	93
540.65	83
540.864	83
541.078	88
541.292	94
541.506	93
541.72	111
541.934	79
542.147	86
542.361	75
542.575	74
542.789	91
543.002	87
543.216	81
543.43	84
543.644	87
543.857	80
544.071	103
544.285	84
544.498	86
544.712	86
544.925	97
545.139	91
545.352	100
545.566	81
545.779	97
545.993	97
546.206	89
546.42	89
546.633	95
546.847	90
547.06	91
547.274	89
547.487	96
547.7	114
547.914	109
548.127	115
548.34	111
548.554	114
548.767	115
548.98	103
549.193	105
549.407	100
549.62	112
549.833	107
550.046	116
550.259	121
550.473	107
550.686	118
550.899	123
551.112	131
551.325	127
551.538	135
551.751	125
551.964	129
552.177	120
552.39	130
552.603	127
552.816	125
553.029	142
553.242	115
553.455	123
553.667	120
553.88	139
554.093	135
554.306	137
554.519	123
554.732	136
554.944	120
555.157	119
555.37	115
555.583	111
555.795	118
556.008	109
556.221	114
556.433	103
556.646	102
556.859	105
557.071	103
557.284	91
557.496	98
557.709	105
557.921	103
558.134	93
558.346	89
558.559	118
558.771	96
558.984	139
559.196	129
559.409	95
559.621	129
559.833	109
560.046	126
560.258	115
560.47	86
560.683	101
560.895	84
561.107	93
561.32	91
561.532	87
561.744	82
561.956	86
562.168	90
562.381	90
562.593	96
562.805	99
563.017	96
563.229	87
563.441	97
563.653	78
563.865	88
564.077	81
564.289	88
564.501	102
564.713	99
564.925	79
565.137	93
565.349	100
565.561	85
565.773	90
565.985	74
566.197	85
566.408	89
566.62	86
566.832	80
567.044	86
567.255	84
567.467	102
567.679	83
567.891	96
568.102	84
568.314	79
568.526	77
568.737	96
568.949	93
569.161	99
569.372	78
569.584	88
569.795	83
570.007	80
570.218	97
570.43	86
570.641	91
570.853	97
571.064	98
571.276	75
571.487	83
571.698	92
571.91	83
572.121	82
572.333	83
572.544	91
572.755	96
572.966	91
573.178	85
573.389	79
573.6	82
573.811	87
574.023	85
574.234	80
574.445	86
574.656	97
574.867	82
575.078	60
575.289	91
575.501	90
575.712	74
575.923	83
576.134	86
576.345	79
576.556	83
576.767	90
576.978	92
577.188	77
577.399	84
577.61	97
577.821	90
578.032	78
578.243	81
578.454	86
578.665	78
578.875	86
579.086	78
579.297	111
579.508	92
579.718	90
579.929	103
580.14	77
580.35	89
580.561	77
580.772	90
580.982	79
581.193	86
581.403	87
581.614	86
581.825	84
582.035	92
582.246	89
582.456	93
582.667	87
582.877	84
583.087	86
583.298	87
583.508	91
583.719	82
583.929	94
584.139	90
584.35	104
584.56	90
584.77	77
584.981	92
585.191	97
585.401	94
585.611	87
585.821	106
586.032	116
586.242	90
586.452	98
586.662	92
586.872	83
587.082	95
587.292	89
587.502	85
587.713	103
587.923	100
588.133	92
588.343	100
588.553	113
588.762	114
588.972	232
