Data from 1600_3_HRD10591_00037.txt Node
Date: Mon Jan 19 13:55:11 EST 2026
User: Yrep
Spectrometer: HR+D1059
Trigger mode: 1
Integration Time (sec): 1.000000E-1
Scans to average: 1
Electric dark correction enabled: true
Nonlinearity correction enabled: false
Boxcar width: 0
XAxis mode: Wavelengths
Number of Pixels in Spectrum: 2048
>>>>>Begin Spectral Data<<<<<
223.165	-29.25
223.4	-29.25
223.635	-29.25
223.869	-23.25
224.104	-0.25
224.338	-16.25
224.573	-13.25
224.808	-10.25
225.042	-2.25
225.277	-8.25
225.511	-6.25
225.746	-5.25
225.98	8.75
226.215	5.75
226.449	10.75
226.683	13.75
226.918	40.75
227.152	34.75
227.387	31.75
227.621	41.75
227.856	58.75
228.09	67.75
228.324	65.75
228.559	55.75
228.793	62.75
229.027	61.75
229.262	61.75
229.496	75.75
229.73	73.75
229.964	71.75
230.199	80.75
230.433	80.75
230.667	71.75
230.901	101.75
231.136	88.75
231.37	71.75
231.604	85.75
231.838	100.75
232.072	71.75
232.306	87.75
232.541	80.75
232.775	84.75
233.009	85.75
233.243	102.75
233.477	86.75
233.711	89.75
233.945	83.75
234.179	71.75
234.413	78.75
234.647	63.75
234.881	87.75
235.115	87.75
235.349	73.75
235.583	81.75
235.817	82.75
236.051	77.75
236.285	83.75
236.519	78.75
236.753	83.75
236.987	78.75
237.221	90.75
237.455	78.75
237.689	83.75
237.922	76.75
238.156	75.75
238.39	72.75
238.624	64.75
238.858	79.75
239.091	83.75
239.325	81.75
239.559	80.75
239.793	70.75
240.027	76.75
240.26	74.75
240.494	79.75
240.728	73.75
240.961	73.75
241.195	74.75
241.429	67.75
241.662	78.75
241.896	82.75
242.13	81.75
242.363	77.75
242.597	86.75
242.83	77.75
243.064	74.75
243.298	89.75
243.531	79.75
243.765	87.75
243.998	76.75
244.232	83.75
244.465	88.75
244.699	81.75
244.932	88.75
245.166	71.75
245.399	81.75
245.633	81.75
245.866	83.75
246.099	101.75
246.333	64.75
246.566	82.75
246.8	73.75
247.033	76.75
247.266	79.75
247.5	96.75
247.733	93.75
247.966	88.75
248.2	87.75
248.433	77.75
248.666	81.75
248.899	82.75
249.133	80.75
249.366	93.75
249.599	82.75
249.832	89.75
250.066	85.75
250.299	81.75
250.532	71.75
250.765	79.75
250.998	83.75
251.231	79.75
251.465	87.75
251.698	87.75
251.931	90.75
252.164	88.75
252.397	91.75
252.63	73.75
252.863	79.75
253.096	90.75
253.329	72.75
253.562	70.75
253.795	74.75
254.028	80.75
254.261	79.75
254.494	79.75
254.727	85.75
254.96	86.75
255.193	88.75
255.426	72.75
255.659	78.75
255.892	82.75
256.124	90.75
256.357	87.75
256.59	75.75
256.823	100.75
257.056	96.75
257.289	81.75
257.521	83.75
257.754	88.75
257.987	69.75
258.22	77.75
258.452	81.75
258.685	100.75
258.918	85.75
259.151	87.75
259.383	78.75
259.616	69.75
259.849	86.75
260.081	84.75
260.314	80.75
260.547	80.75
260.779	79.75
261.012	81.75
261.244	69.75
261.477	82.75
261.71	101.75
261.942	83.75
262.175	79.75
262.407	81.75
262.64	74.75
262.872	75.75
263.105	88.75
263.337	93.75
263.57	70.75
263.802	83.75
264.035	70.75
264.267	77.75
264.499	75.75
264.732	88.75
264.964	77.75
265.197	79.75
265.429	90.75
265.661	87.75
265.894	88.75
266.126	79.75
266.358	79.75
266.591	93.75
266.823	82.75
267.055	81.75
267.287	73.75
267.52	95.75
267.752	84.75
267.984	84.75
268.216	83.75
268.448	88.75
268.681	91.75
268.913	67.75
269.145	70.75
269.377	85.75
269.609	83.75
269.841	88.75
270.073	85.75
270.306	73.75
270.538	83.75
270.77	70.75
271.002	78.75
271.234	97.75
271.466	88.75
271.698	72.75
271.93	87.75
272.162	89.75
272.394	82.75
272.626	83.75
272.858	102.75
273.09	89.75
273.322	88.75
273.553	89.75
273.785	65.75
274.017	85.75
274.249	101.75
274.481	88.75
274.713	84.75
274.945	91.75
275.176	88.75
275.408	91.75
275.64	88.75
275.872	93.75
276.104	85.75
276.335	88.75
276.567	76.75
276.799	85.75
277.031	79.75
277.262	82.75
277.494	82.75
277.726	81.75
277.957	89.75
278.189	87.75
278.421	91.75
278.652	93.75
278.884	87.75
279.115	85.75
279.347	80.75
279.579	90.75
279.81	89.75
280.042	94.75
280.273	93.75
280.505	81.75
280.736	86.75
280.968	91.75
281.199	99.75
281.431	83.75
281.662	79.75
281.894	86.75
282.125	75.75
282.356	88.75
282.588	83.75
282.819	91.75
283.051	93.75
283.282	75.75
283.513	88.75
283.745	85.75
283.976	90.75
284.207	87.75
284.439	64.75
284.67	93.75
284.901	77.75
285.132	81.75
285.364	94.75
285.595	85.75
285.826	78.75
286.057	98.75
286.288	82.75
286.52	81.75
286.751	77.75
286.982	89.75
287.213	79.75
287.444	102.75
287.675	93.75
287.906	81.75
288.138	89.75
288.369	98.75
288.6	84.75
288.831	85.75
289.062	87.75
289.293	97.75
289.524	87.75
289.755	91.75
289.986	83.75
290.217	76.75
290.448	82.75
290.679	89.75
290.91	90.75
291.141	82.75
291.371	95.75
291.602	89.75
291.833	88.75
292.064	96.75
292.295	103.75
292.526	82.75
292.757	81.75
292.987	93.75
293.218	85.75
293.449	80.75
293.68	82.75
293.91	85.75
294.141	87.75
294.372	74.75
294.603	88.75
294.833	88.75
295.064	79.75
295.295	79.75
295.525	92.75
295.756	81.75
295.987	87.75
296.217	81.75
296.448	87.75
296.679	81.75
296.909	88.75
297.14	86.75
297.37	86.75
297.601	88.75
297.831	88.75
298.062	90.75
298.292	78.75
298.523	82.75
298.753	83.75
298.984	77.75
299.214	86.75
299.445	74.75
299.675	90.75
299.905	90.75
300.136	89.75
300.366	81.75
300.597	94.75
300.827	89.75
301.057	78.75
301.288	83.75
301.518	97.75
301.748	101.75
301.979	107.75
302.209	97.75
302.439	79.75
302.669	90.75
302.9	84.75
303.13	95.75
303.36	99.75
303.59	69.75
303.82	85.75
304.051	86.75
304.281	89.75
304.511	80.75
304.741	83.75
304.971	83.75
305.201	91.75
305.431	93.75
305.661	88.75
305.891	111.75
306.121	94.75
306.352	93.75
306.582	94.75
306.812	99.75
307.042	98.75
307.272	90.75
307.502	83.75
307.731	96.75
307.961	85.75
308.191	87.75
308.421	103.75
308.651	99.75
308.881	94.75
309.111	91.75
309.341	90.75
309.571	84.75
309.8	91.75
310.03	87.75
310.26	97.75
310.49	79.75
310.72	94.75
310.949	79.75
311.179	92.75
311.409	79.75
311.639	98.75
311.868	94.75
312.098	79.75
312.328	73.75
312.557	75.75
312.787	99.75
313.017	83.75
313.246	75.75
313.476	71.75
313.706	89.75
313.935	96.75
314.165	88.75
314.394	92.75
314.624	71.75
314.853	96.75
315.083	89.75
315.312	99.75
315.542	93.75
315.771	97.75
316.001	107.75
316.23	83.75
316.46	87.75
316.689	94.75
316.919	98.75
317.148	90.75
317.377	100.75
317.607	91.75
317.836	110.75
318.065	100.75
318.295	111.75
318.524	98.75
318.753	73.75
318.983	86.75
319.212	87.75
319.441	84.75
319.67	93.75
319.9	84.75
320.129	97.75
320.358	89.75
320.587	81.75
320.816	87.75
321.046	99.75
321.275	83.75
321.504	88.75
321.733	86.75
321.962	94.75
322.191	89.75
322.42	89.75
322.649	90.75
322.878	79.75
323.108	84.75
323.337	82.75
323.566	91.75
323.795	94.75
324.024	98.75
324.253	74.75
324.482	91.75
324.71	82.75
324.939	103.75
325.168	74.75
325.397	98.75
325.626	101.75
325.855	75.75
326.084	81.75
326.313	97.75
326.542	97.75
326.77	86.75
326.999	81.75
327.228	79.75
327.457	90.75
327.686	103.75
327.914	91.75
328.143	74.75
328.372	89.75
328.6	89.75
328.829	77.75
329.058	90.75
329.287	87.75
329.515	76.75
329.744	88.75
329.972	90.75
330.201	86.75
330.43	81.75
330.658	92.75
330.887	96.75
331.115	84.75
331.344	87.75
331.572	77.75
331.801	93.75
332.03	101.75
332.258	98.75
332.486	87.75
332.715	94.75
332.943	85.75
333.172	88.75
333.4	82.75
333.629	80.75
333.857	86.75
334.085	98.75
334.314	90.75
334.542	75.75
334.771	74.75
334.999	94.75
335.227	89.75
335.455	97.75
335.684	97.75
335.912	92.75
336.14	94.75
336.369	88.75
336.597	96.75
336.825	82.75
337.053	74.75
337.281	76.75
337.51	82.75
337.738	85.75
337.966	86.75
338.194	88.75
338.422	82.75
338.65	103.75
338.878	84.75
339.106	91.75
339.334	93.75
339.562	88.75
339.79	84.75
340.018	93.75
340.246	86.75
340.474	87.75
340.702	90.75
340.93	86.75
341.158	92.75
341.386	89.75
341.614	84.75
341.842	93.75
342.07	89.75
342.298	92.75
342.526	85.75
342.754	100.75
342.981	86.75
343.209	73.75
343.437	90.75
343.665	97.75
343.893	82.75
344.12	93.75
344.348	92.75
344.576	85.75
344.804	98.75
345.031	86.75
345.259	79.75
345.487	73.75
345.714	89.75
345.942	82.75
346.17	92.75
346.397	96.75
346.625	94.75
346.853	84.75
347.08	89.75
347.308	75.75
347.535	115.75
347.763	99.75
347.99	79.75
348.218	90.75
348.445	83.75
348.673	86.75
348.9	90.75
349.128	82.75
349.355	77.75
349.583	83.75
349.81	86.75
350.037	73.75
350.265	84.75
350.492	85.75
350.72	83.75
350.947	83.75
351.174	85.75
351.402	80.75
351.629	74.75
351.856	93.75
352.083	79.75
352.311	79.75
352.538	82.75
352.765	89.75
352.992	106.75
353.22	87.75
353.447	84.75
353.674	90.75
353.901	87.75
354.128	92.75
354.355	95.75
354.583	97.75
354.81	99.75
355.037	82.75
355.264	77.75
355.491	79.75
355.718	86.75
355.945	91.75
356.172	83.75
356.399	97.75
356.626	101.75
356.853	70.75
357.08	88.75
357.307	87.75
357.534	75.75
357.761	83.75
357.988	94.75
358.215	99.75
358.441	112.75
358.668	106.75
358.895	97.75
359.122	89.75
359.349	89.75
359.576	76.75
359.802	69.75
360.029	75.75
360.256	86.75
360.483	90.75
360.709	99.75
360.936	78.75
361.163	88.75
361.39	85.75
361.616	87.75
361.843	79.75
362.07	98.75
362.296	87.75
362.523	95.75
362.749	92.75
362.976	88.75
363.203	110.75
363.429	101.75
363.656	91.75
363.882	90.75
364.109	90.75
364.335	91.75
364.562	106.75
364.788	99.75
365.015	98.75
365.241	83.75
365.468	74.75
365.694	74.75
365.92	96.75
366.147	94.75
366.373	91.75
366.599	87.75
366.826	97.75
367.052	93.75
367.278	84.75
367.505	87.75
367.731	86.75
367.957	89.75
368.184	77.75
368.41	92.75
368.636	97.75
368.862	77.75
369.089	81.75
369.315	95.75
369.541	78.75
369.767	86.75
369.993	90.75
370.219	73.75
370.445	95.75
370.672	85.75
370.898	89.75
371.124	95.75
371.35	78.75
371.576	88.75
371.802	95.75
372.028	90.75
372.254	89.75
372.48	80.75
372.706	90.75
372.932	83.75
373.158	94.75
373.384	97.75
373.61	100.75
373.835	113.75
374.061	86.75
374.287	87.75
374.513	89.75
374.739	102.75
374.965	90.75
375.191	110.75
375.416	102.75
375.642	80.75
375.868	86.75
376.094	103.75
376.319	101.75
376.545	73.75
376.771	91.75
376.997	97.75
377.222	84.75
377.448	89.75
377.674	89.75
377.899	90.75
378.125	78.75
378.35	83.75
378.576	85.75
378.802	87.75
379.027	93.75
379.253	97.75
379.478	94.75
379.704	86.75
379.929	84.75
380.155	103.75
380.38	86.75
380.606	89.75
380.831	78.75
381.057	93.75
381.282	101.75
381.507	102.75
381.733	103.75
381.958	107.75
382.184	92.75
382.409	71.75
382.634	105.75
382.86	98.75
383.085	101.75
383.31	113.75
383.535	103.75
383.761	99.75
383.986	111.75
384.211	89.75
384.436	93.75
384.662	75.75
384.887	90.75
385.112	92.75
385.337	80.75
385.562	108.75
385.787	102.75
386.013	111.75
386.238	99.75
386.463	70.75
386.688	105.75
386.913	78.75
387.138	87.75
387.363	109.75
387.588	100.75
387.813	107.75
388.038	91.75
388.263	86.75
388.488	91.75
388.713	86.75
388.938	87.75
389.163	94.75
389.387	87.75
389.612	79.75
389.837	74.75
390.062	91.75
390.287	80.75
390.512	89.75
390.736	103.75
390.961	84.75
391.186	83.75
391.411	86.75
391.636	85.75
391.86	93.75
392.085	80.75
392.31	95.75
392.534	87.75
392.759	114.75
392.984	163.75
393.208	288.75
393.433	429.75
393.658	319.75
393.882	135.75
394.107	100.75
394.331	116.75
394.556	95.75
394.78	81.75
395.005	73.75
395.229	90.75
395.454	91.75
395.678	94.75
395.903	106.75
396.127	129.75
396.352	153.75
396.576	177.75
396.801	274.75
397.025	320.75
397.249	166.75
397.474	109.75
397.698	102.75
397.922	98.75
398.147	93.75
398.371	85.75
398.595	93.75
398.82	77.75
399.044	76.75
399.268	77.75
399.492	95.75
399.717	85.75
399.941	86.75
400.165	89.75
400.389	88.75
400.613	81.75
400.837	98.75
401.062	86.75
401.286	80.75
401.51	96.75
401.734	90.75
401.958	87.75
402.182	100.75
402.406	71.75
402.63	83.75
402.854	70.75
403.078	95.75
403.302	95.75
403.526	90.75
403.75	83.75
403.974	84.75
404.198	89.75
404.422	81.75
404.645	99.75
404.869	90.75
405.093	83.75
405.317	85.75
405.541	88.75
405.765	70.75
405.988	81.75
406.212	103.75
406.436	93.75
406.66	83.75
406.883	89.75
407.107	79.75
407.331	95.75
407.555	91.75
407.778	89.75
408.002	94.75
408.226	79.75
408.449	86.75
408.673	85.75
408.896	84.75
409.12	89.75
409.344	79.75
409.567	83.75
409.791	92.75
410.014	87.75
410.238	92.75
410.461	80.75
410.685	86.75
410.908	76.75
411.132	83.75
411.355	85.75
411.578	89.75
411.802	82.75
412.025	89.75
412.249	81.75
412.472	84.75
412.695	77.75
412.919	83.75
413.142	76.75
413.365	99.75
413.589	102.75
413.812	73.75
414.035	90.75
414.258	88.75
414.482	88.75
414.705	90.75
414.928	95.75
415.151	79.75
415.374	97.75
415.597	81.75
415.821	82.75
416.044	85.75
416.267	98.75
416.49	89.75
416.713	84.75
416.936	98.75
417.159	65.75
417.382	87.75
417.605	97.75
417.828	97.75
418.051	86.75
418.274	92.75
418.497	83.75
418.72	73.75
418.943	94.75
419.166	90.75
419.389	79.75
419.611	76.75
419.834	63.75
420.057	89.75
420.28	93.75
420.503	93.75
420.726	92.75
420.948	83.75
421.171	79.75
421.394	96.75
421.617	106.75
421.839	89.75
422.062	98.75
422.285	102.75
422.507	155.75
422.73	237.75
422.953	229.75
423.175	113.75
423.398	89.75
423.621	101.75
423.843	81.75
424.066	80.75
424.288	88.75
424.511	88.75
424.733	87.75
424.956	87.75
425.178	71.75
425.401	87.75
425.623	93.75
425.846	79.75
426.068	89.75
426.291	87.75
426.513	92.75
426.735	88.75
426.958	87.75
427.18	96.75
427.402	83.75
427.625	94.75
427.847	86.75
428.069	88.75
428.292	95.75
428.514	98.75
428.736	79.75
428.958	96.75
429.181	85.75
429.403	96.75
429.625	86.75
429.847	85.75
430.069	114.75
430.292	131.75
430.514	125.75
430.736	103.75
430.958	103.75
431.18	87.75
431.402	84.75
431.624	90.75
431.846	101.75
432.068	106.75
432.29	87.75
432.512	87.75
432.734	86.75
432.956	97.75
433.178	101.75
433.4	81.75
433.622	87.75
433.844	88.75
434.066	84.75
434.287	96.75
434.509	71.75
434.731	87.75
434.953	82.75
435.175	75.75
435.397	91.75
435.618	91.75
435.84	81.75
436.062	90.75
436.284	76.75
436.505	91.75
436.727	82.75
436.949	87.75
437.17	70.75
437.392	86.75
437.614	87.75
437.835	89.75
438.057	83.75
438.278	90.75
438.5	99.75
438.721	102.75
438.943	98.75
439.165	88.75
439.386	77.75
439.608	74.75
439.829	72.75
440.05	88.75
440.272	92.75
440.493	89.75
440.715	85.75
440.936	86.75
441.158	84.75
441.379	81.75
441.6	89.75
441.822	81.75
442.043	97.75
442.264	87.75
442.486	82.75
442.707	109.75
442.928	101.75
443.149	97.75
443.371	97.75
443.592	141.75
443.813	129.75
444.034	96.75
444.255	82.75
444.476	85.75
444.698	87.75
444.919	82.75
445.14	177.75
445.361	160.75
445.582	145.75
445.803	116.75
446.024	98.75
446.245	77.75
446.466	86.75
446.687	80.75
446.908	91.75
447.129	88.75
447.35	78.75
447.571	84.75
447.792	80.75
448.013	86.75
448.234	77.75
448.455	96.75
448.675	86.75
448.896	72.75
449.117	77.75
449.338	74.75
449.559	85.75
449.779	83.75
450	74.75
450.221	91.75
450.442	83.75
450.662	95.75
450.883	89.75
451.104	90.75
451.324	76.75
451.545	74.75
451.766	83.75
451.986	88.75
452.207	72.75
452.428	75.75
452.648	81.75
452.869	95.75
453.089	93.75
453.31	93.75
453.53	80.75
453.751	75.75
453.971	92.75
454.192	85.75
454.412	86.75
454.633	79.75
454.853	86.75
455.073	78.75
455.294	83.75
455.514	82.75
455.734	82.75
455.955	85.75
456.175	92.75
456.395	83.75
456.616	85.75
456.836	89.75
457.056	83.75
457.276	94.75
457.497	79.75
457.717	85.75
457.937	83.75
458.157	91.75
458.377	85.75
458.598	76.75
458.818	71.75
459.038	77.75
459.258	80.75
459.478	73.75
459.698	88.75
459.918	79.75
460.138	77.75
460.358	77.75
460.578	89.75
460.798	100.75
461.018	82.75
461.238	87.75
461.458	82.75
461.678	87.75
461.898	89.75
462.118	90.75
462.338	85.75
462.558	77.75
462.777	96.75
462.997	83.75
463.217	78.75
463.437	83.75
463.657	83.75
463.876	74.75
464.096	69.75
464.316	85.75
464.536	90.75
464.755	78.75
464.975	86.75
465.195	81.75
465.414	77.75
465.634	91.75
465.854	82.75
466.073	81.75
466.293	86.75
466.512	86.75
466.732	75.75
466.951	77.75
467.171	86.75
467.391	73.75
467.61	69.75
467.829	81.75
468.049	99.75
468.268	84.75
468.488	93.75
468.707	74.75
468.927	84.75
469.146	81.75
469.365	83.75
469.585	99.75
469.804	83.75
470.023	82.75
470.243	93.75
470.462	82.75
470.681	81.75
470.901	91.75
471.12	82.75
471.339	80.75
471.558	90.75
471.777	73.75
471.997	88.75
472.216	88.75
472.435	90.75
472.654	86.75
472.873	76.75
473.092	83.75
473.311	85.75
473.53	80.75
473.749	97.75
473.968	82.75
474.187	91.75
474.406	90.75
474.625	91.75
474.844	79.75
475.063	73.75
475.282	80.75
475.501	87.75
475.72	97.75
475.939	75.75
476.158	73.75
476.377	80.75
476.596	84.75
476.814	89.75
477.033	85.75
477.252	87.75
477.471	85.75
477.69	70.75
477.908	96.75
478.127	93.75
478.346	86.75
478.564	88.75
478.783	83.75
479.002	95.75
479.22	75.75
479.439	73.75
479.658	89.75
479.876	92.75
480.095	87.75
480.313	76.75
480.532	86.75
480.751	92.75
480.969	96.75
481.188	89.75
481.406	76.75
481.624	73.75
481.843	86.75
482.061	89.75
482.28	79.75
482.498	76.75
482.717	88.75
482.935	87.75
483.153	82.75
483.372	90.75
483.59	85.75
483.808	86.75
484.027	86.75
484.245	89.75
484.463	68.75
484.681	92.75
484.9	81.75
485.118	89.75
485.336	95.75
485.554	88.75
485.772	85.75
485.99	78.75
486.209	71.75
486.427	84.75
486.645	81.75
486.863	67.75
487.081	74.75
487.299	102.75
487.517	84.75
487.735	93.75
487.953	95.75
488.171	85.75
488.389	65.75
488.607	90.75
488.825	92.75
489.043	74.75
489.261	87.75
489.479	81.75
489.696	83.75
489.914	89.75
490.132	78.75
490.35	83.75
490.568	86.75
490.786	95.75
491.003	89.75
491.221	83.75
491.439	86.75
491.657	86.75
491.874	78.75
492.092	90.75
492.31	87.75
492.527	88.75
492.745	90.75
492.963	90.75
493.18	88.75
493.398	78.75
493.615	97.75
493.833	80.75
494.05	86.75
494.268	79.75
494.485	74.75
494.703	89.75
494.92	90.75
495.138	89.75
495.355	97.75
495.573	82.75
495.79	94.75
496.008	88.75
496.225	84.75
496.442	73.75
496.66	88.75
496.877	81.75
497.094	106.75
497.312	77.75
497.529	78.75
497.746	87.75
497.963	89.75
498.181	72.75
498.398	88.75
498.615	87.75
498.832	79.75
499.049	79.75
499.267	78.75
499.484	75.75
499.701	93.75
499.918	87.75
500.135	86.75
500.352	80.75
500.569	89.75
500.786	90.75
501.003	100.75
501.22	75.75
501.437	82.75
501.654	87.75
501.871	95.75
502.088	91.75
502.305	88.75
502.522	93.75
502.739	84.75
502.956	87.75
503.172	81.75
503.389	100.75
503.606	85.75
503.823	86.75
504.04	87.75
504.256	101.75
504.473	105.75
504.69	87.75
504.907	89.75
505.123	90.75
505.34	87.75
505.557	82.75
505.773	86.75
505.99	85.75
506.207	86.75
506.423	86.75
506.64	84.75
506.856	72.75
507.073	85.75
507.289	104.75
507.506	91.75
507.722	82.75
507.939	72.75
508.155	96.75
508.372	75.75
508.588	82.75
508.805	97.75
509.021	93.75
509.238	88.75
509.454	76.75
509.67	86.75
509.887	83.75
510.103	82.75
510.319	91.75
510.536	91.75
510.752	82.75
510.968	92.75
511.184	82.75
511.401	73.75
511.617	76.75
511.833	87.75
512.049	87.75
512.265	86.75
512.481	83.75
512.698	74.75
512.914	76.75
513.13	93.75
513.346	74.75
513.562	89.75
513.778	100.75
513.994	87.75
514.21	70.75
514.426	70.75
514.642	84.75
514.858	88.75
515.074	96.75
515.29	89.75
515.506	83.75
515.721	90.75
515.937	83.75
516.153	83.75
516.369	91.75
516.585	86.75
516.801	81.75
517.016	94.75
517.232	94.75
517.448	105.75
517.664	99.75
517.879	83.75
518.095	86.75
518.311	105.75
518.527	94.75
518.742	96.75
