Data from 1600_3_HRD10591_00041.txt Node
Date: Mon Jan 19 13:55:13 EST 2026
User: Yrep
Spectrometer: HR+D1059
Trigger mode: 1
Integration Time (sec): 1.000000E-1
Scans to average: 1
Electric dark correction enabled: true
Nonlinearity correction enabled: false
Boxcar width: 0
XAxis mode: Wavelengths
Number of Pixels in Spectrum: 2048
>>>>>Begin Spectral Data<<<<<
223.165	-29.25
223.4	-29.25
223.635	-29.25
223.869	-10.25
224.104	-17.25
224.338	-16.25
224.573	-20.25
224.808	-7.25
225.042	-18.25
225.277	5.75
225.511	-4.25
225.746	4.75
225.98	5.75
226.215	9.75
226.449	17.75
226.683	29.75
226.918	36.75
227.152	12.75
227.387	39.75
227.621	38.75
227.856	40.75
228.09	34.75
228.324	42.75
228.559	40.75
228.793	67.75
229.027	60.75
229.262	55.75
229.496	70.75
229.73	73.75
229.964	76.75
230.199	77.75
230.433	64.75
230.667	66.75
230.901	82.75
231.136	77.75
231.37	70.75
231.604	84.75
231.838	76.75
232.072	77.75
232.306	80.75
232.541	74.75
232.775	76.75
233.009	83.75
233.243	77.75
233.477	77.75
233.711	93.75
233.945	68.75
234.179	73.75
234.413	67.75
234.647	73.75
234.881	77.75
235.115	89.75
235.349	77.75
235.583	74.75
235.817	75.75
236.051	95.75
236.285	73.75
236.519	71.75
236.753	79.75
236.987	69.75
237.221	85.75
237.455	73.75
237.689	92.75
237.922	72.75
238.156	80.75
238.39	80.75
238.624	73.75
238.858	60.75
239.091	93.75
239.325	85.75
239.559	73.75
239.793	79.75
240.027	87.75
240.26	83.75
240.494	76.75
240.728	79.75
240.961	78.75
241.195	74.75
241.429	77.75
241.662	68.75
241.896	66.75
242.13	72.75
242.363	86.75
242.597	68.75
242.83	80.75
243.064	86.75
243.298	70.75
243.531	68.75
243.765	76.75
243.998	83.75
244.232	79.75
244.465	92.75
244.699	63.75
244.932	72.75
245.166	93.75
245.399	82.75
245.633	76.75
245.866	78.75
246.099	80.75
246.333	86.75
246.566	71.75
246.8	78.75
247.033	87.75
247.266	78.75
247.5	72.75
247.733	65.75
247.966	76.75
248.2	83.75
248.433	75.75
248.666	72.75
248.899	77.75
249.133	95.75
249.366	86.75
249.599	73.75
249.832	86.75
250.066	77.75
250.299	67.75
250.532	74.75
250.765	62.75
250.998	71.75
251.231	82.75
251.465	67.75
251.698	79.75
251.931	87.75
252.164	83.75
252.397	82.75
252.63	94.75
252.863	89.75
253.096	76.75
253.329	79.75
253.562	84.75
253.795	85.75
254.028	73.75
254.261	70.75
254.494	88.75
254.727	72.75
254.96	87.75
255.193	61.75
255.426	68.75
255.659	85.75
255.892	88.75
256.124	83.75
256.357	93.75
256.59	74.75
256.823	97.75
257.056	86.75
257.289	88.75
257.521	87.75
257.754	71.75
257.987	71.75
258.22	92.75
258.452	81.75
258.685	77.75
258.918	67.75
259.151	84.75
259.383	75.75
259.616	75.75
259.849	72.75
260.081	71.75
260.314	78.75
260.547	83.75
260.779	72.75
261.012	72.75
261.244	76.75
261.477	84.75
261.71	92.75
261.942	75.75
262.175	68.75
262.407	80.75
262.64	55.75
262.872	78.75
263.105	81.75
263.337	95.75
263.57	93.75
263.802	91.75
264.035	91.75
264.267	81.75
264.499	81.75
264.732	85.75
264.964	93.75
265.197	70.75
265.429	85.75
265.661	79.75
265.894	86.75
266.126	79.75
266.358	71.75
266.591	88.75
266.823	61.75
267.055	68.75
267.287	68.75
267.52	83.75
267.752	83.75
267.984	75.75
268.216	86.75
268.448	93.75
268.681	89.75
268.913	84.75
269.145	77.75
269.377	81.75
269.609	76.75
269.841	83.75
270.073	79.75
270.306	72.75
270.538	77.75
270.77	75.75
271.002	89.75
271.234	76.75
271.466	72.75
271.698	75.75
271.93	92.75
272.162	81.75
272.394	70.75
272.626	87.75
272.858	73.75
273.09	73.75
273.322	92.75
273.553	80.75
273.785	83.75
274.017	96.75
274.249	84.75
274.481	73.75
274.713	91.75
274.945	77.75
275.176	81.75
275.408	84.75
275.64	83.75
275.872	80.75
276.104	73.75
276.335	87.75
276.567	80.75
276.799	85.75
277.031	91.75
277.262	91.75
277.494	91.75
277.726	81.75
277.957	81.75
278.189	78.75
278.421	99.75
278.652	83.75
278.884	83.75
279.115	84.75
279.347	85.75
279.579	82.75
279.81	72.75
280.042	82.75
280.273	88.75
280.505	96.75
280.736	86.75
280.968	90.75
281.199	77.75
281.431	87.75
281.662	94.75
281.894	73.75
282.125	86.75
282.356	83.75
282.588	83.75
282.819	76.75
283.051	78.75
283.282	61.75
283.513	83.75
283.745	77.75
283.976	96.75
284.207	95.75
284.439	94.75
284.67	84.75
284.901	81.75
285.132	93.75
285.364	76.75
285.595	85.75
285.826	79.75
286.057	80.75
286.288	75.75
286.52	81.75
286.751	80.75
286.982	83.75
287.213	77.75
287.444	88.75
287.675	76.75
287.906	71.75
288.138	83.75
288.369	91.75
288.6	83.75
288.831	77.75
289.062	79.75
289.293	67.75
289.524	72.75
289.755	72.75
289.986	84.75
290.217	84.75
290.448	68.75
290.679	74.75
290.91	85.75
291.141	72.75
291.371	85.75
291.602	75.75
291.833	89.75
292.064	85.75
292.295	71.75
292.526	77.75
292.757	99.75
292.987	64.75
293.218	88.75
293.449	89.75
293.68	89.75
293.91	96.75
294.141	80.75
294.372	82.75
294.603	96.75
294.833	106.75
295.064	83.75
295.295	97.75
295.525	80.75
295.756	78.75
295.987	71.75
296.217	80.75
296.448	69.75
296.679	80.75
296.909	75.75
297.14	74.75
297.37	90.75
297.601	89.75
297.831	71.75
298.062	98.75
298.292	93.75
298.523	87.75
298.753	85.75
298.984	82.75
299.214	78.75
299.445	108.75
299.675	86.75
299.905	85.75
300.136	87.75
300.366	87.75
300.597	80.75
300.827	87.75
301.057	88.75
301.288	74.75
301.518	80.75
301.748	88.75
301.979	84.75
302.209	82.75
302.439	84.75
302.669	75.75
302.9	75.75
303.13	86.75
303.36	84.75
303.59	77.75
303.82	80.75
304.051	72.75
304.281	83.75
304.511	87.75
304.741	81.75
304.971	84.75
305.201	95.75
305.431	79.75
305.661	98.75
305.891	90.75
306.121	80.75
306.352	93.75
306.582	79.75
306.812	78.75
307.042	71.75
307.272	82.75
307.502	73.75
307.731	83.75
307.961	77.75
308.191	92.75
308.421	82.75
308.651	92.75
308.881	76.75
309.111	92.75
309.341	90.75
309.571	87.75
309.8	102.75
310.03	73.75
310.26	79.75
310.49	84.75
310.72	88.75
310.949	84.75
311.179	85.75
311.409	68.75
311.639	92.75
311.868	97.75
312.098	72.75
312.328	85.75
312.557	72.75
312.787	89.75
313.017	90.75
313.246	86.75
313.476	86.75
313.706	72.75
313.935	93.75
314.165	73.75
314.394	80.75
314.624	83.75
314.853	73.75
315.083	73.75
315.312	82.75
315.542	81.75
315.771	88.75
316.001	96.75
316.23	72.75
316.46	74.75
316.689	69.75
316.919	79.75
317.148	67.75
317.377	96.75
317.607	103.75
317.836	95.75
318.065	84.75
318.295	95.75
318.524	86.75
318.753	81.75
318.983	79.75
319.212	73.75
319.441	85.75
319.67	90.75
319.9	79.75
320.129	90.75
320.358	78.75
320.587	87.75
320.816	85.75
321.046	83.75
321.275	78.75
321.504	97.75
321.733	67.75
321.962	87.75
322.191	88.75
322.42	85.75
322.649	77.75
322.878	89.75
323.108	86.75
323.337	81.75
323.566	87.75
323.795	77.75
324.024	88.75
324.253	88.75
324.482	92.75
324.71	86.75
324.939	91.75
325.168	91.75
325.397	86.75
325.626	81.75
325.855	87.75
326.084	87.75
326.313	84.75
326.542	82.75
326.77	84.75
326.999	82.75
327.228	83.75
327.457	77.75
327.686	76.75
327.914	83.75
328.143	84.75
328.372	91.75
328.6	89.75
328.829	84.75
329.058	77.75
329.287	94.75
329.515	82.75
329.744	94.75
329.972	96.75
330.201	84.75
330.43	82.75
330.658	83.75
330.887	88.75
331.115	85.75
331.344	87.75
331.572	89.75
331.801	81.75
332.03	72.75
332.258	81.75
332.486	88.75
332.715	71.75
332.943	77.75
333.172	73.75
333.4	79.75
333.629	92.75
333.857	94.75
334.085	81.75
334.314	92.75
334.542	87.75
334.771	92.75
334.999	67.75
335.227	71.75
335.455	81.75
335.684	93.75
335.912	88.75
336.14	83.75
336.369	101.75
336.597	73.75
336.825	72.75
337.053	80.75
337.281	92.75
337.51	85.75
337.738	65.75
337.966	72.75
338.194	67.75
338.422	76.75
338.65	91.75
338.878	77.75
339.106	84.75
339.334	77.75
339.562	79.75
339.79	84.75
340.018	69.75
340.246	80.75
340.474	82.75
340.702	82.75
340.93	69.75
341.158	78.75
341.386	75.75
341.614	89.75
341.842	89.75
342.07	84.75
342.298	72.75
342.526	97.75
342.754	62.75
342.981	71.75
343.209	90.75
343.437	93.75
343.665	77.75
343.893	90.75
344.12	93.75
344.348	93.75
344.576	91.75
344.804	87.75
345.031	79.75
345.259	92.75
345.487	71.75
345.714	94.75
345.942	89.75
346.17	89.75
346.397	87.75
346.625	93.75
346.853	83.75
347.08	89.75
347.308	96.75
347.535	78.75
347.763	78.75
347.99	89.75
348.218	95.75
348.445	77.75
348.673	87.75
348.9	85.75
349.128	85.75
349.355	88.75
349.583	79.75
349.81	79.75
350.037	74.75
350.265	84.75
350.492	93.75
350.72	79.75
350.947	70.75
351.174	74.75
351.402	79.75
351.629	73.75
351.856	75.75
352.083	78.75
352.311	74.75
352.538	66.75
352.765	70.75
352.992	82.75
353.22	81.75
353.447	87.75
353.674	79.75
353.901	92.75
354.128	83.75
354.355	91.75
354.583	79.75
354.81	87.75
355.037	69.75
355.264	69.75
355.491	86.75
355.718	91.75
355.945	78.75
356.172	72.75
356.399	77.75
356.626	87.75
356.853	87.75
357.08	91.75
357.307	87.75
357.534	85.75
357.761	91.75
357.988	81.75
358.215	83.75
358.441	99.75
358.668	72.75
358.895	78.75
359.122	76.75
359.349	97.75
359.576	93.75
359.802	83.75
360.029	80.75
360.256	80.75
360.483	87.75
360.709	76.75
360.936	87.75
361.163	71.75
361.39	76.75
361.616	87.75
361.843	87.75
362.07	100.75
362.296	87.75
362.523	81.75
362.749	74.75
362.976	93.75
363.203	89.75
363.429	78.75
363.656	79.75
363.882	85.75
364.109	86.75
364.335	85.75
364.562	70.75
364.788	71.75
365.015	91.75
365.241	81.75
365.468	86.75
365.694	80.75
365.92	77.75
366.147	84.75
366.373	77.75
366.599	78.75
366.826	79.75
367.052	84.75
367.278	72.75
367.505	77.75
367.731	95.75
367.957	80.75
368.184	91.75
368.41	83.75
368.636	93.75
368.862	76.75
369.089	68.75
369.315	71.75
369.541	84.75
369.767	83.75
369.993	82.75
370.219	73.75
370.445	87.75
370.672	87.75
370.898	88.75
371.124	73.75
371.35	71.75
371.576	81.75
371.802	98.75
372.028	80.75
372.254	91.75
372.48	77.75
372.706	88.75
372.932	86.75
373.158	76.75
373.384	102.75
373.61	100.75
373.835	108.75
374.061	98.75
374.287	91.75
374.513	96.75
374.739	82.75
374.965	99.75
375.191	93.75
375.416	83.75
375.642	86.75
375.868	87.75
376.094	87.75
376.319	87.75
376.545	83.75
376.771	78.75
376.997	71.75
377.222	76.75
377.448	79.75
377.674	73.75
377.899	74.75
378.125	79.75
378.35	83.75
378.576	96.75
378.802	69.75
379.027	87.75
379.253	83.75
379.478	94.75
379.704	67.75
379.929	84.75
380.155	92.75
380.38	79.75
380.606	74.75
380.831	78.75
381.057	74.75
381.282	91.75
381.507	68.75
381.733	86.75
381.958	92.75
382.184	81.75
382.409	88.75
382.634	90.75
382.86	96.75
383.085	107.75
383.31	96.75
383.535	85.75
383.761	87.75
383.986	78.75
384.211	89.75
384.436	98.75
384.662	87.75
384.887	86.75
385.112	84.75
385.337	62.75
385.562	74.75
385.787	92.75
386.013	104.75
386.238	92.75
386.463	75.75
386.688	86.75
386.913	83.75
387.138	94.75
387.363	88.75
387.588	91.75
387.813	92.75
388.038	89.75
388.263	93.75
388.488	86.75
388.713	83.75
388.938	104.75
389.163	85.75
389.387	92.75
389.612	82.75
389.837	92.75
390.062	73.75
390.287	86.75
390.512	74.75
390.736	81.75
390.961	88.75
391.186	91.75
391.411	80.75
391.636	60.75
391.86	92.75
392.085	81.75
392.31	79.75
392.534	74.75
392.759	93.75
392.984	120.75
393.208	176.75
393.433	253.75
393.658	187.75
393.882	98.75
394.107	90.75
394.331	85.75
394.556	103.75
394.78	86.75
395.005	77.75
395.229	85.75
395.454	86.75
395.678	82.75
395.903	87.75
396.127	98.75
396.352	111.75
396.576	131.75
396.801	187.75
397.025	210.75
397.249	120.75
397.474	104.75
397.698	80.75
397.922	88.75
398.147	82.75
398.371	79.75
398.595	78.75
398.82	89.75
399.044	81.75
399.268	93.75
399.492	86.75
399.717	81.75
399.941	77.75
400.165	84.75
400.389	81.75
400.613	82.75
400.837	87.75
401.062	87.75
401.286	95.75
401.51	80.75
401.734	71.75
401.958	75.75
402.182	83.75
402.406	73.75
402.63	80.75
402.854	79.75
403.078	91.75
403.302	92.75
403.526	83.75
403.75	76.75
403.974	71.75
404.198	73.75
404.422	88.75
404.645	82.75
404.869	91.75
405.093	79.75
405.317	87.75
405.541	81.75
405.765	85.75
405.988	83.75
406.212	82.75
406.436	93.75
406.66	89.75
406.883	83.75
407.107	81.75
407.331	75.75
407.555	89.75
407.778	96.75
408.002	89.75
408.226	79.75
408.449	78.75
408.673	74.75
408.896	85.75
409.12	81.75
409.344	80.75
409.567	78.75
409.791	77.75
410.014	80.75
410.238	73.75
410.461	84.75
410.685	84.75
410.908	81.75
411.132	93.75
411.355	75.75
411.578	88.75
411.802	93.75
412.025	86.75
412.249	87.75
412.472	73.75
412.695	77.75
412.919	76.75
413.142	91.75
413.365	87.75
413.589	82.75
413.812	94.75
414.035	88.75
414.258	91.75
414.482	75.75
414.705	78.75
414.928	76.75
415.151	87.75
415.374	82.75
415.597	69.75
415.821	83.75
416.044	83.75
416.267	79.75
416.49	94.75
416.713	93.75
416.936	93.75
417.159	90.75
417.382	77.75
417.605	74.75
417.828	75.75
418.051	96.75
418.274	90.75
418.497	82.75
418.72	73.75
418.943	66.75
419.166	89.75
419.389	88.75
419.611	64.75
419.834	78.75
420.057	79.75
420.28	76.75
420.503	67.75
420.726	81.75
420.948	85.75
421.171	81.75
421.394	88.75
421.617	81.75
421.839	91.75
422.062	79.75
422.285	95.75
422.507	112.75
422.73	166.75
422.953	152.75
423.175	94.75
423.398	92.75
423.621	88.75
423.843	95.75
424.066	80.75
424.288	72.75
424.511	73.75
424.733	71.75
424.956	74.75
425.178	65.75
425.401	77.75
425.623	87.75
425.846	85.75
426.068	64.75
426.291	81.75
426.513	83.75
426.735	91.75
426.958	79.75
427.18	79.75
427.402	88.75
427.625	76.75
427.847	73.75
428.069	86.75
428.292	72.75
428.514	89.75
428.736	80.75
428.958	85.75
429.181	94.75
429.403	70.75
429.625	73.75
429.847	89.75
430.069	89.75
430.292	100.75
430.514	97.75
430.736	97.75
430.958	88.75
431.18	108.75
431.402	69.75
431.624	83.75
431.846	86.75
432.068	103.75
432.29	85.75
432.512	92.75
432.734	81.75
432.956	75.75
433.178	77.75
433.4	77.75
433.622	79.75
433.844	87.75
434.066	84.75
434.287	81.75
434.509	76.75
434.731	69.75
434.953	77.75
435.175	84.75
435.397	76.75
435.618	70.75
435.84	75.75
436.062	66.75
436.284	86.75
436.505	93.75
436.727	89.75
436.949	80.75
437.17	96.75
437.392	83.75
437.614	83.75
437.835	78.75
438.057	81.75
438.278	96.75
438.5	91.75
438.721	84.75
438.943	82.75
439.165	77.75
439.386	74.75
439.608	80.75
439.829	86.75
440.05	92.75
440.272	67.75
440.493	83.75
440.715	76.75
440.936	81.75
441.158	86.75
441.379	62.75
441.6	85.75
441.822	75.75
442.043	72.75
442.264	75.75
442.486	87.75
442.707	89.75
442.928	80.75
443.149	81.75
443.371	95.75
443.592	99.75
443.813	103.75
444.034	80.75
444.255	81.75
444.476	82.75
444.698	67.75
444.919	78.75
445.14	163.75
445.361	112.75
445.582	104.75
445.803	116.75
446.024	89.75
446.245	97.75
446.466	78.75
446.687	79.75
446.908	79.75
447.129	82.75
447.35	86.75
447.571	73.75
447.792	100.75
448.013	77.75
448.234	65.75
448.455	86.75
448.675	84.75
448.896	73.75
449.117	78.75
449.338	92.75
449.559	83.75
449.779	76.75
450	81.75
450.221	81.75
450.442	86.75
450.662	70.75
450.883	79.75
451.104	78.75
451.324	83.75
451.545	73.75
451.766	90.75
451.986	67.75
452.207	85.75
452.428	83.75
452.648	84.75
452.869	84.75
453.089	82.75
453.31	65.75
453.53	77.75
453.751	79.75
453.971	74.75
454.192	92.75
454.412	76.75
454.633	82.75
454.853	67.75
455.073	75.75
455.294	99.75
455.514	70.75
455.734	77.75
455.955	76.75
456.175	90.75
456.395	75.75
456.616	67.75
456.836	90.75
457.056	80.75
457.276	81.75
457.497	88.75
457.717	79.75
457.937	80.75
458.157	95.75
458.377	90.75
458.598	88.75
458.818	77.75
459.038	83.75
459.258	74.75
459.478	68.75
459.698	83.75
459.918	79.75
460.138	78.75
460.358	73.75
460.578	85.75
460.798	91.75
461.018	92.75
461.238	84.75
461.458	98.75
461.678	79.75
461.898	90.75
462.118	80.75
462.338	79.75
462.558	70.75
462.777	72.75
462.997	78.75
463.217	82.75
463.437	69.75
463.657	72.75
463.876	94.75
464.096	71.75
464.316	71.75
464.536	78.75
464.755	75.75
464.975	87.75
465.195	95.75
465.414	78.75
465.634	101.75
465.854	103.75
466.073	92.75
466.293	74.75
466.512	80.75
466.732	84.75
466.951	78.75
467.171	74.75
467.391	83.75
467.61	80.75
467.829	77.75
468.049	84.75
468.268	73.75
468.488	71.75
468.707	87.75
468.927	87.75
469.146	73.75
469.365	76.75
469.585	85.75
469.804	91.75
470.023	74.75
470.243	80.75
470.462	85.75
470.681	92.75
470.901	81.75
471.12	74.75
471.339	81.75
471.558	76.75
471.777	87.75
471.997	75.75
472.216	86.75
472.435	84.75
472.654	92.75
472.873	75.75
473.092	87.75
473.311	63.75
473.53	87.75
473.749	79.75
473.968	83.75
474.187	80.75
474.406	63.75
474.625	78.75
474.844	80.75
475.063	90.75
475.282	89.75
475.501	85.75
475.72	81.75
475.939	99.75
476.158	95.75
476.377	84.75
476.596	93.75
476.814	77.75
477.033	82.75
477.252	77.75
477.471	74.75
477.69	71.75
477.908	81.75
478.127	91.75
478.346	73.75
478.564	79.75
478.783	83.75
479.002	73.75
479.22	86.75
479.439	77.75
479.658	71.75
479.876	83.75
480.095	82.75
480.313	82.75
480.532	70.75
480.751	77.75
480.969	74.75
481.188	79.75
481.406	84.75
481.624	70.75
481.843	89.75
482.061	91.75
482.28	76.75
482.498	83.75
482.717	84.75
482.935	75.75
483.153	82.75
483.372	92.75
483.59	73.75
483.808	95.75
484.027	91.75
484.245	85.75
484.463	79.75
484.681	71.75
484.9	81.75
485.118	96.75
485.336	71.75
485.554	67.75
485.772	83.75
485.99	79.75
486.209	87.75
486.427	81.75
486.645	81.75
486.863	91.75
487.081	92.75
487.299	82.75
487.517	90.75
487.735	83.75
487.953	94.75
488.171	85.75
488.389	85.75
488.607	78.75
488.825	74.75
489.043	71.75
489.261	89.75
489.479	82.75
489.696	89.75
489.914	80.75
490.132	91.75
490.35	98.75
490.568	76.75
490.786	74.75
491.003	74.75
491.221	81.75
491.439	84.75
491.657	87.75
491.874	91.75
492.092	85.75
492.31	93.75
492.527	85.75
492.745	83.75
492.963	81.75
493.18	94.75
493.398	84.75
493.615	81.75
493.833	71.75
494.05	68.75
494.268	88.75
494.485	75.75
494.703	78.75
494.92	96.75
495.138	92.75
495.355	86.75
495.573	95.75
495.79	73.75
496.008	91.75
496.225	85.75
496.442	74.75
496.66	82.75
496.877	70.75
497.094	90.75
497.312	75.75
497.529	87.75
497.746	80.75
497.963	72.75
498.181	87.75
498.398	83.75
498.615	79.75
498.832	89.75
499.049	74.75
499.267	82.75
499.484	80.75
499.701	94.75
499.918	76.75
500.135	85.75
500.352	82.75
500.569	85.75
500.786	73.75
501.003	81.75
501.22	71.75
501.437	83.75
501.654	94.75
501.871	83.75
502.088	82.75
502.305	76.75
502.522	78.75
502.739	87.75
502.956	81.75
503.172	90.75
503.389	86.75
503.606	93.75
503.823	86.75
504.04	87.75
504.256	76.75
504.473	77.75
504.69	69.75
504.907	86.75
505.123	83.75
505.34	92.75
505.557	69.75
505.773	84.75
505.99	82.75
506.207	85.75
506.423	87.75
506.64	72.75
506.856	81.75
507.073	80.75
507.289	87.75
507.506	79.75
507.722	87.75
507.939	84.75
508.155	87.75
508.372	97.75
508.588	83.75
508.805	68.75
509.021	91.75
509.238	74.75
509.454	87.75
509.67	94.75
509.887	84.75
510.103	60.75
510.319	85.75
510.536	81.75
510.752	85.75
510.968	79.75
511.184	91.75
511.401	82.75
511.617	97.75
511.833	70.75
512.049	82.75
512.265	81.75
512.481	80.75
512.698	89.75
512.914	81.75
513.13	99.75
513.346	95.75
513.562	88.75
513.778	85.75
513.994	85.75
514.21	94.75
514.426	72.75
514.642	84.75
514.858	70.75
515.074	79.75
515.29	94.75
515.506	87.75
515.721	70.75
515.937	93.75
516.153	98.75
516.369	85.75
516.585	79.75
516.801	83.75
517.016	94.75
517.232	84.75
517.448	81.75
517.664	84.75
517.879	77.75
518.095	88.75
518.311	80.75
518.527	93.75
518.742	91.75
518.958	89.75
519.173	85.75
519.389	80.75
519.605	92.75
519.82	82.75
