Data from 1600_3_HRD10591_00018.txt Node
Date: Mon Jan 19 13:55:02 EST 2026
User: Yrep
Spectrometer: HR+D1059
Trigger mode: 1
Integration Time (sec): 1.000000E-1
Scans to average: 1
Electric dark correction enabled: true
Nonlinearity correction enabled: false
Boxcar width: 0
XAxis mode: Wavelengths
Number of Pixels in Spectrum: 2048
>>>>>Begin Spectral Data<<<<<
223.165	-14.12
223.4	-14.12
223.635	-14.12
223.869	-6.12
224.104	-11.12
224.338	-15.12
224.573	-28.12
224.808	-14.12
225.042	-8.12
225.277	-9.12
225.511	0.88
225.746	10.88
225.98	-3.12
226.215	25.88
226.449	9.88
226.683	20.88
226.918	18.88
227.152	21.88
227.387	39.88
227.621	55.88
227.856	43.88
228.09	57.88
228.324	55.88
228.559	56.88
228.793	59.88
229.027	56.88
229.262	54.88
229.496	76.88
229.73	79.88
229.964	76.88
230.199	57.88
230.433	63.88
230.667	82.88
230.901	70.88
231.136	74.88
231.37	71.88
231.604	84.88
231.838	81.88
232.072	85.88
232.306	90.88
232.541	84.88
232.775	89.88
233.009	67.88
233.243	94.88
233.477	78.88
233.711	91.88
233.945	85.88
234.179	67.88
234.413	90.88
234.647	89.88
234.881	71.88
235.115	72.88
235.349	72.88
235.583	86.88
235.817	94.88
236.051	87.88
236.285	77.88
236.519	65.88
236.753	87.88
236.987	88.88
237.221	84.88
237.455	65.88
237.689	82.88
237.922	85.88
238.156	72.88
238.39	69.88
238.624	81.88
238.858	83.88
239.091	81.88
239.325	79.88
239.559	74.88
239.793	87.88
240.027	83.88
240.26	84.88
240.494	75.88
240.728	61.88
240.961	72.88
241.195	70.88
241.429	70.88
241.662	71.88
241.896	69.88
242.13	81.88
242.363	72.88
242.597	65.88
242.83	74.88
243.064	83.88
243.298	77.88
243.531	88.88
243.765	91.88
243.998	82.88
244.232	90.88
244.465	78.88
244.699	88.88
244.932	80.88
245.166	73.88
245.399	85.88
245.633	96.88
245.866	74.88
246.099	84.88
246.333	80.88
246.566	69.88
246.8	82.88
247.033	86.88
247.266	79.88
247.5	73.88
247.733	75.88
247.966	88.88
248.2	70.88
248.433	66.88
248.666	74.88
248.899	84.88
249.133	72.88
249.366	87.88
249.599	74.88
249.832	68.88
250.066	81.88
250.299	70.88
250.532	83.88
250.765	77.88
250.998	66.88
251.231	84.88
251.465	87.88
251.698	79.88
251.931	74.88
252.164	80.88
252.397	76.88
252.63	81.88
252.863	95.88
253.096	77.88
253.329	80.88
253.562	87.88
253.795	65.88
254.028	81.88
254.261	92.88
254.494	93.88
254.727	89.88
254.96	78.88
255.193	84.88
255.426	80.88
255.659	83.88
255.892	85.88
256.124	80.88
256.357	83.88
256.59	68.88
256.823	69.88
257.056	72.88
257.289	75.88
257.521	82.88
257.754	73.88
257.987	85.88
258.22	75.88
258.452	72.88
258.685	92.88
258.918	73.88
259.151	89.88
259.383	74.88
259.616	88.88
259.849	75.88
260.081	67.88
260.314	71.88
260.547	86.88
260.779	89.88
261.012	68.88
261.244	69.88
261.477	75.88
261.71	87.88
261.942	96.88
262.175	82.88
262.407	94.88
262.64	73.88
262.872	87.88
263.105	91.88
263.337	77.88
263.57	79.88
263.802	82.88
264.035	74.88
264.267	96.88
264.499	82.88
264.732	71.88
264.964	86.88
265.197	94.88
265.429	86.88
265.661	86.88
265.894	82.88
266.126	85.88
266.358	80.88
266.591	89.88
266.823	91.88
267.055	76.88
267.287	87.88
267.52	92.88
267.752	86.88
267.984	81.88
268.216	102.88
268.448	89.88
268.681	73.88
268.913	86.88
269.145	81.88
269.377	91.88
269.609	82.88
269.841	74.88
270.073	78.88
270.306	86.88
270.538	70.88
270.77	76.88
271.002	79.88
271.234	95.88
271.466	93.88
271.698	82.88
271.93	79.88
272.162	82.88
272.394	89.88
272.626	78.88
272.858	80.88
273.09	70.88
273.322	79.88
273.553	76.88
273.785	77.88
274.017	75.88
274.249	72.88
274.481	81.88
274.713	70.88
274.945	80.88
275.176	77.88
275.408	91.88
275.64	95.88
275.872	80.88
276.104	83.88
276.335	90.88
276.567	82.88
276.799	83.88
277.031	93.88
277.262	88.88
277.494	69.88
277.726	77.88
277.957	81.88
278.189	86.88
278.421	81.88
278.652	79.88
278.884	81.88
279.115	85.88
279.347	95.88
279.579	81.88
279.81	79.88
280.042	95.88
280.273	85.88
280.505	91.88
280.736	89.88
280.968	94.88
281.199	88.88
281.431	90.88
281.662	81.88
281.894	75.88
282.125	87.88
282.356	98.88
282.588	78.88
282.819	85.88
283.051	82.88
283.282	87.88
283.513	82.88
283.745	82.88
283.976	76.88
284.207	73.88
284.439	76.88
284.67	94.88
284.901	89.88
285.132	84.88
285.364	77.88
285.595	87.88
285.826	94.88
286.057	82.88
286.288	82.88
286.52	84.88
286.751	97.88
286.982	96.88
287.213	86.88
287.444	97.88
287.675	82.88
287.906	91.88
288.138	96.88
288.369	89.88
288.6	70.88
288.831	82.88
289.062	91.88
289.293	75.88
289.524	89.88
289.755	81.88
289.986	94.88
290.217	87.88
290.448	76.88
290.679	90.88
290.91	95.88
291.141	85.88
291.371	84.88
291.602	82.88
291.833	93.88
292.064	81.88
292.295	95.88
292.526	82.88
292.757	89.88
292.987	94.88
293.218	89.88
293.449	70.88
293.68	78.88
293.91	89.88
294.141	94.88
294.372	89.88
294.603	98.88
294.833	83.88
295.064	84.88
295.295	81.88
295.525	79.88
295.756	91.88
295.987	95.88
296.217	85.88
296.448	89.88
296.679	73.88
296.909	91.88
297.14	84.88
297.37	74.88
297.601	91.88
297.831	91.88
298.062	82.88
298.292	101.88
298.523	86.88
298.753	83.88
298.984	81.88
299.214	87.88
299.445	79.88
299.675	91.88
299.905	97.88
300.136	98.88
300.366	86.88
300.597	97.88
300.827	84.88
301.057	86.88
301.288	90.88
301.518	90.88
301.748	80.88
301.979	99.88
302.209	79.88
302.439	80.88
302.669	89.88
302.9	93.88
303.13	79.88
303.36	83.88
303.59	90.88
303.82	97.88
304.051	77.88
304.281	79.88
304.511	92.88
304.741	79.88
304.971	82.88
305.201	81.88
305.431	75.88
305.661	86.88
305.891	87.88
306.121	92.88
306.352	77.88
306.582	83.88
306.812	94.88
307.042	83.88
307.272	83.88
307.502	94.88
307.731	93.88
307.961	81.88
308.191	76.88
308.421	79.88
308.651	89.88
308.881	79.88
309.111	72.88
309.341	81.88
309.571	79.88
309.8	75.88
310.03	87.88
310.26	83.88
310.49	76.88
310.72	90.88
310.949	91.88
311.179	85.88
311.409	89.88
311.639	90.88
311.868	78.88
312.098	86.88
312.328	95.88
312.557	98.88
312.787	87.88
313.017	103.88
313.246	92.88
313.476	102.88
313.706	84.88
313.935	89.88
314.165	93.88
314.394	97.88
314.624	76.88
314.853	84.88
315.083	84.88
315.312	72.88
315.542	98.88
315.771	81.88
316.001	86.88
316.23	73.88
316.46	75.88
316.689	83.88
316.919	83.88
317.148	98.88
317.377	88.88
317.607	95.88
317.836	85.88
318.065	81.88
318.295	89.88
318.524	96.88
318.753	84.88
318.983	87.88
319.212	90.88
319.441	94.88
319.67	89.88
319.9	81.88
320.129	77.88
320.358	85.88
320.587	88.88
320.816	90.88
321.046	91.88
321.275	82.88
321.504	65.88
321.733	99.88
321.962	74.88
322.191	96.88
322.42	84.88
322.649	86.88
322.878	68.88
323.108	82.88
323.337	86.88
323.566	83.88
323.795	99.88
324.024	85.88
324.253	80.88
324.482	89.88
324.71	93.88
324.939	91.88
325.168	83.88
325.397	82.88
325.626	78.88
325.855	100.88
326.084	95.88
326.313	91.88
326.542	80.88
326.77	95.88
326.999	84.88
327.228	99.88
327.457	73.88
327.686	79.88
327.914	85.88
328.143	79.88
328.372	80.88
328.6	87.88
328.829	88.88
329.058	85.88
329.287	80.88
329.515	78.88
329.744	93.88
329.972	89.88
330.201	82.88
330.43	79.88
330.658	95.88
330.887	82.88
331.115	94.88
331.344	89.88
331.572	98.88
331.801	76.88
332.03	96.88
332.258	84.88
332.486	89.88
332.715	99.88
332.943	87.88
333.172	89.88
333.4	88.88
333.629	81.88
333.857	71.88
334.085	97.88
334.314	87.88
334.542	81.88
334.771	82.88
334.999	84.88
335.227	79.88
335.455	91.88
335.684	89.88
335.912	98.88
336.14	86.88
336.369	72.88
336.597	87.88
336.825	91.88
337.053	79.88
337.281	93.88
337.51	76.88
337.738	76.88
337.966	83.88
338.194	63.88
338.422	78.88
338.65	85.88
338.878	93.88
339.106	90.88
339.334	93.88
339.562	82.88
339.79	88.88
340.018	84.88
340.246	80.88
340.474	79.88
340.702	92.88
340.93	90.88
341.158	90.88
341.386	93.88
341.614	88.88
341.842	78.88
342.07	89.88
342.298	83.88
342.526	86.88
342.754	71.88
342.981	98.88
343.209	82.88
343.437	99.88
343.665	76.88
343.893	81.88
344.12	89.88
344.348	95.88
344.576	89.88
344.804	98.88
345.031	76.88
345.259	81.88
345.487	85.88
345.714	78.88
345.942	89.88
346.17	63.88
346.397	83.88
346.625	75.88
346.853	74.88
347.08	84.88
347.308	86.88
347.535	86.88
347.763	86.88
347.99	80.88
348.218	97.88
348.445	74.88
348.673	89.88
348.9	82.88
349.128	89.88
349.355	82.88
349.583	86.88
349.81	97.88
350.037	74.88
350.265	90.88
350.492	85.88
350.72	76.88
350.947	89.88
351.174	80.88
351.402	86.88
351.629	87.88
351.856	94.88
352.083	93.88
352.311	94.88
352.538	84.88
352.765	81.88
352.992	89.88
353.22	89.88
353.447	81.88
353.674	85.88
353.901	83.88
354.128	77.88
354.355	76.88
354.583	76.88
354.81	99.88
355.037	102.88
355.264	91.88
355.491	75.88
355.718	91.88
355.945	91.88
356.172	78.88
356.399	83.88
356.626	81.88
356.853	88.88
357.08	91.88
357.307	73.88
357.534	87.88
357.761	81.88
357.988	79.88
358.215	82.88
358.441	90.88
358.668	86.88
358.895	94.88
359.122	91.88
359.349	90.88
359.576	82.88
359.802	80.88
360.029	88.88
360.256	86.88
360.483	82.88
360.709	89.88
360.936	78.88
361.163	91.88
361.39	77.88
361.616	93.88
361.843	73.88
362.07	82.88
362.296	90.88
362.523	77.88
362.749	88.88
362.976	80.88
363.203	91.88
363.429	73.88
363.656	86.88
363.882	75.88
364.109	98.88
364.335	99.88
364.562	83.88
364.788	77.88
365.015	79.88
365.241	73.88
365.468	86.88
365.694	84.88
365.92	83.88
366.147	90.88
366.373	72.88
366.599	88.88
366.826	82.88
367.052	81.88
367.278	90.88
367.505	89.88
367.731	96.88
367.957	87.88
368.184	80.88
368.41	89.88
368.636	79.88
368.862	75.88
369.089	81.88
369.315	83.88
369.541	91.88
369.767	90.88
369.993	79.88
370.219	75.88
370.445	80.88
370.672	79.88
370.898	81.88
371.124	87.88
371.35	87.88
371.576	91.88
371.802	93.88
372.028	93.88
372.254	91.88
372.48	79.88
372.706	87.88
372.932	90.88
373.158	96.88
373.384	72.88
373.61	97.88
373.835	93.88
374.061	76.88
374.287	99.88
374.513	90.88
374.739	81.88
374.965	101.88
375.191	95.88
375.416	91.88
375.642	73.88
375.868	85.88
376.094	89.88
376.319	88.88
376.545	78.88
376.771	77.88
376.997	88.88
377.222	102.88
377.448	86.88
377.674	70.88
377.899	89.88
378.125	81.88
378.35	72.88
378.576	85.88
378.802	83.88
379.027	79.88
379.253	99.88
379.478	85.88
379.704	81.88
379.929	73.88
380.155	86.88
380.38	74.88
380.606	94.88
380.831	75.88
381.057	89.88
381.282	79.88
381.507	86.88
381.733	97.88
381.958	65.88
382.184	67.88
382.409	90.88
382.634	102.88
382.86	87.88
383.085	82.88
383.31	98.88
383.535	97.88
383.761	72.88
383.986	95.88
384.211	93.88
384.436	84.88
384.662	105.88
384.887	90.88
385.112	88.88
385.337	89.88
385.562	82.88
385.787	80.88
386.013	81.88
386.238	86.88
386.463	88.88
386.688	90.88
386.913	90.88
387.138	85.88
387.363	97.88
387.588	82.88
387.813	77.88
388.038	73.88
388.263	85.88
388.488	86.88
388.713	88.88
388.938	78.88
389.163	79.88
389.387	94.88
389.612	79.88
389.837	87.88
390.062	83.88
390.287	74.88
390.512	83.88
390.736	94.88
390.961	94.88
391.186	75.88
391.411	88.88
391.636	90.88
391.86	95.88
392.085	89.88
392.31	71.88
392.534	91.88
392.759	78.88
392.984	98.88
393.208	93.88
393.433	101.88
393.658	106.88
393.882	93.88
394.107	69.88
394.331	88.88
394.556	85.88
394.78	90.88
395.005	74.88
395.229	86.88
395.454	83.88
395.678	93.88
395.903	93.88
396.127	90.88
396.352	103.88
396.576	93.88
396.801	108.88
397.025	97.88
397.249	88.88
397.474	102.88
397.698	85.88
397.922	80.88
398.147	85.88
398.371	72.88
398.595	89.88
398.82	90.88
399.044	74.88
399.268	82.88
399.492	97.88
399.717	102.88
399.941	79.88
400.165	81.88
400.389	82.88
400.613	94.88
400.837	94.88
401.062	96.88
401.286	86.88
401.51	82.88
401.734	89.88
401.958	86.88
402.182	93.88
402.406	92.88
402.63	81.88
402.854	68.88
403.078	86.88
403.302	76.88
403.526	88.88
403.75	90.88
403.974	94.88
404.198	83.88
404.422	70.88
404.645	88.88
404.869	79.88
405.093	88.88
405.317	86.88
405.541	95.88
405.765	93.88
405.988	98.88
406.212	71.88
406.436	83.88
406.66	76.88
406.883	85.88
407.107	81.88
407.331	89.88
407.555	91.88
407.778	78.88
408.002	89.88
408.226	75.88
408.449	79.88
408.673	93.88
408.896	74.88
409.12	89.88
409.344	70.88
409.567	81.88
409.791	75.88
410.014	87.88
410.238	93.88
410.461	87.88
410.685	88.88
410.908	62.88
411.132	90.88
411.355	73.88
411.578	84.88
411.802	85.88
412.025	85.88
412.249	75.88
412.472	65.88
412.695	75.88
412.919	80.88
413.142	75.88
413.365	74.88
413.589	76.88
413.812	85.88
414.035	85.88
414.258	77.88
414.482	80.88
414.705	86.88
414.928	83.88
415.151	66.88
415.374	93.88
415.597	74.88
415.821	77.88
416.044	88.88
416.267	91.88
416.49	75.88
416.713	69.88
416.936	98.88
417.159	79.88
417.382	83.88
417.605	82.88
417.828	74.88
418.051	89.88
418.274	84.88
418.497	65.88
418.72	86.88
418.943	95.88
419.166	81.88
419.389	90.88
419.611	93.88
419.834	74.88
420.057	85.88
420.28	89.88
420.503	79.88
420.726	74.88
420.948	90.88
421.171	93.88
421.394	93.88
421.617	95.88
421.839	81.88
422.062	90.88
422.285	81.88
422.507	89.88
422.73	110.88
422.953	100.88
423.175	87.88
423.398	104.88
423.621	93.88
423.843	69.88
424.066	71.88
424.288	82.88
424.511	89.88
424.733	98.88
424.956	75.88
425.178	81.88
425.401	84.88
425.623	89.88
425.846	82.88
426.068	101.88
426.291	83.88
426.513	72.88
426.735	91.88
426.958	90.88
427.18	101.88
427.402	84.88
427.625	89.88
427.847	74.88
428.069	70.88
428.292	91.88
428.514	94.88
428.736	77.88
428.958	93.88
429.181	82.88
429.403	91.88
429.625	94.88
429.847	85.88
430.069	97.88
430.292	95.88
430.514	80.88
430.736	85.88
430.958	85.88
431.18	81.88
431.402	86.88
431.624	74.88
431.846	89.88
432.068	75.88
432.29	89.88
432.512	90.88
432.734	82.88
432.956	83.88
433.178	82.88
433.4	93.88
433.622	91.88
433.844	97.88
434.066	82.88
434.287	84.88
434.509	80.88
434.731	82.88
434.953	87.88
435.175	82.88
435.397	77.88
435.618	81.88
435.84	89.88
436.062	81.88
436.284	69.88
436.505	81.88
436.727	91.88
436.949	84.88
437.17	84.88
437.392	86.88
437.614	91.88
437.835	83.88
438.057	73.88
438.278	84.88
438.5	81.88
438.721	79.88
438.943	77.88
439.165	84.88
439.386	81.88
439.608	90.88
439.829	95.88
440.05	82.88
440.272	77.88
440.493	74.88
440.715	89.88
440.936	92.88
441.158	67.88
441.379	77.88
441.6	83.88
441.822	85.88
442.043	71.88
442.264	85.88
442.486	84.88
442.707	86.88
442.928	79.88
443.149	84.88
443.371	81.88
443.592	84.88
443.813	94.88
444.034	89.88
444.255	101.88
444.476	94.88
444.698	85.88
444.919	74.88
445.14	135.88
445.361	115.88
445.582	93.88
445.803	90.88
446.024	95.88
446.245	59.88
446.466	90.88
446.687	87.88
446.908	67.88
447.129	85.88
447.35	73.88
447.571	87.88
447.792	81.88
448.013	71.88
448.234	79.88
448.455	79.88
448.675	91.88
448.896	69.88
449.117	91.88
449.338	83.88
449.559	80.88
449.779	72.88
450	87.88
450.221	70.88
450.442	86.88
450.662	82.88
450.883	85.88
451.104	77.88
451.324	83.88
451.545	71.88
451.766	72.88
451.986	84.88
452.207	66.88
452.428	89.88
452.648	92.88
452.869	73.88
453.089	89.88
453.31	90.88
453.53	71.88
453.751	95.88
453.971	96.88
454.192	81.88
454.412	83.88
454.633	72.88
454.853	74.88
455.073	95.88
455.294	87.88
455.514	87.88
455.734	91.88
455.955	84.88
456.175	89.88
456.395	85.88
456.616	74.88
456.836	79.88
457.056	91.88
457.276	95.88
457.497	76.88
457.717	90.88
457.937	94.88
458.157	81.88
458.377	79.88
458.598	85.88
458.818	73.88
459.038	79.88
459.258	88.88
459.478	79.88
459.698	81.88
459.918	91.88
460.138	77.88
460.358	82.88
460.578	83.88
460.798	93.88
461.018	90.88
461.238	72.88
461.458	86.88
461.678	81.88
461.898	89.88
462.118	85.88
462.338	88.88
462.558	81.88
462.777	91.88
462.997	84.88
463.217	74.88
463.437	90.88
463.657	85.88
463.876	84.88
464.096	71.88
464.316	83.88
464.536	72.88
464.755	85.88
464.975	87.88
465.195	86.88
465.414	76.88
465.634	76.88
465.854	84.88
466.073	88.88
466.293	89.88
466.512	90.88
466.732	83.88
466.951	91.88
467.171	76.88
467.391	94.88
467.61	94.88
467.829	84.88
468.049	71.88
468.268	88.88
468.488	85.88
468.707	69.88
468.927	70.88
469.146	79.88
469.365	89.88
469.585	83.88
469.804	73.88
470.023	66.88
470.243	90.88
470.462	101.88
470.681	73.88
470.901	93.88
471.12	86.88
471.339	79.88
471.558	82.88
471.777	74.88
471.997	81.88
472.216	71.88
472.435	77.88
472.654	81.88
472.873	84.88
473.092	83.88
473.311	84.88
473.53	85.88
473.749	84.88
473.968	88.88
474.187	95.88
474.406	81.88
474.625	82.88
474.844	92.88
475.063	77.88
475.282	86.88
475.501	83.88
475.72	74.88
475.939	74.88
476.158	86.88
476.377	77.88
476.596	87.88
476.814	78.88
477.033	86.88
477.252	96.88
477.471	76.88
477.69	69.88
477.908	90.88
478.127	84.88
478.346	88.88
478.564	84.88
478.783	92.88
479.002	77.88
479.22	84.88
479.439	83.88
479.658	80.88
479.876	86.88
480.095	76.88
480.313	96.88
480.532	81.88
480.751	95.88
480.969	93.88
481.188	81.88
481.406	92.88
481.624	79.88
481.843	75.88
482.061	80.88
482.28	82.88
482.498	94.88
482.717	77.88
482.935	85.88
483.153	84.88
483.372	89.88
483.59	87.88
483.808	79.88
484.027	80.88
484.245	76.88
484.463	85.88
484.681	90.88
484.9	85.88
485.118	83.88
485.336	84.88
485.554	87.88
485.772	93.88
485.99	95.88
486.209	98.88
486.427	82.88
486.645	82.88
486.863	82.88
487.081	77.88
487.299	77.88
487.517	76.88
487.735	81.88
487.953	79.88
488.171	85.88
488.389	91.88
488.607	78.88
488.825	75.88
489.043	82.88
489.261	75.88
489.479	97.88
489.696	85.88
489.914	82.88
490.132	83.88
490.35	83.88
490.568	83.88
490.786	86.88
491.003	83.88
491.221	85.88
491.439	79.88
491.657	88.88
491.874	89.88
492.092	89.88
492.31	82.88
492.527	78.88
492.745	92.88
492.963	89.88
493.18	86.88
493.398	80.88
493.615	73.88
493.833	96.88
494.05	81.88
494.268	81.88
494.485	74.88
494.703	90.88
494.92	71.88
495.138	82.88
495.355	87.88
495.573	87.88
495.79	106.88
496.008	90.88
496.225	87.88
496.442	83.88
496.66	84.88
496.877	95.88
497.094	91.88
497.312	94.88
497.529	95.88
497.746	100.88
497.963	69.88
498.181	93.88
498.398	91.88
498.615	81.88
498.832	71.88
499.049	91.88
499.267	93.88
499.484	88.88
499.701	99.88
499.918	87.88
500.135	96.88
500.352	93.88
500.569	89.88
500.786	96.88
501.003	92.88
501.22	97.88
501.437	106.88
501.654	87.88
501.871	74.88
502.088	105.88
502.305	88.88
502.522	87.88
502.739	82.88
502.956	84.88
503.172	84.88
503.389	87.88
503.606	84.88
503.823	73.88
504.04	104.88
504.256	87.88
504.473	78.88
504.69	96.88
504.907	87.88
505.123	75.88
505.34	80.88
505.557	70.88
505.773	83.88
505.99	95.88
506.207	72.88
506.423	95.88
506.64	85.88
506.856	79.88
507.073	81.88
507.289	73.88
507.506	88.88
507.722	90.88
507.939	73.88
508.155	78.88
508.372	87.88
508.588	82.88
508.805	87.88
509.021	89.88
509.238	81.88
509.454	104.88
509.67	72.88
509.887	74.88
510.103	97.88
510.319	77.88
510.536	76.88
510.752	85.88
510.968	88.88
511.184	81.88
511.401	84.88
511.617	89.88
511.833	84.88
512.049	74.88
512.265	80.88
512.481	88.88
512.698	81.88
512.914	97.88
513.13	81.88
513.346	73.88
513.562	81.88
513.778	84.88
513.994	83.88
514.21	91.88
514.426	91.88
514.642	78.88
514.858	87.88
515.074	90.88
515.29	97.88
515.506	81.88
515.721	85.88
515.937	94.88
516.153	94.88
516.369	85.88
516.585	75.88
516.801	75.88
517.016	89.88
517.232	96.88
517.448	84.88
517.664	78.88
517.879	82.88
518.095	90.88
518.311	73.88
518.527	89.88
518.742	86.88
518.958	94.88
519.173	83.88
519.389	83.88
519.605	76.88
519.82	77.88
