Data from 1600_3_HRD10591_00015.txt Node
Date: Mon Jan 19 13:55:00 EST 2026
User: Yrep
Spectrometer: HR+D1059
Trigger mode: 1
Integration Time (sec): 1.000000E-1
Scans to average: 1
Electric dark correction enabled: true
Nonlinearity correction enabled: false
Boxcar width: 0
XAxis mode: Wavelengths
Number of Pixels in Spectrum: 2048
>>>>>Begin Spectral Data<<<<<
223.165	-13.62
223.4	-13.62
223.635	-13.62
223.869	-26.62
224.104	-17.62
224.338	-15.62
224.573	-3.62
224.808	-11.62
225.042	-4.62
225.277	-1.62
225.511	-12.62
225.746	14.38
225.98	0.38
226.215	12.38
226.449	20.38
226.683	22.38
226.918	20.38
227.152	17.38
227.387	36.38
227.621	33.38
227.856	44.38
228.09	43.38
228.324	35.38
228.559	58.38
228.793	49.38
229.027	66.38
229.262	55.38
229.496	59.38
229.73	58.38
229.964	64.38
230.199	86.38
230.433	79.38
230.667	68.38
230.901	73.38
231.136	69.38
231.37	74.38
231.604	66.38
231.838	87.38
232.072	73.38
232.306	71.38
232.541	76.38
232.775	80.38
233.009	82.38
233.243	85.38
233.477	86.38
233.711	77.38
233.945	94.38
234.179	72.38
234.413	83.38
234.647	72.38
234.881	77.38
235.115	74.38
235.349	81.38
235.583	67.38
235.817	70.38
236.051	77.38
236.285	80.38
236.519	63.38
236.753	84.38
236.987	79.38
237.221	84.38
237.455	76.38
237.689	68.38
237.922	84.38
238.156	59.38
238.39	74.38
238.624	71.38
238.858	79.38
239.091	62.38
239.325	61.38
239.559	69.38
239.793	63.38
240.027	78.38
240.26	90.38
240.494	75.38
240.728	66.38
240.961	71.38
241.195	66.38
241.429	68.38
241.662	64.38
241.896	81.38
242.13	67.38
242.363	78.38
242.597	78.38
242.83	70.38
243.064	66.38
243.298	77.38
243.531	70.38
243.765	61.38
243.998	62.38
244.232	76.38
244.465	77.38
244.699	85.38
244.932	72.38
245.166	71.38
245.399	75.38
245.633	65.38
245.866	90.38
246.099	88.38
246.333	68.38
246.566	71.38
246.8	63.38
247.033	74.38
247.266	78.38
247.5	81.38
247.733	75.38
247.966	68.38
248.2	88.38
248.433	81.38
248.666	82.38
248.899	69.38
249.133	78.38
249.366	80.38
249.599	77.38
249.832	75.38
250.066	84.38
250.299	76.38
250.532	74.38
250.765	68.38
250.998	70.38
251.231	80.38
251.465	74.38
251.698	84.38
251.931	79.38
252.164	79.38
252.397	76.38
252.63	68.38
252.863	71.38
253.096	73.38
253.329	63.38
253.562	81.38
253.795	68.38
254.028	80.38
254.261	80.38
254.494	82.38
254.727	73.38
254.96	78.38
255.193	63.38
255.426	87.38
255.659	80.38
255.892	69.38
256.124	68.38
256.357	79.38
256.59	68.38
256.823	69.38
257.056	85.38
257.289	75.38
257.521	74.38
257.754	88.38
257.987	84.38
258.22	78.38
258.452	74.38
258.685	82.38
258.918	74.38
259.151	75.38
259.383	80.38
259.616	74.38
259.849	70.38
260.081	84.38
260.314	80.38
260.547	76.38
260.779	70.38
261.012	81.38
261.244	71.38
261.477	83.38
261.71	63.38
261.942	91.38
262.175	98.38
262.407	82.38
262.64	74.38
262.872	68.38
263.105	78.38
263.337	78.38
263.57	67.38
263.802	87.38
264.035	75.38
264.267	89.38
264.499	78.38
264.732	66.38
264.964	84.38
265.197	74.38
265.429	89.38
265.661	70.38
265.894	75.38
266.126	84.38
266.358	79.38
266.591	76.38
266.823	75.38
267.055	71.38
267.287	77.38
267.52	62.38
267.752	85.38
267.984	83.38
268.216	76.38
268.448	74.38
268.681	77.38
268.913	75.38
269.145	92.38
269.377	76.38
269.609	92.38
269.841	67.38
270.073	77.38
270.306	75.38
270.538	64.38
270.77	72.38
271.002	72.38
271.234	78.38
271.466	74.38
271.698	83.38
271.93	73.38
272.162	78.38
272.394	93.38
272.626	82.38
272.858	69.38
273.09	82.38
273.322	76.38
273.553	83.38
273.785	84.38
274.017	73.38
274.249	76.38
274.481	88.38
274.713	65.38
274.945	79.38
275.176	92.38
275.408	76.38
275.64	65.38
275.872	83.38
276.104	77.38
276.335	85.38
276.567	76.38
276.799	86.38
277.031	77.38
277.262	80.38
277.494	83.38
277.726	89.38
277.957	83.38
278.189	82.38
278.421	94.38
278.652	75.38
278.884	73.38
279.115	90.38
279.347	84.38
279.579	97.38
279.81	87.38
280.042	92.38
280.273	74.38
280.505	74.38
280.736	72.38
280.968	76.38
281.199	96.38
281.431	73.38
281.662	77.38
281.894	70.38
282.125	93.38
282.356	71.38
282.588	78.38
282.819	79.38
283.051	77.38
283.282	76.38
283.513	89.38
283.745	78.38
283.976	89.38
284.207	79.38
284.439	74.38
284.67	84.38
284.901	82.38
285.132	90.38
285.364	98.38
285.595	88.38
285.826	80.38
286.057	77.38
286.288	80.38
286.52	76.38
286.751	89.38
286.982	80.38
287.213	78.38
287.444	88.38
287.675	84.38
287.906	82.38
288.138	96.38
288.369	87.38
288.6	78.38
288.831	80.38
289.062	99.38
289.293	77.38
289.524	82.38
289.755	80.38
289.986	76.38
290.217	88.38
290.448	84.38
290.679	84.38
290.91	98.38
291.141	81.38
291.371	86.38
291.602	90.38
291.833	83.38
292.064	71.38
292.295	86.38
292.526	66.38
292.757	71.38
292.987	88.38
293.218	81.38
293.449	76.38
293.68	98.38
293.91	86.38
294.141	77.38
294.372	79.38
294.603	87.38
294.833	87.38
295.064	77.38
295.295	94.38
295.525	98.38
295.756	84.38
295.987	81.38
296.217	94.38
296.448	77.38
296.679	94.38
296.909	92.38
297.14	76.38
297.37	75.38
297.601	61.38
297.831	90.38
298.062	76.38
298.292	85.38
298.523	95.38
298.753	84.38
298.984	86.38
299.214	68.38
299.445	81.38
299.675	76.38
299.905	85.38
300.136	93.38
300.366	81.38
300.597	78.38
300.827	91.38
301.057	85.38
301.288	96.38
301.518	77.38
301.748	86.38
301.979	98.38
302.209	90.38
302.439	70.38
302.669	84.38
302.9	78.38
303.13	94.38
303.36	85.38
303.59	76.38
303.82	84.38
304.051	92.38
304.281	69.38
304.511	90.38
304.741	83.38
304.971	89.38
305.201	82.38
305.431	82.38
305.661	63.38
305.891	66.38
306.121	82.38
306.352	81.38
306.582	77.38
306.812	89.38
307.042	84.38
307.272	75.38
307.502	91.38
307.731	95.38
307.961	74.38
308.191	68.38
308.421	84.38
308.651	76.38
308.881	99.38
309.111	90.38
309.341	84.38
309.571	109.38
309.8	93.38
310.03	89.38
310.26	95.38
310.49	79.38
310.72	77.38
310.949	76.38
311.179	86.38
311.409	78.38
311.639	75.38
311.868	74.38
312.098	84.38
312.328	88.38
312.557	73.38
312.787	81.38
313.017	88.38
313.246	84.38
313.476	92.38
313.706	79.38
313.935	81.38
314.165	87.38
314.394	80.38
314.624	85.38
314.853	87.38
315.083	90.38
315.312	80.38
315.542	98.38
315.771	82.38
316.001	92.38
316.23	94.38
316.46	85.38
316.689	70.38
316.919	67.38
317.148	81.38
317.377	70.38
317.607	80.38
317.836	99.38
318.065	95.38
318.295	95.38
318.524	83.38
318.753	73.38
318.983	83.38
319.212	86.38
319.441	86.38
319.67	70.38
319.9	85.38
320.129	86.38
320.358	85.38
320.587	90.38
320.816	98.38
321.046	68.38
321.275	91.38
321.504	84.38
321.733	85.38
321.962	62.38
322.191	82.38
322.42	98.38
322.649	78.38
322.878	99.38
323.108	92.38
323.337	83.38
323.566	74.38
323.795	80.38
324.024	71.38
324.253	76.38
324.482	98.38
324.71	67.38
324.939	96.38
325.168	88.38
325.397	91.38
325.626	95.38
325.855	98.38
326.084	88.38
326.313	95.38
326.542	73.38
326.77	86.38
326.999	81.38
327.228	74.38
327.457	83.38
327.686	74.38
327.914	84.38
328.143	90.38
328.372	89.38
328.6	77.38
328.829	81.38
329.058	62.38
329.287	84.38
329.515	85.38
329.744	87.38
329.972	75.38
330.201	96.38
330.43	76.38
330.658	94.38
330.887	74.38
331.115	78.38
331.344	94.38
331.572	89.38
331.801	73.38
332.03	94.38
332.258	72.38
332.486	74.38
332.715	80.38
332.943	78.38
333.172	91.38
333.4	76.38
333.629	88.38
333.857	73.38
334.085	76.38
334.314	92.38
334.542	79.38
334.771	97.38
334.999	84.38
335.227	88.38
335.455	94.38
335.684	90.38
335.912	78.38
336.14	98.38
336.369	75.38
336.597	76.38
336.825	74.38
337.053	86.38
337.281	86.38
337.51	98.38
337.738	93.38
337.966	79.38
338.194	98.38
338.422	90.38
338.65	71.38
338.878	76.38
339.106	81.38
339.334	89.38
339.562	84.38
339.79	85.38
340.018	80.38
340.246	78.38
340.474	90.38
340.702	79.38
340.93	87.38
341.158	75.38
341.386	83.38
341.614	72.38
341.842	96.38
342.07	82.38
342.298	78.38
342.526	80.38
342.754	78.38
342.981	84.38
343.209	79.38
343.437	96.38
343.665	80.38
343.893	93.38
344.12	83.38
344.348	81.38
344.576	84.38
344.804	71.38
345.031	86.38
345.259	77.38
345.487	95.38
345.714	80.38
345.942	90.38
346.17	89.38
346.397	83.38
346.625	82.38
346.853	83.38
347.08	84.38
347.308	90.38
347.535	93.38
347.763	86.38
347.99	88.38
348.218	89.38
348.445	83.38
348.673	83.38
348.9	92.38
349.128	75.38
349.355	76.38
349.583	65.38
349.81	76.38
350.037	82.38
350.265	67.38
350.492	84.38
350.72	74.38
350.947	86.38
351.174	96.38
351.402	84.38
351.629	74.38
351.856	76.38
352.083	84.38
352.311	86.38
352.538	95.38
352.765	93.38
352.992	91.38
353.22	85.38
353.447	77.38
353.674	83.38
353.901	88.38
354.128	84.38
354.355	72.38
354.583	79.38
354.81	84.38
355.037	90.38
355.264	107.38
355.491	87.38
355.718	81.38
355.945	92.38
356.172	80.38
356.399	91.38
356.626	109.38
356.853	105.38
357.08	90.38
357.307	97.38
357.534	68.38
357.761	99.38
357.988	96.38
358.215	105.38
358.441	99.38
358.668	83.38
358.895	92.38
359.122	88.38
359.349	79.38
359.576	83.38
359.802	78.38
360.029	86.38
360.256	78.38
360.483	87.38
360.709	82.38
360.936	99.38
361.163	80.38
361.39	82.38
361.616	76.38
361.843	84.38
362.07	103.38
362.296	92.38
362.523	96.38
362.749	82.38
362.976	88.38
363.203	90.38
363.429	85.38
363.656	77.38
363.882	80.38
364.109	98.38
364.335	95.38
364.562	101.38
364.788	99.38
365.015	95.38
365.241	88.38
365.468	96.38
365.694	63.38
365.92	70.38
366.147	78.38
366.373	64.38
366.599	88.38
366.826	80.38
367.052	78.38
367.278	84.38
367.505	85.38
367.731	84.38
367.957	75.38
368.184	82.38
368.41	82.38
368.636	78.38
368.862	82.38
369.089	83.38
369.315	93.38
369.541	84.38
369.767	76.38
369.993	85.38
370.219	82.38
370.445	79.38
370.672	82.38
370.898	94.38
371.124	85.38
371.35	85.38
371.576	86.38
371.802	80.38
372.028	100.38
372.254	83.38
372.48	91.38
372.706	90.38
372.932	107.38
373.158	94.38
373.384	96.38
373.61	113.38
373.835	124.38
374.061	94.38
374.287	81.38
374.513	116.38
374.739	96.38
374.965	106.38
375.191	92.38
375.416	95.38
375.642	93.38
375.868	97.38
376.094	98.38
376.319	106.38
376.545	90.38
376.771	95.38
376.997	73.38
377.222	76.38
377.448	82.38
377.674	78.38
377.899	75.38
378.125	82.38
378.35	83.38
378.576	71.38
378.802	88.38
379.027	90.38
379.253	85.38
379.478	80.38
379.704	85.38
379.929	87.38
380.155	91.38
380.38	81.38
380.606	82.38
380.831	83.38
381.057	85.38
381.282	90.38
381.507	96.38
381.733	105.38
381.958	100.38
382.184	104.38
382.409	95.38
382.634	98.38
382.86	109.38
383.085	122.38
383.31	126.38
383.535	128.38
383.761	130.38
383.986	130.38
384.211	104.38
384.436	98.38
384.662	87.38
384.887	91.38
385.112	82.38
385.337	91.38
385.562	90.38
385.787	82.38
386.013	96.38
386.238	105.38
386.463	93.38
386.688	93.38
386.913	86.38
387.138	98.38
387.363	84.38
387.588	92.38
387.813	92.38
388.038	104.38
388.263	104.38
388.488	96.38
388.713	90.38
388.938	105.38
389.163	78.38
389.387	89.38
389.612	91.38
389.837	90.38
390.062	85.38
390.287	91.38
390.512	94.38
390.736	107.38
390.961	77.38
391.186	82.38
391.411	81.38
391.636	82.38
391.86	90.38
392.085	92.38
392.31	93.38
392.534	86.38
392.759	106.38
392.984	140.38
393.208	218.38
393.433	308.38
393.658	242.38
393.882	108.38
394.107	102.38
394.331	109.38
394.556	118.38
394.78	98.38
395.005	84.38
395.229	87.38
395.454	90.38
395.678	104.38
395.903	108.38
396.127	134.38
396.352	169.38
396.576	159.38
396.801	232.38
397.025	247.38
397.249	148.38
397.474	106.38
397.698	100.38
397.922	69.38
398.147	92.38
398.371	93.38
398.595	77.38
398.82	95.38
399.044	88.38
399.268	75.38
399.492	78.38
399.717	97.38
399.941	90.38
400.165	74.38
400.389	84.38
400.613	85.38
400.837	81.38
401.062	80.38
401.286	81.38
401.51	74.38
401.734	85.38
401.958	86.38
402.182	82.38
402.406	73.38
402.63	65.38
402.854	94.38
403.078	82.38
403.302	87.38
403.526	94.38
403.75	89.38
403.974	91.38
404.198	91.38
404.422	95.38
404.645	110.38
404.869	84.38
405.093	89.38
405.317	79.38
405.541	65.38
405.765	80.38
405.988	66.38
406.212	76.38
406.436	87.38
406.66	75.38
406.883	64.38
407.107	85.38
407.331	98.38
407.555	90.38
407.778	86.38
408.002	89.38
408.226	92.38
408.449	93.38
408.673	73.38
408.896	77.38
409.12	79.38
409.344	86.38
409.567	77.38
409.791	83.38
410.014	70.38
410.238	85.38
410.461	80.38
410.685	88.38
410.908	86.38
411.132	89.38
411.355	78.38
411.578	85.38
411.802	80.38
412.025	91.38
412.249	76.38
412.472	95.38
412.695	80.38
412.919	74.38
413.142	80.38
413.365	84.38
413.589	89.38
413.812	96.38
414.035	84.38
414.258	84.38
414.482	88.38
414.705	79.38
414.928	73.38
415.151	72.38
415.374	66.38
415.597	77.38
415.821	76.38
416.044	85.38
416.267	98.38
416.49	78.38
416.713	79.38
416.936	74.38
417.159	75.38
417.382	89.38
417.605	84.38
417.828	80.38
418.051	93.38
418.274	86.38
418.497	80.38
418.72	90.38
418.943	69.38
419.166	64.38
419.389	79.38
419.611	69.38
419.834	96.38
420.057	100.38
420.28	74.38
420.503	80.38
420.726	87.38
420.948	78.38
421.171	87.38
421.394	82.38
421.617	85.38
421.839	83.38
422.062	109.38
422.285	119.38
422.507	189.38
422.73	304.38
422.953	264.38
423.175	116.38
423.398	97.38
423.621	88.38
423.843	85.38
424.066	87.38
424.288	78.38
424.511	86.38
424.733	74.38
424.956	91.38
425.178	87.38
425.401	90.38
425.623	79.38
425.846	90.38
426.068	74.38
426.291	85.38
426.513	74.38
426.735	64.38
426.958	81.38
427.18	96.38
427.402	98.38
427.625	89.38
427.847	90.38
428.069	97.38
428.292	99.38
428.514	114.38
428.736	94.38
428.958	97.38
429.181	111.38
429.403	89.38
429.625	84.38
429.847	95.38
430.069	129.38
430.292	140.38
430.514	126.38
430.736	111.38
430.958	121.38
431.18	89.38
431.402	85.38
431.624	89.38
431.846	105.38
432.068	111.38
432.29	90.38
432.512	88.38
432.734	100.38
432.956	104.38
433.178	75.38
433.4	73.38
433.622	95.38
433.844	101.38
434.066	84.38
434.287	99.38
434.509	83.38
434.731	73.38
434.953	82.38
435.175	78.38
435.397	92.38
435.618	78.38
435.84	68.38
436.062	86.38
436.284	71.38
436.505	86.38
436.727	85.38
436.949	82.38
437.17	86.38
437.392	81.38
437.614	78.38
437.835	76.38
438.057	83.38
438.278	93.38
438.5	98.38
438.721	80.38
438.943	81.38
439.165	83.38
439.386	76.38
439.608	83.38
439.829	84.38
440.05	74.38
440.272	94.38
440.493	95.38
440.715	94.38
440.936	74.38
441.158	84.38
441.379	74.38
441.6	85.38
441.822	76.38
442.043	78.38
442.264	91.38
442.486	91.38
442.707	110.38
442.928	91.38
443.149	88.38
443.371	111.38
443.592	157.38
443.813	146.38
444.034	83.38
444.255	88.38
444.476	78.38
444.698	82.38
444.919	89.38
445.14	156.38
445.361	157.38
445.582	189.38
445.803	153.38
446.024	82.38
446.245	90.38
446.466	83.38
446.687	88.38
446.908	79.38
447.129	66.38
447.35	67.38
447.571	84.38
447.792	71.38
448.013	74.38
448.234	79.38
448.455	76.38
448.675	83.38
448.896	69.38
449.117	71.38
449.338	80.38
449.559	75.38
449.779	88.38
450	90.38
450.221	79.38
450.442	87.38
450.662	84.38
450.883	92.38
451.104	81.38
451.324	77.38
451.545	76.38
451.766	83.38
451.986	88.38
452.207	86.38
452.428	70.38
452.648	88.38
452.869	93.38
453.089	92.38
453.31	86.38
453.53	96.38
453.751	88.38
453.971	80.38
454.192	77.38
454.412	76.38
454.633	77.38
454.853	89.38
455.073	83.38
455.294	78.38
455.514	101.38
455.734	71.38
455.955	72.38
456.175	89.38
456.395	82.38
456.616	89.38
456.836	76.38
457.056	88.38
457.276	97.38
457.497	83.38
457.717	76.38
457.937	101.38
458.157	93.38
458.377	99.38
458.598	86.38
458.818	82.38
459.038	89.38
459.258	80.38
459.478	82.38
459.698	79.38
459.918	69.38
460.138	98.38
460.358	72.38
460.578	95.38
460.798	106.38
461.018	99.38
461.238	82.38
461.458	82.38
461.678	84.38
461.898	94.38
462.118	89.38
462.338	82.38
462.558	79.38
462.777	82.38
462.997	74.38
463.217	84.38
463.437	89.38
463.657	80.38
463.876	77.38
464.096	84.38
464.316	78.38
464.536	84.38
464.755	90.38
464.975	71.38
465.195	78.38
465.414	81.38
465.634	79.38
465.854	86.38
466.073	81.38
466.293	85.38
466.512	86.38
466.732	83.38
466.951	68.38
467.171	74.38
467.391	76.38
467.61	92.38
467.829	81.38
468.049	76.38
468.268	68.38
468.488	84.38
468.707	83.38
468.927	79.38
469.146	98.38
469.365	79.38
469.585	72.38
469.804	105.38
470.023	88.38
470.243	88.38
470.462	93.38
470.681	90.38
470.901	93.38
471.12	94.38
471.339	85.38
471.558	88.38
471.777	62.38
471.997	78.38
472.216	77.38
472.435	81.38
472.654	65.38
472.873	87.38
473.092	89.38
473.311	92.38
473.53	80.38
473.749	76.38
473.968	100.38
474.187	90.38
474.406	80.38
474.625	82.38
474.844	81.38
475.063	94.38
475.282	89.38
475.501	90.38
475.72	73.38
475.939	82.38
476.158	70.38
476.377	85.38
476.596	76.38
476.814	77.38
477.033	83.38
477.252	68.38
477.471	83.38
477.69	96.38
477.908	86.38
478.127	79.38
478.346	76.38
478.564	84.38
478.783	82.38
479.002	77.38
479.22	78.38
479.439	80.38
479.658	72.38
479.876	71.38
480.095	88.38
480.313	94.38
480.532	83.38
480.751	92.38
480.969	87.38
481.188	77.38
481.406	88.38
481.624	88.38
481.843	88.38
482.061	86.38
482.28	98.38
482.498	84.38
482.717	84.38
482.935	70.38
483.153	84.38
483.372	83.38
483.59	87.38
483.808	71.38
484.027	82.38
484.245	85.38
484.463	97.38
484.681	89.38
484.9	101.38
485.118	67.38
485.336	106.38
485.554	82.38
485.772	81.38
485.99	82.38
486.209	91.38
486.427	84.38
486.645	93.38
486.863	94.38
487.081	101.38
487.299	96.38
487.517	88.38
487.735	99.38
487.953	110.38
488.171	108.38
488.389	81.38
488.607	81.38
488.825	90.38
489.043	61.38
489.261	83.38
489.479	84.38
489.696	95.38
489.914	69.38
490.132	88.38
490.35	95.38
490.568	86.38
490.786	74.38
491.003	91.38
491.221	90.38
491.439	98.38
491.657	92.38
491.874	93.38
492.092	102.38
492.31	96.38
492.527	87.38
492.745	91.38
492.963	85.38
493.18	88.38
493.398	91.38
493.615	90.38
493.833	73.38
494.05	93.38
494.268	88.38
494.485	86.38
494.703	72.38
494.92	61.38
495.138	70.38
495.355	72.38
495.573	84.38
495.79	101.38
496.008	99.38
496.225	96.38
496.442	81.38
496.66	90.38
496.877	88.38
497.094	94.38
497.312	79.38
497.529	79.38
497.746	86.38
497.963	91.38
498.181	64.38
498.398	99.38
498.615	88.38
498.832	86.38
499.049	87.38
499.267	86.38
499.484	84.38
499.701	79.38
499.918	89.38
500.135	77.38
500.352	98.38
500.569	84.38
500.786	92.38
501.003	83.38
501.22	79.38
501.437	99.38
501.654	102.38
501.871	89.38
502.088	95.38
502.305	95.38
502.522	82.38
502.739	79.38
502.956	82.38
503.172	90.38
503.389	93.38
503.606	92.38
503.823	89.38
504.04	85.38
504.256	99.38
504.473	96.38
504.69	88.38
504.907	98.38
505.123	98.38
505.34	91.38
505.557	86.38
505.773	86.38
505.99	80.38
506.207	89.38
506.423	85.38
506.64	94.38
506.856	76.38
507.073	89.38
507.289	80.38
507.506	104.38
507.722	83.38
507.939	92.38
508.155	85.38
508.372	89.38
508.588	84.38
508.805	87.38
509.021	91.38
509.238	80.38
509.454	86.38
509.67	91.38
509.887	92.38
510.103	78.38
510.319	90.38
510.536	91.38
510.752	92.38
510.968	84.38
511.184	76.38
511.401	70.38
511.617	79.38
511.833	87.38
512.049	86.38
512.265	82.38
512.481	82.38
512.698	87.38
512.914	97.38
513.13	90.38
513.346	78.38
513.562	100.38
513.778	92.38
513.994	93.38
514.21	88.38
514.426	78.38
514.642	88.38
514.858	77.38
515.074	82.38
515.29	86.38
515.506	81.38
515.721	92.38
515.937	106.38
516.153	92.38
516.369	86.38
516.585	80.38
516.801	95.38
517.016	92.38
517.232	102.38
517.448	117.38
517.664	97.38
517.879	100.38
518.095	83.38
518.311	101.38
518.527	156.38
518.742	114.38
518.958	108.38
