Data from 1600_3_HRD10591_00033.txt Node
Date: Mon Jan 19 13:55:09 EST 2026
User: Yrep
Spectrometer: HR+D1059
Trigger mode: 1
Integration Time (sec): 1.000000E-1
Scans to average: 1
Electric dark correction enabled: true
Nonlinearity correction enabled: false
Boxcar width: 0
XAxis mode: Wavelengths
Number of Pixels in Spectrum: 2048
>>>>>Begin Spectral Data<<<<<
223.165	-24.75
223.4	-24.75
223.635	-24.75
223.869	3.25
224.104	-18.75
224.338	-23.75
224.573	-18.75
224.808	-11.75
225.042	-21.75
225.277	4.25
225.511	9.25
225.746	4.25
225.98	9.25
226.215	4.25
226.449	20.25
226.683	17.25
226.918	22.25
227.152	25.25
227.387	35.25
227.621	52.25
227.856	45.25
228.09	53.25
228.324	57.25
228.559	74.25
228.793	54.25
229.027	75.25
229.262	63.25
229.496	70.25
229.73	79.25
229.964	80.25
230.199	74.25
230.433	82.25
230.667	87.25
230.901	90.25
231.136	83.25
231.37	84.25
231.604	76.25
231.838	84.25
232.072	89.25
232.306	76.25
232.541	88.25
232.775	97.25
233.009	99.25
233.243	90.25
233.477	78.25
233.711	100.25
233.945	88.25
234.179	80.25
234.413	85.25
234.647	93.25
234.881	83.25
235.115	88.25
235.349	89.25
235.583	77.25
235.817	85.25
236.051	86.25
236.285	89.25
236.519	68.25
236.753	78.25
236.987	80.25
237.221	77.25
237.455	93.25
237.689	60.25
237.922	78.25
238.156	88.25
238.39	78.25
238.624	83.25
238.858	84.25
239.091	77.25
239.325	74.25
239.559	76.25
239.793	76.25
240.027	73.25
240.26	78.25
240.494	74.25
240.728	89.25
240.961	85.25
241.195	82.25
241.429	82.25
241.662	73.25
241.896	81.25
242.13	88.25
242.363	74.25
242.597	84.25
242.83	78.25
243.064	100.25
243.298	82.25
243.531	92.25
243.765	84.25
243.998	84.25
244.232	93.25
244.465	94.25
244.699	78.25
244.932	85.25
245.166	69.25
245.399	53.25
245.633	83.25
245.866	82.25
246.099	80.25
246.333	69.25
246.566	65.25
246.8	75.25
247.033	79.25
247.266	69.25
247.5	85.25
247.733	83.25
247.966	83.25
248.2	82.25
248.433	79.25
248.666	66.25
248.899	77.25
249.133	85.25
249.366	74.25
249.599	82.25
249.832	94.25
250.066	79.25
250.299	85.25
250.532	83.25
250.765	86.25
250.998	89.25
251.231	96.25
251.465	83.25
251.698	80.25
251.931	84.25
252.164	84.25
252.397	93.25
252.63	85.25
252.863	88.25
253.096	91.25
253.329	72.25
253.562	82.25
253.795	76.25
254.028	74.25
254.261	76.25
254.494	84.25
254.727	83.25
254.96	82.25
255.193	68.25
255.426	82.25
255.659	71.25
255.892	90.25
256.124	82.25
256.357	81.25
256.59	81.25
256.823	75.25
257.056	66.25
257.289	95.25
257.521	79.25
257.754	97.25
257.987	94.25
258.22	96.25
258.452	83.25
258.685	82.25
258.918	88.25
259.151	90.25
259.383	89.25
259.616	88.25
259.849	78.25
260.081	90.25
260.314	86.25
260.547	92.25
260.779	78.25
261.012	102.25
261.244	77.25
261.477	88.25
261.71	70.25
261.942	82.25
262.175	90.25
262.407	94.25
262.64	91.25
262.872	91.25
263.105	88.25
263.337	93.25
263.57	91.25
263.802	93.25
264.035	72.25
264.267	87.25
264.499	81.25
264.732	81.25
264.964	84.25
265.197	84.25
265.429	88.25
265.661	82.25
265.894	76.25
266.126	77.25
266.358	100.25
266.591	86.25
266.823	77.25
267.055	77.25
267.287	82.25
267.52	87.25
267.752	82.25
267.984	81.25
268.216	76.25
268.448	105.25
268.681	76.25
268.913	77.25
269.145	87.25
269.377	93.25
269.609	82.25
269.841	92.25
270.073	89.25
270.306	73.25
270.538	95.25
270.77	96.25
271.002	87.25
271.234	78.25
271.466	97.25
271.698	82.25
271.93	86.25
272.162	89.25
272.394	96.25
272.626	88.25
272.858	74.25
273.09	94.25
273.322	107.25
273.553	86.25
273.785	75.25
274.017	97.25
274.249	66.25
274.481	93.25
274.713	82.25
274.945	84.25
275.176	86.25
275.408	96.25
275.64	95.25
275.872	98.25
276.104	90.25
276.335	83.25
276.567	84.25
276.799	96.25
277.031	94.25
277.262	86.25
277.494	87.25
277.726	76.25
277.957	83.25
278.189	101.25
278.421	101.25
278.652	89.25
278.884	87.25
279.115	96.25
279.347	96.25
279.579	90.25
279.81	79.25
280.042	102.25
280.273	96.25
280.505	86.25
280.736	103.25
280.968	92.25
281.199	78.25
281.431	84.25
281.662	88.25
281.894	77.25
282.125	78.25
282.356	89.25
282.588	88.25
282.819	87.25
283.051	97.25
283.282	78.25
283.513	98.25
283.745	80.25
283.976	79.25
284.207	90.25
284.439	103.25
284.67	92.25
284.901	87.25
285.132	96.25
285.364	94.25
285.595	88.25
285.826	89.25
286.057	72.25
286.288	84.25
286.52	92.25
286.751	92.25
286.982	97.25
287.213	79.25
287.444	83.25
287.675	72.25
287.906	94.25
288.138	92.25
288.369	91.25
288.6	84.25
288.831	77.25
289.062	92.25
289.293	90.25
289.524	86.25
289.755	83.25
289.986	88.25
290.217	77.25
290.448	84.25
290.679	80.25
290.91	99.25
291.141	91.25
291.371	84.25
291.602	84.25
291.833	81.25
292.064	84.25
292.295	84.25
292.526	72.25
292.757	88.25
292.987	82.25
293.218	84.25
293.449	78.25
293.68	91.25
293.91	81.25
294.141	88.25
294.372	86.25
294.603	90.25
294.833	94.25
295.064	92.25
295.295	89.25
295.525	94.25
295.756	88.25
295.987	82.25
296.217	86.25
296.448	94.25
296.679	89.25
296.909	81.25
297.14	79.25
297.37	77.25
297.601	92.25
297.831	72.25
298.062	84.25
298.292	89.25
298.523	78.25
298.753	93.25
298.984	93.25
299.214	89.25
299.445	90.25
299.675	79.25
299.905	94.25
300.136	89.25
300.366	96.25
300.597	91.25
300.827	85.25
301.057	84.25
301.288	81.25
301.518	95.25
301.748	87.25
301.979	101.25
302.209	94.25
302.439	84.25
302.669	92.25
302.9	90.25
303.13	94.25
303.36	100.25
303.59	98.25
303.82	92.25
304.051	88.25
304.281	84.25
304.511	108.25
304.741	89.25
304.971	96.25
305.201	86.25
305.431	79.25
305.661	83.25
305.891	84.25
306.121	98.25
306.352	85.25
306.582	92.25
306.812	76.25
307.042	92.25
307.272	88.25
307.502	86.25
307.731	79.25
307.961	88.25
308.191	82.25
308.421	82.25
308.651	71.25
308.881	90.25
309.111	90.25
309.341	101.25
309.571	94.25
309.8	94.25
310.03	84.25
310.26	83.25
310.49	88.25
310.72	84.25
310.949	87.25
311.179	90.25
311.409	86.25
311.639	68.25
311.868	82.25
312.098	85.25
312.328	93.25
312.557	100.25
312.787	75.25
313.017	87.25
313.246	99.25
313.476	88.25
313.706	87.25
313.935	82.25
314.165	100.25
314.394	98.25
314.624	88.25
314.853	95.25
315.083	86.25
315.312	83.25
315.542	86.25
315.771	91.25
316.001	91.25
316.23	91.25
316.46	94.25
316.689	92.25
316.919	84.25
317.148	95.25
317.377	93.25
317.607	101.25
317.836	93.25
318.065	86.25
318.295	92.25
318.524	89.25
318.753	89.25
318.983	89.25
319.212	76.25
319.441	84.25
319.67	83.25
319.9	99.25
320.129	85.25
320.358	84.25
320.587	75.25
320.816	85.25
321.046	98.25
321.275	98.25
321.504	84.25
321.733	97.25
321.962	86.25
322.191	91.25
322.42	81.25
322.649	93.25
322.878	97.25
323.108	114.25
323.337	94.25
323.566	101.25
323.795	100.25
324.024	82.25
324.253	94.25
324.482	105.25
324.71	91.25
324.939	86.25
325.168	88.25
325.397	92.25
325.626	92.25
325.855	84.25
326.084	80.25
326.313	98.25
326.542	82.25
326.77	81.25
326.999	86.25
327.228	101.25
327.457	96.25
327.686	99.25
327.914	97.25
328.143	100.25
328.372	85.25
328.6	80.25
328.829	98.25
329.058	88.25
329.287	82.25
329.515	96.25
329.744	81.25
329.972	84.25
330.201	83.25
330.43	88.25
330.658	88.25
330.887	78.25
331.115	82.25
331.344	94.25
331.572	91.25
331.801	84.25
332.03	89.25
332.258	97.25
332.486	98.25
332.715	98.25
332.943	86.25
333.172	89.25
333.4	87.25
333.629	97.25
333.857	77.25
334.085	86.25
334.314	96.25
334.542	84.25
334.771	93.25
334.999	103.25
335.227	94.25
335.455	79.25
335.684	83.25
335.912	100.25
336.14	86.25
336.369	98.25
336.597	87.25
336.825	86.25
337.053	96.25
337.281	90.25
337.51	84.25
337.738	98.25
337.966	89.25
338.194	86.25
338.422	78.25
338.65	108.25
338.878	85.25
339.106	100.25
339.334	96.25
339.562	79.25
339.79	78.25
340.018	87.25
340.246	88.25
340.474	88.25
340.702	89.25
340.93	98.25
341.158	82.25
341.386	89.25
341.614	82.25
341.842	77.25
342.07	88.25
342.298	90.25
342.526	86.25
342.754	81.25
342.981	81.25
343.209	77.25
343.437	90.25
343.665	75.25
343.893	78.25
344.12	92.25
344.348	93.25
344.576	98.25
344.804	76.25
345.031	85.25
345.259	81.25
345.487	79.25
345.714	90.25
345.942	101.25
346.17	80.25
346.397	82.25
346.625	83.25
346.853	95.25
347.08	83.25
347.308	88.25
347.535	91.25
347.763	82.25
347.99	84.25
348.218	82.25
348.445	79.25
348.673	95.25
348.9	84.25
349.128	94.25
349.355	80.25
349.583	92.25
349.81	82.25
350.037	99.25
350.265	96.25
350.492	79.25
350.72	92.25
350.947	85.25
351.174	96.25
351.402	106.25
351.629	97.25
351.856	91.25
352.083	96.25
352.311	87.25
352.538	85.25
352.765	89.25
352.992	93.25
353.22	93.25
353.447	99.25
353.674	81.25
353.901	86.25
354.128	102.25
354.355	92.25
354.583	102.25
354.81	86.25
355.037	88.25
355.264	84.25
355.491	95.25
355.718	84.25
355.945	82.25
356.172	107.25
356.399	78.25
356.626	94.25
356.853	94.25
357.08	86.25
357.307	91.25
357.534	86.25
357.761	103.25
357.988	95.25
358.215	76.25
358.441	87.25
358.668	97.25
358.895	85.25
359.122	79.25
359.349	87.25
359.576	90.25
359.802	67.25
360.029	80.25
360.256	99.25
360.483	106.25
360.709	105.25
360.936	101.25
361.163	81.25
361.39	77.25
361.616	84.25
361.843	85.25
362.07	83.25
362.296	102.25
362.523	96.25
362.749	86.25
362.976	94.25
363.203	89.25
363.429	99.25
363.656	84.25
363.882	78.25
364.109	97.25
364.335	90.25
364.562	93.25
364.788	87.25
365.015	65.25
365.241	94.25
365.468	95.25
365.694	88.25
365.92	89.25
366.147	84.25
366.373	81.25
366.599	77.25
366.826	109.25
367.052	101.25
367.278	78.25
367.505	81.25
367.731	86.25
367.957	83.25
368.184	90.25
368.41	91.25
368.636	86.25
368.862	92.25
369.089	85.25
369.315	87.25
369.541	83.25
369.767	87.25
369.993	95.25
370.219	88.25
370.445	93.25
370.672	90.25
370.898	97.25
371.124	91.25
371.35	97.25
371.576	99.25
371.802	90.25
372.028	89.25
372.254	85.25
372.48	83.25
372.706	85.25
372.932	69.25
373.158	72.25
373.384	104.25
373.61	89.25
373.835	91.25
374.061	89.25
374.287	86.25
374.513	87.25
374.739	86.25
374.965	98.25
375.191	104.25
375.416	89.25
375.642	88.25
375.868	84.25
376.094	90.25
376.319	83.25
376.545	94.25
376.771	98.25
376.997	77.25
377.222	79.25
377.448	83.25
377.674	93.25
377.899	96.25
378.125	92.25
378.35	96.25
378.576	72.25
378.802	69.25
379.027	98.25
379.253	100.25
379.478	86.25
379.704	84.25
379.929	84.25
380.155	77.25
380.38	77.25
380.606	89.25
380.831	83.25
381.057	94.25
381.282	97.25
381.507	82.25
381.733	101.25
381.958	91.25
382.184	79.25
382.409	90.25
382.634	84.25
382.86	91.25
383.085	104.25
383.31	99.25
383.535	97.25
383.761	101.25
383.986	91.25
384.211	86.25
384.436	90.25
384.662	89.25
384.887	86.25
385.112	96.25
385.337	99.25
385.562	95.25
385.787	82.25
386.013	94.25
386.238	99.25
386.463	93.25
386.688	97.25
386.913	82.25
387.138	86.25
387.363	91.25
387.588	83.25
387.813	91.25
388.038	88.25
388.263	83.25
388.488	79.25
388.713	87.25
388.938	82.25
389.163	70.25
389.387	74.25
389.612	61.25
389.837	89.25
390.062	88.25
390.287	92.25
390.512	89.25
390.736	98.25
390.961	88.25
391.186	80.25
391.411	82.25
391.636	101.25
391.86	97.25
392.085	98.25
392.31	74.25
392.534	90.25
392.759	88.25
392.984	102.25
393.208	152.25
393.433	222.25
393.658	182.25
393.882	114.25
394.107	85.25
394.331	88.25
394.556	102.25
394.78	96.25
395.005	84.25
395.229	86.25
395.454	90.25
395.678	92.25
395.903	100.25
396.127	110.25
396.352	135.25
396.576	124.25
396.801	169.25
397.025	173.25
397.249	106.25
397.474	94.25
397.698	85.25
397.922	105.25
398.147	88.25
398.371	94.25
398.595	92.25
398.82	87.25
399.044	80.25
399.268	78.25
399.492	79.25
399.717	84.25
399.941	83.25
400.165	88.25
400.389	76.25
400.613	83.25
400.837	74.25
401.062	83.25
401.286	77.25
401.51	89.25
401.734	81.25
401.958	85.25
402.182	87.25
402.406	81.25
402.63	93.25
402.854	77.25
403.078	93.25
403.302	84.25
403.526	96.25
403.75	90.25
403.974	74.25
404.198	86.25
404.422	86.25
404.645	85.25
404.869	99.25
405.093	80.25
405.317	89.25
405.541	78.25
405.765	70.25
405.988	83.25
406.212	92.25
406.436	88.25
406.66	83.25
406.883	85.25
407.107	98.25
407.331	84.25
407.555	88.25
407.778	79.25
408.002	94.25
408.226	73.25
408.449	92.25
408.673	100.25
408.896	81.25
409.12	79.25
409.344	88.25
409.567	80.25
409.791	84.25
410.014	79.25
410.238	79.25
410.461	87.25
410.685	91.25
410.908	93.25
411.132	87.25
411.355	84.25
411.578	84.25
411.802	78.25
412.025	92.25
412.249	82.25
412.472	74.25
412.695	89.25
412.919	69.25
413.142	84.25
413.365	82.25
413.589	78.25
413.812	83.25
414.035	80.25
414.258	93.25
414.482	84.25
414.705	83.25
414.928	93.25
415.151	85.25
415.374	88.25
415.597	93.25
415.821	90.25
416.044	98.25
416.267	77.25
416.49	84.25
416.713	85.25
416.936	94.25
417.159	86.25
417.382	81.25
417.605	85.25
417.828	84.25
418.051	92.25
418.274	87.25
418.497	94.25
418.72	90.25
418.943	90.25
419.166	79.25
419.389	84.25
419.611	84.25
419.834	82.25
420.057	81.25
420.28	79.25
420.503	82.25
420.726	90.25
420.948	86.25
421.171	79.25
421.394	80.25
421.617	89.25
421.839	95.25
422.062	78.25
422.285	100.25
422.507	122.25
422.73	185.25
422.953	155.25
423.175	109.25
423.398	98.25
423.621	95.25
423.843	86.25
424.066	84.25
424.288	83.25
424.511	86.25
424.733	92.25
424.956	84.25
425.178	101.25
425.401	89.25
425.623	80.25
425.846	71.25
426.068	96.25
426.291	99.25
426.513	92.25
426.735	67.25
426.958	82.25
427.18	78.25
427.402	88.25
427.625	94.25
427.847	90.25
428.069	98.25
428.292	102.25
428.514	90.25
428.736	71.25
428.958	76.25
429.181	92.25
429.403	78.25
429.625	69.25
429.847	96.25
430.069	105.25
430.292	115.25
430.514	107.25
430.736	95.25
430.958	113.25
431.18	86.25
431.402	92.25
431.624	93.25
431.846	91.25
432.068	93.25
432.29	87.25
432.512	87.25
432.734	92.25
432.956	86.25
433.178	79.25
433.4	100.25
433.622	89.25
433.844	74.25
434.066	99.25
434.287	84.25
434.509	82.25
434.731	89.25
434.953	86.25
435.175	93.25
435.397	90.25
435.618	73.25
435.84	76.25
436.062	86.25
436.284	82.25
436.505	82.25
436.727	91.25
436.949	91.25
437.17	82.25
437.392	83.25
437.614	84.25
437.835	87.25
438.057	101.25
438.278	90.25
438.5	89.25
438.721	83.25
438.943	64.25
439.165	72.25
439.386	90.25
439.608	98.25
439.829	76.25
440.05	79.25
440.272	74.25
440.493	87.25
440.715	85.25
440.936	82.25
441.158	82.25
441.379	84.25
441.6	86.25
441.822	79.25
442.043	91.25
442.264	81.25
442.486	82.25
442.707	84.25
442.928	96.25
443.149	89.25
443.371	100.25
443.592	110.25
443.813	109.25
444.034	95.25
444.255	94.25
444.476	80.25
444.698	93.25
444.919	76.25
445.14	142.25
445.361	126.25
445.582	120.25
445.803	103.25
446.024	81.25
446.245	94.25
446.466	85.25
446.687	88.25
446.908	85.25
447.129	96.25
447.35	90.25
447.571	84.25
447.792	88.25
448.013	82.25
448.234	89.25
448.455	74.25
448.675	83.25
448.896	86.25
449.117	94.25
449.338	90.25
449.559	88.25
449.779	82.25
450	79.25
450.221	99.25
450.442	82.25
450.662	77.25
450.883	72.25
451.104	91.25
451.324	77.25
451.545	82.25
451.766	88.25
451.986	92.25
452.207	84.25
452.428	91.25
452.648	90.25
452.869	88.25
453.089	84.25
453.31	85.25
453.53	80.25
453.751	92.25
453.971	83.25
454.192	89.25
454.412	91.25
454.633	87.25
454.853	80.25
455.073	75.25
455.294	100.25
455.514	92.25
455.734	82.25
455.955	81.25
456.175	69.25
456.395	83.25
456.616	96.25
456.836	92.25
457.056	100.25
457.276	83.25
457.497	77.25
457.717	84.25
457.937	77.25
458.157	92.25
458.377	84.25
458.598	81.25
458.818	89.25
459.038	95.25
459.258	95.25
459.478	97.25
459.698	85.25
459.918	83.25
460.138	87.25
460.358	90.25
460.578	98.25
460.798	83.25
461.018	83.25
461.238	77.25
461.458	76.25
461.678	74.25
461.898	71.25
462.118	82.25
462.338	72.25
462.558	88.25
462.777	65.25
462.997	78.25
463.217	76.25
463.437	70.25
463.657	86.25
463.876	72.25
464.096	80.25
464.316	74.25
464.536	80.25
464.755	89.25
464.975	84.25
465.195	82.25
465.414	85.25
465.634	84.25
465.854	88.25
466.073	82.25
466.293	84.25
466.512	82.25
466.732	88.25
466.951	83.25
467.171	81.25
467.391	94.25
467.61	90.25
467.829	91.25
468.049	93.25
468.268	94.25
468.488	88.25
468.707	90.25
468.927	69.25
469.146	92.25
469.365	75.25
469.585	97.25
469.804	85.25
470.023	79.25
470.243	82.25
470.462	74.25
470.681	90.25
470.901	92.25
471.12	88.25
471.339	90.25
471.558	89.25
471.777	68.25
471.997	86.25
472.216	101.25
472.435	64.25
472.654	88.25
472.873	88.25
473.092	92.25
473.311	84.25
473.53	88.25
473.749	81.25
473.968	82.25
474.187	93.25
474.406	92.25
474.625	78.25
474.844	89.25
475.063	80.25
475.282	89.25
475.501	82.25
475.72	88.25
475.939	82.25
476.158	80.25
476.377	77.25
476.596	84.25
476.814	81.25
477.033	90.25
477.252	79.25
477.471	88.25
477.69	91.25
477.908	84.25
478.127	92.25
478.346	83.25
478.564	79.25
478.783	83.25
479.002	97.25
479.22	77.25
479.439	93.25
479.658	79.25
479.876	100.25
480.095	73.25
480.313	84.25
480.532	87.25
480.751	76.25
480.969	76.25
481.188	88.25
481.406	75.25
481.624	96.25
481.843	94.25
482.061	79.25
482.28	77.25
482.498	78.25
482.717	89.25
482.935	98.25
483.153	85.25
483.372	80.25
483.59	84.25
483.808	79.25
484.027	82.25
484.245	81.25
484.463	88.25
484.681	78.25
484.9	84.25
485.118	89.25
485.336	93.25
485.554	95.25
485.772	84.25
485.99	80.25
486.209	74.25
486.427	80.25
486.645	98.25
486.863	89.25
487.081	91.25
487.299	87.25
487.517	81.25
487.735	97.25
487.953	103.25
488.171	98.25
488.389	89.25
488.607	78.25
488.825	84.25
489.043	94.25
489.261	92.25
489.479	92.25
489.696	99.25
489.914	90.25
490.132	83.25
490.35	98.25
490.568	88.25
490.786	91.25
491.003	90.25
491.221	79.25
491.439	76.25
491.657	77.25
491.874	89.25
492.092	89.25
492.31	88.25
492.527	96.25
492.745	99.25
492.963	90.25
493.18	84.25
493.398	85.25
493.615	94.25
493.833	83.25
494.05	88.25
494.268	88.25
494.485	99.25
494.703	87.25
494.92	81.25
495.138	73.25
495.355	91.25
495.573	117.25
495.79	84.25
496.008	88.25
496.225	90.25
496.442	93.25
496.66	97.25
496.877	84.25
497.094	84.25
497.312	103.25
497.529	92.25
497.746	75.25
497.963	90.25
498.181	85.25
498.398	93.25
498.615	87.25
498.832	73.25
499.049	86.25
499.267	90.25
499.484	86.25
499.701	81.25
499.918	85.25
500.135	97.25
500.352	75.25
500.569	95.25
500.786	96.25
501.003	81.25
501.22	88.25
501.437	79.25
501.654	81.25
501.871	88.25
502.088	83.25
502.305	87.25
502.522	75.25
502.739	93.25
502.956	86.25
503.172	85.25
503.389	92.25
503.606	85.25
503.823	86.25
504.04	80.25
504.256	85.25
504.473	104.25
504.69	76.25
504.907	95.25
505.123	80.25
505.34	90.25
505.557	78.25
505.773	92.25
505.99	84.25
506.207	93.25
506.423	78.25
506.64	78.25
506.856	87.25
507.073	95.25
507.289	80.25
507.506	96.25
507.722	89.25
507.939	88.25
508.155	102.25
508.372	90.25
508.588	91.25
508.805	85.25
509.021	90.25
509.238	88.25
509.454	81.25
509.67	100.25
509.887	74.25
510.103	90.25
510.319	86.25
510.536	93.25
510.752	78.25
510.968	84.25
511.184	86.25
511.401	83.25
511.617	98.25
511.833	88.25
512.049	90.25
512.265	82.25
512.481	85.25
512.698	82.25
512.914	82.25
513.13	93.25
513.346	85.25
513.562	92.25
513.778	78.25
513.994	82.25
514.21	97.25
514.426	88.25
514.642	79.25
514.858	96.25
515.074	92.25
515.29	92.25
515.506	86.25
515.721	88.25
515.937	98.25
516.153	87.25
516.369	108.25
516.585	95.25
516.801	83.25
517.016	90.25
517.232	84.25
517.448	98.25
517.664	70.25
517.879	90.25
518.095	70.25
518.311	88.25
518.527	102.25
518.742	94.25
518.958	100.25
