Data from 1600_3_HRD10591_00038.txt Node
Date: Mon Jan 19 13:55:12 EST 2026
User: Yrep
Spectrometer: HR+D1059
Trigger mode: 1
Integration Time (sec): 1.000000E-1
Scans to average: 1
Electric dark correction enabled: true
Nonlinearity correction enabled: false
Boxcar width: 0
XAxis mode: Wavelengths
Number of Pixels in Spectrum: 2048
>>>>>Begin Spectral Data<<<<<
223.165	-13.94
223.4	-13.94
223.635	-13.94
223.869	-11.94
224.104	-8.94
224.338	-23.94
224.573	-14.94
224.808	-8.94
225.042	-12.94
225.277	-5.94
225.511	-5.94
225.746	8.06
225.98	2.06
226.215	15.06
226.449	20.06
226.683	15.06
226.918	30.06
227.152	17.06
227.387	29.06
227.621	24.06
227.856	55.06
228.09	49.06
228.324	58.06
228.559	60.06
228.793	65.06
229.027	68.06
229.262	51.06
229.496	60.06
229.73	77.06
229.964	67.06
230.199	67.06
230.433	61.06
230.667	75.06
230.901	83.06
231.136	59.06
231.37	75.06
231.604	78.06
231.838	80.06
232.072	77.06
232.306	66.06
232.541	88.06
232.775	90.06
233.009	78.06
233.243	89.06
233.477	74.06
233.711	80.06
233.945	85.06
234.179	66.06
234.413	83.06
234.647	80.06
234.881	84.06
235.115	85.06
235.349	69.06
235.583	70.06
235.817	69.06
236.051	66.06
236.285	80.06
236.519	67.06
236.753	70.06
236.987	76.06
237.221	70.06
237.455	73.06
237.689	69.06
237.922	73.06
238.156	73.06
238.39	73.06
238.624	68.06
238.858	76.06
239.091	71.06
239.325	81.06
239.559	77.06
239.793	84.06
240.027	75.06
240.26	69.06
240.494	78.06
240.728	72.06
240.961	74.06
241.195	75.06
241.429	72.06
241.662	63.06
241.896	89.06
242.13	60.06
242.363	75.06
242.597	60.06
242.83	64.06
243.064	70.06
243.298	73.06
243.531	62.06
243.765	66.06
243.998	73.06
244.232	76.06
244.465	76.06
244.699	74.06
244.932	70.06
245.166	72.06
245.399	87.06
245.633	70.06
245.866	83.06
246.099	85.06
246.333	70.06
246.566	82.06
246.8	69.06
247.033	78.06
247.266	81.06
247.5	61.06
247.733	94.06
247.966	92.06
248.2	65.06
248.433	69.06
248.666	69.06
248.899	74.06
249.133	80.06
249.366	76.06
249.599	79.06
249.832	74.06
250.066	63.06
250.299	72.06
250.532	77.06
250.765	76.06
250.998	64.06
251.231	76.06
251.465	93.06
251.698	89.06
251.931	81.06
252.164	87.06
252.397	89.06
252.63	77.06
252.863	71.06
253.096	74.06
253.329	73.06
253.562	63.06
253.795	84.06
254.028	90.06
254.261	58.06
254.494	74.06
254.727	83.06
254.96	70.06
255.193	78.06
255.426	84.06
255.659	73.06
255.892	76.06
256.124	69.06
256.357	85.06
256.59	88.06
256.823	80.06
257.056	84.06
257.289	85.06
257.521	72.06
257.754	78.06
257.987	75.06
258.22	77.06
258.452	83.06
258.685	58.06
258.918	76.06
259.151	66.06
259.383	77.06
259.616	59.06
259.849	82.06
260.081	69.06
260.314	69.06
260.547	82.06
260.779	87.06
261.012	84.06
261.244	78.06
261.477	85.06
261.71	83.06
261.942	89.06
262.175	69.06
262.407	74.06
262.64	70.06
262.872	79.06
263.105	89.06
263.337	79.06
263.57	87.06
263.802	68.06
264.035	74.06
264.267	98.06
264.499	68.06
264.732	75.06
264.964	86.06
265.197	85.06
265.429	65.06
265.661	77.06
265.894	72.06
266.126	80.06
266.358	65.06
266.591	86.06
266.823	86.06
267.055	79.06
267.287	84.06
267.52	68.06
267.752	72.06
267.984	62.06
268.216	72.06
268.448	73.06
268.681	84.06
268.913	84.06
269.145	80.06
269.377	82.06
269.609	71.06
269.841	62.06
270.073	75.06
270.306	74.06
270.538	90.06
270.77	76.06
271.002	84.06
271.234	80.06
271.466	85.06
271.698	77.06
271.93	85.06
272.162	79.06
272.394	72.06
272.626	92.06
272.858	83.06
273.09	84.06
273.322	82.06
273.553	76.06
273.785	67.06
274.017	96.06
274.249	75.06
274.481	68.06
274.713	71.06
274.945	89.06
275.176	72.06
275.408	75.06
275.64	85.06
275.872	74.06
276.104	72.06
276.335	74.06
276.567	91.06
276.799	90.06
277.031	101.06
277.262	90.06
277.494	91.06
277.726	84.06
277.957	76.06
278.189	74.06
278.421	78.06
278.652	90.06
278.884	98.06
279.115	88.06
279.347	88.06
279.579	89.06
279.81	84.06
280.042	82.06
280.273	76.06
280.505	62.06
280.736	68.06
280.968	82.06
281.199	71.06
281.431	73.06
281.662	69.06
281.894	76.06
282.125	83.06
282.356	77.06
282.588	78.06
282.819	66.06
283.051	81.06
283.282	72.06
283.513	60.06
283.745	77.06
283.976	88.06
284.207	92.06
284.439	79.06
284.67	69.06
284.901	77.06
285.132	74.06
285.364	86.06
285.595	76.06
285.826	84.06
286.057	84.06
286.288	87.06
286.52	96.06
286.751	85.06
286.982	81.06
287.213	85.06
287.444	84.06
287.675	92.06
287.906	80.06
288.138	84.06
288.369	76.06
288.6	68.06
288.831	79.06
289.062	75.06
289.293	95.06
289.524	82.06
289.755	84.06
289.986	78.06
290.217	83.06
290.448	89.06
290.679	84.06
290.91	98.06
291.141	65.06
291.371	85.06
291.602	80.06
291.833	83.06
292.064	82.06
292.295	66.06
292.526	88.06
292.757	83.06
292.987	65.06
293.218	84.06
293.449	76.06
293.68	87.06
293.91	77.06
294.141	82.06
294.372	90.06
294.603	81.06
294.833	83.06
295.064	76.06
295.295	86.06
295.525	84.06
295.756	91.06
295.987	84.06
296.217	91.06
296.448	90.06
296.679	84.06
296.909	72.06
297.14	78.06
297.37	74.06
297.601	88.06
297.831	81.06
298.062	76.06
298.292	101.06
298.523	85.06
298.753	74.06
298.984	90.06
299.214	92.06
299.445	84.06
299.675	74.06
299.905	78.06
300.136	81.06
300.366	77.06
300.597	83.06
300.827	86.06
301.057	65.06
301.288	87.06
301.518	89.06
301.748	84.06
301.979	98.06
302.209	89.06
302.439	80.06
302.669	72.06
302.9	68.06
303.13	70.06
303.36	76.06
303.59	85.06
303.82	71.06
304.051	86.06
304.281	80.06
304.511	91.06
304.741	67.06
304.971	75.06
305.201	82.06
305.431	89.06
305.661	89.06
305.891	88.06
306.121	66.06
306.352	79.06
306.582	81.06
306.812	81.06
307.042	74.06
307.272	74.06
307.502	83.06
307.731	87.06
307.961	84.06
308.191	85.06
308.421	80.06
308.651	75.06
308.881	86.06
309.111	79.06
309.341	98.06
309.571	85.06
309.8	63.06
310.03	81.06
310.26	71.06
310.49	82.06
310.72	76.06
310.949	83.06
311.179	75.06
311.409	83.06
311.639	68.06
311.868	76.06
312.098	82.06
312.328	88.06
312.557	72.06
312.787	89.06
313.017	80.06
313.246	91.06
313.476	74.06
313.706	74.06
313.935	78.06
314.165	84.06
314.394	74.06
314.624	79.06
314.853	83.06
315.083	99.06
315.312	90.06
315.542	82.06
315.771	67.06
316.001	67.06
316.23	81.06
316.46	68.06
316.689	83.06
316.919	81.06
317.148	92.06
317.377	74.06
317.607	76.06
317.836	80.06
318.065	61.06
318.295	83.06
318.524	89.06
318.753	79.06
318.983	88.06
319.212	77.06
319.441	75.06
319.67	80.06
319.9	86.06
320.129	91.06
320.358	83.06
320.587	88.06
320.816	96.06
321.046	84.06
321.275	74.06
321.504	76.06
321.733	70.06
321.962	82.06
322.191	75.06
322.42	84.06
322.649	86.06
322.878	87.06
323.108	88.06
323.337	81.06
323.566	70.06
323.795	78.06
324.024	79.06
324.253	75.06
324.482	90.06
324.71	86.06
324.939	94.06
325.168	78.06
325.397	82.06
325.626	90.06
325.855	68.06
326.084	75.06
326.313	86.06
326.542	71.06
326.77	86.06
326.999	80.06
327.228	82.06
327.457	80.06
327.686	83.06
327.914	88.06
328.143	67.06
328.372	69.06
328.6	73.06
328.829	78.06
329.058	94.06
329.287	81.06
329.515	74.06
329.744	85.06
329.972	87.06
330.201	78.06
330.43	85.06
330.658	73.06
330.887	78.06
331.115	68.06
331.344	72.06
331.572	80.06
331.801	84.06
332.03	80.06
332.258	78.06
332.486	98.06
332.715	89.06
332.943	66.06
333.172	77.06
333.4	77.06
333.629	71.06
333.857	77.06
334.085	78.06
334.314	80.06
334.542	78.06
334.771	72.06
334.999	80.06
335.227	76.06
335.455	69.06
335.684	77.06
335.912	89.06
336.14	86.06
336.369	92.06
336.597	79.06
336.825	77.06
337.053	86.06
337.281	91.06
337.51	72.06
337.738	78.06
337.966	97.06
338.194	84.06
338.422	68.06
338.65	80.06
338.878	74.06
339.106	83.06
339.334	83.06
339.562	74.06
339.79	85.06
340.018	72.06
340.246	75.06
340.474	70.06
340.702	71.06
340.93	76.06
341.158	69.06
341.386	78.06
341.614	78.06
341.842	83.06
342.07	83.06
342.298	78.06
342.526	86.06
342.754	80.06
342.981	86.06
343.209	82.06
343.437	100.06
343.665	90.06
343.893	82.06
344.12	84.06
344.348	91.06
344.576	69.06
344.804	89.06
345.031	84.06
345.259	90.06
345.487	90.06
345.714	85.06
345.942	82.06
346.17	82.06
346.397	77.06
346.625	80.06
346.853	77.06
347.08	79.06
347.308	68.06
347.535	78.06
347.763	77.06
347.99	77.06
348.218	80.06
348.445	70.06
348.673	80.06
348.9	84.06
349.128	74.06
349.355	60.06
349.583	94.06
349.81	70.06
350.037	88.06
350.265	81.06
350.492	80.06
350.72	70.06
350.947	70.06
351.174	72.06
351.402	90.06
351.629	86.06
351.856	74.06
352.083	70.06
352.311	89.06
352.538	82.06
352.765	80.06
352.992	90.06
353.22	81.06
353.447	89.06
353.674	86.06
353.901	78.06
354.128	88.06
354.355	76.06
354.583	85.06
354.81	80.06
355.037	92.06
355.264	72.06
355.491	67.06
355.718	83.06
355.945	84.06
356.172	81.06
356.399	70.06
356.626	70.06
356.853	85.06
357.08	84.06
357.307	70.06
357.534	71.06
357.761	87.06
357.988	77.06
358.215	76.06
358.441	69.06
358.668	90.06
358.895	68.06
359.122	76.06
359.349	64.06
359.576	84.06
359.802	70.06
360.029	84.06
360.256	92.06
360.483	78.06
360.709	81.06
360.936	91.06
361.163	78.06
361.39	89.06
361.616	92.06
361.843	86.06
362.07	80.06
362.296	94.06
362.523	78.06
362.749	90.06
362.976	90.06
363.203	93.06
363.429	80.06
363.656	80.06
363.882	89.06
364.109	74.06
364.335	95.06
364.562	91.06
364.788	91.06
365.015	81.06
365.241	85.06
365.468	89.06
365.694	84.06
365.92	90.06
366.147	82.06
366.373	73.06
366.599	83.06
366.826	86.06
367.052	73.06
367.278	84.06
367.505	74.06
367.731	77.06
367.957	80.06
368.184	84.06
368.41	77.06
368.636	84.06
368.862	94.06
369.089	78.06
369.315	87.06
369.541	67.06
369.767	88.06
369.993	82.06
370.219	78.06
370.445	82.06
370.672	77.06
370.898	90.06
371.124	89.06
371.35	73.06
371.576	66.06
371.802	91.06
372.028	76.06
372.254	80.06
372.48	87.06
372.706	92.06
372.932	80.06
373.158	86.06
373.384	93.06
373.61	82.06
373.835	98.06
374.061	92.06
374.287	88.06
374.513	68.06
374.739	102.06
374.965	85.06
375.191	89.06
375.416	88.06
375.642	83.06
375.868	80.06
376.094	90.06
376.319	88.06
376.545	76.06
376.771	78.06
376.997	63.06
377.222	73.06
377.448	80.06
377.674	72.06
377.899	70.06
378.125	79.06
378.35	84.06
378.576	79.06
378.802	86.06
379.027	76.06
379.253	81.06
379.478	79.06
379.704	74.06
379.929	77.06
380.155	79.06
380.38	97.06
380.606	79.06
380.831	87.06
381.057	86.06
381.282	69.06
381.507	79.06
381.733	89.06
381.958	83.06
382.184	71.06
382.409	92.06
382.634	90.06
382.86	92.06
383.085	97.06
383.31	98.06
383.535	102.06
383.761	92.06
383.986	107.06
384.211	85.06
384.436	80.06
384.662	80.06
384.887	75.06
385.112	88.06
385.337	78.06
385.562	88.06
385.787	79.06
386.013	93.06
386.238	95.06
386.463	79.06
386.688	84.06
386.913	76.06
387.138	78.06
387.363	81.06
387.588	82.06
387.813	86.06
388.038	96.06
388.263	75.06
388.488	80.06
388.713	104.06
388.938	79.06
389.163	85.06
389.387	76.06
389.612	77.06
389.837	83.06
390.062	83.06
390.287	73.06
390.512	76.06
390.736	77.06
390.961	82.06
391.186	76.06
391.411	90.06
391.636	71.06
391.86	83.06
392.085	82.06
392.31	78.06
392.534	88.06
392.759	92.06
392.984	111.06
393.208	164.06
393.433	202.06
393.658	171.06
393.882	99.06
394.107	83.06
394.331	88.06
394.556	106.06
394.78	85.06
395.005	74.06
395.229	76.06
395.454	92.06
395.678	82.06
395.903	90.06
396.127	110.06
396.352	120.06
396.576	122.06
396.801	144.06
397.025	165.06
397.249	110.06
397.474	84.06
397.698	80.06
397.922	77.06
398.147	68.06
398.371	82.06
398.595	86.06
398.82	73.06
399.044	80.06
399.268	84.06
399.492	75.06
399.717	96.06
399.941	91.06
400.165	80.06
400.389	79.06
400.613	73.06
400.837	82.06
401.062	78.06
401.286	68.06
401.51	86.06
401.734	85.06
401.958	82.06
402.182	92.06
402.406	77.06
402.63	65.06
402.854	92.06
403.078	83.06
403.302	81.06
403.526	80.06
403.75	77.06
403.974	89.06
404.198	71.06
404.422	87.06
404.645	106.06
404.869	94.06
405.093	74.06
405.317	88.06
405.541	94.06
405.765	71.06
405.988	83.06
406.212	78.06
406.436	76.06
406.66	82.06
406.883	71.06
407.107	80.06
407.331	91.06
407.555	88.06
407.778	95.06
408.002	82.06
408.226	82.06
408.449	80.06
408.673	92.06
408.896	63.06
409.12	74.06
409.344	82.06
409.567	90.06
409.791	81.06
410.014	80.06
410.238	73.06
410.461	74.06
410.685	74.06
410.908	87.06
411.132	88.06
411.355	67.06
411.578	92.06
411.802	65.06
412.025	80.06
412.249	91.06
412.472	72.06
412.695	83.06
412.919	80.06
413.142	76.06
413.365	82.06
413.589	98.06
413.812	97.06
414.035	89.06
414.258	73.06
414.482	78.06
414.705	76.06
414.928	70.06
415.151	73.06
415.374	74.06
415.597	88.06
415.821	83.06
416.044	72.06
416.267	76.06
416.49	72.06
416.713	77.06
416.936	80.06
417.159	76.06
417.382	76.06
417.605	76.06
417.828	74.06
418.051	82.06
418.274	86.06
418.497	87.06
418.72	73.06
418.943	76.06
419.166	65.06
419.389	82.06
419.611	76.06
419.834	76.06
420.057	82.06
420.28	73.06
420.503	81.06
420.726	77.06
420.948	79.06
421.171	72.06
421.394	63.06
421.617	74.06
421.839	94.06
422.062	91.06
422.285	94.06
422.507	124.06
422.73	185.06
422.953	162.06
423.175	100.06
423.398	84.06
423.621	79.06
423.843	82.06
424.066	68.06
424.288	63.06
424.511	80.06
424.733	74.06
424.956	74.06
425.178	82.06
425.401	68.06
425.623	88.06
425.846	78.06
426.068	82.06
426.291	78.06
426.513	94.06
426.735	93.06
426.958	78.06
427.18	83.06
427.402	84.06
427.625	70.06
427.847	70.06
428.069	85.06
428.292	104.06
428.514	97.06
428.736	86.06
428.958	74.06
429.181	88.06
429.403	60.06
429.625	82.06
429.847	97.06
430.069	91.06
430.292	117.06
430.514	100.06
430.736	90.06
430.958	93.06
431.18	83.06
431.402	81.06
431.624	90.06
431.846	90.06
432.068	89.06
432.29	81.06
432.512	82.06
432.734	70.06
432.956	84.06
433.178	92.06
433.4	83.06
433.622	74.06
433.844	84.06
434.066	86.06
434.287	67.06
434.509	69.06
434.731	73.06
434.953	73.06
435.175	77.06
435.397	89.06
435.618	66.06
435.84	84.06
436.062	80.06
436.284	77.06
436.505	88.06
436.727	69.06
436.949	71.06
437.17	66.06
437.392	67.06
437.614	68.06
437.835	67.06
438.057	85.06
438.278	75.06
438.5	91.06
438.721	69.06
438.943	71.06
439.165	87.06
439.386	81.06
439.608	64.06
439.829	86.06
440.05	88.06
440.272	85.06
440.493	86.06
440.715	66.06
440.936	67.06
441.158	77.06
441.379	78.06
441.6	85.06
441.822	80.06
442.043	76.06
442.264	71.06
442.486	78.06
442.707	88.06
442.928	90.06
443.149	78.06
443.371	96.06
443.592	112.06
443.813	112.06
444.034	83.06
444.255	93.06
444.476	81.06
444.698	76.06
444.919	82.06
445.14	151.06
445.361	143.06
445.582	131.06
445.803	132.06
446.024	78.06
446.245	80.06
446.466	84.06
446.687	85.06
446.908	90.06
447.129	91.06
447.35	69.06
447.571	81.06
447.792	89.06
448.013	77.06
448.234	74.06
448.455	80.06
448.675	86.06
448.896	88.06
449.117	92.06
449.338	75.06
449.559	97.06
449.779	85.06
450	72.06
450.221	62.06
450.442	73.06
450.662	83.06
450.883	63.06
451.104	80.06
451.324	89.06
451.545	84.06
451.766	88.06
451.986	83.06
452.207	85.06
452.428	82.06
452.648	78.06
452.869	88.06
453.089	78.06
453.31	69.06
453.53	80.06
453.751	64.06
453.971	73.06
454.192	69.06
454.412	79.06
454.633	83.06
454.853	84.06
455.073	79.06
455.294	66.06
455.514	75.06
455.734	84.06
455.955	86.06
456.175	76.06
456.395	73.06
456.616	73.06
456.836	59.06
457.056	68.06
457.276	90.06
457.497	87.06
457.717	98.06
457.937	84.06
458.157	76.06
458.377	81.06
458.598	74.06
458.818	80.06
459.038	84.06
459.258	75.06
459.478	82.06
459.698	83.06
459.918	74.06
460.138	90.06
460.358	77.06
460.578	81.06
460.798	82.06
461.018	75.06
461.238	77.06
461.458	79.06
461.678	94.06
461.898	79.06
462.118	80.06
462.338	87.06
462.558	82.06
462.777	80.06
462.997	74.06
463.217	58.06
463.437	61.06
463.657	72.06
463.876	74.06
464.096	68.06
464.316	76.06
464.536	80.06
464.755	68.06
464.975	92.06
465.195	86.06
465.414	75.06
465.634	78.06
465.854	78.06
466.073	80.06
466.293	68.06
466.512	80.06
466.732	69.06
466.951	72.06
467.171	70.06
467.391	66.06
467.61	73.06
467.829	78.06
468.049	77.06
468.268	78.06
468.488	80.06
468.707	84.06
468.927	83.06
469.146	81.06
469.365	72.06
469.585	90.06
469.804	84.06
470.023	68.06
470.243	83.06
470.462	68.06
470.681	82.06
470.901	80.06
471.12	76.06
471.339	91.06
471.558	80.06
471.777	80.06
471.997	78.06
472.216	76.06
472.435	86.06
472.654	79.06
472.873	88.06
473.092	74.06
473.311	82.06
473.53	80.06
473.749	79.06
473.968	83.06
474.187	88.06
474.406	84.06
474.625	75.06
474.844	86.06
475.063	68.06
475.282	68.06
475.501	70.06
475.72	83.06
475.939	101.06
476.158	81.06
476.377	81.06
476.596	79.06
476.814	78.06
477.033	80.06
477.252	82.06
477.471	80.06
477.69	70.06
477.908	82.06
478.127	78.06
478.346	81.06
478.564	69.06
478.783	82.06
479.002	94.06
479.22	78.06
479.439	77.06
479.658	75.06
479.876	76.06
480.095	68.06
480.313	83.06
480.532	65.06
480.751	77.06
480.969	66.06
481.188	90.06
481.406	76.06
481.624	80.06
481.843	108.06
482.061	82.06
482.28	80.06
482.498	76.06
482.717	85.06
482.935	77.06
483.153	73.06
483.372	68.06
483.59	71.06
483.808	74.06
484.027	88.06
484.245	81.06
484.463	89.06
484.681	85.06
484.9	86.06
485.118	92.06
485.336	69.06
485.554	73.06
485.772	79.06
485.99	80.06
486.209	83.06
486.427	89.06
486.645	74.06
486.863	82.06
487.081	73.06
487.299	80.06
487.517	97.06
487.735	88.06
487.953	79.06
488.171	89.06
488.389	88.06
488.607	71.06
488.825	80.06
489.043	70.06
489.261	91.06
489.479	76.06
489.696	77.06
489.914	84.06
490.132	89.06
490.35	63.06
490.568	84.06
490.786	91.06
491.003	80.06
491.221	78.06
491.439	88.06
491.657	71.06
491.874	96.06
492.092	90.06
492.31	92.06
492.527	74.06
492.745	72.06
492.963	79.06
493.18	91.06
493.398	72.06
493.615	62.06
493.833	84.06
494.05	85.06
494.268	83.06
494.485	76.06
494.703	77.06
494.92	88.06
495.138	76.06
495.355	70.06
495.573	84.06
495.79	90.06
496.008	83.06
496.225	77.06
496.442	88.06
496.66	92.06
496.877	82.06
497.094	76.06
497.312	71.06
497.529	70.06
497.746	89.06
497.963	80.06
498.181	73.06
498.398	73.06
498.615	79.06
498.832	80.06
499.049	74.06
499.267	83.06
499.484	88.06
499.701	80.06
499.918	87.06
500.135	72.06
500.352	85.06
500.569	76.06
500.786	86.06
501.003	70.06
501.22	77.06
501.437	94.06
501.654	92.06
501.871	81.06
502.088	84.06
502.305	74.06
502.522	96.06
502.739	73.06
502.956	82.06
503.172	76.06
503.389	78.06
503.606	81.06
503.823	97.06
504.04	80.06
504.256	97.06
504.473	87.06
504.69	85.06
504.907	71.06
505.123	79.06
505.34	85.06
505.557	85.06
505.773	90.06
505.99	89.06
506.207	63.06
506.423	84.06
506.64	97.06
506.856	81.06
507.073	75.06
507.289	92.06
507.506	94.06
507.722	88.06
507.939	91.06
508.155	91.06
508.372	92.06
508.588	70.06
508.805	76.06
509.021	74.06
509.238	85.06
509.454	85.06
509.67	82.06
509.887	85.06
510.103	77.06
510.319	79.06
510.536	83.06
510.752	72.06
510.968	77.06
511.184	82.06
511.401	74.06
511.617	81.06
511.833	89.06
512.049	95.06
512.265	86.06
512.481	72.06
512.698	66.06
512.914	85.06
513.13	74.06
513.346	76.06
513.562	76.06
513.778	84.06
513.994	81.06
514.21	79.06
514.426	79.06
514.642	75.06
514.858	81.06
515.074	72.06
515.29	71.06
515.506	88.06
515.721	71.06
515.937	78.06
516.153	83.06
516.369	87.06
516.585	75.06
516.801	83.06
517.016	77.06
517.232	89.06
517.448	96.06
517.664	85.06
517.879	81.06
518.095	74.06
518.311	81.06
518.527	100.06
518.742	100.06
518.958	76.06
519.173	90.06
519.389	84.06
519.605	90.06
519.82	77.06
