Data from 1600_3_HRD10591_00002.txt Node
Date: Mon Jan 19 13:54:54 EST 2026
User: Yrep
Spectrometer: HR+D1059
Trigger mode: 1
Integration Time (sec): 1.000000E-1
Scans to average: 1
Electric dark correction enabled: true
Nonlinearity correction enabled: false
Boxcar width: 0
XAxis mode: Wavelengths
Number of Pixels in Spectrum: 2048
>>>>>Begin Spectral Data<<<<<
223.165	-35.5
223.4	-35.5
223.635	-35.5
223.869	-11.5
224.104	-10.5
224.338	-10.5
224.573	-10.5
224.808	-4.5
225.042	-6.5
225.277	-5.5
225.511	0.5
225.746	-2.5
225.98	1.5
226.215	19.5
226.449	5.5
226.683	10.5
226.918	24.5
227.152	35.5
227.387	27.5
227.621	32.5
227.856	57.5
228.09	49.5
228.324	52.5
228.559	66.5
228.793	47.5
229.027	65.5
229.262	70.5
229.496	64.5
229.73	70.5
229.964	74.5
230.199	84.5
230.433	56.5
230.667	82.5
230.901	74.5
231.136	72.5
231.37	71.5
231.604	78.5
231.838	73.5
232.072	84.5
232.306	83.5
232.541	79.5
232.775	86.5
233.009	79.5
233.243	68.5
233.477	76.5
233.711	82.5
233.945	97.5
234.179	89.5
234.413	67.5
234.647	70.5
234.881	59.5
235.115	77.5
235.349	83.5
235.583	75.5
235.817	75.5
236.051	65.5
236.285	75.5
236.519	73.5
236.753	73.5
236.987	88.5
237.221	76.5
237.455	62.5
237.689	71.5
237.922	74.5
238.156	69.5
238.39	78.5
238.624	72.5
238.858	66.5
239.091	71.5
239.325	71.5
239.559	80.5
239.793	88.5
240.027	84.5
240.26	74.5
240.494	79.5
240.728	81.5
240.961	81.5
241.195	80.5
241.429	76.5
241.662	78.5
241.896	81.5
242.13	70.5
242.363	81.5
242.597	79.5
242.83	72.5
243.064	67.5
243.298	73.5
243.531	68.5
243.765	74.5
243.998	66.5
244.232	78.5
244.465	65.5
244.699	84.5
244.932	80.5
245.166	79.5
245.399	83.5
245.633	77.5
245.866	64.5
246.099	66.5
246.333	60.5
246.566	77.5
246.8	75.5
247.033	75.5
247.266	69.5
247.5	61.5
247.733	77.5
247.966	79.5
248.2	80.5
248.433	75.5
248.666	65.5
248.899	84.5
249.133	84.5
249.366	74.5
249.599	73.5
249.832	53.5
250.066	88.5
250.299	78.5
250.532	82.5
250.765	68.5
250.998	78.5
251.231	74.5
251.465	68.5
251.698	79.5
251.931	70.5
252.164	80.5
252.397	87.5
252.63	89.5
252.863	77.5
253.096	74.5
253.329	82.5
253.562	72.5
253.795	77.5
254.028	84.5
254.261	79.5
254.494	73.5
254.727	93.5
254.96	84.5
255.193	71.5
255.426	81.5
255.659	79.5
255.892	80.5
256.124	67.5
256.357	73.5
256.59	87.5
256.823	88.5
257.056	77.5
257.289	88.5
257.521	74.5
257.754	73.5
257.987	63.5
258.22	66.5
258.452	92.5
258.685	88.5
258.918	85.5
259.151	79.5
259.383	87.5
259.616	87.5
259.849	84.5
260.081	83.5
260.314	77.5
260.547	74.5
260.779	83.5
261.012	74.5
261.244	76.5
261.477	71.5
261.71	64.5
261.942	71.5
262.175	90.5
262.407	82.5
262.64	74.5
262.872	80.5
263.105	75.5
263.337	68.5
263.57	77.5
263.802	77.5
264.035	82.5
264.267	81.5
264.499	87.5
264.732	68.5
264.964	81.5
265.197	81.5
265.429	77.5
265.661	87.5
265.894	75.5
266.126	77.5
266.358	91.5
266.591	73.5
266.823	73.5
267.055	76.5
267.287	77.5
267.52	83.5
267.752	82.5
267.984	73.5
268.216	94.5
268.448	90.5
268.681	79.5
268.913	79.5
269.145	77.5
269.377	85.5
269.609	72.5
269.841	91.5
270.073	77.5
270.306	74.5
270.538	86.5
270.77	80.5
271.002	84.5
271.234	73.5
271.466	65.5
271.698	96.5
271.93	85.5
272.162	75.5
272.394	91.5
272.626	94.5
272.858	92.5
273.09	74.5
273.322	76.5
273.553	92.5
273.785	99.5
274.017	76.5
274.249	85.5
274.481	83.5
274.713	73.5
274.945	63.5
275.176	77.5
275.408	77.5
275.64	74.5
275.872	83.5
276.104	87.5
276.335	75.5
276.567	80.5
276.799	65.5
277.031	67.5
277.262	70.5
277.494	68.5
277.726	77.5
277.957	88.5
278.189	76.5
278.421	77.5
278.652	86.5
278.884	79.5
279.115	81.5
279.347	79.5
279.579	82.5
279.81	83.5
280.042	88.5
280.273	78.5
280.505	82.5
280.736	84.5
280.968	84.5
281.199	83.5
281.431	88.5
281.662	80.5
281.894	83.5
282.125	85.5
282.356	79.5
282.588	81.5
282.819	94.5
283.051	63.5
283.282	82.5
283.513	94.5
283.745	89.5
283.976	71.5
284.207	81.5
284.439	71.5
284.67	79.5
284.901	92.5
285.132	94.5
285.364	63.5
285.595	85.5
285.826	92.5
286.057	88.5
286.288	84.5
286.52	80.5
286.751	77.5
286.982	79.5
287.213	74.5
287.444	72.5
287.675	78.5
287.906	93.5
288.138	77.5
288.369	83.5
288.6	95.5
288.831	85.5
289.062	91.5
289.293	91.5
289.524	86.5
289.755	85.5
289.986	79.5
290.217	80.5
290.448	88.5
290.679	85.5
290.91	76.5
291.141	89.5
291.371	84.5
291.602	76.5
291.833	83.5
292.064	67.5
292.295	78.5
292.526	90.5
292.757	77.5
292.987	65.5
293.218	84.5
293.449	87.5
293.68	72.5
293.91	81.5
294.141	80.5
294.372	74.5
294.603	79.5
294.833	74.5
295.064	85.5
295.295	83.5
295.525	88.5
295.756	82.5
295.987	78.5
296.217	84.5
296.448	89.5
296.679	95.5
296.909	83.5
297.14	92.5
297.37	74.5
297.601	85.5
297.831	88.5
298.062	76.5
298.292	65.5
298.523	79.5
298.753	65.5
298.984	88.5
299.214	102.5
299.445	91.5
299.675	91.5
299.905	79.5
300.136	78.5
300.366	78.5
300.597	87.5
300.827	81.5
301.057	88.5
301.288	77.5
301.518	80.5
301.748	78.5
301.979	101.5
302.209	90.5
302.439	86.5
302.669	80.5
302.9	86.5
303.13	93.5
303.36	88.5
303.59	90.5
303.82	96.5
304.051	95.5
304.281	89.5
304.511	92.5
304.741	91.5
304.971	85.5
305.201	84.5
305.431	94.5
305.661	81.5
305.891	90.5
306.121	86.5
306.352	76.5
306.582	74.5
306.812	80.5
307.042	83.5
307.272	67.5
307.502	86.5
307.731	92.5
307.961	79.5
308.191	89.5
308.421	79.5
308.651	84.5
308.881	103.5
309.111	103.5
309.341	92.5
309.571	98.5
309.8	93.5
310.03	90.5
310.26	89.5
310.49	92.5
310.72	83.5
310.949	84.5
311.179	88.5
311.409	94.5
311.639	91.5
311.868	84.5
312.098	79.5
312.328	89.5
312.557	88.5
312.787	77.5
313.017	86.5
313.246	78.5
313.476	67.5
313.706	89.5
313.935	87.5
314.165	72.5
314.394	88.5
314.624	85.5
314.853	72.5
315.083	75.5
315.312	82.5
315.542	85.5
315.771	84.5
316.001	73.5
316.23	83.5
316.46	83.5
316.689	70.5
316.919	82.5
317.148	86.5
317.377	84.5
317.607	88.5
317.836	85.5
318.065	92.5
318.295	77.5
318.524	94.5
318.753	86.5
318.983	82.5
319.212	85.5
319.441	72.5
319.67	81.5
319.9	81.5
320.129	88.5
320.358	75.5
320.587	80.5
320.816	68.5
321.046	74.5
321.275	68.5
321.504	73.5
321.733	87.5
321.962	89.5
322.191	80.5
322.42	85.5
322.649	81.5
322.878	81.5
323.108	84.5
323.337	81.5
323.566	75.5
323.795	72.5
324.024	95.5
324.253	85.5
324.482	70.5
324.71	74.5
324.939	80.5
325.168	73.5
325.397	85.5
325.626	90.5
325.855	87.5
326.084	77.5
326.313	100.5
326.542	68.5
326.77	85.5
326.999	79.5
327.228	83.5
327.457	80.5
327.686	72.5
327.914	84.5
328.143	80.5
328.372	83.5
328.6	84.5
328.829	69.5
329.058	88.5
329.287	85.5
329.515	89.5
329.744	88.5
329.972	83.5
330.201	83.5
330.43	89.5
330.658	107.5
330.887	82.5
331.115	91.5
331.344	80.5
331.572	80.5
331.801	81.5
332.03	92.5
332.258	82.5
332.486	90.5
332.715	85.5
332.943	94.5
333.172	95.5
333.4	85.5
333.629	91.5
333.857	67.5
334.085	104.5
334.314	71.5
334.542	78.5
334.771	77.5
334.999	85.5
335.227	71.5
335.455	85.5
335.684	101.5
335.912	85.5
336.14	70.5
336.369	94.5
336.597	85.5
336.825	92.5
337.053	81.5
337.281	84.5
337.51	81.5
337.738	87.5
337.966	97.5
338.194	81.5
338.422	76.5
338.65	70.5
338.878	76.5
339.106	75.5
339.334	88.5
339.562	97.5
339.79	69.5
340.018	85.5
340.246	71.5
340.474	75.5
340.702	88.5
340.93	87.5
341.158	79.5
341.386	72.5
341.614	88.5
341.842	83.5
342.07	84.5
342.298	85.5
342.526	91.5
342.754	92.5
342.981	92.5
343.209	75.5
343.437	99.5
343.665	71.5
343.893	76.5
344.12	87.5
344.348	92.5
344.576	84.5
344.804	87.5
345.031	86.5
345.259	83.5
345.487	102.5
345.714	94.5
345.942	72.5
346.17	72.5
346.397	92.5
346.625	76.5
346.853	86.5
347.08	80.5
347.308	80.5
347.535	84.5
347.763	80.5
347.99	88.5
348.218	73.5
348.445	73.5
348.673	74.5
348.9	83.5
349.128	87.5
349.355	85.5
349.583	96.5
349.81	88.5
350.037	96.5
350.265	86.5
350.492	92.5
350.72	92.5
350.947	88.5
351.174	94.5
351.402	89.5
351.629	83.5
351.856	83.5
352.083	94.5
352.311	100.5
352.538	99.5
352.765	83.5
352.992	94.5
353.22	80.5
353.447	92.5
353.674	91.5
353.901	70.5
354.128	72.5
354.355	80.5
354.583	82.5
354.81	80.5
355.037	83.5
355.264	81.5
355.491	79.5
355.718	74.5
355.945	86.5
356.172	72.5
356.399	82.5
356.626	87.5
356.853	81.5
357.08	96.5
357.307	99.5
357.534	78.5
357.761	95.5
357.988	91.5
358.215	84.5
358.441	71.5
358.668	67.5
358.895	78.5
359.122	79.5
359.349	89.5
359.576	73.5
359.802	87.5
360.029	79.5
360.256	74.5
360.483	82.5
360.709	90.5
360.936	81.5
361.163	81.5
361.39	77.5
361.616	80.5
361.843	83.5
362.07	89.5
362.296	78.5
362.523	83.5
362.749	84.5
362.976	87.5
363.203	83.5
363.429	82.5
363.656	69.5
363.882	70.5
364.109	84.5
364.335	92.5
364.562	89.5
364.788	73.5
365.015	73.5
365.241	68.5
365.468	71.5
365.694	93.5
365.92	91.5
366.147	88.5
366.373	91.5
366.599	88.5
366.826	94.5
367.052	71.5
367.278	78.5
367.505	94.5
367.731	90.5
367.957	79.5
368.184	74.5
368.41	86.5
368.636	97.5
368.862	82.5
369.089	77.5
369.315	87.5
369.541	89.5
369.767	84.5
369.993	87.5
370.219	78.5
370.445	87.5
370.672	83.5
370.898	86.5
371.124	87.5
371.35	83.5
371.576	77.5
371.802	91.5
372.028	83.5
372.254	85.5
372.48	91.5
372.706	96.5
372.932	94.5
373.158	88.5
373.384	83.5
373.61	94.5
373.835	72.5
374.061	73.5
374.287	99.5
374.513	88.5
374.739	80.5
374.965	80.5
375.191	83.5
375.416	87.5
375.642	76.5
375.868	88.5
376.094	88.5
376.319	82.5
376.545	87.5
376.771	79.5
376.997	88.5
377.222	75.5
377.448	84.5
377.674	84.5
377.899	89.5
378.125	64.5
378.35	89.5
378.576	81.5
378.802	88.5
379.027	71.5
379.253	79.5
379.478	86.5
379.704	87.5
379.929	84.5
380.155	81.5
380.38	74.5
380.606	84.5
380.831	86.5
381.057	77.5
381.282	73.5
381.507	91.5
381.733	89.5
381.958	94.5
382.184	67.5
382.409	73.5
382.634	85.5
382.86	100.5
383.085	94.5
383.31	95.5
383.535	88.5
383.761	90.5
383.986	92.5
384.211	86.5
384.436	81.5
384.662	84.5
384.887	87.5
385.112	74.5
385.337	77.5
385.562	81.5
385.787	107.5
386.013	83.5
386.238	92.5
386.463	87.5
386.688	84.5
386.913	75.5
387.138	82.5
387.363	76.5
387.588	93.5
387.813	75.5
388.038	79.5
388.263	82.5
388.488	81.5
388.713	72.5
388.938	70.5
389.163	86.5
389.387	75.5
389.612	78.5
389.837	87.5
390.062	83.5
390.287	86.5
390.512	82.5
390.736	79.5
390.961	82.5
391.186	83.5
391.411	61.5
391.636	83.5
391.86	78.5
392.085	81.5
392.31	90.5
392.534	85.5
392.759	84.5
392.984	103.5
393.208	125.5
393.433	105.5
393.658	111.5
393.882	91.5
394.107	93.5
394.331	85.5
394.556	93.5
394.78	82.5
395.005	90.5
395.229	87.5
395.454	86.5
395.678	78.5
395.903	97.5
396.127	92.5
396.352	112.5
396.576	97.5
396.801	111.5
397.025	125.5
397.249	83.5
397.474	86.5
397.698	72.5
397.922	87.5
398.147	82.5
398.371	86.5
398.595	83.5
398.82	77.5
399.044	99.5
399.268	79.5
399.492	77.5
399.717	87.5
399.941	89.5
400.165	96.5
400.389	93.5
400.613	73.5
400.837	71.5
401.062	91.5
401.286	67.5
401.51	78.5
401.734	83.5
401.958	83.5
402.182	83.5
402.406	71.5
402.63	77.5
402.854	73.5
403.078	83.5
403.302	83.5
403.526	87.5
403.75	82.5
403.974	86.5
404.198	89.5
404.422	83.5
404.645	76.5
404.869	73.5
405.093	78.5
405.317	68.5
405.541	81.5
405.765	92.5
405.988	87.5
406.212	78.5
406.436	72.5
406.66	78.5
406.883	83.5
407.107	90.5
407.331	74.5
407.555	83.5
407.778	96.5
408.002	78.5
408.226	86.5
408.449	85.5
408.673	74.5
408.896	93.5
409.12	87.5
409.344	84.5
409.567	72.5
409.791	83.5
410.014	77.5
410.238	80.5
410.461	70.5
410.685	79.5
410.908	73.5
411.132	86.5
411.355	95.5
411.578	82.5
411.802	89.5
412.025	72.5
412.249	78.5
412.472	72.5
412.695	71.5
412.919	89.5
413.142	93.5
413.365	81.5
413.589	88.5
413.812	79.5
414.035	85.5
414.258	83.5
414.482	71.5
414.705	92.5
414.928	72.5
415.151	90.5
415.374	86.5
415.597	83.5
415.821	84.5
416.044	91.5
416.267	86.5
416.49	81.5
416.713	85.5
416.936	79.5
417.159	85.5
417.382	87.5
417.605	73.5
417.828	81.5
418.051	82.5
418.274	71.5
418.497	92.5
418.72	85.5
418.943	72.5
419.166	69.5
419.389	85.5
419.611	78.5
419.834	90.5
420.057	72.5
420.28	71.5
420.503	82.5
420.726	87.5
420.948	81.5
421.171	102.5
421.394	83.5
421.617	82.5
421.839	97.5
422.062	87.5
422.285	99.5
422.507	107.5
422.73	137.5
422.953	118.5
423.175	97.5
423.398	94.5
423.621	79.5
423.843	93.5
424.066	89.5
424.288	91.5
424.511	73.5
424.733	75.5
424.956	84.5
425.178	84.5
425.401	90.5
425.623	79.5
425.846	88.5
426.068	76.5
426.291	78.5
426.513	81.5
426.735	80.5
426.958	73.5
427.18	79.5
427.402	87.5
427.625	84.5
427.847	84.5
428.069	54.5
428.292	85.5
428.514	91.5
428.736	99.5
428.958	93.5
429.181	94.5
429.403	84.5
429.625	76.5
429.847	86.5
430.069	92.5
430.292	92.5
430.514	89.5
430.736	93.5
430.958	79.5
431.18	92.5
431.402	71.5
431.624	95.5
431.846	78.5
432.068	76.5
432.29	79.5
432.512	80.5
432.734	78.5
432.956	80.5
433.178	77.5
433.4	72.5
433.622	97.5
433.844	89.5
434.066	79.5
434.287	81.5
434.509	67.5
434.731	73.5
434.953	84.5
435.175	85.5
435.397	79.5
435.618	78.5
435.84	78.5
436.062	80.5
436.284	89.5
436.505	78.5
436.727	77.5
436.949	82.5
437.17	87.5
437.392	91.5
437.614	76.5
437.835	69.5
438.057	85.5
438.278	81.5
438.5	85.5
438.721	91.5
438.943	76.5
439.165	91.5
439.386	71.5
439.608	83.5
439.829	87.5
440.05	77.5
440.272	87.5
440.493	93.5
440.715	81.5
440.936	84.5
441.158	83.5
441.379	85.5
441.6	85.5
441.822	85.5
442.043	76.5
442.264	93.5
442.486	74.5
442.707	102.5
442.928	91.5
443.149	86.5
443.371	105.5
443.592	103.5
443.813	93.5
444.034	66.5
444.255	83.5
444.476	79.5
444.698	86.5
444.919	81.5
445.14	139.5
445.361	115.5
445.582	113.5
445.803	100.5
446.024	86.5
446.245	71.5
446.466	90.5
446.687	75.5
446.908	72.5
447.129	79.5
447.35	64.5
447.571	85.5
447.792	70.5
448.013	84.5
448.234	77.5
448.455	91.5
448.675	87.5
448.896	83.5
449.117	98.5
449.338	69.5
449.559	86.5
449.779	68.5
450	71.5
450.221	69.5
450.442	79.5
450.662	85.5
450.883	69.5
451.104	82.5
451.324	75.5
451.545	79.5
451.766	88.5
451.986	91.5
452.207	83.5
452.428	73.5
452.648	79.5
452.869	84.5
453.089	69.5
453.31	79.5
453.53	73.5
453.751	80.5
453.971	95.5
454.192	70.5
454.412	71.5
454.633	84.5
454.853	73.5
455.073	85.5
455.294	80.5
455.514	83.5
455.734	78.5
455.955	92.5
456.175	79.5
456.395	93.5
456.616	72.5
456.836	75.5
457.056	77.5
457.276	76.5
457.497	80.5
457.717	84.5
457.937	82.5
458.157	86.5
458.377	76.5
458.598	85.5
458.818	79.5
459.038	101.5
459.258	93.5
459.478	82.5
459.698	69.5
459.918	73.5
460.138	70.5
460.358	83.5
460.578	79.5
460.798	82.5
461.018	92.5
461.238	68.5
461.458	76.5
461.678	78.5
461.898	85.5
462.118	91.5
462.338	73.5
462.558	79.5
462.777	74.5
462.997	77.5
463.217	71.5
463.437	78.5
463.657	68.5
463.876	89.5
464.096	72.5
464.316	77.5
464.536	87.5
464.755	98.5
464.975	77.5
465.195	94.5
465.414	76.5
465.634	68.5
465.854	76.5
466.073	73.5
466.293	83.5
466.512	94.5
466.732	91.5
466.951	83.5
467.171	78.5
467.391	75.5
467.61	80.5
467.829	83.5
468.049	83.5
468.268	80.5
468.488	85.5
468.707	78.5
468.927	85.5
469.146	95.5
469.365	79.5
469.585	89.5
469.804	83.5
470.023	78.5
470.243	76.5
470.462	72.5
470.681	73.5
470.901	63.5
471.12	88.5
471.339	88.5
471.558	84.5
471.777	85.5
471.997	85.5
472.216	70.5
472.435	79.5
472.654	92.5
472.873	76.5
473.092	93.5
473.311	95.5
473.53	75.5
473.749	96.5
473.968	85.5
474.187	86.5
474.406	88.5
474.625	80.5
474.844	85.5
475.063	89.5
475.282	74.5
475.501	82.5
475.72	93.5
475.939	74.5
476.158	91.5
476.377	94.5
476.596	86.5
476.814	83.5
477.033	88.5
477.252	77.5
477.471	86.5
477.69	83.5
477.908	87.5
478.127	95.5
478.346	84.5
478.564	81.5
478.783	83.5
479.002	99.5
479.22	72.5
479.439	91.5
479.658	90.5
479.876	94.5
480.095	79.5
480.313	91.5
480.532	87.5
480.751	72.5
480.969	91.5
481.188	80.5
481.406	99.5
481.624	90.5
481.843	81.5
482.061	83.5
482.28	69.5
482.498	93.5
482.717	74.5
482.935	86.5
483.153	76.5
483.372	80.5
483.59	87.5
483.808	88.5
484.027	96.5
484.245	81.5
484.463	85.5
484.681	73.5
484.9	91.5
485.118	84.5
485.336	81.5
485.554	89.5
485.772	78.5
485.99	88.5
486.209	81.5
486.427	72.5
486.645	83.5
486.863	75.5
487.081	99.5
487.299	83.5
487.517	80.5
487.735	93.5
487.953	80.5
488.171	88.5
488.389	86.5
488.607	84.5
488.825	78.5
489.043	71.5
489.261	81.5
489.479	74.5
489.696	69.5
489.914	66.5
490.132	74.5
490.35	94.5
490.568	96.5
490.786	76.5
491.003	87.5
491.221	79.5
491.439	85.5
491.657	76.5
491.874	88.5
492.092	88.5
492.31	88.5
492.527	87.5
492.745	71.5
492.963	93.5
493.18	91.5
493.398	86.5
493.615	84.5
493.833	85.5
494.05	89.5
494.268	85.5
494.485	84.5
494.703	83.5
494.92	103.5
495.138	97.5
495.355	83.5
495.573	89.5
495.79	88.5
496.008	85.5
496.225	86.5
496.442	84.5
496.66	74.5
496.877	87.5
497.094	91.5
497.312	77.5
497.529	86.5
497.746	93.5
497.963	84.5
498.181	79.5
498.398	106.5
498.615	87.5
498.832	84.5
499.049	71.5
499.267	83.5
499.484	90.5
499.701	95.5
499.918	90.5
500.135	71.5
500.352	73.5
500.569	78.5
500.786	85.5
501.003	75.5
501.22	84.5
501.437	79.5
501.654	83.5
501.871	89.5
502.088	91.5
502.305	71.5
502.522	77.5
502.739	76.5
502.956	87.5
503.172	85.5
503.389	89.5
503.606	72.5
503.823	86.5
504.04	74.5
504.256	83.5
504.473	81.5
504.69	88.5
504.907	87.5
505.123	91.5
505.34	69.5
505.557	97.5
505.773	86.5
505.99	89.5
506.207	79.5
506.423	72.5
506.64	81.5
506.856	88.5
507.073	81.5
507.289	90.5
507.506	80.5
507.722	93.5
507.939	66.5
508.155	89.5
508.372	88.5
508.588	80.5
508.805	88.5
509.021	92.5
509.238	73.5
509.454	78.5
509.67	92.5
509.887	77.5
510.103	86.5
510.319	76.5
510.536	94.5
510.752	94.5
510.968	91.5
511.184	88.5
511.401	83.5
511.617	76.5
511.833	92.5
512.049	99.5
512.265	93.5
512.481	96.5
512.698	83.5
512.914	95.5
513.13	89.5
513.346	81.5
513.562	67.5
513.778	84.5
513.994	77.5
514.21	76.5
514.426	89.5
514.642	94.5
514.858	89.5
515.074	84.5
515.29	91.5
515.506	83.5
515.721	81.5
515.937	76.5
516.153	80.5
516.369	82.5
516.585	67.5
516.801	85.5
517.016	74.5
517.232	77.5
517.448	87.5
517.664	87.5
517.879	82.5
518.095	74.5
518.311	78.5
518.527	90.5
518.742	70.5
518.958	89.5
519.173	91.5
519.389	65.5
519.605	102.5
519.82	82.5
520.036	83.5
520.251	78.5
520.467	70.5
520.682	83.5
520.898	77.5
521.113	90.5
521.329	83.5
521.544	79.5
521.76	81.5
521.975	84.5
522.19	91.5
522.406	86.5
522.621	88.5
522.836	85.5
523.052	94.5
523.267	78.5
523.482	88.5
523.698	76.5
523.913	86.5
524.128	75.5
524.343	79.5
524.559	81.5
524.774	75.5
524.989	82.5
525.204	95.5
525.419	77.5
525.634	85.5
525.849	88.5
526.064	95.5
526.28	99.5
526.495	107.5
526.71	96.5
526.925	93.5
527.14	103.5
527.355	99.5
527.57	94.5
527.785	82.5
527.999	83.5
528.214	77.5
528.429	81.5
528.644	85.5
528.859	97.5
529.074	74.5
529.289	80.5
529.503	96.5
529.718	66.5
529.933	83.5
530.148	84.5
530.363	81.5
530.577	85.5
530.792	102.5
531.007	89.5
531.221	85.5
531.436	94.5
531.651	101.5
531.865	63.5
532.08	84.5
532.295	81.5
532.509	84.5
532.724	94.5
532.938	93.5
533.153	89.5
533.367	77.5
533.582	79.5
533.796	82.5
534.011	83.5
534.225	96.5
534.44	95.5
534.654	93.5
534.868	85.5
535.083	80.5
535.297	98.5
535.511	95.5
535.726	101.5
535.94	65.5
536.154	77.5
536.369	97.5
536.583	83.5
536.797	87.5
537.011	84.5
537.225	79.5
537.44	83.5
537.654	76.5
537.868	73.5
538.082	78.5
538.296	86.5
538.51	94.5
538.724	77.5
538.938	91.5
539.153	84.5
539.367	88.5
539.581	79.5
539.795	75.5
540.009	73.5
540.222	85.5
