Data from 1600_3_HRD10591_00044.txt Node
Date: Mon Jan 19 13:55:15 EST 2026
User: Yrep
Spectrometer: HR+D1059
Trigger mode: 1
Integration Time (sec): 1.000000E-1
Scans to average: 1
Electric dark correction enabled: true
Nonlinearity correction enabled: false
Boxcar width: 0
XAxis mode: Wavelengths
Number of Pixels in Spectrum: 2048
>>>>>Begin Spectral Data<<<<<
223.165	-34.94
223.4	-34.94
223.635	-34.94
223.869	-17.94
224.104	-8.94
224.338	-9.94
224.573	-20.94
224.808	-12.94
225.042	-13.94
225.277	-10.94
225.511	-5.94
225.746	7.06
225.98	18.06
226.215	6.06
226.449	27.06
226.683	39.06
226.918	14.06
227.152	25.06
227.387	40.06
227.621	36.06
227.856	46.06
228.09	47.06
228.324	53.06
228.559	60.06
228.793	52.06
229.027	68.06
229.262	55.06
229.496	59.06
229.73	51.06
229.964	92.06
230.199	85.06
230.433	70.06
230.667	76.06
230.901	71.06
231.136	81.06
231.37	76.06
231.604	74.06
231.838	84.06
232.072	86.06
232.306	83.06
232.541	72.06
232.775	67.06
233.009	86.06
233.243	95.06
233.477	88.06
233.711	62.06
233.945	83.06
234.179	77.06
234.413	79.06
234.647	77.06
234.881	58.06
235.115	82.06
235.349	62.06
235.583	65.06
235.817	78.06
236.051	76.06
236.285	75.06
236.519	71.06
236.753	82.06
236.987	78.06
237.221	67.06
237.455	77.06
237.689	71.06
237.922	78.06
238.156	72.06
238.39	62.06
238.624	78.06
238.858	75.06
239.091	73.06
239.325	76.06
239.559	60.06
239.793	67.06
240.027	92.06
240.26	80.06
240.494	79.06
240.728	77.06
240.961	73.06
241.195	67.06
241.429	84.06
241.662	79.06
241.896	64.06
242.13	73.06
242.363	79.06
242.597	61.06
242.83	62.06
243.064	78.06
243.298	73.06
243.531	62.06
243.765	70.06
243.998	76.06
244.232	90.06
244.465	77.06
244.699	71.06
244.932	80.06
245.166	80.06
245.399	80.06
245.633	76.06
245.866	66.06
246.099	75.06
246.333	70.06
246.566	76.06
246.8	76.06
247.033	88.06
247.266	74.06
247.5	64.06
247.733	76.06
247.966	87.06
248.2	68.06
248.433	58.06
248.666	73.06
248.899	83.06
249.133	82.06
249.366	80.06
249.599	67.06
249.832	80.06
250.066	78.06
250.299	83.06
250.532	83.06
250.765	58.06
250.998	68.06
251.231	73.06
251.465	70.06
251.698	76.06
251.931	88.06
252.164	81.06
252.397	85.06
252.63	71.06
252.863	90.06
253.096	82.06
253.329	69.06
253.562	82.06
253.795	84.06
254.028	81.06
254.261	77.06
254.494	98.06
254.727	89.06
254.96	79.06
255.193	76.06
255.426	82.06
255.659	89.06
255.892	90.06
256.124	90.06
256.357	82.06
256.59	78.06
256.823	79.06
257.056	75.06
257.289	77.06
257.521	82.06
257.754	78.06
257.987	84.06
258.22	85.06
258.452	92.06
258.685	78.06
258.918	78.06
259.151	77.06
259.383	83.06
259.616	83.06
259.849	83.06
260.081	77.06
260.314	78.06
260.547	71.06
260.779	77.06
261.012	89.06
261.244	70.06
261.477	84.06
261.71	73.06
261.942	72.06
262.175	87.06
262.407	87.06
262.64	82.06
262.872	71.06
263.105	71.06
263.337	102.06
263.57	77.06
263.802	88.06
264.035	76.06
264.267	80.06
264.499	72.06
264.732	76.06
264.964	80.06
265.197	96.06
265.429	92.06
265.661	88.06
265.894	76.06
266.126	84.06
266.358	70.06
266.591	83.06
266.823	60.06
267.055	72.06
267.287	79.06
267.52	76.06
267.752	80.06
267.984	67.06
268.216	67.06
268.448	79.06
268.681	85.06
268.913	82.06
269.145	100.06
269.377	82.06
269.609	83.06
269.841	85.06
270.073	86.06
270.306	91.06
270.538	82.06
270.77	76.06
271.002	73.06
271.234	73.06
271.466	79.06
271.698	85.06
271.93	69.06
272.162	79.06
272.394	84.06
272.626	90.06
272.858	76.06
273.09	88.06
273.322	78.06
273.553	78.06
273.785	80.06
274.017	70.06
274.249	84.06
274.481	77.06
274.713	71.06
274.945	81.06
275.176	77.06
275.408	84.06
275.64	80.06
275.872	74.06
276.104	86.06
276.335	79.06
276.567	83.06
276.799	90.06
277.031	65.06
277.262	79.06
277.494	98.06
277.726	62.06
277.957	76.06
278.189	80.06
278.421	91.06
278.652	86.06
278.884	95.06
279.115	93.06
279.347	81.06
279.579	71.06
279.81	87.06
280.042	91.06
280.273	90.06
280.505	81.06
280.736	81.06
280.968	84.06
281.199	86.06
281.431	85.06
281.662	84.06
281.894	85.06
282.125	78.06
282.356	82.06
282.588	86.06
282.819	72.06
283.051	97.06
283.282	74.06
283.513	89.06
283.745	82.06
283.976	79.06
284.207	91.06
284.439	76.06
284.67	75.06
284.901	90.06
285.132	89.06
285.364	84.06
285.595	89.06
285.826	81.06
286.057	89.06
286.288	85.06
286.52	74.06
286.751	92.06
286.982	79.06
287.213	88.06
287.444	91.06
287.675	77.06
287.906	88.06
288.138	94.06
288.369	84.06
288.6	85.06
288.831	75.06
289.062	83.06
289.293	81.06
289.524	83.06
289.755	87.06
289.986	92.06
290.217	80.06
290.448	86.06
290.679	86.06
290.91	92.06
291.141	83.06
291.371	74.06
291.602	74.06
291.833	98.06
292.064	84.06
292.295	90.06
292.526	87.06
292.757	90.06
292.987	78.06
293.218	81.06
293.449	82.06
293.68	88.06
293.91	77.06
294.141	94.06
294.372	83.06
294.603	87.06
294.833	70.06
295.064	68.06
295.295	97.06
295.525	71.06
295.756	84.06
295.987	78.06
296.217	86.06
296.448	83.06
296.679	79.06
296.909	76.06
297.14	91.06
297.37	92.06
297.601	82.06
297.831	80.06
298.062	88.06
298.292	89.06
298.523	80.06
298.753	97.06
298.984	79.06
299.214	87.06
299.445	83.06
299.675	79.06
299.905	93.06
300.136	96.06
300.366	81.06
300.597	90.06
300.827	81.06
301.057	86.06
301.288	74.06
301.518	86.06
301.748	84.06
301.979	104.06
302.209	99.06
302.439	81.06
302.669	82.06
302.9	72.06
303.13	94.06
303.36	86.06
303.59	88.06
303.82	86.06
304.051	79.06
304.281	73.06
304.511	87.06
304.741	86.06
304.971	95.06
305.201	86.06
305.431	71.06
305.661	82.06
305.891	97.06
306.121	90.06
306.352	84.06
306.582	86.06
306.812	94.06
307.042	92.06
307.272	78.06
307.502	83.06
307.731	90.06
307.961	90.06
308.191	73.06
308.421	90.06
308.651	91.06
308.881	94.06
309.111	87.06
309.341	89.06
309.571	91.06
309.8	82.06
310.03	78.06
310.26	78.06
310.49	85.06
310.72	98.06
310.949	80.06
311.179	94.06
311.409	89.06
311.639	86.06
311.868	82.06
312.098	82.06
312.328	82.06
312.557	75.06
312.787	86.06
313.017	70.06
313.246	93.06
313.476	88.06
313.706	74.06
313.935	86.06
314.165	91.06
314.394	95.06
314.624	95.06
314.853	88.06
315.083	86.06
315.312	77.06
315.542	85.06
315.771	85.06
316.001	85.06
316.23	95.06
316.46	87.06
316.689	88.06
316.919	64.06
317.148	99.06
317.377	75.06
317.607	82.06
317.836	94.06
318.065	100.06
318.295	102.06
318.524	77.06
318.753	85.06
318.983	95.06
319.212	86.06
319.441	81.06
319.67	78.06
319.9	82.06
320.129	75.06
320.358	70.06
320.587	93.06
320.816	82.06
321.046	68.06
321.275	92.06
321.504	100.06
321.733	89.06
321.962	71.06
322.191	89.06
322.42	78.06
322.649	84.06
322.878	82.06
323.108	82.06
323.337	73.06
323.566	78.06
323.795	88.06
324.024	91.06
324.253	87.06
324.482	80.06
324.71	97.06
324.939	84.06
325.168	74.06
325.397	84.06
325.626	89.06
325.855	90.06
326.084	86.06
326.313	86.06
326.542	80.06
326.77	85.06
326.999	97.06
327.228	76.06
327.457	74.06
327.686	82.06
327.914	85.06
328.143	96.06
328.372	90.06
328.6	103.06
328.829	80.06
329.058	78.06
329.287	76.06
329.515	71.06
329.744	77.06
329.972	79.06
330.201	70.06
330.43	82.06
330.658	86.06
330.887	71.06
331.115	84.06
331.344	84.06
331.572	91.06
331.801	76.06
332.03	87.06
332.258	78.06
332.486	90.06
332.715	76.06
332.943	87.06
333.172	76.06
333.4	90.06
333.629	104.06
333.857	86.06
334.085	89.06
334.314	72.06
334.542	84.06
334.771	94.06
334.999	82.06
335.227	84.06
335.455	79.06
335.684	86.06
335.912	97.06
336.14	81.06
336.369	76.06
336.597	101.06
336.825	80.06
337.053	79.06
337.281	76.06
337.51	93.06
337.738	85.06
337.966	89.06
338.194	77.06
338.422	82.06
338.65	84.06
338.878	88.06
339.106	88.06
339.334	88.06
339.562	82.06
339.79	75.06
340.018	92.06
340.246	102.06
340.474	78.06
340.702	88.06
340.93	69.06
341.158	90.06
341.386	95.06
341.614	77.06
341.842	88.06
342.07	85.06
342.298	71.06
342.526	86.06
342.754	79.06
342.981	80.06
343.209	91.06
343.437	87.06
343.665	75.06
343.893	97.06
344.12	92.06
344.348	93.06
344.576	77.06
344.804	80.06
345.031	56.06
345.259	93.06
345.487	84.06
345.714	90.06
345.942	96.06
346.17	88.06
346.397	80.06
346.625	71.06
346.853	87.06
347.08	79.06
347.308	88.06
347.535	74.06
347.763	83.06
347.99	93.06
348.218	80.06
348.445	89.06
348.673	96.06
348.9	95.06
349.128	82.06
349.355	83.06
349.583	94.06
349.81	82.06
350.037	84.06
350.265	79.06
350.492	84.06
350.72	84.06
350.947	82.06
351.174	85.06
351.402	88.06
351.629	79.06
351.856	90.06
352.083	81.06
352.311	82.06
352.538	93.06
352.765	72.06
352.992	76.06
353.22	77.06
353.447	78.06
353.674	93.06
353.901	97.06
354.128	90.06
354.355	89.06
354.583	79.06
354.81	91.06
355.037	83.06
355.264	91.06
355.491	82.06
355.718	84.06
355.945	101.06
356.172	90.06
356.399	83.06
356.626	94.06
356.853	87.06
357.08	102.06
357.307	76.06
357.534	85.06
357.761	86.06
357.988	89.06
358.215	102.06
358.441	94.06
358.668	92.06
358.895	94.06
359.122	81.06
359.349	83.06
359.576	90.06
359.802	83.06
360.029	90.06
360.256	76.06
360.483	87.06
360.709	84.06
360.936	86.06
361.163	78.06
361.39	92.06
361.616	94.06
361.843	84.06
362.07	78.06
362.296	80.06
362.523	80.06
362.749	93.06
362.976	90.06
363.203	111.06
363.429	82.06
363.656	82.06
363.882	104.06
364.109	91.06
364.335	91.06
364.562	94.06
364.788	94.06
365.015	100.06
365.241	77.06
365.468	72.06
365.694	84.06
365.92	78.06
366.147	66.06
366.373	74.06
366.599	83.06
366.826	84.06
367.052	89.06
367.278	85.06
367.505	82.06
367.731	94.06
367.957	78.06
368.184	76.06
368.41	68.06
368.636	90.06
368.862	90.06
369.089	85.06
369.315	87.06
369.541	80.06
369.767	76.06
369.993	91.06
370.219	90.06
370.445	107.06
370.672	94.06
370.898	104.06
371.124	90.06
371.35	83.06
371.576	84.06
371.802	84.06
372.028	82.06
372.254	90.06
372.48	79.06
372.706	86.06
372.932	79.06
373.158	91.06
373.384	103.06
373.61	96.06
373.835	118.06
374.061	80.06
374.287	95.06
374.513	91.06
374.739	104.06
374.965	90.06
375.191	70.06
375.416	84.06
375.642	86.06
375.868	93.06
376.094	102.06
376.319	93.06
376.545	77.06
376.771	85.06
376.997	85.06
377.222	88.06
377.448	75.06
377.674	78.06
377.899	83.06
378.125	72.06
378.35	87.06
378.576	90.06
378.802	80.06
379.027	72.06
379.253	78.06
379.478	78.06
379.704	101.06
379.929	88.06
380.155	71.06
380.38	88.06
380.606	76.06
380.831	78.06
381.057	84.06
381.282	88.06
381.507	87.06
381.733	85.06
381.958	89.06
382.184	103.06
382.409	98.06
382.634	91.06
382.86	89.06
383.085	110.06
383.31	98.06
383.535	106.06
383.761	96.06
383.986	100.06
384.211	94.06
384.436	68.06
384.662	92.06
384.887	96.06
385.112	82.06
385.337	92.06
385.562	75.06
385.787	88.06
386.013	97.06
386.238	106.06
386.463	80.06
386.688	95.06
386.913	91.06
387.138	93.06
387.363	82.06
387.588	97.06
387.813	90.06
388.038	89.06
388.263	91.06
388.488	91.06
388.713	90.06
388.938	103.06
389.163	92.06
389.387	96.06
389.612	62.06
389.837	92.06
390.062	84.06
390.287	91.06
390.512	72.06
390.736	70.06
390.961	87.06
391.186	82.06
391.411	86.06
391.636	78.06
391.86	79.06
392.085	75.06
392.31	83.06
392.534	86.06
392.759	106.06
392.984	109.06
393.208	201.06
393.433	295.06
393.658	227.06
393.882	120.06
394.107	102.06
394.331	95.06
394.556	113.06
394.78	101.06
395.005	71.06
395.229	84.06
395.454	84.06
395.678	91.06
395.903	102.06
396.127	124.06
396.352	132.06
396.576	151.06
396.801	208.06
397.025	249.06
397.249	153.06
397.474	100.06
397.698	97.06
397.922	87.06
398.147	97.06
398.371	91.06
398.595	80.06
398.82	75.06
399.044	73.06
399.268	97.06
399.492	94.06
399.717	72.06
399.941	84.06
400.165	82.06
400.389	85.06
400.613	83.06
400.837	82.06
401.062	104.06
401.286	73.06
401.51	94.06
401.734	91.06
401.958	91.06
402.182	78.06
402.406	73.06
402.63	75.06
402.854	86.06
403.078	88.06
403.302	91.06
403.526	73.06
403.75	84.06
403.974	79.06
404.198	87.06
404.422	93.06
404.645	91.06
404.869	88.06
405.093	73.06
405.317	82.06
405.541	79.06
405.765	92.06
405.988	82.06
406.212	78.06
406.436	80.06
406.66	104.06
406.883	76.06
407.107	80.06
407.331	71.06
407.555	70.06
407.778	95.06
408.002	97.06
408.226	95.06
408.449	72.06
408.673	78.06
408.896	76.06
409.12	78.06
409.344	79.06
409.567	96.06
409.791	89.06
410.014	87.06
410.238	80.06
410.461	75.06
410.685	65.06
410.908	69.06
411.132	75.06
411.355	88.06
411.578	82.06
411.802	89.06
412.025	102.06
412.249	72.06
412.472	79.06
412.695	92.06
412.919	86.06
413.142	77.06
413.365	81.06
413.589	94.06
413.812	92.06
414.035	80.06
414.258	79.06
414.482	86.06
414.705	74.06
414.928	83.06
415.151	81.06
415.374	79.06
415.597	90.06
415.821	82.06
416.044	80.06
416.267	83.06
416.49	89.06
416.713	74.06
416.936	72.06
417.159	83.06
417.382	74.06
417.605	83.06
417.828	78.06
418.051	90.06
418.274	84.06
418.497	93.06
418.72	84.06
418.943	87.06
419.166	80.06
419.389	81.06
419.611	83.06
419.834	84.06
420.057	78.06
420.28	76.06
420.503	78.06
420.726	92.06
420.948	82.06
421.171	78.06
421.394	91.06
421.617	91.06
421.839	86.06
422.062	88.06
422.285	107.06
422.507	172.06
422.73	259.06
422.953	220.06
423.175	117.06
423.398	80.06
423.621	93.06
423.843	74.06
424.066	94.06
424.288	78.06
424.511	79.06
424.733	82.06
424.956	76.06
425.178	79.06
425.401	88.06
425.623	81.06
425.846	70.06
426.068	94.06
426.291	77.06
426.513	81.06
426.735	89.06
426.958	59.06
427.18	80.06
427.402	84.06
427.625	79.06
427.847	72.06
428.069	93.06
428.292	107.06
428.514	105.06
428.736	98.06
428.958	103.06
429.181	94.06
429.403	85.06
429.625	86.06
429.847	78.06
430.069	119.06
430.292	135.06
430.514	132.06
430.736	92.06
430.958	113.06
431.18	94.06
431.402	68.06
431.624	96.06
431.846	86.06
432.068	99.06
432.29	92.06
432.512	86.06
432.734	80.06
432.956	84.06
433.178	71.06
433.4	80.06
433.622	82.06
433.844	93.06
434.066	93.06
434.287	82.06
434.509	74.06
434.731	99.06
434.953	87.06
435.175	86.06
435.397	83.06
435.618	75.06
435.84	80.06
436.062	86.06
436.284	91.06
436.505	73.06
436.727	83.06
436.949	70.06
437.17	86.06
437.392	79.06
437.614	87.06
437.835	109.06
438.057	78.06
438.278	92.06
438.5	92.06
438.721	83.06
438.943	83.06
439.165	81.06
439.386	76.06
439.608	82.06
439.829	86.06
440.05	84.06
440.272	71.06
440.493	90.06
440.715	81.06
440.936	72.06
441.158	90.06
441.379	83.06
441.6	73.06
441.822	78.06
442.043	83.06
442.264	91.06
442.486	94.06
442.707	115.06
442.928	92.06
443.149	87.06
443.371	107.06
443.592	126.06
443.813	120.06
444.034	87.06
444.255	90.06
444.476	88.06
444.698	85.06
444.919	92.06
445.14	169.06
445.361	140.06
445.582	156.06
445.803	117.06
446.024	95.06
446.245	83.06
446.466	91.06
446.687	79.06
446.908	85.06
447.129	85.06
447.35	65.06
447.571	71.06
447.792	70.06
448.013	84.06
448.234	70.06
448.455	81.06
448.675	81.06
448.896	87.06
449.117	80.06
449.338	83.06
449.559	77.06
449.779	79.06
450	93.06
450.221	81.06
450.442	78.06
450.662	70.06
450.883	72.06
451.104	67.06
451.324	76.06
451.545	86.06
451.766	80.06
451.986	83.06
452.207	62.06
452.428	78.06
452.648	89.06
452.869	93.06
453.089	78.06
453.31	82.06
453.53	79.06
453.751	76.06
453.971	83.06
454.192	80.06
454.412	82.06
454.633	95.06
454.853	72.06
455.073	72.06
455.294	83.06
455.514	95.06
455.734	84.06
455.955	91.06
456.175	90.06
456.395	94.06
456.616	86.06
456.836	75.06
457.056	84.06
457.276	75.06
457.497	74.06
457.717	69.06
457.937	84.06
458.157	89.06
458.377	88.06
458.598	78.06
458.818	83.06
459.038	90.06
459.258	73.06
459.478	75.06
459.698	85.06
459.918	78.06
460.138	71.06
460.358	73.06
460.578	90.06
460.798	92.06
461.018	94.06
461.238	83.06
461.458	84.06
461.678	86.06
461.898	73.06
462.118	69.06
462.338	82.06
462.558	78.06
462.777	88.06
462.997	78.06
463.217	76.06
463.437	81.06
463.657	76.06
463.876	78.06
464.096	87.06
464.316	80.06
464.536	54.06
464.755	80.06
464.975	90.06
465.195	71.06
465.414	79.06
465.634	72.06
465.854	98.06
466.073	74.06
466.293	87.06
466.512	68.06
466.732	80.06
466.951	71.06
467.171	75.06
467.391	77.06
467.61	68.06
467.829	82.06
468.049	70.06
468.268	79.06
468.488	72.06
468.707	76.06
468.927	90.06
469.146	56.06
469.365	95.06
469.585	83.06
469.804	70.06
470.023	92.06
470.243	84.06
470.462	87.06
470.681	67.06
470.901	93.06
471.12	86.06
471.339	80.06
471.558	92.06
471.777	88.06
471.997	78.06
472.216	87.06
472.435	83.06
472.654	88.06
472.873	86.06
473.092	80.06
473.311	87.06
473.53	73.06
473.749	64.06
473.968	74.06
474.187	92.06
474.406	86.06
474.625	82.06
474.844	72.06
475.063	84.06
475.282	93.06
475.501	70.06
475.72	75.06
475.939	64.06
476.158	80.06
476.377	98.06
476.596	84.06
476.814	80.06
477.033	80.06
477.252	83.06
477.471	89.06
477.69	73.06
477.908	78.06
478.127	87.06
478.346	78.06
478.564	76.06
478.783	72.06
479.002	67.06
479.22	90.06
479.439	80.06
479.658	75.06
479.876	87.06
480.095	85.06
480.313	72.06
480.532	78.06
480.751	78.06
480.969	73.06
481.188	75.06
481.406	80.06
481.624	77.06
481.843	66.06
482.061	80.06
482.28	79.06
482.498	85.06
482.717	89.06
482.935	72.06
483.153	79.06
483.372	82.06
483.59	89.06
483.808	74.06
484.027	82.06
484.245	86.06
484.463	95.06
484.681	80.06
484.9	82.06
485.118	83.06
485.336	63.06
485.554	77.06
485.772	88.06
485.99	88.06
486.209	90.06
486.427	88.06
486.645	92.06
486.863	100.06
487.081	95.06
487.299	82.06
487.517	84.06
487.735	90.06
487.953	97.06
488.171	99.06
488.389	89.06
488.607	65.06
488.825	89.06
489.043	90.06
489.261	91.06
489.479	80.06
489.696	79.06
489.914	81.06
490.132	96.06
490.35	96.06
490.568	79.06
490.786	83.06
491.003	68.06
491.221	86.06
491.439	70.06
491.657	76.06
491.874	106.06
492.092	98.06
492.31	84.06
492.527	71.06
492.745	83.06
492.963	92.06
493.18	84.06
493.398	102.06
493.615	85.06
493.833	95.06
494.05	82.06
494.268	93.06
494.485	80.06
494.703	80.06
494.92	84.06
495.138	90.06
495.355	96.06
495.573	86.06
495.79	72.06
496.008	82.06
496.225	83.06
496.442	88.06
496.66	87.06
496.877	81.06
497.094	79.06
497.312	76.06
497.529	76.06
497.746	79.06
497.963	76.06
498.181	87.06
498.398	82.06
498.615	78.06
498.832	69.06
499.049	79.06
499.267	89.06
499.484	83.06
499.701	79.06
499.918	85.06
500.135	78.06
500.352	91.06
500.569	65.06
500.786	81.06
501.003	72.06
501.22	72.06
501.437	89.06
501.654	82.06
501.871	78.06
502.088	81.06
502.305	84.06
502.522	72.06
502.739	96.06
502.956	99.06
503.172	86.06
503.389	78.06
503.606	71.06
503.823	90.06
504.04	86.06
504.256	81.06
504.473	92.06
504.69	79.06
504.907	80.06
505.123	95.06
505.34	85.06
505.557	71.06
505.773	90.06
505.99	87.06
506.207	84.06
506.423	88.06
506.64	75.06
506.856	68.06
507.073	77.06
507.289	84.06
507.506	90.06
507.722	83.06
507.939	74.06
508.155	86.06
508.372	78.06
508.588	81.06
508.805	69.06
509.021	71.06
509.238	79.06
509.454	70.06
509.67	85.06
509.887	86.06
510.103	70.06
510.319	98.06
510.536	76.06
510.752	78.06
510.968	79.06
511.184	91.06
511.401	88.06
511.617	84.06
511.833	83.06
512.049	91.06
512.265	93.06
512.481	80.06
512.698	79.06
512.914	87.06
513.13	91.06
513.346	76.06
513.562	98.06
513.778	91.06
513.994	88.06
514.21	80.06
514.426	93.06
514.642	89.06
514.858	73.06
515.074	75.06
515.29	87.06
515.506	71.06
515.721	73.06
515.937	81.06
516.153	81.06
516.369	78.06
516.585	74.06
516.801	87.06
517.016	79.06
517.232	72.06
517.448	96.06
517.664	91.06
517.879	90.06
518.095	94.06
518.311	93.06
518.527	98.06
518.742	84.06
518.958	94.06
519.173	105.06
