Data from 1600_3_HRD10591_00014.txt Node
Date: Mon Jan 19 13:55:00 EST 2026
User: Yrep
Spectrometer: HR+D1059
Trigger mode: 1
Integration Time (sec): 1.000000E-1
Scans to average: 1
Electric dark correction enabled: true
Nonlinearity correction enabled: false
Boxcar width: 0
XAxis mode: Wavelengths
Number of Pixels in Spectrum: 2048
>>>>>Begin Spectral Data<<<<<
223.165	-4.19
223.4	-4.19
223.635	-4.19
223.869	-16.19
224.104	-13.19
224.338	-11.19
224.573	4.81
224.808	-23.19
225.042	-11.19
225.277	-16.19
225.511	-1.19
225.746	-6.19
225.98	-6.19
226.215	6.81
226.449	22.81
226.683	27.81
226.918	25.81
227.152	20.81
227.387	30.81
227.621	32.81
227.856	30.81
228.09	44.81
228.324	47.81
228.559	47.81
228.793	51.81
229.027	66.81
229.262	47.81
229.496	62.81
229.73	54.81
229.964	56.81
230.199	72.81
230.433	73.81
230.667	71.81
230.901	83.81
231.136	62.81
231.37	60.81
231.604	68.81
231.838	65.81
232.072	55.81
232.306	73.81
232.541	75.81
232.775	66.81
233.009	77.81
233.243	72.81
233.477	80.81
233.711	72.81
233.945	66.81
234.179	68.81
234.413	79.81
234.647	74.81
234.881	84.81
235.115	84.81
235.349	71.81
235.583	67.81
235.817	76.81
236.051	69.81
236.285	59.81
236.519	65.81
236.753	74.81
236.987	70.81
237.221	65.81
237.455	70.81
237.689	69.81
237.922	77.81
238.156	67.81
238.39	76.81
238.624	66.81
238.858	73.81
239.091	86.81
239.325	69.81
239.559	74.81
239.793	71.81
240.027	62.81
240.26	60.81
240.494	78.81
240.728	54.81
240.961	69.81
241.195	67.81
241.429	68.81
241.662	79.81
241.896	66.81
242.13	74.81
242.363	66.81
242.597	71.81
242.83	49.81
243.064	82.81
243.298	80.81
243.531	64.81
243.765	77.81
243.998	80.81
244.232	68.81
244.465	75.81
244.699	60.81
244.932	66.81
245.166	70.81
245.399	73.81
245.633	67.81
245.866	69.81
246.099	64.81
246.333	68.81
246.566	67.81
246.8	66.81
247.033	74.81
247.266	69.81
247.5	75.81
247.733	72.81
247.966	71.81
248.2	91.81
248.433	79.81
248.666	59.81
248.899	64.81
249.133	76.81
249.366	72.81
249.599	74.81
249.832	67.81
250.066	62.81
250.299	77.81
250.532	78.81
250.765	69.81
250.998	64.81
251.231	89.81
251.465	79.81
251.698	75.81
251.931	89.81
252.164	65.81
252.397	71.81
252.63	71.81
252.863	73.81
253.096	75.81
253.329	74.81
253.562	74.81
253.795	85.81
254.028	77.81
254.261	69.81
254.494	57.81
254.727	73.81
254.96	69.81
255.193	84.81
255.426	68.81
255.659	80.81
255.892	83.81
256.124	67.81
256.357	66.81
256.59	77.81
256.823	75.81
257.056	68.81
257.289	73.81
257.521	74.81
257.754	78.81
257.987	74.81
258.22	71.81
258.452	73.81
258.685	82.81
258.918	77.81
259.151	67.81
259.383	66.81
259.616	69.81
259.849	89.81
260.081	72.81
260.314	72.81
260.547	72.81
260.779	80.81
261.012	79.81
261.244	74.81
261.477	67.81
261.71	81.81
261.942	69.81
262.175	86.81
262.407	81.81
262.64	68.81
262.872	80.81
263.105	76.81
263.337	65.81
263.57	69.81
263.802	68.81
264.035	80.81
264.267	76.81
264.499	72.81
264.732	62.81
264.964	76.81
265.197	86.81
265.429	76.81
265.661	77.81
265.894	74.81
266.126	72.81
266.358	81.81
266.591	59.81
266.823	80.81
267.055	78.81
267.287	76.81
267.52	73.81
267.752	92.81
267.984	65.81
268.216	69.81
268.448	78.81
268.681	80.81
268.913	80.81
269.145	68.81
269.377	81.81
269.609	82.81
269.841	83.81
270.073	78.81
270.306	94.81
270.538	90.81
270.77	69.81
271.002	70.81
271.234	72.81
271.466	81.81
271.698	69.81
271.93	74.81
272.162	73.81
272.394	88.81
272.626	77.81
272.858	78.81
273.09	69.81
273.322	74.81
273.553	81.81
273.785	67.81
274.017	84.81
274.249	85.81
274.481	82.81
274.713	84.81
274.945	74.81
275.176	74.81
275.408	67.81
275.64	78.81
275.872	65.81
276.104	78.81
276.335	82.81
276.567	73.81
276.799	78.81
277.031	82.81
277.262	76.81
277.494	71.81
277.726	82.81
277.957	74.81
278.189	67.81
278.421	84.81
278.652	64.81
278.884	67.81
279.115	72.81
279.347	68.81
279.579	80.81
279.81	88.81
280.042	78.81
280.273	66.81
280.505	82.81
280.736	75.81
280.968	71.81
281.199	82.81
281.431	74.81
281.662	86.81
281.894	79.81
282.125	77.81
282.356	70.81
282.588	78.81
282.819	76.81
283.051	76.81
283.282	76.81
283.513	88.81
283.745	87.81
283.976	66.81
284.207	77.81
284.439	89.81
284.67	86.81
284.901	67.81
285.132	86.81
285.364	81.81
285.595	72.81
285.826	87.81
286.057	66.81
286.288	74.81
286.52	79.81
286.751	64.81
286.982	72.81
287.213	76.81
287.444	82.81
287.675	69.81
287.906	88.81
288.138	86.81
288.369	75.81
288.6	82.81
288.831	65.81
289.062	79.81
289.293	72.81
289.524	79.81
289.755	74.81
289.986	76.81
290.217	78.81
290.448	68.81
290.679	85.81
290.91	71.81
291.141	76.81
291.371	82.81
291.602	72.81
291.833	76.81
292.064	83.81
292.295	77.81
292.526	71.81
292.757	78.81
292.987	71.81
293.218	79.81
293.449	74.81
293.68	74.81
293.91	78.81
294.141	90.81
294.372	72.81
294.603	70.81
294.833	78.81
295.064	83.81
295.295	87.81
295.525	63.81
295.756	76.81
295.987	85.81
296.217	80.81
296.448	63.81
296.679	73.81
296.909	73.81
297.14	80.81
297.37	77.81
297.601	87.81
297.831	81.81
298.062	85.81
298.292	79.81
298.523	74.81
298.753	91.81
298.984	84.81
299.214	77.81
299.445	85.81
299.675	89.81
299.905	67.81
300.136	77.81
300.366	86.81
300.597	84.81
300.827	84.81
301.057	63.81
301.288	72.81
301.518	74.81
301.748	89.81
301.979	89.81
302.209	86.81
302.439	79.81
302.669	70.81
302.9	82.81
303.13	79.81
303.36	66.81
303.59	74.81
303.82	80.81
304.051	82.81
304.281	86.81
304.511	84.81
304.741	83.81
304.971	74.81
305.201	72.81
305.431	68.81
305.661	77.81
305.891	84.81
306.121	83.81
306.352	84.81
306.582	86.81
306.812	88.81
307.042	83.81
307.272	80.81
307.502	88.81
307.731	94.81
307.961	83.81
308.191	93.81
308.421	90.81
308.651	63.81
308.881	74.81
309.111	82.81
309.341	66.81
309.571	79.81
309.8	78.81
310.03	89.81
310.26	84.81
310.49	78.81
310.72	80.81
310.949	78.81
311.179	79.81
311.409	70.81
311.639	77.81
311.868	81.81
312.098	84.81
312.328	72.81
312.557	75.81
312.787	71.81
313.017	99.81
313.246	82.81
313.476	88.81
313.706	95.81
313.935	76.81
314.165	78.81
314.394	66.81
314.624	99.81
314.853	80.81
315.083	78.81
315.312	77.81
315.542	68.81
315.771	73.81
316.001	82.81
316.23	75.81
316.46	92.81
316.689	78.81
316.919	70.81
317.148	74.81
317.377	88.81
317.607	83.81
317.836	90.81
318.065	78.81
318.295	87.81
318.524	84.81
318.753	88.81
318.983	88.81
319.212	76.81
319.441	92.81
319.67	74.81
319.9	82.81
320.129	72.81
320.358	74.81
320.587	81.81
320.816	66.81
321.046	69.81
321.275	85.81
321.504	87.81
321.733	80.81
321.962	81.81
322.191	79.81
322.42	62.81
322.649	83.81
322.878	74.81
323.108	74.81
323.337	75.81
323.566	82.81
323.795	60.81
324.024	76.81
324.253	74.81
324.482	74.81
324.71	78.81
324.939	91.81
325.168	69.81
325.397	72.81
325.626	79.81
325.855	84.81
326.084	74.81
326.313	74.81
326.542	75.81
326.77	74.81
326.999	63.81
327.228	69.81
327.457	86.81
327.686	90.81
327.914	82.81
328.143	72.81
328.372	81.81
328.6	75.81
328.829	76.81
329.058	77.81
329.287	64.81
329.515	72.81
329.744	83.81
329.972	80.81
330.201	89.81
330.43	78.81
330.658	74.81
330.887	75.81
331.115	73.81
331.344	72.81
331.572	80.81
331.801	83.81
332.03	79.81
332.258	82.81
332.486	65.81
332.715	75.81
332.943	89.81
333.172	62.81
333.4	72.81
333.629	88.81
333.857	78.81
334.085	79.81
334.314	71.81
334.542	78.81
334.771	69.81
334.999	71.81
335.227	74.81
335.455	72.81
335.684	72.81
335.912	74.81
336.14	78.81
336.369	81.81
336.597	77.81
336.825	88.81
337.053	83.81
337.281	80.81
337.51	61.81
337.738	74.81
337.966	81.81
338.194	80.81
338.422	77.81
338.65	70.81
338.878	75.81
339.106	75.81
339.334	76.81
339.562	75.81
339.79	91.81
340.018	83.81
340.246	72.81
340.474	78.81
340.702	91.81
340.93	79.81
341.158	78.81
341.386	83.81
341.614	63.81
341.842	82.81
342.07	83.81
342.298	84.81
342.526	74.81
342.754	65.81
342.981	67.81
343.209	85.81
343.437	96.81
343.665	81.81
343.893	66.81
344.12	80.81
344.348	93.81
344.576	92.81
344.804	82.81
345.031	92.81
345.259	70.81
345.487	75.81
345.714	77.81
345.942	77.81
346.17	79.81
346.397	86.81
346.625	85.81
346.853	77.81
347.08	78.81
347.308	82.81
347.535	91.81
347.763	71.81
347.99	83.81
348.218	86.81
348.445	80.81
348.673	82.81
348.9	74.81
349.128	78.81
349.355	80.81
349.583	75.81
349.81	67.81
350.037	79.81
350.265	86.81
350.492	78.81
350.72	83.81
350.947	64.81
351.174	76.81
351.402	74.81
351.629	79.81
351.856	65.81
352.083	80.81
352.311	75.81
352.538	69.81
352.765	79.81
352.992	88.81
353.22	80.81
353.447	70.81
353.674	81.81
353.901	78.81
354.128	63.81
354.355	75.81
354.583	66.81
354.81	67.81
355.037	66.81
355.264	62.81
355.491	74.81
355.718	72.81
355.945	68.81
356.172	79.81
356.399	73.81
356.626	78.81
356.853	86.81
357.08	95.81
357.307	75.81
357.534	86.81
357.761	79.81
357.988	83.81
358.215	81.81
358.441	84.81
358.668	81.81
358.895	79.81
359.122	79.81
359.349	66.81
359.576	79.81
359.802	78.81
360.029	84.81
360.256	80.81
360.483	79.81
360.709	73.81
360.936	82.81
361.163	80.81
361.39	68.81
361.616	76.81
361.843	73.81
362.07	82.81
362.296	56.81
362.523	73.81
362.749	83.81
362.976	91.81
363.203	91.81
363.429	92.81
363.656	92.81
363.882	86.81
364.109	86.81
364.335	72.81
364.562	88.81
364.788	75.81
365.015	90.81
365.241	82.81
365.468	86.81
365.694	79.81
365.92	70.81
366.147	74.81
366.373	66.81
366.599	67.81
366.826	80.81
367.052	79.81
367.278	68.81
367.505	69.81
367.731	78.81
367.957	86.81
368.184	79.81
368.41	82.81
368.636	75.81
368.862	84.81
369.089	94.81
369.315	91.81
369.541	75.81
369.767	59.81
369.993	79.81
370.219	74.81
370.445	66.81
370.672	64.81
370.898	74.81
371.124	83.81
371.35	69.81
371.576	79.81
371.802	66.81
372.028	82.81
372.254	64.81
372.48	87.81
372.706	81.81
372.932	72.81
373.158	80.81
373.384	76.81
373.61	71.81
373.835	75.81
374.061	65.81
374.287	63.81
374.513	71.81
374.739	84.81
374.965	84.81
375.191	83.81
375.416	74.81
375.642	78.81
375.868	81.81
376.094	79.81
376.319	77.81
376.545	73.81
376.771	60.81
376.997	90.81
377.222	91.81
377.448	83.81
377.674	80.81
377.899	87.81
378.125	64.81
378.35	84.81
378.576	76.81
378.802	94.81
379.027	87.81
379.253	81.81
379.478	62.81
379.704	72.81
379.929	88.81
380.155	79.81
380.38	83.81
380.606	86.81
380.831	67.81
381.057	88.81
381.282	84.81
381.507	76.81
381.733	83.81
381.958	74.81
382.184	85.81
382.409	89.81
382.634	83.81
382.86	85.81
383.085	85.81
383.31	73.81
383.535	86.81
383.761	88.81
383.986	88.81
384.211	71.81
384.436	74.81
384.662	83.81
384.887	67.81
385.112	83.81
385.337	67.81
385.562	83.81
385.787	74.81
386.013	96.81
386.238	64.81
386.463	73.81
386.688	70.81
386.913	64.81
387.138	83.81
387.363	82.81
387.588	88.81
387.813	82.81
388.038	93.81
388.263	93.81
388.488	88.81
388.713	67.81
388.938	69.81
389.163	78.81
389.387	74.81
389.612	75.81
389.837	67.81
390.062	85.81
390.287	67.81
390.512	86.81
390.736	81.81
390.961	90.81
391.186	75.81
391.411	66.81
391.636	72.81
391.86	70.81
392.085	81.81
392.31	63.81
392.534	82.81
392.759	74.81
392.984	87.81
393.208	92.81
393.433	106.81
393.658	92.81
393.882	84.81
394.107	63.81
394.331	78.81
394.556	97.81
394.78	74.81
395.005	74.81
395.229	76.81
395.454	83.81
395.678	89.81
395.903	86.81
396.127	90.81
396.352	89.81
396.576	80.81
396.801	83.81
397.025	90.81
397.249	83.81
397.474	78.81
397.698	87.81
397.922	74.81
398.147	69.81
398.371	66.81
398.595	82.81
398.82	80.81
399.044	83.81
399.268	82.81
399.492	78.81
399.717	84.81
399.941	72.81
400.165	75.81
400.389	71.81
400.613	76.81
400.837	88.81
401.062	82.81
401.286	84.81
401.51	78.81
401.734	66.81
401.958	68.81
402.182	74.81
402.406	64.81
402.63	69.81
402.854	76.81
403.078	74.81
403.302	75.81
403.526	78.81
403.75	66.81
403.974	76.81
404.198	69.81
404.422	80.81
404.645	78.81
404.869	83.81
405.093	79.81
405.317	88.81
405.541	69.81
405.765	69.81
405.988	76.81
406.212	73.81
406.436	87.81
406.66	72.81
406.883	64.81
407.107	66.81
407.331	83.81
407.555	92.81
407.778	90.81
408.002	66.81
408.226	79.81
408.449	75.81
408.673	77.81
408.896	83.81
409.12	66.81
409.344	74.81
409.567	61.81
409.791	83.81
410.014	76.81
410.238	75.81
410.461	94.81
410.685	82.81
410.908	82.81
411.132	89.81
411.355	72.81
411.578	82.81
411.802	82.81
412.025	83.81
412.249	81.81
412.472	64.81
412.695	74.81
412.919	72.81
413.142	73.81
413.365	75.81
413.589	73.81
413.812	69.81
414.035	76.81
414.258	67.81
414.482	65.81
414.705	72.81
414.928	70.81
415.151	72.81
415.374	77.81
415.597	74.81
415.821	69.81
416.044	80.81
416.267	73.81
416.49	74.81
416.713	61.81
416.936	83.81
417.159	82.81
417.382	79.81
417.605	65.81
417.828	76.81
418.051	83.81
418.274	74.81
418.497	75.81
418.72	80.81
418.943	69.81
419.166	75.81
419.389	69.81
419.611	74.81
419.834	78.81
420.057	87.81
420.28	72.81
420.503	74.81
420.726	71.81
420.948	68.81
421.171	68.81
421.394	70.81
421.617	69.81
421.839	69.81
422.062	82.81
422.285	95.81
422.507	91.81
422.73	98.81
422.953	95.81
423.175	92.81
423.398	77.81
423.621	76.81
423.843	83.81
424.066	74.81
424.288	82.81
424.511	74.81
424.733	75.81
424.956	88.81
425.178	83.81
425.401	63.81
425.623	71.81
425.846	81.81
426.068	66.81
426.291	74.81
426.513	71.81
426.735	72.81
426.958	74.81
427.18	78.81
427.402	73.81
427.625	86.81
427.847	76.81
428.069	69.81
428.292	79.81
428.514	90.81
428.736	80.81
428.958	78.81
429.181	78.81
429.403	83.81
429.625	77.81
429.847	82.81
430.069	87.81
430.292	102.81
430.514	88.81
430.736	84.81
430.958	84.81
431.18	92.81
431.402	83.81
431.624	79.81
431.846	66.81
432.068	84.81
432.29	78.81
432.512	83.81
432.734	71.81
432.956	70.81
433.178	61.81
433.4	68.81
433.622	74.81
433.844	77.81
434.066	73.81
434.287	75.81
434.509	90.81
434.731	78.81
434.953	79.81
435.175	63.81
435.397	67.81
435.618	81.81
435.84	73.81
436.062	74.81
436.284	75.81
436.505	82.81
436.727	63.81
436.949	73.81
437.17	84.81
437.392	68.81
437.614	76.81
437.835	81.81
438.057	79.81
438.278	76.81
438.5	82.81
438.721	88.81
438.943	77.81
439.165	79.81
439.386	71.81
439.608	90.81
439.829	78.81
440.05	81.81
440.272	72.81
440.493	73.81
440.715	72.81
440.936	73.81
441.158	79.81
441.379	63.81
441.6	79.81
441.822	80.81
442.043	75.81
442.264	76.81
442.486	70.81
442.707	84.81
442.928	76.81
443.149	86.81
443.371	85.81
443.592	87.81
443.813	91.81
444.034	72.81
444.255	72.81
444.476	70.81
444.698	72.81
444.919	78.81
445.14	146.81
445.361	98.81
445.582	92.81
445.803	84.81
446.024	78.81
446.245	89.81
446.466	79.81
446.687	83.81
446.908	75.81
447.129	83.81
447.35	66.81
447.571	66.81
447.792	69.81
448.013	72.81
448.234	84.81
448.455	71.81
448.675	75.81
448.896	77.81
449.117	74.81
449.338	81.81
449.559	80.81
449.779	78.81
450	66.81
450.221	75.81
450.442	80.81
450.662	83.81
450.883	76.81
451.104	66.81
451.324	76.81
451.545	70.81
451.766	92.81
451.986	74.81
452.207	64.81
452.428	83.81
452.648	78.81
452.869	88.81
453.089	77.81
453.31	68.81
453.53	80.81
453.751	80.81
453.971	72.81
454.192	90.81
454.412	76.81
454.633	64.81
454.853	57.81
455.073	78.81
455.294	78.81
455.514	78.81
455.734	75.81
455.955	78.81
456.175	72.81
456.395	67.81
456.616	80.81
456.836	75.81
457.056	70.81
457.276	72.81
457.497	59.81
457.717	75.81
457.937	72.81
458.157	87.81
458.377	86.81
458.598	81.81
458.818	72.81
459.038	82.81
459.258	74.81
459.478	82.81
459.698	80.81
459.918	73.81
460.138	76.81
460.358	78.81
460.578	76.81
460.798	82.81
461.018	74.81
461.238	82.81
461.458	87.81
461.678	77.81
461.898	94.81
462.118	89.81
462.338	69.81
462.558	76.81
462.777	68.81
462.997	72.81
463.217	78.81
463.437	81.81
463.657	69.81
463.876	71.81
464.096	78.81
464.316	86.81
464.536	76.81
464.755	88.81
464.975	73.81
465.195	60.81
465.414	70.81
465.634	76.81
465.854	67.81
466.073	82.81
466.293	90.81
466.512	80.81
466.732	71.81
466.951	91.81
467.171	71.81
467.391	80.81
467.61	91.81
467.829	77.81
468.049	72.81
468.268	68.81
468.488	70.81
468.707	96.81
468.927	68.81
469.146	74.81
469.365	80.81
469.585	81.81
469.804	67.81
470.023	75.81
470.243	83.81
470.462	74.81
470.681	75.81
470.901	74.81
471.12	62.81
471.339	74.81
471.558	82.81
471.777	81.81
471.997	74.81
472.216	61.81
472.435	76.81
472.654	82.81
472.873	82.81
473.092	63.81
473.311	85.81
473.53	71.81
473.749	66.81
473.968	82.81
474.187	78.81
474.406	82.81
474.625	73.81
474.844	67.81
475.063	82.81
475.282	86.81
475.501	88.81
475.72	81.81
475.939	81.81
476.158	82.81
476.377	72.81
476.596	74.81
476.814	94.81
477.033	68.81
477.252	64.81
477.471	75.81
477.69	74.81
477.908	76.81
478.127	88.81
478.346	88.81
478.564	88.81
478.783	72.81
479.002	84.81
479.22	73.81
479.439	82.81
479.658	56.81
479.876	84.81
480.095	71.81
480.313	82.81
480.532	83.81
480.751	68.81
480.969	64.81
481.188	86.81
481.406	66.81
481.624	75.81
481.843	85.81
482.061	76.81
482.28	77.81
482.498	83.81
482.717	90.81
482.935	72.81
483.153	80.81
483.372	81.81
483.59	78.81
483.808	74.81
484.027	84.81
484.245	73.81
484.463	67.81
484.681	92.81
484.9	77.81
485.118	85.81
485.336	64.81
485.554	72.81
485.772	82.81
485.99	90.81
486.209	68.81
486.427	82.81
486.645	83.81
486.863	84.81
487.081	79.81
487.299	81.81
487.517	87.81
487.735	76.81
487.953	72.81
488.171	76.81
488.389	72.81
488.607	86.81
488.825	85.81
489.043	67.81
489.261	56.81
489.479	73.81
489.696	74.81
489.914	74.81
490.132	69.81
490.35	68.81
490.568	74.81
490.786	74.81
491.003	81.81
491.221	76.81
491.439	76.81
491.657	74.81
491.874	73.81
492.092	65.81
492.31	97.81
492.527	71.81
492.745	83.81
492.963	68.81
493.18	74.81
493.398	76.81
493.615	71.81
493.833	90.81
494.05	65.81
494.268	80.81
494.485	71.81
494.703	81.81
494.92	60.81
495.138	72.81
495.355	90.81
495.573	76.81
495.79	82.81
496.008	82.81
496.225	77.81
496.442	61.81
496.66	79.81
496.877	72.81
497.094	64.81
497.312	77.81
497.529	90.81
497.746	66.81
497.963	80.81
498.181	73.81
498.398	58.81
498.615	75.81
498.832	74.81
499.049	80.81
499.267	92.81
499.484	94.81
499.701	82.81
499.918	68.81
500.135	85.81
500.352	94.81
500.569	75.81
500.786	94.81
501.003	78.81
501.22	72.81
501.437	74.81
501.654	91.81
501.871	75.81
502.088	81.81
502.305	87.81
502.522	82.81
502.739	96.81
502.956	84.81
503.172	109.81
503.389	71.81
503.606	76.81
503.823	66.81
504.04	77.81
504.256	87.81
504.473	84.81
504.69	96.81
504.907	78.81
505.123	75.81
505.34	75.81
505.557	90.81
505.773	89.81
505.99	91.81
506.207	77.81
506.423	88.81
506.64	74.81
506.856	71.81
507.073	74.81
507.289	88.81
507.506	87.81
507.722	76.81
507.939	79.81
508.155	80.81
508.372	85.81
508.588	87.81
508.805	80.81
509.021	78.81
509.238	65.81
509.454	81.81
509.67	92.81
509.887	82.81
510.103	80.81
510.319	80.81
510.536	83.81
510.752	62.81
510.968	77.81
511.184	82.81
511.401	65.81
511.617	88.81
511.833	84.81
512.049	88.81
512.265	85.81
512.481	74.81
512.698	72.81
512.914	82.81
513.13	79.81
513.346	91.81
513.562	75.81
513.778	89.81
513.994	78.81
514.21	89.81
514.426	68.81
514.642	74.81
514.858	78.81
515.074	70.81
515.29	77.81
515.506	82.81
515.721	84.81
515.937	80.81
516.153	90.81
516.369	74.81
516.585	76.81
516.801	75.81
517.016	79.81
517.232	86.81
517.448	86.81
517.664	82.81
517.879	75.81
518.095	80.81
518.311	89.81
518.527	79.81
518.742	70.81
518.958	87.81
519.173	76.81
519.389	80.81
519.605	90.81
519.82	79.81
520.036	78.81
520.251	68.81
