Data from 1600_3_HRD10591_00013.txt Node
Date: Mon Jan 19 13:54:59 EST 2026
User: Yrep
Spectrometer: HR+D1059
Trigger mode: 1
Integration Time (sec): 1.000000E-1
Scans to average: 1
Electric dark correction enabled: true
Nonlinearity correction enabled: false
Boxcar width: 0
XAxis mode: Wavelengths
Number of Pixels in Spectrum: 2048
>>>>>Begin Spectral Data<<<<<
223.165	-25.81
223.4	-25.81
223.635	-25.81
223.869	-22.81
224.104	-17.81
224.338	-15.81
224.573	-13.81
224.808	-1.81
225.042	-15.81
225.277	-5.81
225.511	4.19
225.746	-1.81
225.98	9.19
226.215	18.19
226.449	14.19
226.683	31.19
226.918	8.19
227.152	36.19
227.387	30.19
227.621	41.19
227.856	44.19
228.09	31.19
228.324	65.19
228.559	51.19
228.793	62.19
229.027	58.19
229.262	64.19
229.496	69.19
229.73	59.19
229.964	70.19
230.199	68.19
230.433	63.19
230.667	63.19
230.901	76.19
231.136	82.19
231.37	74.19
231.604	85.19
231.838	79.19
232.072	87.19
232.306	79.19
232.541	77.19
232.775	78.19
233.009	81.19
233.243	77.19
233.477	82.19
233.711	57.19
233.945	72.19
234.179	80.19
234.413	84.19
234.647	72.19
234.881	76.19
235.115	83.19
235.349	72.19
235.583	60.19
235.817	79.19
236.051	68.19
236.285	70.19
236.519	80.19
236.753	75.19
236.987	74.19
237.221	81.19
237.455	76.19
237.689	83.19
237.922	75.19
238.156	68.19
238.39	79.19
238.624	74.19
238.858	72.19
239.091	84.19
239.325	88.19
239.559	74.19
239.793	88.19
240.027	82.19
240.26	62.19
240.494	52.19
240.728	67.19
240.961	73.19
241.195	76.19
241.429	67.19
241.662	79.19
241.896	73.19
242.13	77.19
242.363	71.19
242.597	65.19
242.83	67.19
243.064	76.19
243.298	68.19
243.531	76.19
243.765	77.19
243.998	68.19
244.232	58.19
244.465	62.19
244.699	68.19
244.932	77.19
245.166	77.19
245.399	86.19
245.633	74.19
245.866	87.19
246.099	80.19
246.333	58.19
246.566	73.19
246.8	80.19
247.033	74.19
247.266	70.19
247.5	76.19
247.733	82.19
247.966	88.19
248.2	74.19
248.433	75.19
248.666	59.19
248.899	73.19
249.133	78.19
249.366	79.19
249.599	63.19
249.832	70.19
250.066	81.19
250.299	85.19
250.532	67.19
250.765	81.19
250.998	74.19
251.231	68.19
251.465	65.19
251.698	75.19
251.931	76.19
252.164	80.19
252.397	80.19
252.63	74.19
252.863	64.19
253.096	74.19
253.329	62.19
253.562	76.19
253.795	86.19
254.028	81.19
254.261	70.19
254.494	73.19
254.727	79.19
254.96	86.19
255.193	79.19
255.426	54.19
255.659	68.19
255.892	77.19
256.124	83.19
256.357	76.19
256.59	74.19
256.823	81.19
257.056	72.19
257.289	72.19
257.521	72.19
257.754	68.19
257.987	81.19
258.22	70.19
258.452	77.19
258.685	77.19
258.918	81.19
259.151	68.19
259.383	71.19
259.616	89.19
259.849	62.19
260.081	80.19
260.314	76.19
260.547	89.19
260.779	79.19
261.012	72.19
261.244	73.19
261.477	88.19
261.71	77.19
261.942	88.19
262.175	84.19
262.407	69.19
262.64	94.19
262.872	71.19
263.105	69.19
263.337	65.19
263.57	77.19
263.802	71.19
264.035	77.19
264.267	75.19
264.499	76.19
264.732	100.19
264.964	66.19
265.197	75.19
265.429	88.19
265.661	86.19
265.894	72.19
266.126	72.19
266.358	70.19
266.591	79.19
266.823	80.19
267.055	96.19
267.287	82.19
267.52	79.19
267.752	67.19
267.984	72.19
268.216	81.19
268.448	78.19
268.681	73.19
268.913	79.19
269.145	76.19
269.377	73.19
269.609	68.19
269.841	80.19
270.073	78.19
270.306	79.19
270.538	77.19
270.77	76.19
271.002	75.19
271.234	85.19
271.466	84.19
271.698	76.19
271.93	77.19
272.162	87.19
272.394	84.19
272.626	71.19
272.858	75.19
273.09	82.19
273.322	81.19
273.553	88.19
273.785	99.19
274.017	78.19
274.249	72.19
274.481	81.19
274.713	90.19
274.945	78.19
275.176	61.19
275.408	94.19
275.64	93.19
275.872	78.19
276.104	77.19
276.335	81.19
276.567	87.19
276.799	68.19
277.031	70.19
277.262	76.19
277.494	90.19
277.726	66.19
277.957	71.19
278.189	86.19
278.421	77.19
278.652	81.19
278.884	73.19
279.115	77.19
279.347	84.19
279.579	76.19
279.81	84.19
280.042	93.19
280.273	88.19
280.505	58.19
280.736	62.19
280.968	99.19
281.199	91.19
281.431	94.19
281.662	86.19
281.894	84.19
282.125	69.19
282.356	64.19
282.588	71.19
282.819	70.19
283.051	84.19
283.282	92.19
283.513	79.19
283.745	80.19
283.976	89.19
284.207	65.19
284.439	86.19
284.67	79.19
284.901	79.19
285.132	88.19
285.364	85.19
285.595	99.19
285.826	74.19
286.057	80.19
286.288	85.19
286.52	78.19
286.751	87.19
286.982	93.19
287.213	87.19
287.444	94.19
287.675	79.19
287.906	80.19
288.138	78.19
288.369	86.19
288.6	79.19
288.831	68.19
289.062	77.19
289.293	81.19
289.524	62.19
289.755	70.19
289.986	84.19
290.217	75.19
290.448	77.19
290.679	90.19
290.91	89.19
291.141	88.19
291.371	84.19
291.602	69.19
291.833	77.19
292.064	76.19
292.295	70.19
292.526	84.19
292.757	86.19
292.987	60.19
293.218	89.19
293.449	79.19
293.68	72.19
293.91	76.19
294.141	89.19
294.372	83.19
294.603	82.19
294.833	69.19
295.064	81.19
295.295	84.19
295.525	84.19
295.756	72.19
295.987	86.19
296.217	94.19
296.448	78.19
296.679	74.19
296.909	77.19
297.14	76.19
297.37	68.19
297.601	76.19
297.831	74.19
298.062	83.19
298.292	78.19
298.523	63.19
298.753	80.19
298.984	82.19
299.214	73.19
299.445	77.19
299.675	67.19
299.905	72.19
300.136	76.19
300.366	82.19
300.597	77.19
300.827	79.19
301.057	90.19
301.288	84.19
301.518	89.19
301.748	80.19
301.979	93.19
302.209	81.19
302.439	78.19
302.669	87.19
302.9	64.19
303.13	87.19
303.36	70.19
303.59	83.19
303.82	82.19
304.051	83.19
304.281	87.19
304.511	82.19
304.741	82.19
304.971	74.19
305.201	81.19
305.431	77.19
305.661	82.19
305.891	84.19
306.121	96.19
306.352	95.19
306.582	69.19
306.812	80.19
307.042	70.19
307.272	85.19
307.502	79.19
307.731	71.19
307.961	89.19
308.191	80.19
308.421	82.19
308.651	77.19
308.881	73.19
309.111	70.19
309.341	73.19
309.571	83.19
309.8	65.19
310.03	79.19
310.26	86.19
310.49	74.19
310.72	81.19
310.949	93.19
311.179	84.19
311.409	73.19
311.639	69.19
311.868	81.19
312.098	69.19
312.328	72.19
312.557	82.19
312.787	94.19
313.017	86.19
313.246	91.19
313.476	76.19
313.706	72.19
313.935	91.19
314.165	84.19
314.394	68.19
314.624	90.19
314.853	67.19
315.083	85.19
315.312	89.19
315.542	92.19
315.771	71.19
316.001	81.19
316.23	75.19
316.46	73.19
316.689	78.19
316.919	76.19
317.148	73.19
317.377	94.19
317.607	81.19
317.836	84.19
318.065	88.19
318.295	91.19
318.524	78.19
318.753	70.19
318.983	100.19
319.212	78.19
319.441	81.19
319.67	67.19
319.9	73.19
320.129	84.19
320.358	86.19
320.587	83.19
320.816	84.19
321.046	85.19
321.275	81.19
321.504	66.19
321.733	72.19
321.962	89.19
322.191	98.19
322.42	76.19
322.649	88.19
322.878	85.19
323.108	80.19
323.337	86.19
323.566	74.19
323.795	92.19
324.024	72.19
324.253	75.19
324.482	81.19
324.71	68.19
324.939	85.19
325.168	76.19
325.397	67.19
325.626	72.19
325.855	78.19
326.084	76.19
326.313	91.19
326.542	78.19
326.77	82.19
326.999	71.19
327.228	82.19
327.457	70.19
327.686	87.19
327.914	75.19
328.143	71.19
328.372	80.19
328.6	86.19
328.829	105.19
329.058	70.19
329.287	77.19
329.515	76.19
329.744	75.19
329.972	81.19
330.201	85.19
330.43	88.19
330.658	73.19
330.887	77.19
331.115	68.19
331.344	78.19
331.572	77.19
331.801	90.19
332.03	94.19
332.258	93.19
332.486	77.19
332.715	68.19
332.943	76.19
333.172	80.19
333.4	84.19
333.629	79.19
333.857	77.19
334.085	74.19
334.314	74.19
334.542	91.19
334.771	85.19
334.999	69.19
335.227	70.19
335.455	83.19
335.684	73.19
335.912	64.19
336.14	86.19
336.369	77.19
336.597	81.19
336.825	80.19
337.053	68.19
337.281	70.19
337.51	77.19
337.738	76.19
337.966	84.19
338.194	77.19
338.422	81.19
338.65	92.19
338.878	70.19
339.106	70.19
339.334	91.19
339.562	82.19
339.79	74.19
340.018	77.19
340.246	86.19
340.474	81.19
340.702	88.19
340.93	93.19
341.158	65.19
341.386	78.19
341.614	66.19
341.842	70.19
342.07	67.19
342.298	81.19
342.526	92.19
342.754	90.19
342.981	86.19
343.209	93.19
343.437	85.19
343.665	81.19
343.893	82.19
344.12	84.19
344.348	81.19
344.576	75.19
344.804	84.19
345.031	80.19
345.259	76.19
345.487	89.19
345.714	89.19
345.942	75.19
346.17	85.19
346.397	76.19
346.625	81.19
346.853	66.19
347.08	77.19
347.308	78.19
347.535	74.19
347.763	77.19
347.99	88.19
348.218	68.19
348.445	79.19
348.673	73.19
348.9	91.19
349.128	81.19
349.355	80.19
349.583	80.19
349.81	90.19
350.037	93.19
350.265	87.19
350.492	78.19
350.72	79.19
350.947	62.19
351.174	81.19
351.402	84.19
351.629	73.19
351.856	80.19
352.083	90.19
352.311	80.19
352.538	88.19
352.765	94.19
352.992	80.19
353.22	76.19
353.447	80.19
353.674	78.19
353.901	80.19
354.128	81.19
354.355	84.19
354.583	92.19
354.81	94.19
355.037	90.19
355.264	81.19
355.491	74.19
355.718	87.19
355.945	90.19
356.172	78.19
356.399	82.19
356.626	62.19
356.853	76.19
357.08	90.19
357.307	86.19
357.534	77.19
357.761	81.19
357.988	62.19
358.215	83.19
358.441	85.19
358.668	71.19
358.895	84.19
359.122	94.19
359.349	78.19
359.576	77.19
359.802	75.19
360.029	75.19
360.256	90.19
360.483	81.19
360.709	82.19
360.936	74.19
361.163	75.19
361.39	75.19
361.616	80.19
361.843	87.19
362.07	86.19
362.296	82.19
362.523	71.19
362.749	73.19
362.976	78.19
363.203	90.19
363.429	74.19
363.656	86.19
363.882	69.19
364.109	78.19
364.335	79.19
364.562	82.19
364.788	73.19
365.015	79.19
365.241	89.19
365.468	80.19
365.694	72.19
365.92	77.19
366.147	80.19
366.373	67.19
366.599	73.19
366.826	76.19
367.052	85.19
367.278	91.19
367.505	80.19
367.731	84.19
367.957	79.19
368.184	86.19
368.41	67.19
368.636	94.19
368.862	79.19
369.089	71.19
369.315	89.19
369.541	83.19
369.767	86.19
369.993	71.19
370.219	80.19
370.445	68.19
370.672	85.19
370.898	84.19
371.124	84.19
371.35	83.19
371.576	83.19
371.802	81.19
372.028	70.19
372.254	70.19
372.48	72.19
372.706	68.19
372.932	66.19
373.158	92.19
373.384	86.19
373.61	90.19
373.835	76.19
374.061	73.19
374.287	79.19
374.513	81.19
374.739	90.19
374.965	88.19
375.191	70.19
375.416	72.19
375.642	83.19
375.868	80.19
376.094	83.19
376.319	70.19
376.545	76.19
376.771	76.19
376.997	78.19
377.222	83.19
377.448	81.19
377.674	79.19
377.899	74.19
378.125	89.19
378.35	82.19
378.576	87.19
378.802	80.19
379.027	79.19
379.253	82.19
379.478	89.19
379.704	85.19
379.929	82.19
380.155	77.19
380.38	89.19
380.606	84.19
380.831	91.19
381.057	92.19
381.282	76.19
381.507	82.19
381.733	90.19
381.958	88.19
382.184	86.19
382.409	66.19
382.634	90.19
382.86	74.19
383.085	80.19
383.31	74.19
383.535	82.19
383.761	83.19
383.986	86.19
384.211	85.19
384.436	60.19
384.662	71.19
384.887	82.19
385.112	74.19
385.337	73.19
385.562	76.19
385.787	84.19
386.013	71.19
386.238	83.19
386.463	93.19
386.688	89.19
386.913	73.19
387.138	66.19
387.363	72.19
387.588	96.19
387.813	78.19
388.038	77.19
388.263	80.19
388.488	72.19
388.713	62.19
388.938	72.19
389.163	69.19
389.387	83.19
389.612	88.19
389.837	84.19
390.062	71.19
390.287	76.19
390.512	76.19
390.736	74.19
390.961	73.19
391.186	82.19
391.411	77.19
391.636	84.19
391.86	68.19
392.085	82.19
392.31	88.19
392.534	85.19
392.759	70.19
392.984	85.19
393.208	81.19
393.433	99.19
393.658	101.19
393.882	80.19
394.107	102.19
394.331	86.19
394.556	99.19
394.78	81.19
395.005	78.19
395.229	69.19
395.454	80.19
395.678	72.19
395.903	79.19
396.127	94.19
396.352	89.19
396.576	81.19
396.801	83.19
397.025	99.19
397.249	98.19
397.474	93.19
397.698	86.19
397.922	96.19
398.147	95.19
398.371	77.19
398.595	73.19
398.82	73.19
399.044	81.19
399.268	77.19
399.492	81.19
399.717	89.19
399.941	76.19
400.165	85.19
400.389	70.19
400.613	90.19
400.837	76.19
401.062	85.19
401.286	79.19
401.51	65.19
401.734	69.19
401.958	90.19
402.182	77.19
402.406	79.19
402.63	92.19
402.854	58.19
403.078	85.19
403.302	88.19
403.526	81.19
403.75	69.19
403.974	88.19
404.198	74.19
404.422	86.19
404.645	97.19
404.869	65.19
405.093	77.19
405.317	80.19
405.541	75.19
405.765	84.19
405.988	84.19
406.212	90.19
406.436	74.19
406.66	81.19
406.883	71.19
407.107	78.19
407.331	87.19
407.555	78.19
407.778	92.19
408.002	84.19
408.226	79.19
408.449	70.19
408.673	81.19
408.896	84.19
409.12	75.19
409.344	92.19
409.567	84.19
409.791	89.19
410.014	71.19
410.238	88.19
410.461	79.19
410.685	75.19
410.908	81.19
411.132	93.19
411.355	73.19
411.578	86.19
411.802	77.19
412.025	82.19
412.249	88.19
412.472	70.19
412.695	77.19
412.919	76.19
413.142	76.19
413.365	93.19
413.589	81.19
413.812	87.19
414.035	88.19
414.258	84.19
414.482	88.19
414.705	80.19
414.928	77.19
415.151	73.19
415.374	79.19
415.597	82.19
415.821	70.19
416.044	82.19
416.267	82.19
416.49	70.19
416.713	88.19
416.936	80.19
417.159	69.19
417.382	71.19
417.605	71.19
417.828	78.19
418.051	92.19
418.274	88.19
418.497	69.19
418.72	65.19
418.943	68.19
419.166	73.19
419.389	84.19
419.611	84.19
419.834	78.19
420.057	84.19
420.28	81.19
420.503	78.19
420.726	87.19
420.948	89.19
421.171	77.19
421.394	86.19
421.617	84.19
421.839	86.19
422.062	92.19
422.285	91.19
422.507	107.19
422.73	118.19
422.953	110.19
423.175	91.19
423.398	95.19
423.621	77.19
423.843	82.19
424.066	76.19
424.288	74.19
424.511	83.19
424.733	67.19
424.956	77.19
425.178	82.19
425.401	76.19
425.623	82.19
425.846	66.19
426.068	92.19
426.291	72.19
426.513	78.19
426.735	64.19
426.958	82.19
427.18	80.19
427.402	80.19
427.625	77.19
427.847	74.19
428.069	78.19
428.292	77.19
428.514	85.19
428.736	68.19
428.958	76.19
429.181	76.19
429.403	68.19
429.625	76.19
429.847	86.19
430.069	84.19
430.292	75.19
430.514	92.19
430.736	76.19
430.958	85.19
431.18	84.19
431.402	74.19
431.624	86.19
431.846	84.19
432.068	89.19
432.29	81.19
432.512	89.19
432.734	71.19
432.956	61.19
433.178	77.19
433.4	76.19
433.622	85.19
433.844	73.19
434.066	66.19
434.287	70.19
434.509	81.19
434.731	88.19
434.953	75.19
435.175	75.19
435.397	70.19
435.618	83.19
435.84	80.19
436.062	79.19
436.284	92.19
436.505	74.19
436.727	92.19
436.949	66.19
437.17	78.19
437.392	83.19
437.614	65.19
437.835	77.19
438.057	76.19
438.278	88.19
438.5	76.19
438.721	85.19
438.943	79.19
439.165	93.19
439.386	82.19
439.608	79.19
439.829	85.19
440.05	64.19
440.272	71.19
440.493	80.19
440.715	78.19
440.936	78.19
441.158	82.19
441.379	73.19
441.6	68.19
441.822	68.19
442.043	68.19
442.264	68.19
442.486	90.19
442.707	78.19
442.928	84.19
443.149	88.19
443.371	88.19
443.592	88.19
443.813	97.19
444.034	74.19
444.255	84.19
444.476	93.19
444.698	74.19
444.919	78.19
445.14	146.19
445.361	100.19
445.582	80.19
445.803	86.19
446.024	80.19
446.245	89.19
446.466	72.19
446.687	80.19
446.908	85.19
447.129	76.19
447.35	69.19
447.571	75.19
447.792	85.19
448.013	82.19
448.234	84.19
448.455	78.19
448.675	72.19
448.896	78.19
449.117	69.19
449.338	80.19
449.559	78.19
449.779	76.19
450	83.19
450.221	76.19
450.442	79.19
450.662	70.19
450.883	67.19
451.104	75.19
451.324	72.19
451.545	81.19
451.766	70.19
451.986	77.19
452.207	94.19
452.428	78.19
452.648	82.19
452.869	72.19
453.089	69.19
453.31	74.19
453.53	82.19
453.751	74.19
453.971	82.19
454.192	65.19
454.412	76.19
454.633	80.19
454.853	80.19
455.073	75.19
455.294	80.19
455.514	87.19
455.734	74.19
455.955	76.19
456.175	70.19
456.395	85.19
456.616	84.19
456.836	64.19
457.056	69.19
457.276	74.19
457.497	74.19
457.717	78.19
457.937	85.19
458.157	92.19
458.377	70.19
458.598	81.19
458.818	78.19
459.038	72.19
459.258	80.19
459.478	67.19
459.698	70.19
459.918	79.19
460.138	84.19
460.358	65.19
460.578	76.19
460.798	88.19
461.018	89.19
461.238	84.19
461.458	68.19
461.678	69.19
461.898	75.19
462.118	91.19
462.338	86.19
462.558	76.19
462.777	79.19
462.997	81.19
463.217	99.19
463.437	86.19
463.657	70.19
463.876	74.19
464.096	84.19
464.316	84.19
464.536	89.19
464.755	77.19
464.975	75.19
465.195	88.19
465.414	56.19
465.634	85.19
465.854	71.19
466.073	84.19
466.293	75.19
466.512	57.19
466.732	78.19
466.951	81.19
467.171	70.19
467.391	78.19
467.61	84.19
467.829	78.19
468.049	79.19
468.268	68.19
468.488	80.19
468.707	66.19
468.927	73.19
469.146	78.19
469.365	85.19
469.585	84.19
469.804	69.19
470.023	84.19
470.243	62.19
470.462	78.19
470.681	76.19
470.901	76.19
471.12	79.19
471.339	89.19
471.558	84.19
471.777	86.19
471.997	65.19
472.216	80.19
472.435	76.19
472.654	94.19
472.873	84.19
473.092	80.19
473.311	77.19
473.53	76.19
473.749	81.19
473.968	86.19
474.187	93.19
474.406	74.19
474.625	72.19
474.844	91.19
475.063	95.19
475.282	80.19
475.501	70.19
475.72	79.19
475.939	83.19
476.158	78.19
476.377	85.19
476.596	76.19
476.814	76.19
477.033	76.19
477.252	77.19
477.471	85.19
477.69	82.19
477.908	81.19
478.127	92.19
478.346	82.19
478.564	76.19
478.783	84.19
479.002	86.19
479.22	82.19
479.439	74.19
479.658	88.19
479.876	82.19
480.095	89.19
480.313	88.19
480.532	76.19
480.751	75.19
480.969	76.19
481.188	84.19
481.406	103.19
481.624	76.19
481.843	79.19
482.061	73.19
482.28	85.19
482.498	80.19
482.717	80.19
482.935	82.19
483.153	81.19
483.372	61.19
483.59	70.19
483.808	90.19
484.027	85.19
484.245	97.19
484.463	84.19
484.681	76.19
484.9	79.19
485.118	92.19
485.336	69.19
485.554	88.19
485.772	77.19
485.99	65.19
486.209	93.19
486.427	83.19
486.645	70.19
486.863	93.19
487.081	86.19
487.299	76.19
487.517	95.19
487.735	68.19
487.953	91.19
488.171	84.19
488.389	89.19
488.607	90.19
488.825	86.19
489.043	62.19
489.261	72.19
489.479	73.19
489.696	64.19
489.914	72.19
490.132	84.19
490.35	85.19
490.568	80.19
490.786	89.19
491.003	82.19
491.221	82.19
491.439	75.19
491.657	82.19
491.874	95.19
492.092	83.19
492.31	79.19
492.527	69.19
492.745	74.19
492.963	88.19
493.18	83.19
493.398	89.19
493.615	89.19
493.833	74.19
494.05	86.19
494.268	83.19
494.485	80.19
494.703	76.19
494.92	71.19
495.138	72.19
495.355	65.19
495.573	82.19
495.79	71.19
496.008	61.19
496.225	68.19
496.442	80.19
496.66	81.19
496.877	80.19
497.094	74.19
497.312	84.19
497.529	79.19
497.746	88.19
497.963	82.19
498.181	89.19
498.398	81.19
498.615	84.19
498.832	73.19
499.049	81.19
499.267	67.19
499.484	64.19
499.701	90.19
499.918	77.19
500.135	67.19
500.352	81.19
500.569	82.19
500.786	75.19
501.003	76.19
501.22	87.19
501.437	80.19
501.654	88.19
501.871	70.19
502.088	79.19
502.305	84.19
502.522	69.19
502.739	88.19
502.956	79.19
503.172	85.19
503.389	82.19
503.606	89.19
503.823	88.19
504.04	78.19
504.256	64.19
504.473	79.19
504.69	95.19
504.907	84.19
505.123	65.19
505.34	90.19
505.557	87.19
505.773	79.19
505.99	82.19
506.207	82.19
506.423	79.19
506.64	71.19
506.856	73.19
507.073	71.19
507.289	87.19
507.506	68.19
507.722	71.19
507.939	66.19
508.155	75.19
508.372	86.19
508.588	60.19
508.805	80.19
509.021	71.19
509.238	71.19
509.454	79.19
509.67	77.19
509.887	81.19
510.103	81.19
510.319	78.19
510.536	83.19
510.752	82.19
510.968	70.19
511.184	84.19
511.401	72.19
511.617	90.19
511.833	80.19
512.049	80.19
512.265	88.19
512.481	78.19
512.698	78.19
512.914	69.19
513.13	82.19
513.346	65.19
513.562	80.19
513.778	72.19
513.994	85.19
514.21	83.19
514.426	75.19
514.642	71.19
514.858	71.19
515.074	71.19
515.29	85.19
515.506	83.19
515.721	91.19
515.937	81.19
516.153	95.19
516.369	81.19
516.585	87.19
516.801	75.19
517.016	86.19
517.232	89.19
517.448	75.19
517.664	64.19
517.879	71.19
518.095	76.19
518.311	82.19
518.527	85.19
518.742	74.19
518.958	83.19
519.173	91.19
519.389	86.19
519.605	83.19
519.82	75.19
520.036	82.19
520.251	90.19
