Data from 1600_3_HRD10591_00001.txt Node
Date: Mon Jan 19 13:54:53 EST 2026
User: Yrep
Spectrometer: HR+D1059
Trigger mode: 1
Integration Time (sec): 1.000000E-1
Scans to average: 1
Electric dark correction enabled: true
Nonlinearity correction enabled: false
Boxcar width: 0
XAxis mode: Wavelengths
Number of Pixels in Spectrum: 2048
>>>>>Begin Spectral Data<<<<<
223.165	-17.69
223.4	-17.69
223.635	-17.69
223.869	-20.69
224.104	-31.69
224.338	-4.69
224.573	-15.69
224.808	-8.69
225.042	-12.69
225.277	-20.69
225.511	3.31
225.746	10.31
225.98	4.31
226.215	3.31
226.449	27.31
226.683	21.31
226.918	30.31
227.152	32.31
227.387	52.31
227.621	35.31
227.856	42.31
228.09	57.31
228.324	60.31
228.559	56.31
228.793	49.31
229.027	62.31
229.262	68.31
229.496	72.31
229.73	54.31
229.964	96.31
230.199	68.31
230.433	69.31
230.667	75.31
230.901	70.31
231.136	82.31
231.37	70.31
231.604	77.31
231.838	95.31
232.072	78.31
232.306	75.31
232.541	82.31
232.775	82.31
233.009	63.31
233.243	79.31
233.477	84.31
233.711	87.31
233.945	87.31
234.179	78.31
234.413	79.31
234.647	95.31
234.881	93.31
235.115	71.31
235.349	75.31
235.583	80.31
235.817	86.31
236.051	78.31
236.285	85.31
236.519	76.31
236.753	80.31
236.987	76.31
237.221	71.31
237.455	74.31
237.689	80.31
237.922	66.31
238.156	75.31
238.39	70.31
238.624	74.31
238.858	85.31
239.091	68.31
239.325	68.31
239.559	81.31
239.793	67.31
240.027	92.31
240.26	73.31
240.494	81.31
240.728	77.31
240.961	82.31
241.195	86.31
241.429	82.31
241.662	82.31
241.896	78.31
242.13	90.31
242.363	64.31
242.597	78.31
242.83	84.31
243.064	75.31
243.298	78.31
243.531	74.31
243.765	75.31
243.998	80.31
244.232	87.31
244.465	69.31
244.699	85.31
244.932	77.31
245.166	76.31
245.399	67.31
245.633	67.31
245.866	93.31
246.099	88.31
246.333	98.31
246.566	80.31
246.8	92.31
247.033	80.31
247.266	75.31
247.5	86.31
247.733	76.31
247.966	71.31
248.2	73.31
248.433	80.31
248.666	96.31
248.899	89.31
249.133	80.31
249.366	85.31
249.599	80.31
249.832	78.31
250.066	91.31
250.299	82.31
250.532	80.31
250.765	80.31
250.998	73.31
251.231	88.31
251.465	74.31
251.698	71.31
251.931	76.31
252.164	91.31
252.397	83.31
252.63	79.31
252.863	77.31
253.096	72.31
253.329	91.31
253.562	72.31
253.795	87.31
254.028	91.31
254.261	75.31
254.494	87.31
254.727	80.31
254.96	88.31
255.193	78.31
255.426	87.31
255.659	72.31
255.892	79.31
256.124	83.31
256.357	83.31
256.59	84.31
256.823	75.31
257.056	82.31
257.289	72.31
257.521	82.31
257.754	83.31
257.987	90.31
258.22	91.31
258.452	86.31
258.685	91.31
258.918	103.31
259.151	80.31
259.383	87.31
259.616	70.31
259.849	82.31
260.081	85.31
260.314	86.31
260.547	87.31
260.779	84.31
261.012	81.31
261.244	66.31
261.477	82.31
261.71	84.31
261.942	85.31
262.175	84.31
262.407	80.31
262.64	64.31
262.872	69.31
263.105	84.31
263.337	74.31
263.57	64.31
263.802	82.31
264.035	90.31
264.267	74.31
264.499	87.31
264.732	74.31
264.964	87.31
265.197	89.31
265.429	82.31
265.661	82.31
265.894	90.31
266.126	82.31
266.358	84.31
266.591	71.31
266.823	81.31
267.055	73.31
267.287	91.31
267.52	88.31
267.752	78.31
267.984	83.31
268.216	78.31
268.448	76.31
268.681	83.31
268.913	74.31
269.145	86.31
269.377	92.31
269.609	76.31
269.841	83.31
270.073	83.31
270.306	91.31
270.538	83.31
270.77	89.31
271.002	67.31
271.234	80.31
271.466	96.31
271.698	71.31
271.93	82.31
272.162	88.31
272.394	89.31
272.626	80.31
272.858	76.31
273.09	88.31
273.322	72.31
273.553	75.31
273.785	81.31
274.017	80.31
274.249	99.31
274.481	77.31
274.713	96.31
274.945	86.31
275.176	77.31
275.408	86.31
275.64	76.31
275.872	82.31
276.104	89.31
276.335	86.31
276.567	81.31
276.799	92.31
277.031	91.31
277.262	80.31
277.494	76.31
277.726	69.31
277.957	98.31
278.189	87.31
278.421	66.31
278.652	72.31
278.884	75.31
279.115	76.31
279.347	81.31
279.579	82.31
279.81	90.31
280.042	94.31
280.273	89.31
280.505	99.31
280.736	87.31
280.968	78.31
281.199	96.31
281.431	82.31
281.662	91.31
281.894	97.31
282.125	98.31
282.356	98.31
282.588	89.31
282.819	84.31
283.051	87.31
283.282	86.31
283.513	86.31
283.745	86.31
283.976	83.31
284.207	85.31
284.439	91.31
284.67	94.31
284.901	73.31
285.132	83.31
285.364	103.31
285.595	94.31
285.826	79.31
286.057	82.31
286.288	90.31
286.52	82.31
286.751	88.31
286.982	82.31
287.213	74.31
287.444	77.31
287.675	89.31
287.906	68.31
288.138	91.31
288.369	100.31
288.6	90.31
288.831	86.31
289.062	86.31
289.293	100.31
289.524	77.31
289.755	82.31
289.986	88.31
290.217	100.31
290.448	93.31
290.679	88.31
290.91	79.31
291.141	101.31
291.371	92.31
291.602	96.31
291.833	88.31
292.064	81.31
292.295	80.31
292.526	92.31
292.757	83.31
292.987	107.31
293.218	98.31
293.449	92.31
293.68	87.31
293.91	87.31
294.141	88.31
294.372	84.31
294.603	99.31
294.833	90.31
295.064	88.31
295.295	83.31
295.525	86.31
295.756	87.31
295.987	99.31
296.217	87.31
296.448	94.31
296.679	79.31
296.909	98.31
297.14	92.31
297.37	94.31
297.601	90.31
297.831	85.31
298.062	96.31
298.292	81.31
298.523	77.31
298.753	76.31
298.984	89.31
299.214	88.31
299.445	88.31
299.675	79.31
299.905	72.31
300.136	83.31
300.366	81.31
300.597	84.31
300.827	87.31
301.057	84.31
301.288	90.31
301.518	90.31
301.748	86.31
301.979	105.31
302.209	79.31
302.439	80.31
302.669	95.31
302.9	86.31
303.13	81.31
303.36	86.31
303.59	86.31
303.82	83.31
304.051	100.31
304.281	78.31
304.511	86.31
304.741	83.31
304.971	85.31
305.201	82.31
305.431	81.31
305.661	76.31
305.891	93.31
306.121	86.31
306.352	82.31
306.582	93.31
306.812	86.31
307.042	89.31
307.272	96.31
307.502	88.31
307.731	92.31
307.961	88.31
308.191	100.31
308.421	75.31
308.651	80.31
308.881	100.31
309.111	85.31
309.341	88.31
309.571	96.31
309.8	81.31
310.03	90.31
310.26	98.31
310.49	86.31
310.72	91.31
310.949	89.31
311.179	77.31
311.409	79.31
311.639	76.31
311.868	87.31
312.098	95.31
312.328	91.31
312.557	91.31
312.787	82.31
313.017	90.31
313.246	76.31
313.476	80.31
313.706	74.31
313.935	85.31
314.165	106.31
314.394	78.31
314.624	90.31
314.853	87.31
315.083	92.31
315.312	85.31
315.542	96.31
315.771	77.31
316.001	85.31
316.23	95.31
316.46	76.31
316.689	82.31
316.919	82.31
317.148	87.31
317.377	99.31
317.607	82.31
317.836	91.31
318.065	79.31
318.295	79.31
318.524	94.31
318.753	73.31
318.983	92.31
319.212	89.31
319.441	97.31
319.67	98.31
319.9	82.31
320.129	90.31
320.358	101.31
320.587	84.31
320.816	77.31
321.046	84.31
321.275	94.31
321.504	83.31
321.733	96.31
321.962	97.31
322.191	72.31
322.42	80.31
322.649	89.31
322.878	82.31
323.108	87.31
323.337	84.31
323.566	82.31
323.795	89.31
324.024	66.31
324.253	80.31
324.482	95.31
324.71	84.31
324.939	83.31
325.168	87.31
325.397	83.31
325.626	95.31
325.855	81.31
326.084	85.31
326.313	84.31
326.542	102.31
326.77	80.31
326.999	62.31
327.228	95.31
327.457	88.31
327.686	92.31
327.914	85.31
328.143	87.31
328.372	85.31
328.6	92.31
328.829	96.31
329.058	84.31
329.287	91.31
329.515	80.31
329.744	95.31
329.972	80.31
330.201	75.31
330.43	81.31
330.658	82.31
330.887	102.31
331.115	90.31
331.344	84.31
331.572	95.31
331.801	77.31
332.03	90.31
332.258	91.31
332.486	61.31
332.715	85.31
332.943	88.31
333.172	75.31
333.4	87.31
333.629	83.31
333.857	98.31
334.085	111.31
334.314	84.31
334.542	86.31
334.771	81.31
334.999	74.31
335.227	77.31
335.455	91.31
335.684	71.31
335.912	81.31
336.14	96.31
336.369	98.31
336.597	79.31
336.825	87.31
337.053	81.31
337.281	99.31
337.51	96.31
337.738	83.31
337.966	91.31
338.194	90.31
338.422	98.31
338.65	97.31
338.878	83.31
339.106	82.31
339.334	72.31
339.562	78.31
339.79	82.31
340.018	81.31
340.246	90.31
340.474	84.31
340.702	88.31
340.93	75.31
341.158	88.31
341.386	76.31
341.614	84.31
341.842	88.31
342.07	82.31
342.298	88.31
342.526	83.31
342.754	92.31
342.981	100.31
343.209	83.31
343.437	114.31
343.665	82.31
343.893	83.31
344.12	94.31
344.348	96.31
344.576	90.31
344.804	89.31
345.031	98.31
345.259	94.31
345.487	102.31
345.714	81.31
345.942	84.31
346.17	81.31
346.397	95.31
346.625	99.31
346.853	71.31
347.08	94.31
347.308	99.31
347.535	89.31
347.763	95.31
347.99	91.31
348.218	91.31
348.445	102.31
348.673	96.31
348.9	72.31
349.128	82.31
349.355	98.31
349.583	85.31
349.81	76.31
350.037	88.31
350.265	87.31
350.492	81.31
350.72	92.31
350.947	96.31
351.174	88.31
351.402	79.31
351.629	74.31
351.856	88.31
352.083	91.31
352.311	98.31
352.538	91.31
352.765	87.31
352.992	86.31
353.22	84.31
353.447	86.31
353.674	81.31
353.901	85.31
354.128	80.31
354.355	75.31
354.583	78.31
354.81	74.31
355.037	82.31
355.264	86.31
355.491	93.31
355.718	74.31
355.945	84.31
356.172	87.31
356.399	77.31
356.626	98.31
356.853	98.31
357.08	97.31
357.307	95.31
357.534	77.31
357.761	81.31
357.988	93.31
358.215	87.31
358.441	89.31
358.668	87.31
358.895	73.31
359.122	97.31
359.349	86.31
359.576	85.31
359.802	77.31
360.029	83.31
360.256	90.31
360.483	81.31
360.709	90.31
360.936	100.31
361.163	96.31
361.39	81.31
361.616	83.31
361.843	84.31
362.07	100.31
362.296	90.31
362.523	79.31
362.749	103.31
362.976	97.31
363.203	100.31
363.429	104.31
363.656	86.31
363.882	102.31
364.109	88.31
364.335	96.31
364.562	114.31
364.788	91.31
365.015	102.31
365.241	84.31
365.468	92.31
365.694	94.31
365.92	90.31
366.147	87.31
366.373	67.31
366.599	77.31
366.826	78.31
367.052	89.31
367.278	83.31
367.505	91.31
367.731	84.31
367.957	90.31
368.184	103.31
368.41	94.31
368.636	88.31
368.862	99.31
369.089	81.31
369.315	89.31
369.541	90.31
369.767	92.31
369.993	82.31
370.219	94.31
370.445	68.31
370.672	91.31
370.898	91.31
371.124	91.31
371.35	91.31
371.576	110.31
371.802	78.31
372.028	87.31
372.254	92.31
372.48	93.31
372.706	108.31
372.932	98.31
373.158	90.31
373.384	106.31
373.61	104.31
373.835	103.31
374.061	95.31
374.287	92.31
374.513	75.31
374.739	103.31
374.965	94.31
375.191	103.31
375.416	87.31
375.642	91.31
375.868	88.31
376.094	106.31
376.319	94.31
376.545	87.31
376.771	78.31
376.997	102.31
377.222	73.31
377.448	98.31
377.674	92.31
377.899	90.31
378.125	94.31
378.35	76.31
378.576	102.31
378.802	90.31
379.027	88.31
379.253	91.31
379.478	86.31
379.704	81.31
379.929	91.31
380.155	80.31
380.38	86.31
380.606	83.31
380.831	77.31
381.057	110.31
381.282	92.31
381.507	103.31
381.733	82.31
381.958	96.31
382.184	99.31
382.409	98.31
382.634	99.31
382.86	93.31
383.085	101.31
383.31	115.31
383.535	119.31
383.761	104.31
383.986	106.31
384.211	102.31
384.436	91.31
384.662	87.31
384.887	84.31
385.112	76.31
385.337	100.31
385.562	87.31
385.787	91.31
386.013	102.31
386.238	81.31
386.463	82.31
386.688	99.31
386.913	95.31
387.138	85.31
387.363	80.31
387.588	88.31
387.813	96.31
388.038	85.31
388.263	82.31
388.488	90.31
388.713	95.31
388.938	97.31
389.163	80.31
389.387	71.31
389.612	73.31
389.837	73.31
390.062	100.31
390.287	84.31
390.512	79.31
390.736	88.31
390.961	84.31
391.186	92.31
391.411	94.31
391.636	92.31
391.86	92.31
392.085	72.31
392.31	100.31
392.534	78.31
392.759	104.31
392.984	113.31
393.208	154.31
393.433	194.31
393.658	150.31
393.882	118.31
394.107	98.31
394.331	112.31
394.556	112.31
394.78	104.31
395.005	74.31
395.229	91.31
395.454	83.31
395.678	98.31
395.903	111.31
396.127	127.31
396.352	127.31
396.576	110.31
396.801	163.31
397.025	170.31
397.249	119.31
397.474	98.31
397.698	74.31
397.922	90.31
398.147	94.31
398.371	84.31
398.595	110.31
398.82	82.31
399.044	82.31
399.268	80.31
399.492	79.31
399.717	83.31
399.941	99.31
400.165	82.31
400.389	94.31
400.613	96.31
400.837	89.31
401.062	82.31
401.286	88.31
401.51	81.31
401.734	86.31
401.958	88.31
402.182	86.31
402.406	92.31
402.63	77.31
402.854	90.31
403.078	90.31
403.302	93.31
403.526	88.31
403.75	83.31
403.974	74.31
404.198	92.31
404.422	88.31
404.645	88.31
404.869	80.31
405.093	83.31
405.317	89.31
405.541	88.31
405.765	86.31
405.988	87.31
406.212	87.31
406.436	95.31
406.66	115.31
406.883	85.31
407.107	83.31
407.331	77.31
407.555	84.31
407.778	94.31
408.002	90.31
408.226	89.31
408.449	81.31
408.673	76.31
408.896	101.31
409.12	102.31
409.344	62.31
409.567	89.31
409.791	90.31
410.014	91.31
410.238	85.31
410.461	83.31
410.685	89.31
410.908	89.31
411.132	81.31
411.355	80.31
411.578	85.31
411.802	80.31
412.025	75.31
412.249	78.31
412.472	92.31
412.695	84.31
412.919	75.31
413.142	84.31
413.365	80.31
413.589	84.31
413.812	87.31
414.035	79.31
414.258	82.31
414.482	83.31
414.705	88.31
414.928	75.31
415.151	88.31
415.374	74.31
415.597	85.31
415.821	74.31
416.044	74.31
416.267	87.31
416.49	75.31
416.713	74.31
416.936	77.31
417.159	68.31
417.382	78.31
417.605	84.31
417.828	71.31
418.051	91.31
418.274	86.31
418.497	80.31
418.72	83.31
418.943	94.31
419.166	82.31
419.389	72.31
419.611	80.31
419.834	87.31
420.057	74.31
420.28	78.31
420.503	88.31
420.726	79.31
420.948	82.31
421.171	92.31
421.394	88.31
421.617	89.31
421.839	93.31
422.062	100.31
422.285	114.31
422.507	162.31
422.73	227.31
422.953	220.31
423.175	135.31
423.398	101.31
423.621	81.31
423.843	92.31
424.066	90.31
424.288	96.31
424.511	93.31
424.733	90.31
424.956	97.31
425.178	83.31
425.401	86.31
425.623	85.31
425.846	72.31
426.068	90.31
426.291	90.31
426.513	95.31
426.735	71.31
426.958	85.31
427.18	94.31
427.402	87.31
427.625	91.31
427.847	91.31
428.069	100.31
428.292	105.31
428.514	118.31
428.736	99.31
428.958	98.31
429.181	108.31
429.403	85.31
429.625	100.31
429.847	88.31
430.069	115.31
430.292	137.31
430.514	119.31
430.736	107.31
430.958	104.31
431.18	90.31
431.402	93.31
431.624	87.31
431.846	99.31
432.068	108.31
432.29	95.31
432.512	92.31
432.734	94.31
432.956	96.31
433.178	82.31
433.4	86.31
433.622	85.31
433.844	81.31
434.066	85.31
434.287	77.31
434.509	76.31
434.731	86.31
434.953	87.31
435.175	87.31
435.397	89.31
435.618	94.31
435.84	77.31
436.062	99.31
436.284	87.31
436.505	82.31
436.727	83.31
436.949	76.31
437.17	84.31
437.392	79.31
437.614	67.31
437.835	93.31
438.057	82.31
438.278	83.31
438.5	97.31
438.721	92.31
438.943	83.31
439.165	81.31
439.386	75.31
439.608	96.31
439.829	92.31
440.05	94.31
440.272	76.31
440.493	87.31
440.715	95.31
440.936	82.31
441.158	77.31
441.379	76.31
441.6	72.31
441.822	86.31
442.043	77.31
442.264	101.31
442.486	89.31
442.707	119.31
442.928	90.31
443.149	88.31
443.371	103.31
443.592	143.31
443.813	143.31
444.034	89.31
444.255	75.31
444.476	90.31
444.698	98.31
444.919	94.31
445.14	159.31
445.361	142.31
445.582	166.31
445.803	143.31
446.024	106.31
446.245	100.31
446.466	91.31
446.687	66.31
446.908	87.31
447.129	104.31
447.35	80.31
447.571	69.31
447.792	81.31
448.013	66.31
448.234	94.31
448.455	87.31
448.675	70.31
448.896	72.31
449.117	76.31
449.338	81.31
449.559	88.31
449.779	75.31
450	76.31
450.221	88.31
450.442	82.31
450.662	80.31
450.883	87.31
451.104	80.31
451.324	76.31
451.545	100.31
451.766	70.31
451.986	89.31
452.207	79.31
452.428	93.31
452.648	80.31
452.869	87.31
453.089	96.31
453.31	80.31
453.53	80.31
453.751	87.31
453.971	83.31
454.192	85.31
454.412	100.31
454.633	80.31
454.853	86.31
455.073	87.31
455.294	83.31
455.514	88.31
455.734	87.31
455.955	76.31
456.175	83.31
456.395	85.31
456.616	91.31
456.836	80.31
457.056	84.31
457.276	84.31
457.497	82.31
457.717	87.31
457.937	91.31
458.157	102.31
458.377	88.31
458.598	107.31
458.818	92.31
459.038	98.31
459.258	65.31
459.478	87.31
459.698	77.31
459.918	76.31
460.138	84.31
460.358	90.31
460.578	87.31
460.798	86.31
461.018	95.31
461.238	83.31
461.458	82.31
461.678	77.31
461.898	79.31
462.118	88.31
462.338	77.31
462.558	77.31
462.777	75.31
462.997	86.31
463.217	98.31
463.437	100.31
463.657	83.31
463.876	77.31
464.096	67.31
464.316	92.31
464.536	90.31
464.755	78.31
464.975	96.31
465.195	96.31
465.414	96.31
465.634	89.31
465.854	81.31
466.073	77.31
466.293	80.31
466.512	73.31
466.732	91.31
466.951	72.31
467.171	90.31
467.391	89.31
467.61	73.31
467.829	85.31
468.049	85.31
468.268	82.31
468.488	85.31
468.707	91.31
468.927	88.31
469.146	88.31
469.365	87.31
469.585	96.31
469.804	95.31
470.023	89.31
470.243	76.31
470.462	86.31
470.681	82.31
470.901	86.31
471.12	89.31
471.339	77.31
471.558	89.31
471.777	87.31
471.997	91.31
472.216	84.31
472.435	90.31
472.654	76.31
472.873	85.31
473.092	77.31
473.311	96.31
473.53	90.31
473.749	84.31
473.968	76.31
474.187	81.31
474.406	86.31
474.625	99.31
474.844	82.31
475.063	97.31
475.282	88.31
475.501	92.31
475.72	80.31
475.939	81.31
476.158	80.31
476.377	96.31
476.596	84.31
476.814	82.31
477.033	67.31
477.252	97.31
477.471	88.31
477.69	77.31
477.908	68.31
478.127	77.31
478.346	77.31
478.564	79.31
478.783	71.31
479.002	90.31
479.22	82.31
479.439	88.31
479.658	66.31
479.876	83.31
480.095	86.31
480.313	84.31
480.532	83.31
480.751	88.31
480.969	78.31
481.188	78.31
481.406	79.31
481.624	86.31
481.843	89.31
482.061	98.31
482.28	74.31
482.498	97.31
482.717	102.31
482.935	94.31
483.153	80.31
483.372	89.31
483.59	85.31
483.808	91.31
484.027	95.31
484.245	88.31
484.463	82.31
484.681	88.31
484.9	84.31
485.118	76.31
485.336	99.31
485.554	74.31
485.772	82.31
485.99	87.31
486.209	88.31
486.427	92.31
486.645	92.31
486.863	97.31
487.081	91.31
487.299	88.31
487.517	81.31
487.735	83.31
487.953	108.31
488.171	100.31
488.389	83.31
488.607	83.31
488.825	90.31
489.043	84.31
489.261	87.31
489.479	100.31
489.696	90.31
489.914	100.31
490.132	80.31
490.35	103.31
490.568	79.31
490.786	90.31
491.003	86.31
491.221	80.31
491.439	91.31
491.657	94.31
491.874	102.31
492.092	87.31
492.31	96.31
492.527	102.31
492.745	83.31
492.963	82.31
493.18	83.31
493.398	82.31
493.615	98.31
493.833	91.31
494.05	89.31
494.268	84.31
494.485	89.31
494.703	71.31
494.92	79.31
495.138	94.31
495.355	88.31
495.573	101.31
495.79	82.31
496.008	87.31
496.225	76.31
496.442	91.31
496.66	85.31
496.877	88.31
497.094	91.31
497.312	83.31
497.529	80.31
497.746	94.31
497.963	95.31
498.181	86.31
498.398	108.31
498.615	86.31
498.832	93.31
499.049	89.31
499.267	105.31
499.484	97.31
499.701	87.31
499.918	90.31
500.135	85.31
500.352	98.31
500.569	84.31
500.786	71.31
501.003	86.31
501.22	84.31
501.437	96.31
501.654	86.31
501.871	91.31
502.088	92.31
502.305	91.31
502.522	99.31
502.739	86.31
502.956	84.31
503.172	90.31
503.389	104.31
503.606	87.31
503.823	70.31
504.04	76.31
504.256	114.31
504.473	98.31
504.69	87.31
504.907	98.31
505.123	82.31
505.34	76.31
505.557	91.31
505.773	87.31
505.99	83.31
506.207	82.31
506.423	74.31
506.64	92.31
506.856	87.31
507.073	85.31
507.289	83.31
507.506	83.31
507.722	83.31
507.939	115.31
508.155	88.31
508.372	94.31
508.588	91.31
508.805	90.31
509.021	83.31
509.238	86.31
509.454	82.31
509.67	75.31
509.887	83.31
510.103	84.31
510.319	84.31
510.536	88.31
510.752	89.31
510.968	90.31
511.184	83.31
511.401	90.31
511.617	78.31
511.833	89.31
512.049	112.31
512.265	88.31
512.481	114.31
512.698	98.31
512.914	84.31
513.13	91.31
513.346	85.31
513.562	78.31
513.778	96.31
513.994	90.31
514.21	91.31
514.426	97.31
514.642	88.31
514.858	92.31
515.074	84.31
515.29	97.31
515.506	88.31
515.721	82.31
515.937	89.31
516.153	63.31
516.369	81.31
516.585	97.31
516.801	96.31
517.016	94.31
517.232	89.31
517.448	105.31
517.664	84.31
517.879	81.31
518.095	100.31
518.311	77.31
518.527	126.31
