Data from 1600_3_HRD10591_00030.txt Node
Date: Mon Jan 19 13:55:08 EST 2026
User: Yrep
Spectrometer: HR+D1059
Trigger mode: 1
Integration Time (sec): 1.000000E-1
Scans to average: 1
Electric dark correction enabled: true
Nonlinearity correction enabled: false
Boxcar width: 0
XAxis mode: Wavelengths
Number of Pixels in Spectrum: 2048
>>>>>Begin Spectral Data<<<<<
223.165	-21.25
223.4	-21.25
223.635	-21.25
223.869	2.75
224.104	-15.25
224.338	-8.25
224.573	-18.25
224.808	-17.25
225.042	-12.25
225.277	-9.25
225.511	-6.25
225.746	-7.25
225.98	0.75
226.215	4.75
226.449	13.75
226.683	30.75
226.918	31.75
227.152	30.75
227.387	48.75
227.621	48.75
227.856	44.75
228.09	46.75
228.324	52.75
228.559	44.75
228.793	51.75
229.027	60.75
229.262	63.75
229.496	72.75
229.73	68.75
229.964	64.75
230.199	81.75
230.433	63.75
230.667	70.75
230.901	56.75
231.136	84.75
231.37	77.75
231.604	83.75
231.838	78.75
232.072	87.75
232.306	78.75
232.541	72.75
232.775	76.75
233.009	82.75
233.243	77.75
233.477	82.75
233.711	81.75
233.945	80.75
234.179	85.75
234.413	76.75
234.647	64.75
234.881	84.75
235.115	75.75
235.349	76.75
235.583	70.75
235.817	78.75
236.051	77.75
236.285	81.75
236.519	79.75
236.753	87.75
236.987	67.75
237.221	69.75
237.455	80.75
237.689	76.75
237.922	79.75
238.156	91.75
238.39	74.75
238.624	78.75
238.858	58.75
239.091	86.75
239.325	72.75
239.559	71.75
239.793	73.75
240.027	73.75
240.26	58.75
240.494	74.75
240.728	71.75
240.961	77.75
241.195	80.75
241.429	69.75
241.662	79.75
241.896	86.75
242.13	63.75
242.363	75.75
242.597	67.75
242.83	78.75
243.064	70.75
243.298	75.75
243.531	70.75
243.765	76.75
243.998	69.75
244.232	82.75
244.465	68.75
244.699	85.75
244.932	74.75
245.166	74.75
245.399	62.75
245.633	70.75
245.866	82.75
246.099	75.75
246.333	61.75
246.566	85.75
246.8	84.75
247.033	83.75
247.266	83.75
247.5	80.75
247.733	72.75
247.966	91.75
248.2	82.75
248.433	77.75
248.666	79.75
248.899	91.75
249.133	73.75
249.366	81.75
249.599	79.75
249.832	75.75
250.066	72.75
250.299	84.75
250.532	92.75
250.765	76.75
250.998	78.75
251.231	82.75
251.465	79.75
251.698	88.75
251.931	66.75
252.164	97.75
252.397	75.75
252.63	84.75
252.863	74.75
253.096	72.75
253.329	80.75
253.562	82.75
253.795	65.75
254.028	84.75
254.261	74.75
254.494	86.75
254.727	85.75
254.96	78.75
255.193	83.75
255.426	76.75
255.659	74.75
255.892	76.75
256.124	74.75
256.357	85.75
256.59	88.75
256.823	79.75
257.056	75.75
257.289	84.75
257.521	75.75
257.754	87.75
257.987	94.75
258.22	98.75
258.452	77.75
258.685	73.75
258.918	82.75
259.151	78.75
259.383	89.75
259.616	71.75
259.849	88.75
260.081	71.75
260.314	81.75
260.547	66.75
260.779	71.75
261.012	79.75
261.244	74.75
261.477	79.75
261.71	86.75
261.942	83.75
262.175	77.75
262.407	76.75
262.64	83.75
262.872	82.75
263.105	80.75
263.337	83.75
263.57	85.75
263.802	77.75
264.035	77.75
264.267	85.75
264.499	87.75
264.732	85.75
264.964	91.75
265.197	73.75
265.429	76.75
265.661	81.75
265.894	80.75
266.126	65.75
266.358	77.75
266.591	73.75
266.823	92.75
267.055	79.75
267.287	99.75
267.52	86.75
267.752	80.75
267.984	87.75
268.216	79.75
268.448	76.75
268.681	68.75
268.913	83.75
269.145	102.75
269.377	88.75
269.609	75.75
269.841	79.75
270.073	79.75
270.306	80.75
270.538	79.75
270.77	86.75
271.002	84.75
271.234	92.75
271.466	81.75
271.698	71.75
271.93	91.75
272.162	75.75
272.394	81.75
272.626	78.75
272.858	69.75
273.09	71.75
273.322	83.75
273.553	87.75
273.785	67.75
274.017	76.75
274.249	97.75
274.481	78.75
274.713	66.75
274.945	72.75
275.176	85.75
275.408	83.75
275.64	86.75
275.872	70.75
276.104	68.75
276.335	82.75
276.567	92.75
276.799	98.75
277.031	69.75
277.262	83.75
277.494	93.75
277.726	87.75
277.957	77.75
278.189	73.75
278.421	76.75
278.652	87.75
278.884	87.75
279.115	88.75
279.347	94.75
279.579	91.75
279.81	87.75
280.042	88.75
280.273	85.75
280.505	77.75
280.736	82.75
280.968	86.75
281.199	72.75
281.431	82.75
281.662	81.75
281.894	81.75
282.125	83.75
282.356	92.75
282.588	72.75
282.819	80.75
283.051	80.75
283.282	61.75
283.513	80.75
283.745	76.75
283.976	75.75
284.207	76.75
284.439	80.75
284.67	68.75
284.901	98.75
285.132	72.75
285.364	96.75
285.595	91.75
285.826	93.75
286.057	93.75
286.288	75.75
286.52	87.75
286.751	61.75
286.982	87.75
287.213	76.75
287.444	69.75
287.675	88.75
287.906	82.75
288.138	86.75
288.369	83.75
288.6	88.75
288.831	70.75
289.062	94.75
289.293	95.75
289.524	79.75
289.755	83.75
289.986	83.75
290.217	69.75
290.448	81.75
290.679	92.75
290.91	83.75
291.141	83.75
291.371	91.75
291.602	94.75
291.833	87.75
292.064	92.75
292.295	87.75
292.526	79.75
292.757	86.75
292.987	85.75
293.218	84.75
293.449	81.75
293.68	81.75
293.91	79.75
294.141	85.75
294.372	88.75
294.603	86.75
294.833	72.75
295.064	74.75
295.295	91.75
295.525	83.75
295.756	81.75
295.987	82.75
296.217	83.75
296.448	86.75
296.679	79.75
296.909	82.75
297.14	88.75
297.37	79.75
297.601	70.75
297.831	85.75
298.062	85.75
298.292	71.75
298.523	97.75
298.753	95.75
298.984	86.75
299.214	86.75
299.445	79.75
299.675	84.75
299.905	84.75
300.136	86.75
300.366	66.75
300.597	90.75
300.827	75.75
301.057	86.75
301.288	80.75
301.518	82.75
301.748	81.75
301.979	89.75
302.209	80.75
302.439	81.75
302.669	72.75
302.9	63.75
303.13	96.75
303.36	89.75
303.59	91.75
303.82	85.75
304.051	82.75
304.281	78.75
304.511	86.75
304.741	84.75
304.971	78.75
305.201	82.75
305.431	83.75
305.661	95.75
305.891	81.75
306.121	78.75
306.352	92.75
306.582	94.75
306.812	96.75
307.042	81.75
307.272	90.75
307.502	87.75
307.731	85.75
307.961	75.75
308.191	86.75
308.421	94.75
308.651	74.75
308.881	74.75
309.111	88.75
309.341	80.75
309.571	87.75
309.8	86.75
310.03	88.75
310.26	87.75
310.49	86.75
310.72	82.75
310.949	93.75
311.179	89.75
311.409	81.75
311.639	90.75
311.868	78.75
312.098	93.75
312.328	94.75
312.557	89.75
312.787	73.75
313.017	80.75
313.246	71.75
313.476	91.75
313.706	82.75
313.935	86.75
314.165	93.75
314.394	84.75
314.624	70.75
314.853	78.75
315.083	86.75
315.312	88.75
315.542	88.75
315.771	95.75
316.001	91.75
316.23	80.75
316.46	91.75
316.689	77.75
316.919	83.75
317.148	83.75
317.377	79.75
317.607	71.75
317.836	71.75
318.065	94.75
318.295	91.75
318.524	84.75
318.753	79.75
318.983	71.75
319.212	77.75
319.441	77.75
319.67	89.75
319.9	73.75
320.129	88.75
320.358	68.75
320.587	94.75
320.816	74.75
321.046	92.75
321.275	91.75
321.504	101.75
321.733	82.75
321.962	94.75
322.191	90.75
322.42	82.75
322.649	74.75
322.878	95.75
323.108	79.75
323.337	79.75
323.566	81.75
323.795	67.75
324.024	97.75
324.253	97.75
324.482	80.75
324.71	80.75
324.939	86.75
325.168	78.75
325.397	85.75
325.626	86.75
325.855	86.75
326.084	68.75
326.313	84.75
326.542	79.75
326.77	76.75
326.999	96.75
327.228	93.75
327.457	78.75
327.686	82.75
327.914	86.75
328.143	101.75
328.372	85.75
328.6	86.75
328.829	91.75
329.058	76.75
329.287	82.75
329.515	88.75
329.744	87.75
329.972	90.75
330.201	85.75
330.43	77.75
330.658	82.75
330.887	78.75
331.115	81.75
331.344	79.75
331.572	79.75
331.801	60.75
332.03	73.75
332.258	86.75
332.486	76.75
332.715	74.75
332.943	99.75
333.172	86.75
333.4	75.75
333.629	80.75
333.857	78.75
334.085	83.75
334.314	78.75
334.542	78.75
334.771	80.75
334.999	79.75
335.227	82.75
335.455	85.75
335.684	83.75
335.912	77.75
336.14	87.75
336.369	87.75
336.597	95.75
336.825	83.75
337.053	78.75
337.281	76.75
337.51	90.75
337.738	90.75
337.966	88.75
338.194	79.75
338.422	80.75
338.65	84.75
338.878	82.75
339.106	91.75
339.334	91.75
339.562	84.75
339.79	92.75
340.018	72.75
340.246	83.75
340.474	78.75
340.702	90.75
340.93	74.75
341.158	70.75
341.386	80.75
341.614	72.75
341.842	94.75
342.07	86.75
342.298	76.75
342.526	67.75
342.754	84.75
342.981	82.75
343.209	87.75
343.437	102.75
343.665	82.75
343.893	82.75
344.12	85.75
344.348	78.75
344.576	80.75
344.804	77.75
345.031	89.75
345.259	86.75
345.487	81.75
345.714	76.75
345.942	78.75
346.17	81.75
346.397	79.75
346.625	69.75
346.853	72.75
347.08	85.75
347.308	85.75
347.535	78.75
347.763	73.75
347.99	70.75
348.218	78.75
348.445	93.75
348.673	80.75
348.9	76.75
349.128	84.75
349.355	76.75
349.583	87.75
349.81	76.75
350.037	90.75
350.265	94.75
350.492	72.75
350.72	90.75
350.947	81.75
351.174	78.75
351.402	83.75
351.629	82.75
351.856	78.75
352.083	94.75
352.311	83.75
352.538	85.75
352.765	90.75
352.992	98.75
353.22	84.75
353.447	82.75
353.674	81.75
353.901	98.75
354.128	90.75
354.355	67.75
354.583	65.75
354.81	82.75
355.037	86.75
355.264	85.75
355.491	82.75
355.718	71.75
355.945	84.75
356.172	88.75
356.399	86.75
356.626	77.75
356.853	77.75
357.08	91.75
357.307	81.75
357.534	80.75
357.761	76.75
357.988	80.75
358.215	99.75
358.441	77.75
358.668	72.75
358.895	81.75
359.122	90.75
359.349	84.75
359.576	95.75
359.802	87.75
360.029	72.75
360.256	92.75
360.483	94.75
360.709	83.75
360.936	99.75
361.163	94.75
361.39	89.75
361.616	85.75
361.843	84.75
362.07	72.75
362.296	66.75
362.523	83.75
362.749	75.75
362.976	85.75
363.203	86.75
363.429	82.75
363.656	72.75
363.882	81.75
364.109	86.75
364.335	78.75
364.562	85.75
364.788	104.75
365.015	95.75
365.241	84.75
365.468	81.75
365.694	77.75
365.92	78.75
366.147	78.75
366.373	88.75
366.599	74.75
366.826	69.75
367.052	97.75
367.278	85.75
367.505	84.75
367.731	95.75
367.957	72.75
368.184	97.75
368.41	74.75
368.636	70.75
368.862	79.75
369.089	68.75
369.315	78.75
369.541	82.75
369.767	69.75
369.993	86.75
370.219	78.75
370.445	95.75
370.672	92.75
370.898	83.75
371.124	86.75
371.35	71.75
371.576	78.75
371.802	84.75
372.028	76.75
372.254	90.75
372.48	82.75
372.706	70.75
372.932	77.75
373.158	78.75
373.384	66.75
373.61	89.75
373.835	90.75
374.061	83.75
374.287	79.75
374.513	65.75
374.739	89.75
374.965	91.75
375.191	75.75
375.416	87.75
375.642	79.75
375.868	72.75
376.094	80.75
376.319	72.75
376.545	77.75
376.771	82.75
376.997	82.75
377.222	84.75
377.448	81.75
377.674	73.75
377.899	79.75
378.125	68.75
378.35	76.75
378.576	64.75
378.802	84.75
379.027	75.75
379.253	82.75
379.478	94.75
379.704	84.75
379.929	83.75
380.155	86.75
380.38	83.75
380.606	80.75
380.831	86.75
381.057	71.75
381.282	85.75
381.507	82.75
381.733	78.75
381.958	84.75
382.184	86.75
382.409	82.75
382.634	83.75
382.86	84.75
383.085	81.75
383.31	90.75
383.535	79.75
383.761	86.75
383.986	84.75
384.211	86.75
384.436	78.75
384.662	74.75
384.887	80.75
385.112	66.75
385.337	78.75
385.562	72.75
385.787	71.75
386.013	79.75
386.238	81.75
386.463	81.75
386.688	79.75
386.913	78.75
387.138	81.75
387.363	66.75
387.588	76.75
387.813	98.75
388.038	77.75
388.263	98.75
388.488	76.75
388.713	75.75
388.938	79.75
389.163	73.75
389.387	74.75
389.612	77.75
389.837	65.75
390.062	84.75
390.287	76.75
390.512	77.75
390.736	83.75
390.961	78.75
391.186	70.75
391.411	85.75
391.636	94.75
391.86	75.75
392.085	79.75
392.31	78.75
392.534	80.75
392.759	76.75
392.984	96.75
393.208	99.75
393.433	120.75
393.658	131.75
393.882	96.75
394.107	94.75
394.331	86.75
394.556	73.75
394.78	92.75
395.005	83.75
395.229	80.75
395.454	55.75
395.678	98.75
395.903	90.75
396.127	80.75
396.352	86.75
396.576	94.75
396.801	122.75
397.025	134.75
397.249	98.75
397.474	65.75
397.698	79.75
397.922	88.75
398.147	70.75
398.371	73.75
398.595	77.75
398.82	71.75
399.044	80.75
399.268	83.75
399.492	87.75
399.717	81.75
399.941	83.75
400.165	84.75
400.389	82.75
400.613	75.75
400.837	82.75
401.062	110.75
401.286	76.75
401.51	78.75
401.734	73.75
401.958	75.75
402.182	70.75
402.406	84.75
402.63	80.75
402.854	70.75
403.078	78.75
403.302	82.75
403.526	77.75
403.75	96.75
403.974	74.75
404.198	86.75
404.422	98.75
404.645	78.75
404.869	92.75
405.093	84.75
405.317	88.75
405.541	84.75
405.765	82.75
405.988	74.75
406.212	88.75
406.436	92.75
406.66	76.75
406.883	78.75
407.107	75.75
407.331	73.75
407.555	79.75
407.778	78.75
408.002	76.75
408.226	79.75
408.449	77.75
408.673	79.75
408.896	75.75
409.12	83.75
409.344	70.75
409.567	92.75
409.791	90.75
410.014	95.75
410.238	76.75
410.461	84.75
410.685	77.75
410.908	82.75
411.132	69.75
411.355	78.75
411.578	82.75
411.802	87.75
412.025	66.75
412.249	71.75
412.472	63.75
412.695	83.75
412.919	87.75
413.142	73.75
413.365	78.75
413.589	84.75
413.812	72.75
414.035	77.75
414.258	83.75
414.482	78.75
414.705	62.75
414.928	61.75
415.151	94.75
415.374	80.75
415.597	91.75
415.821	73.75
416.044	82.75
416.267	73.75
416.49	71.75
416.713	75.75
416.936	84.75
417.159	86.75
417.382	73.75
417.605	73.75
417.828	80.75
418.051	78.75
418.274	70.75
418.497	83.75
418.72	86.75
418.943	75.75
419.166	73.75
419.389	72.75
419.611	70.75
419.834	87.75
420.057	82.75
420.28	79.75
420.503	66.75
420.726	85.75
420.948	79.75
421.171	86.75
421.394	76.75
421.617	69.75
421.839	76.75
422.062	81.75
422.285	77.75
422.507	101.75
422.73	120.75
422.953	109.75
423.175	86.75
423.398	71.75
423.621	83.75
423.843	77.75
424.066	79.75
424.288	87.75
424.511	79.75
424.733	77.75
424.956	76.75
425.178	86.75
425.401	74.75
425.623	86.75
425.846	68.75
426.068	72.75
426.291	66.75
426.513	75.75
426.735	67.75
426.958	80.75
427.18	99.75
427.402	98.75
427.625	87.75
427.847	78.75
428.069	75.75
428.292	81.75
428.514	75.75
428.736	86.75
428.958	80.75
429.181	77.75
429.403	63.75
429.625	90.75
429.847	83.75
430.069	87.75
430.292	90.75
430.514	70.75
430.736	66.75
430.958	84.75
431.18	73.75
431.402	89.75
431.624	78.75
431.846	89.75
432.068	72.75
432.29	66.75
432.512	66.75
432.734	90.75
432.956	87.75
433.178	93.75
433.4	78.75
433.622	69.75
433.844	85.75
434.066	69.75
434.287	93.75
434.509	76.75
434.731	76.75
434.953	86.75
435.175	76.75
435.397	78.75
435.618	78.75
435.84	87.75
436.062	88.75
436.284	74.75
436.505	76.75
436.727	76.75
436.949	87.75
437.17	81.75
437.392	73.75
437.614	86.75
437.835	80.75
438.057	75.75
438.278	67.75
438.5	82.75
438.721	79.75
438.943	97.75
439.165	77.75
439.386	73.75
439.608	78.75
439.829	86.75
440.05	81.75
440.272	75.75
440.493	76.75
440.715	67.75
440.936	71.75
441.158	84.75
441.379	92.75
441.6	79.75
441.822	80.75
442.043	91.75
442.264	88.75
442.486	80.75
442.707	87.75
442.928	91.75
443.149	86.75
443.371	87.75
443.592	82.75
443.813	85.75
444.034	82.75
444.255	78.75
444.476	78.75
444.698	67.75
444.919	76.75
445.14	126.75
445.361	98.75
445.582	88.75
445.803	74.75
446.024	73.75
446.245	71.75
446.466	85.75
446.687	90.75
446.908	78.75
447.129	92.75
447.35	91.75
447.571	99.75
447.792	70.75
448.013	73.75
448.234	84.75
448.455	86.75
448.675	59.75
448.896	70.75
449.117	78.75
449.338	76.75
449.559	74.75
449.779	82.75
450	69.75
450.221	82.75
450.442	76.75
450.662	84.75
450.883	87.75
451.104	79.75
451.324	72.75
451.545	89.75
451.766	89.75
451.986	87.75
452.207	74.75
452.428	79.75
452.648	79.75
452.869	85.75
453.089	74.75
453.31	84.75
453.53	80.75
453.751	81.75
453.971	80.75
454.192	76.75
454.412	77.75
454.633	74.75
454.853	71.75
455.073	70.75
455.294	87.75
455.514	84.75
455.734	71.75
455.955	79.75
456.175	79.75
456.395	75.75
456.616	89.75
456.836	78.75
457.056	91.75
457.276	78.75
457.497	74.75
457.717	74.75
457.937	81.75
458.157	81.75
458.377	80.75
458.598	82.75
458.818	74.75
459.038	82.75
459.258	59.75
459.478	81.75
459.698	84.75
459.918	78.75
460.138	88.75
460.358	86.75
460.578	76.75
460.798	82.75
461.018	84.75
461.238	91.75
461.458	80.75
461.678	78.75
461.898	85.75
462.118	79.75
462.338	75.75
462.558	77.75
462.777	77.75
462.997	81.75
463.217	85.75
463.437	79.75
463.657	71.75
463.876	64.75
464.096	79.75
464.316	74.75
464.536	83.75
464.755	89.75
464.975	84.75
465.195	66.75
465.414	84.75
465.634	86.75
465.854	86.75
466.073	82.75
466.293	71.75
466.512	86.75
466.732	92.75
466.951	89.75
467.171	73.75
467.391	74.75
467.61	83.75
467.829	79.75
468.049	81.75
468.268	82.75
468.488	72.75
468.707	87.75
468.927	80.75
469.146	80.75
469.365	85.75
469.585	84.75
469.804	74.75
470.023	88.75
470.243	85.75
470.462	75.75
470.681	80.75
470.901	78.75
471.12	77.75
471.339	79.75
471.558	88.75
471.777	82.75
471.997	76.75
472.216	78.75
472.435	64.75
472.654	89.75
472.873	92.75
473.092	83.75
473.311	88.75
473.53	88.75
473.749	88.75
473.968	72.75
474.187	72.75
474.406	86.75
474.625	78.75
474.844	79.75
475.063	95.75
475.282	67.75
475.501	77.75
475.72	82.75
475.939	85.75
476.158	73.75
476.377	83.75
476.596	79.75
476.814	83.75
477.033	93.75
477.252	93.75
477.471	92.75
477.69	90.75
477.908	71.75
478.127	64.75
478.346	82.75
478.564	76.75
478.783	73.75
479.002	87.75
479.22	84.75
479.439	79.75
479.658	91.75
479.876	88.75
480.095	92.75
480.313	86.75
480.532	76.75
480.751	85.75
480.969	94.75
481.188	80.75
481.406	84.75
481.624	86.75
481.843	75.75
482.061	74.75
482.28	89.75
482.498	69.75
482.717	76.75
482.935	80.75
483.153	66.75
483.372	72.75
483.59	88.75
483.808	73.75
484.027	86.75
484.245	84.75
484.463	81.75
484.681	88.75
484.9	94.75
485.118	91.75
485.336	79.75
485.554	92.75
485.772	76.75
485.99	71.75
486.209	82.75
486.427	79.75
486.645	74.75
486.863	72.75
487.081	94.75
487.299	74.75
487.517	80.75
487.735	88.75
487.953	64.75
488.171	59.75
488.389	76.75
488.607	78.75
488.825	80.75
489.043	70.75
489.261	77.75
489.479	80.75
489.696	83.75
489.914	90.75
490.132	79.75
490.35	66.75
490.568	88.75
490.786	92.75
491.003	88.75
491.221	76.75
491.439	84.75
491.657	66.75
491.874	82.75
492.092	79.75
492.31	92.75
492.527	88.75
492.745	84.75
492.963	90.75
493.18	81.75
493.398	74.75
493.615	85.75
493.833	72.75
494.05	75.75
494.268	73.75
494.485	79.75
494.703	91.75
494.92	82.75
495.138	87.75
495.355	84.75
495.573	69.75
495.79	91.75
496.008	90.75
496.225	79.75
496.442	82.75
496.66	88.75
496.877	94.75
497.094	87.75
497.312	80.75
497.529	76.75
497.746	85.75
497.963	83.75
498.181	77.75
498.398	77.75
498.615	91.75
498.832	93.75
499.049	93.75
499.267	77.75
499.484	89.75
499.701	87.75
499.918	79.75
500.135	73.75
500.352	66.75
500.569	84.75
500.786	83.75
501.003	85.75
501.22	79.75
501.437	72.75
501.654	91.75
501.871	70.75
502.088	78.75
502.305	95.75
502.522	90.75
502.739	83.75
502.956	80.75
503.172	91.75
503.389	80.75
503.606	90.75
503.823	73.75
504.04	85.75
504.256	86.75
504.473	88.75
504.69	80.75
504.907	99.75
505.123	82.75
505.34	68.75
505.557	73.75
505.773	99.75
505.99	86.75
506.207	73.75
506.423	90.75
506.64	85.75
506.856	64.75
507.073	86.75
507.289	100.75
507.506	95.75
507.722	91.75
507.939	60.75
508.155	87.75
508.372	88.75
508.588	85.75
508.805	83.75
509.021	78.75
509.238	90.75
509.454	90.75
509.67	75.75
509.887	70.75
510.103	76.75
510.319	85.75
510.536	82.75
510.752	87.75
510.968	85.75
511.184	88.75
511.401	83.75
511.617	89.75
511.833	83.75
512.049	72.75
512.265	82.75
512.481	81.75
512.698	91.75
512.914	94.75
513.13	79.75
513.346	79.75
513.562	95.75
513.778	83.75
513.994	78.75
514.21	68.75
514.426	91.75
514.642	85.75
514.858	61.75
515.074	86.75
515.29	104.75
515.506	82.75
515.721	94.75
515.937	93.75
516.153	92.75
516.369	82.75
516.585	85.75
516.801	95.75
517.016	77.75
517.232	76.75
517.448	78.75
517.664	84.75
517.879	91.75
518.095	95.75
518.311	93.75
518.527	98.75
518.742	93.75
518.958	90.75
519.173	82.75
519.389	86.75
519.605	83.75
519.82	82.75
520.036	74.75
