Data from 1600_3_HRD10591_00028.txt Node
Date: Mon Jan 19 13:55:07 EST 2026
User: Yrep
Spectrometer: HR+D1059
Trigger mode: 1
Integration Time (sec): 1.000000E-1
Scans to average: 1
Electric dark correction enabled: true
Nonlinearity correction enabled: false
Boxcar width: 0
XAxis mode: Wavelengths
Number of Pixels in Spectrum: 2048
>>>>>Begin Spectral Data<<<<<
223.165	-15.56
223.4	-15.56
223.635	-15.56
223.869	-15.56
224.104	-22.56
224.338	-7.56
224.573	-11.56
224.808	-8.56
225.042	-6.56
225.277	-10.56
225.511	4.44
225.746	-4.56
225.98	3.44
226.215	9.44
226.449	13.44
226.683	25.44
226.918	30.44
227.152	16.44
227.387	21.44
227.621	42.44
227.856	57.44
228.09	40.44
228.324	61.44
228.559	49.44
228.793	61.44
229.027	59.44
229.262	43.44
229.496	59.44
229.73	50.44
229.964	69.44
230.199	59.44
230.433	65.44
230.667	72.44
230.901	65.44
231.136	72.44
231.37	79.44
231.604	75.44
231.838	67.44
232.072	78.44
232.306	71.44
232.541	81.44
232.775	79.44
233.009	70.44
233.243	75.44
233.477	71.44
233.711	70.44
233.945	69.44
234.179	73.44
234.413	70.44
234.647	79.44
234.881	89.44
235.115	67.44
235.349	61.44
235.583	76.44
235.817	77.44
236.051	75.44
236.285	76.44
236.519	84.44
236.753	91.44
236.987	73.44
237.221	59.44
237.455	59.44
237.689	75.44
237.922	85.44
238.156	64.44
238.39	75.44
238.624	77.44
238.858	74.44
239.091	69.44
239.325	75.44
239.559	82.44
239.793	67.44
240.027	89.44
240.26	67.44
240.494	69.44
240.728	72.44
240.961	77.44
241.195	79.44
241.429	75.44
241.662	69.44
241.896	70.44
242.13	77.44
242.363	69.44
242.597	74.44
242.83	75.44
243.064	68.44
243.298	73.44
243.531	86.44
243.765	64.44
243.998	63.44
244.232	89.44
244.465	77.44
244.699	79.44
244.932	70.44
245.166	68.44
245.399	75.44
245.633	72.44
245.866	77.44
246.099	51.44
246.333	68.44
246.566	69.44
246.8	75.44
247.033	77.44
247.266	80.44
247.5	69.44
247.733	75.44
247.966	81.44
248.2	78.44
248.433	69.44
248.666	88.44
248.899	66.44
249.133	83.44
249.366	80.44
249.599	82.44
249.832	65.44
250.066	77.44
250.299	66.44
250.532	65.44
250.765	70.44
250.998	71.44
251.231	66.44
251.465	74.44
251.698	67.44
251.931	90.44
252.164	77.44
252.397	67.44
252.63	90.44
252.863	76.44
253.096	67.44
253.329	79.44
253.562	81.44
253.795	74.44
254.028	95.44
254.261	73.44
254.494	71.44
254.727	86.44
254.96	79.44
255.193	85.44
255.426	88.44
255.659	75.44
255.892	81.44
256.124	88.44
256.357	91.44
256.59	79.44
256.823	77.44
257.056	88.44
257.289	89.44
257.521	88.44
257.754	81.44
257.987	69.44
258.22	74.44
258.452	83.44
258.685	74.44
258.918	79.44
259.151	73.44
259.383	83.44
259.616	90.44
259.849	69.44
260.081	86.44
260.314	79.44
260.547	69.44
260.779	78.44
261.012	93.44
261.244	79.44
261.477	83.44
261.71	70.44
261.942	79.44
262.175	85.44
262.407	84.44
262.64	89.44
262.872	80.44
263.105	76.44
263.337	72.44
263.57	75.44
263.802	66.44
264.035	81.44
264.267	79.44
264.499	88.44
264.732	71.44
264.964	88.44
265.197	93.44
265.429	90.44
265.661	83.44
265.894	87.44
266.126	81.44
266.358	96.44
266.591	85.44
266.823	83.44
267.055	80.44
267.287	77.44
267.52	67.44
267.752	76.44
267.984	67.44
268.216	74.44
268.448	75.44
268.681	91.44
268.913	74.44
269.145	87.44
269.377	76.44
269.609	77.44
269.841	79.44
270.073	69.44
270.306	58.44
270.538	100.44
270.77	69.44
271.002	81.44
271.234	88.44
271.466	75.44
271.698	73.44
271.93	74.44
272.162	67.44
272.394	87.44
272.626	80.44
272.858	74.44
273.09	86.44
273.322	80.44
273.553	66.44
273.785	77.44
274.017	87.44
274.249	73.44
274.481	79.44
274.713	87.44
274.945	83.44
275.176	81.44
275.408	81.44
275.64	87.44
275.872	79.44
276.104	91.44
276.335	87.44
276.567	80.44
276.799	69.44
277.031	81.44
277.262	81.44
277.494	72.44
277.726	79.44
277.957	76.44
278.189	72.44
278.421	87.44
278.652	85.44
278.884	90.44
279.115	63.44
279.347	73.44
279.579	80.44
279.81	76.44
280.042	63.44
280.273	80.44
280.505	75.44
280.736	75.44
280.968	78.44
281.199	73.44
281.431	84.44
281.662	78.44
281.894	80.44
282.125	79.44
282.356	79.44
282.588	81.44
282.819	75.44
283.051	74.44
283.282	82.44
283.513	83.44
283.745	69.44
283.976	67.44
284.207	69.44
284.439	79.44
284.67	94.44
284.901	70.44
285.132	83.44
285.364	81.44
285.595	80.44
285.826	77.44
286.057	64.44
286.288	60.44
286.52	76.44
286.751	75.44
286.982	78.44
287.213	81.44
287.444	73.44
287.675	79.44
287.906	80.44
288.138	84.44
288.369	84.44
288.6	70.44
288.831	76.44
289.062	77.44
289.293	79.44
289.524	79.44
289.755	80.44
289.986	76.44
290.217	85.44
290.448	85.44
290.679	81.44
290.91	66.44
291.141	71.44
291.371	91.44
291.602	80.44
291.833	79.44
292.064	76.44
292.295	76.44
292.526	83.44
292.757	91.44
292.987	83.44
293.218	81.44
293.449	90.44
293.68	68.44
293.91	75.44
294.141	79.44
294.372	68.44
294.603	83.44
294.833	94.44
295.064	92.44
295.295	81.44
295.525	91.44
295.756	87.44
295.987	98.44
296.217	81.44
296.448	74.44
296.679	80.44
296.909	67.44
297.14	85.44
297.37	88.44
297.601	79.44
297.831	86.44
298.062	85.44
298.292	67.44
298.523	65.44
298.753	87.44
298.984	73.44
299.214	81.44
299.445	82.44
299.675	73.44
299.905	84.44
300.136	58.44
300.366	83.44
300.597	85.44
300.827	81.44
301.057	92.44
301.288	79.44
301.518	70.44
301.748	86.44
301.979	88.44
302.209	86.44
302.439	86.44
302.669	72.44
302.9	82.44
303.13	96.44
303.36	83.44
303.59	77.44
303.82	68.44
304.051	90.44
304.281	90.44
304.511	84.44
304.741	78.44
304.971	83.44
305.201	77.44
305.431	77.44
305.661	60.44
305.891	73.44
306.121	88.44
306.352	88.44
306.582	92.44
306.812	87.44
307.042	81.44
307.272	84.44
307.502	80.44
307.731	78.44
307.961	83.44
308.191	81.44
308.421	80.44
308.651	94.44
308.881	85.44
309.111	92.44
309.341	96.44
309.571	64.44
309.8	79.44
310.03	85.44
310.26	82.44
310.49	91.44
310.72	83.44
310.949	70.44
311.179	79.44
311.409	79.44
311.639	84.44
311.868	92.44
312.098	70.44
312.328	91.44
312.557	81.44
312.787	78.44
313.017	90.44
313.246	76.44
313.476	82.44
313.706	68.44
313.935	77.44
314.165	73.44
314.394	84.44
314.624	75.44
314.853	87.44
315.083	72.44
315.312	77.44
315.542	91.44
315.771	84.44
316.001	88.44
316.23	70.44
316.46	79.44
316.689	91.44
316.919	87.44
317.148	66.44
317.377	66.44
317.607	90.44
317.836	77.44
318.065	91.44
318.295	74.44
318.524	77.44
318.753	72.44
318.983	73.44
319.212	78.44
319.441	75.44
319.67	76.44
319.9	85.44
320.129	87.44
320.358	92.44
320.587	92.44
320.816	83.44
321.046	84.44
321.275	88.44
321.504	65.44
321.733	96.44
321.962	65.44
322.191	84.44
322.42	71.44
322.649	80.44
322.878	79.44
323.108	92.44
323.337	98.44
323.566	85.44
323.795	79.44
324.024	82.44
324.253	79.44
324.482	79.44
324.71	73.44
324.939	74.44
325.168	88.44
325.397	77.44
325.626	74.44
325.855	97.44
326.084	81.44
326.313	82.44
326.542	66.44
326.77	79.44
326.999	91.44
327.228	79.44
327.457	80.44
327.686	81.44
327.914	81.44
328.143	84.44
328.372	76.44
328.6	63.44
328.829	84.44
329.058	71.44
329.287	93.44
329.515	83.44
329.744	81.44
329.972	67.44
330.201	63.44
330.43	81.44
330.658	76.44
330.887	89.44
331.115	84.44
331.344	92.44
331.572	72.44
331.801	82.44
332.03	77.44
332.258	73.44
332.486	89.44
332.715	82.44
332.943	80.44
333.172	84.44
333.4	80.44
333.629	84.44
333.857	83.44
334.085	84.44
334.314	77.44
334.542	83.44
334.771	81.44
334.999	77.44
335.227	77.44
335.455	73.44
335.684	77.44
335.912	85.44
336.14	91.44
336.369	79.44
336.597	83.44
336.825	91.44
337.053	79.44
337.281	78.44
337.51	75.44
337.738	89.44
337.966	79.44
338.194	95.44
338.422	67.44
338.65	84.44
338.878	75.44
339.106	81.44
339.334	81.44
339.562	78.44
339.79	73.44
340.018	85.44
340.246	66.44
340.474	78.44
340.702	84.44
340.93	77.44
341.158	82.44
341.386	87.44
341.614	69.44
341.842	90.44
342.07	101.44
342.298	79.44
342.526	75.44
342.754	79.44
342.981	95.44
343.209	66.44
343.437	91.44
343.665	86.44
343.893	77.44
344.12	81.44
344.348	83.44
344.576	76.44
344.804	84.44
345.031	84.44
345.259	84.44
345.487	94.44
345.714	88.44
345.942	90.44
346.17	87.44
346.397	79.44
346.625	79.44
346.853	76.44
347.08	83.44
347.308	87.44
347.535	80.44
347.763	80.44
347.99	66.44
348.218	79.44
348.445	87.44
348.673	76.44
348.9	79.44
349.128	72.44
349.355	88.44
349.583	79.44
349.81	86.44
350.037	81.44
350.265	92.44
350.492	76.44
350.72	70.44
350.947	82.44
351.174	81.44
351.402	77.44
351.629	81.44
351.856	87.44
352.083	67.44
352.311	68.44
352.538	67.44
352.765	70.44
352.992	77.44
353.22	93.44
353.447	70.44
353.674	73.44
353.901	70.44
354.128	85.44
354.355	74.44
354.583	96.44
354.81	81.44
355.037	74.44
355.264	76.44
355.491	83.44
355.718	63.44
355.945	75.44
356.172	80.44
356.399	73.44
356.626	79.44
356.853	77.44
357.08	80.44
357.307	65.44
357.534	89.44
357.761	82.44
357.988	88.44
358.215	84.44
358.441	77.44
358.668	77.44
358.895	76.44
359.122	66.44
359.349	69.44
359.576	84.44
359.802	59.44
360.029	66.44
360.256	73.44
360.483	79.44
360.709	74.44
360.936	77.44
361.163	80.44
361.39	75.44
361.616	65.44
361.843	68.44
362.07	69.44
362.296	73.44
362.523	75.44
362.749	83.44
362.976	86.44
363.203	83.44
363.429	81.44
363.656	67.44
363.882	74.44
364.109	85.44
364.335	71.44
364.562	80.44
364.788	80.44
365.015	81.44
365.241	76.44
365.468	82.44
365.694	72.44
365.92	79.44
366.147	82.44
366.373	85.44
366.599	67.44
366.826	71.44
367.052	93.44
367.278	82.44
367.505	73.44
367.731	78.44
367.957	82.44
368.184	74.44
368.41	85.44
368.636	83.44
368.862	94.44
369.089	70.44
369.315	79.44
369.541	62.44
369.767	68.44
369.993	68.44
370.219	67.44
370.445	82.44
370.672	80.44
370.898	84.44
371.124	79.44
371.35	87.44
371.576	79.44
371.802	67.44
372.028	79.44
372.254	67.44
372.48	73.44
372.706	90.44
372.932	76.44
373.158	67.44
373.384	87.44
373.61	69.44
373.835	79.44
374.061	75.44
374.287	91.44
374.513	83.44
374.739	75.44
374.965	78.44
375.191	81.44
375.416	73.44
375.642	98.44
375.868	75.44
376.094	89.44
376.319	68.44
376.545	95.44
376.771	75.44
376.997	82.44
377.222	62.44
377.448	69.44
377.674	79.44
377.899	73.44
378.125	75.44
378.35	87.44
378.576	84.44
378.802	75.44
379.027	79.44
379.253	83.44
379.478	77.44
379.704	82.44
379.929	74.44
380.155	72.44
380.38	73.44
380.606	72.44
380.831	89.44
381.057	91.44
381.282	89.44
381.507	79.44
381.733	74.44
381.958	84.44
382.184	74.44
382.409	90.44
382.634	79.44
382.86	75.44
383.085	82.44
383.31	87.44
383.535	84.44
383.761	82.44
383.986	77.44
384.211	61.44
384.436	76.44
384.662	69.44
384.887	61.44
385.112	81.44
385.337	80.44
385.562	86.44
385.787	80.44
386.013	67.44
386.238	75.44
386.463	72.44
386.688	92.44
386.913	93.44
387.138	75.44
387.363	74.44
387.588	76.44
387.813	93.44
388.038	80.44
388.263	76.44
388.488	73.44
388.713	77.44
388.938	75.44
389.163	82.44
389.387	81.44
389.612	89.44
389.837	79.44
390.062	97.44
390.287	78.44
390.512	83.44
390.736	78.44
390.961	80.44
391.186	96.44
391.411	84.44
391.636	75.44
391.86	81.44
392.085	81.44
392.31	84.44
392.534	68.44
392.759	78.44
392.984	93.44
393.208	120.44
393.433	139.44
393.658	137.44
393.882	87.44
394.107	82.44
394.331	83.44
394.556	83.44
394.78	84.44
395.005	87.44
395.229	82.44
395.454	84.44
395.678	85.44
395.903	86.44
396.127	100.44
396.352	82.44
396.576	87.44
396.801	116.44
397.025	127.44
397.249	93.44
397.474	95.44
397.698	72.44
397.922	78.44
398.147	66.44
398.371	73.44
398.595	80.44
398.82	75.44
399.044	86.44
399.268	76.44
399.492	81.44
399.717	79.44
399.941	79.44
400.165	74.44
400.389	76.44
400.613	77.44
400.837	81.44
401.062	83.44
401.286	74.44
401.51	77.44
401.734	69.44
401.958	70.44
402.182	76.44
402.406	70.44
402.63	84.44
402.854	81.44
403.078	84.44
403.302	84.44
403.526	70.44
403.75	79.44
403.974	75.44
404.198	81.44
404.422	83.44
404.645	99.44
404.869	92.44
405.093	78.44
405.317	77.44
405.541	73.44
405.765	85.44
405.988	67.44
406.212	84.44
406.436	73.44
406.66	69.44
406.883	75.44
407.107	75.44
407.331	80.44
407.555	70.44
407.778	74.44
408.002	74.44
408.226	77.44
408.449	61.44
408.673	83.44
408.896	77.44
409.12	76.44
409.344	74.44
409.567	73.44
409.791	71.44
410.014	70.44
410.238	73.44
410.461	59.44
410.685	59.44
410.908	71.44
411.132	79.44
411.355	81.44
411.578	84.44
411.802	72.44
412.025	92.44
412.249	77.44
412.472	55.44
412.695	73.44
412.919	61.44
413.142	74.44
413.365	81.44
413.589	77.44
413.812	74.44
414.035	75.44
414.258	77.44
414.482	83.44
414.705	87.44
414.928	87.44
415.151	84.44
415.374	82.44
415.597	66.44
415.821	77.44
416.044	67.44
416.267	91.44
416.49	77.44
416.713	68.44
416.936	79.44
417.159	75.44
417.382	89.44
417.605	68.44
417.828	68.44
418.051	62.44
418.274	88.44
418.497	64.44
418.72	88.44
418.943	81.44
419.166	76.44
419.389	84.44
419.611	77.44
419.834	76.44
420.057	81.44
420.28	75.44
420.503	74.44
420.726	80.44
420.948	53.44
421.171	72.44
421.394	71.44
421.617	75.44
421.839	78.44
422.062	84.44
422.285	89.44
422.507	117.44
422.73	156.44
422.953	141.44
423.175	81.44
423.398	88.44
423.621	85.44
423.843	79.44
424.066	71.44
424.288	70.44
424.511	78.44
424.733	76.44
424.956	86.44
425.178	73.44
425.401	81.44
425.623	69.44
425.846	72.44
426.068	71.44
426.291	75.44
426.513	81.44
426.735	76.44
426.958	81.44
427.18	88.44
427.402	92.44
427.625	82.44
427.847	79.44
428.069	63.44
428.292	92.44
428.514	84.44
428.736	70.44
428.958	75.44
429.181	80.44
429.403	83.44
429.625	77.44
429.847	78.44
430.069	99.44
430.292	96.44
430.514	104.44
430.736	79.44
430.958	73.44
431.18	74.44
431.402	76.44
431.624	86.44
431.846	79.44
432.068	83.44
432.29	74.44
432.512	91.44
432.734	79.44
432.956	79.44
433.178	85.44
433.4	87.44
433.622	79.44
433.844	73.44
434.066	73.44
434.287	75.44
434.509	83.44
434.731	63.44
434.953	84.44
435.175	79.44
435.397	87.44
435.618	79.44
435.84	86.44
436.062	73.44
436.284	67.44
436.505	79.44
436.727	79.44
436.949	70.44
437.17	79.44
437.392	69.44
437.614	79.44
437.835	73.44
438.057	79.44
438.278	72.44
438.5	67.44
438.721	68.44
438.943	76.44
439.165	81.44
439.386	64.44
439.608	80.44
439.829	73.44
440.05	76.44
440.272	70.44
440.493	66.44
440.715	69.44
440.936	86.44
441.158	80.44
441.379	73.44
441.6	78.44
441.822	81.44
442.043	89.44
442.264	82.44
442.486	80.44
442.707	70.44
442.928	82.44
443.149	66.44
443.371	98.44
443.592	83.44
443.813	88.44
444.034	67.44
444.255	77.44
444.476	68.44
444.698	77.44
444.919	65.44
445.14	142.44
445.361	109.44
445.582	98.44
445.803	86.44
446.024	85.44
446.245	90.44
446.466	78.44
446.687	76.44
446.908	72.44
447.129	76.44
447.35	75.44
447.571	84.44
447.792	74.44
448.013	70.44
448.234	81.44
448.455	76.44
448.675	89.44
448.896	70.44
449.117	67.44
449.338	79.44
449.559	66.44
449.779	79.44
450	76.44
450.221	79.44
450.442	77.44
450.662	73.44
450.883	80.44
451.104	73.44
451.324	80.44
451.545	77.44
451.766	75.44
451.986	79.44
452.207	75.44
452.428	83.44
452.648	79.44
452.869	69.44
453.089	95.44
453.31	84.44
453.53	80.44
453.751	82.44
453.971	79.44
454.192	68.44
454.412	83.44
454.633	55.44
454.853	76.44
455.073	79.44
455.294	83.44
455.514	82.44
455.734	83.44
455.955	85.44
456.175	69.44
456.395	88.44
456.616	79.44
456.836	84.44
457.056	84.44
457.276	93.44
457.497	77.44
457.717	83.44
457.937	78.44
458.157	81.44
458.377	76.44
458.598	71.44
458.818	82.44
459.038	77.44
459.258	78.44
459.478	83.44
459.698	101.44
459.918	61.44
460.138	73.44
460.358	78.44
460.578	81.44
460.798	102.44
461.018	79.44
461.238	67.44
461.458	69.44
461.678	85.44
461.898	73.44
462.118	65.44
462.338	66.44
462.558	79.44
462.777	89.44
462.997	79.44
463.217	74.44
463.437	78.44
463.657	77.44
463.876	78.44
464.096	83.44
464.316	82.44
464.536	79.44
464.755	83.44
464.975	76.44
465.195	73.44
465.414	55.44
465.634	70.44
465.854	83.44
466.073	72.44
466.293	81.44
466.512	79.44
466.732	64.44
466.951	65.44
467.171	81.44
467.391	84.44
467.61	68.44
467.829	82.44
468.049	83.44
468.268	73.44
468.488	81.44
468.707	73.44
468.927	79.44
469.146	70.44
469.365	80.44
469.585	74.44
469.804	74.44
470.023	82.44
470.243	85.44
470.462	72.44
470.681	90.44
470.901	78.44
471.12	71.44
471.339	79.44
471.558	88.44
471.777	85.44
471.997	79.44
472.216	83.44
472.435	75.44
472.654	84.44
472.873	81.44
473.092	63.44
473.311	79.44
473.53	72.44
473.749	69.44
473.968	81.44
474.187	83.44
474.406	80.44
474.625	68.44
474.844	77.44
475.063	70.44
475.282	69.44
475.501	80.44
475.72	80.44
475.939	84.44
476.158	81.44
476.377	73.44
476.596	72.44
476.814	83.44
477.033	67.44
477.252	64.44
477.471	78.44
477.69	69.44
477.908	63.44
478.127	87.44
478.346	78.44
478.564	87.44
478.783	76.44
479.002	78.44
479.22	73.44
479.439	74.44
479.658	66.44
479.876	68.44
480.095	76.44
480.313	82.44
480.532	75.44
480.751	87.44
480.969	75.44
481.188	79.44
481.406	75.44
481.624	76.44
481.843	74.44
482.061	83.44
482.28	76.44
482.498	79.44
482.717	75.44
482.935	80.44
483.153	76.44
483.372	75.44
483.59	87.44
483.808	71.44
484.027	67.44
484.245	90.44
484.463	74.44
484.681	67.44
484.9	69.44
485.118	74.44
485.336	87.44
485.554	75.44
485.772	68.44
485.99	80.44
486.209	74.44
486.427	77.44
486.645	87.44
486.863	73.44
487.081	71.44
487.299	83.44
487.517	84.44
487.735	93.44
487.953	84.44
488.171	87.44
488.389	83.44
488.607	73.44
488.825	69.44
489.043	91.44
489.261	81.44
489.479	73.44
489.696	79.44
489.914	69.44
490.132	83.44
490.35	70.44
490.568	71.44
490.786	77.44
491.003	84.44
491.221	71.44
491.439	74.44
491.657	69.44
491.874	71.44
492.092	95.44
492.31	91.44
492.527	80.44
492.745	66.44
492.963	71.44
493.18	75.44
493.398	73.44
493.615	90.44
493.833	95.44
494.05	74.44
494.268	83.44
494.485	85.44
494.703	74.44
494.92	87.44
495.138	74.44
495.355	80.44
495.573	99.44
495.79	75.44
496.008	85.44
496.225	77.44
496.442	76.44
496.66	87.44
496.877	77.44
497.094	83.44
497.312	77.44
497.529	79.44
497.746	74.44
497.963	77.44
498.181	73.44
498.398	97.44
498.615	83.44
498.832	68.44
499.049	77.44
499.267	98.44
499.484	66.44
499.701	73.44
499.918	84.44
500.135	83.44
500.352	84.44
500.569	64.44
500.786	74.44
501.003	73.44
501.22	67.44
501.437	87.44
501.654	81.44
501.871	67.44
502.088	72.44
502.305	90.44
502.522	80.44
502.739	79.44
502.956	76.44
503.172	82.44
503.389	66.44
503.606	82.44
503.823	84.44
504.04	82.44
504.256	68.44
504.473	76.44
504.69	69.44
504.907	76.44
505.123	79.44
505.34	75.44
505.557	81.44
505.773	77.44
505.99	69.44
506.207	70.44
506.423	76.44
506.64	91.44
506.856	76.44
507.073	97.44
507.289	73.44
507.506	78.44
507.722	73.44
507.939	88.44
508.155	95.44
508.372	63.44
508.588	86.44
508.805	83.44
509.021	78.44
509.238	85.44
509.454	64.44
509.67	97.44
509.887	76.44
510.103	65.44
510.319	67.44
510.536	89.44
510.752	91.44
510.968	73.44
511.184	67.44
511.401	78.44
511.617	87.44
511.833	80.44
512.049	82.44
512.265	80.44
512.481	80.44
512.698	68.44
512.914	71.44
513.13	81.44
513.346	80.44
513.562	73.44
513.778	80.44
513.994	79.44
514.21	66.44
514.426	79.44
514.642	80.44
514.858	77.44
515.074	76.44
515.29	99.44
515.506	63.44
515.721	67.44
515.937	86.44
516.153	80.44
516.369	87.44
516.585	73.44
516.801	61.44
517.016	73.44
517.232	80.44
517.448	73.44
517.664	95.44
517.879	70.44
518.095	68.44
518.311	75.44
518.527	83.44
518.742	76.44
518.958	82.44
519.173	87.44
519.389	86.44
519.605	80.44
519.82	79.44
520.036	81.44
