Data from 1600_3_HRD10591_00029.txt Node
Date: Mon Jan 19 13:55:07 EST 2026
User: Yrep
Spectrometer: HR+D1059
Trigger mode: 1
Integration Time (sec): 1.000000E-1
Scans to average: 1
Electric dark correction enabled: true
Nonlinearity correction enabled: false
Boxcar width: 0
XAxis mode: Wavelengths
Number of Pixels in Spectrum: 2048
>>>>>Begin Spectral Data<<<<<
223.165	-15.81
223.4	-15.81
223.635	-15.81
223.869	-14.81
224.104	-19.81
224.338	-12.81
224.573	-13.81
224.808	-12.81
225.042	6.19
225.277	-10.81
225.511	0.19
225.746	0.19
225.98	0.19
226.215	10.19
226.449	22.19
226.683	19.19
226.918	15.19
227.152	27.19
227.387	35.19
227.621	57.19
227.856	43.19
228.09	60.19
228.324	63.19
228.559	67.19
228.793	84.19
229.027	75.19
229.262	63.19
229.496	69.19
229.73	86.19
229.964	67.19
230.199	87.19
230.433	69.19
230.667	84.19
230.901	83.19
231.136	76.19
231.37	87.19
231.604	79.19
231.838	83.19
232.072	77.19
232.306	89.19
232.541	101.19
232.775	83.19
233.009	69.19
233.243	85.19
233.477	85.19
233.711	72.19
233.945	100.19
234.179	95.19
234.413	84.19
234.647	88.19
234.881	84.19
235.115	90.19
235.349	85.19
235.583	83.19
235.817	80.19
236.051	79.19
236.285	78.19
236.519	83.19
236.753	75.19
236.987	81.19
237.221	87.19
237.455	102.19
237.689	84.19
237.922	74.19
238.156	88.19
238.39	89.19
238.624	80.19
238.858	75.19
239.091	93.19
239.325	80.19
239.559	92.19
239.793	108.19
240.027	85.19
240.26	84.19
240.494	87.19
240.728	94.19
240.961	83.19
241.195	99.19
241.429	72.19
241.662	87.19
241.896	85.19
242.13	71.19
242.363	84.19
242.597	75.19
242.83	75.19
243.064	77.19
243.298	97.19
243.531	84.19
243.765	93.19
243.998	84.19
244.232	95.19
244.465	81.19
244.699	75.19
244.932	85.19
245.166	85.19
245.399	82.19
245.633	79.19
245.866	89.19
246.099	82.19
246.333	104.19
246.566	85.19
246.8	79.19
247.033	91.19
247.266	83.19
247.5	88.19
247.733	78.19
247.966	78.19
248.2	83.19
248.433	80.19
248.666	87.19
248.899	86.19
249.133	77.19
249.366	70.19
249.599	92.19
249.832	79.19
250.066	81.19
250.299	76.19
250.532	78.19
250.765	97.19
250.998	76.19
251.231	77.19
251.465	86.19
251.698	95.19
251.931	88.19
252.164	82.19
252.397	96.19
252.63	87.19
252.863	78.19
253.096	75.19
253.329	84.19
253.562	79.19
253.795	88.19
254.028	85.19
254.261	87.19
254.494	81.19
254.727	92.19
254.96	80.19
255.193	90.19
255.426	71.19
255.659	76.19
255.892	93.19
256.124	90.19
256.357	87.19
256.59	94.19
256.823	78.19
257.056	85.19
257.289	87.19
257.521	78.19
257.754	68.19
257.987	91.19
258.22	77.19
258.452	75.19
258.685	78.19
258.918	78.19
259.151	78.19
259.383	99.19
259.616	91.19
259.849	84.19
260.081	89.19
260.314	80.19
260.547	74.19
260.779	86.19
261.012	87.19
261.244	97.19
261.477	84.19
261.71	87.19
261.942	88.19
262.175	98.19
262.407	84.19
262.64	90.19
262.872	76.19
263.105	95.19
263.337	95.19
263.57	91.19
263.802	82.19
264.035	93.19
264.267	92.19
264.499	91.19
264.732	76.19
264.964	93.19
265.197	81.19
265.429	76.19
265.661	71.19
265.894	85.19
266.126	89.19
266.358	85.19
266.591	78.19
266.823	82.19
267.055	83.19
267.287	89.19
267.52	96.19
267.752	88.19
267.984	87.19
268.216	81.19
268.448	95.19
268.681	93.19
268.913	96.19
269.145	89.19
269.377	92.19
269.609	76.19
269.841	95.19
270.073	84.19
270.306	92.19
270.538	85.19
270.77	84.19
271.002	83.19
271.234	102.19
271.466	83.19
271.698	92.19
271.93	89.19
272.162	86.19
272.394	76.19
272.626	84.19
272.858	90.19
273.09	75.19
273.322	81.19
273.553	94.19
273.785	75.19
274.017	87.19
274.249	99.19
274.481	78.19
274.713	92.19
274.945	92.19
275.176	99.19
275.408	95.19
275.64	82.19
275.872	78.19
276.104	92.19
276.335	93.19
276.567	93.19
276.799	83.19
277.031	83.19
277.262	89.19
277.494	86.19
277.726	85.19
277.957	78.19
278.189	87.19
278.421	86.19
278.652	93.19
278.884	87.19
279.115	84.19
279.347	74.19
279.579	82.19
279.81	86.19
280.042	97.19
280.273	91.19
280.505	83.19
280.736	75.19
280.968	95.19
281.199	83.19
281.431	88.19
281.662	87.19
281.894	89.19
282.125	68.19
282.356	91.19
282.588	81.19
282.819	92.19
283.051	85.19
283.282	70.19
283.513	83.19
283.745	87.19
283.976	76.19
284.207	78.19
284.439	69.19
284.67	76.19
284.901	76.19
285.132	73.19
285.364	73.19
285.595	85.19
285.826	82.19
286.057	75.19
286.288	98.19
286.52	85.19
286.751	87.19
286.982	95.19
287.213	103.19
287.444	81.19
287.675	71.19
287.906	79.19
288.138	79.19
288.369	85.19
288.6	90.19
288.831	89.19
289.062	76.19
289.293	84.19
289.524	75.19
289.755	89.19
289.986	73.19
290.217	84.19
290.448	89.19
290.679	78.19
290.91	83.19
291.141	90.19
291.371	98.19
291.602	93.19
291.833	71.19
292.064	85.19
292.295	78.19
292.526	88.19
292.757	71.19
292.987	93.19
293.218	78.19
293.449	78.19
293.68	87.19
293.91	87.19
294.141	94.19
294.372	84.19
294.603	90.19
294.833	92.19
295.064	82.19
295.295	84.19
295.525	89.19
295.756	96.19
295.987	83.19
296.217	80.19
296.448	90.19
296.679	92.19
296.909	73.19
297.14	80.19
297.37	80.19
297.601	104.19
297.831	83.19
298.062	95.19
298.292	91.19
298.523	85.19
298.753	95.19
298.984	99.19
299.214	83.19
299.445	90.19
299.675	88.19
299.905	90.19
300.136	80.19
300.366	88.19
300.597	102.19
300.827	91.19
301.057	91.19
301.288	68.19
301.518	81.19
301.748	87.19
301.979	103.19
302.209	95.19
302.439	87.19
302.669	93.19
302.9	80.19
303.13	84.19
303.36	87.19
303.59	89.19
303.82	95.19
304.051	88.19
304.281	85.19
304.511	89.19
304.741	79.19
304.971	89.19
305.201	77.19
305.431	98.19
305.661	69.19
305.891	92.19
306.121	99.19
306.352	85.19
306.582	77.19
306.812	99.19
307.042	97.19
307.272	84.19
307.502	85.19
307.731	83.19
307.961	89.19
308.191	78.19
308.421	100.19
308.651	86.19
308.881	85.19
309.111	93.19
309.341	100.19
309.571	97.19
309.8	91.19
310.03	98.19
310.26	86.19
310.49	91.19
310.72	85.19
310.949	81.19
311.179	90.19
311.409	94.19
311.639	89.19
311.868	93.19
312.098	84.19
312.328	87.19
312.557	97.19
312.787	88.19
313.017	85.19
313.246	87.19
313.476	93.19
313.706	98.19
313.935	91.19
314.165	81.19
314.394	95.19
314.624	94.19
314.853	85.19
315.083	81.19
315.312	80.19
315.542	80.19
315.771	102.19
316.001	90.19
316.23	74.19
316.46	84.19
316.689	69.19
316.919	71.19
317.148	91.19
317.377	101.19
317.607	89.19
317.836	85.19
318.065	77.19
318.295	88.19
318.524	77.19
318.753	75.19
318.983	84.19
319.212	83.19
319.441	91.19
319.67	75.19
319.9	83.19
320.129	94.19
320.358	102.19
320.587	89.19
320.816	94.19
321.046	77.19
321.275	87.19
321.504	95.19
321.733	73.19
321.962	92.19
322.191	83.19
322.42	83.19
322.649	89.19
322.878	89.19
323.108	88.19
323.337	84.19
323.566	80.19
323.795	79.19
324.024	93.19
324.253	90.19
324.482	90.19
324.71	96.19
324.939	82.19
325.168	89.19
325.397	79.19
325.626	86.19
325.855	79.19
326.084	85.19
326.313	71.19
326.542	88.19
326.77	92.19
326.999	86.19
327.228	99.19
327.457	92.19
327.686	90.19
327.914	92.19
328.143	77.19
328.372	92.19
328.6	95.19
328.829	87.19
329.058	79.19
329.287	74.19
329.515	93.19
329.744	89.19
329.972	100.19
330.201	76.19
330.43	86.19
330.658	91.19
330.887	74.19
331.115	93.19
331.344	93.19
331.572	81.19
331.801	78.19
332.03	95.19
332.258	91.19
332.486	94.19
332.715	91.19
332.943	74.19
333.172	77.19
333.4	84.19
333.629	93.19
333.857	89.19
334.085	89.19
334.314	87.19
334.542	90.19
334.771	77.19
334.999	76.19
335.227	87.19
335.455	84.19
335.684	88.19
335.912	80.19
336.14	102.19
336.369	89.19
336.597	89.19
336.825	90.19
337.053	70.19
337.281	88.19
337.51	79.19
337.738	89.19
337.966	86.19
338.194	89.19
338.422	92.19
338.65	97.19
338.878	85.19
339.106	89.19
339.334	84.19
339.562	90.19
339.79	92.19
340.018	84.19
340.246	90.19
340.474	87.19
340.702	90.19
340.93	81.19
341.158	82.19
341.386	81.19
341.614	92.19
341.842	90.19
342.07	91.19
342.298	88.19
342.526	88.19
342.754	94.19
342.981	84.19
343.209	84.19
343.437	106.19
343.665	88.19
343.893	82.19
344.12	106.19
344.348	75.19
344.576	91.19
344.804	78.19
345.031	99.19
345.259	85.19
345.487	88.19
345.714	83.19
345.942	97.19
346.17	83.19
346.397	92.19
346.625	86.19
346.853	91.19
347.08	86.19
347.308	77.19
347.535	91.19
347.763	93.19
347.99	86.19
348.218	96.19
348.445	77.19
348.673	81.19
348.9	84.19
349.128	103.19
349.355	97.19
349.583	91.19
349.81	87.19
350.037	81.19
350.265	98.19
350.492	78.19
350.72	79.19
350.947	92.19
351.174	88.19
351.402	82.19
351.629	88.19
351.856	87.19
352.083	81.19
352.311	87.19
352.538	85.19
352.765	90.19
352.992	91.19
353.22	75.19
353.447	78.19
353.674	86.19
353.901	100.19
354.128	79.19
354.355	89.19
354.583	90.19
354.81	83.19
355.037	95.19
355.264	88.19
355.491	71.19
355.718	72.19
355.945	72.19
356.172	89.19
356.399	84.19
356.626	86.19
356.853	83.19
357.08	76.19
357.307	68.19
357.534	87.19
357.761	93.19
357.988	83.19
358.215	86.19
358.441	89.19
358.668	85.19
358.895	87.19
359.122	80.19
359.349	84.19
359.576	80.19
359.802	88.19
360.029	81.19
360.256	77.19
360.483	77.19
360.709	79.19
360.936	88.19
361.163	89.19
361.39	88.19
361.616	91.19
361.843	74.19
362.07	95.19
362.296	92.19
362.523	98.19
362.749	92.19
362.976	83.19
363.203	83.19
363.429	93.19
363.656	88.19
363.882	90.19
364.109	91.19
364.335	89.19
364.562	89.19
364.788	92.19
365.015	89.19
365.241	98.19
365.468	91.19
365.694	93.19
365.92	79.19
366.147	98.19
366.373	83.19
366.599	85.19
366.826	77.19
367.052	93.19
367.278	87.19
367.505	91.19
367.731	94.19
367.957	81.19
368.184	76.19
368.41	86.19
368.636	82.19
368.862	93.19
369.089	87.19
369.315	99.19
369.541	101.19
369.767	78.19
369.993	84.19
370.219	84.19
370.445	85.19
370.672	87.19
370.898	93.19
371.124	84.19
371.35	73.19
371.576	85.19
371.802	73.19
372.028	84.19
372.254	74.19
372.48	71.19
372.706	87.19
372.932	89.19
373.158	93.19
373.384	93.19
373.61	81.19
373.835	92.19
374.061	88.19
374.287	91.19
374.513	79.19
374.739	86.19
374.965	91.19
375.191	87.19
375.416	82.19
375.642	86.19
375.868	83.19
376.094	77.19
376.319	70.19
376.545	85.19
376.771	87.19
376.997	93.19
377.222	105.19
377.448	99.19
377.674	85.19
377.899	87.19
378.125	87.19
378.35	84.19
378.576	89.19
378.802	85.19
379.027	94.19
379.253	87.19
379.478	97.19
379.704	79.19
379.929	93.19
380.155	77.19
380.38	81.19
380.606	96.19
380.831	83.19
381.057	99.19
381.282	79.19
381.507	86.19
381.733	72.19
381.958	76.19
382.184	81.19
382.409	75.19
382.634	87.19
382.86	92.19
383.085	78.19
383.31	96.19
383.535	85.19
383.761	90.19
383.986	90.19
384.211	95.19
384.436	80.19
384.662	90.19
384.887	87.19
385.112	83.19
385.337	95.19
385.562	93.19
385.787	83.19
386.013	88.19
386.238	81.19
386.463	83.19
386.688	108.19
386.913	73.19
387.138	81.19
387.363	95.19
387.588	91.19
387.813	87.19
388.038	94.19
388.263	87.19
388.488	86.19
388.713	91.19
388.938	70.19
389.163	77.19
389.387	96.19
389.612	72.19
389.837	94.19
390.062	79.19
390.287	91.19
390.512	81.19
390.736	95.19
390.961	81.19
391.186	78.19
391.411	78.19
391.636	83.19
391.86	67.19
392.085	74.19
392.31	84.19
392.534	92.19
392.759	95.19
392.984	107.19
393.208	113.19
393.433	121.19
393.658	101.19
393.882	108.19
394.107	98.19
394.331	93.19
394.556	85.19
394.78	79.19
395.005	89.19
395.229	72.19
395.454	83.19
395.678	90.19
395.903	93.19
396.127	93.19
396.352	88.19
396.576	77.19
396.801	95.19
397.025	113.19
397.249	101.19
397.474	98.19
397.698	79.19
397.922	81.19
398.147	82.19
398.371	94.19
398.595	67.19
398.82	96.19
399.044	86.19
399.268	74.19
399.492	82.19
399.717	97.19
399.941	97.19
400.165	86.19
400.389	81.19
400.613	84.19
400.837	86.19
401.062	70.19
401.286	82.19
401.51	79.19
401.734	91.19
401.958	97.19
402.182	71.19
402.406	80.19
402.63	76.19
402.854	75.19
403.078	79.19
403.302	96.19
403.526	86.19
403.75	93.19
403.974	83.19
404.198	86.19
404.422	81.19
404.645	87.19
404.869	82.19
405.093	88.19
405.317	77.19
405.541	73.19
405.765	80.19
405.988	83.19
406.212	95.19
406.436	91.19
406.66	63.19
406.883	81.19
407.107	76.19
407.331	87.19
407.555	82.19
407.778	87.19
408.002	91.19
408.226	89.19
408.449	85.19
408.673	87.19
408.896	82.19
409.12	72.19
409.344	65.19
409.567	77.19
409.791	76.19
410.014	77.19
410.238	86.19
410.461	99.19
410.685	97.19
410.908	75.19
411.132	75.19
411.355	93.19
411.578	65.19
411.802	73.19
412.025	87.19
412.249	75.19
412.472	83.19
412.695	95.19
412.919	96.19
413.142	72.19
413.365	98.19
413.589	83.19
413.812	90.19
414.035	79.19
414.258	88.19
414.482	76.19
414.705	92.19
414.928	95.19
415.151	85.19
415.374	77.19
415.597	73.19
415.821	86.19
416.044	86.19
416.267	102.19
416.49	89.19
416.713	79.19
416.936	93.19
417.159	83.19
417.382	72.19
417.605	83.19
417.828	75.19
418.051	99.19
418.274	88.19
418.497	69.19
418.72	82.19
418.943	74.19
419.166	74.19
419.389	83.19
419.611	74.19
419.834	88.19
420.057	90.19
420.28	76.19
420.503	58.19
420.726	74.19
420.948	80.19
421.171	77.19
421.394	83.19
421.617	87.19
421.839	77.19
422.062	97.19
422.285	92.19
422.507	93.19
422.73	115.19
422.953	103.19
423.175	87.19
423.398	75.19
423.621	93.19
423.843	91.19
424.066	88.19
424.288	79.19
424.511	76.19
424.733	87.19
424.956	80.19
425.178	88.19
425.401	97.19
425.623	89.19
425.846	72.19
426.068	82.19
426.291	78.19
426.513	87.19
426.735	89.19
426.958	88.19
427.18	66.19
427.402	91.19
427.625	75.19
427.847	80.19
428.069	89.19
428.292	85.19
428.514	91.19
428.736	98.19
428.958	86.19
429.181	96.19
429.403	90.19
429.625	98.19
429.847	83.19
430.069	88.19
430.292	75.19
430.514	95.19
430.736	92.19
430.958	84.19
431.18	81.19
431.402	80.19
431.624	80.19
431.846	77.19
432.068	99.19
432.29	77.19
432.512	85.19
432.734	91.19
432.956	77.19
433.178	77.19
433.4	86.19
433.622	63.19
433.844	75.19
434.066	76.19
434.287	71.19
434.509	82.19
434.731	81.19
434.953	76.19
435.175	89.19
435.397	90.19
435.618	83.19
435.84	84.19
436.062	87.19
436.284	68.19
436.505	78.19
436.727	75.19
436.949	97.19
437.17	89.19
437.392	77.19
437.614	73.19
437.835	74.19
438.057	87.19
438.278	94.19
438.5	97.19
438.721	87.19
438.943	84.19
439.165	87.19
439.386	87.19
439.608	92.19
439.829	86.19
440.05	83.19
440.272	82.19
440.493	86.19
440.715	87.19
440.936	88.19
441.158	82.19
441.379	88.19
441.6	73.19
441.822	79.19
442.043	96.19
442.264	87.19
442.486	98.19
442.707	80.19
442.928	71.19
443.149	83.19
443.371	91.19
443.592	93.19
443.813	88.19
444.034	79.19
444.255	81.19
444.476	95.19
444.698	93.19
444.919	83.19
445.14	147.19
445.361	111.19
445.582	97.19
445.803	89.19
446.024	85.19
446.245	92.19
446.466	90.19
446.687	80.19
446.908	80.19
447.129	89.19
447.35	83.19
447.571	94.19
447.792	76.19
448.013	92.19
448.234	83.19
448.455	92.19
448.675	73.19
448.896	87.19
449.117	83.19
449.338	84.19
449.559	88.19
449.779	73.19
450	74.19
450.221	82.19
450.442	81.19
450.662	96.19
450.883	76.19
451.104	89.19
451.324	73.19
451.545	97.19
451.766	77.19
451.986	77.19
452.207	83.19
452.428	91.19
452.648	84.19
452.869	83.19
453.089	89.19
453.31	75.19
453.53	97.19
453.751	82.19
453.971	83.19
454.192	86.19
454.412	87.19
454.633	83.19
454.853	77.19
455.073	87.19
455.294	79.19
455.514	85.19
455.734	73.19
455.955	86.19
456.175	83.19
456.395	101.19
456.616	85.19
456.836	104.19
457.056	78.19
457.276	85.19
457.497	74.19
457.717	83.19
457.937	75.19
458.157	83.19
458.377	90.19
458.598	85.19
458.818	75.19
459.038	82.19
459.258	90.19
459.478	95.19
459.698	89.19
459.918	93.19
460.138	75.19
460.358	89.19
460.578	87.19
460.798	87.19
461.018	97.19
461.238	89.19
461.458	81.19
461.678	78.19
461.898	103.19
462.118	84.19
462.338	60.19
462.558	85.19
462.777	90.19
462.997	98.19
463.217	91.19
463.437	91.19
463.657	77.19
463.876	83.19
464.096	75.19
464.316	83.19
464.536	69.19
464.755	84.19
464.975	92.19
465.195	91.19
465.414	82.19
465.634	90.19
465.854	83.19
466.073	76.19
466.293	81.19
466.512	83.19
466.732	76.19
466.951	88.19
467.171	90.19
467.391	88.19
467.61	89.19
467.829	84.19
468.049	84.19
468.268	78.19
468.488	91.19
468.707	85.19
468.927	80.19
469.146	72.19
469.365	97.19
469.585	100.19
469.804	75.19
470.023	76.19
470.243	90.19
470.462	91.19
470.681	69.19
470.901	97.19
471.12	70.19
471.339	88.19
471.558	97.19
471.777	77.19
471.997	89.19
472.216	79.19
472.435	95.19
472.654	85.19
472.873	100.19
473.092	84.19
473.311	82.19
473.53	77.19
473.749	76.19
473.968	78.19
474.187	83.19
474.406	91.19
474.625	96.19
474.844	91.19
475.063	99.19
475.282	87.19
475.501	87.19
475.72	98.19
475.939	83.19
476.158	79.19
476.377	85.19
476.596	98.19
476.814	98.19
477.033	96.19
477.252	79.19
477.471	70.19
477.69	97.19
477.908	77.19
478.127	89.19
478.346	84.19
478.564	93.19
478.783	95.19
479.002	93.19
479.22	78.19
479.439	75.19
479.658	88.19
479.876	81.19
480.095	93.19
480.313	85.19
480.532	88.19
480.751	100.19
480.969	75.19
481.188	84.19
481.406	89.19
481.624	73.19
481.843	84.19
482.061	92.19
482.28	66.19
482.498	77.19
482.717	76.19
482.935	92.19
483.153	89.19
483.372	92.19
483.59	106.19
483.808	94.19
484.027	87.19
484.245	79.19
484.463	80.19
484.681	90.19
484.9	92.19
485.118	96.19
485.336	100.19
485.554	90.19
485.772	83.19
485.99	89.19
486.209	85.19
486.427	77.19
486.645	99.19
486.863	83.19
487.081	81.19
487.299	89.19
487.517	65.19
487.735	84.19
487.953	78.19
488.171	86.19
488.389	90.19
488.607	76.19
488.825	82.19
489.043	84.19
489.261	89.19
489.479	93.19
489.696	101.19
489.914	82.19
490.132	100.19
490.35	74.19
490.568	88.19
490.786	81.19
491.003	83.19
491.221	92.19
491.439	91.19
491.657	78.19
491.874	76.19
492.092	99.19
492.31	87.19
492.527	70.19
492.745	91.19
492.963	83.19
493.18	81.19
493.398	89.19
493.615	90.19
493.833	93.19
494.05	92.19
494.268	99.19
494.485	87.19
494.703	101.19
494.92	76.19
495.138	87.19
495.355	85.19
495.573	91.19
495.79	90.19
496.008	89.19
496.225	88.19
496.442	74.19
496.66	98.19
496.877	75.19
497.094	85.19
497.312	84.19
497.529	93.19
497.746	87.19
497.963	88.19
498.181	89.19
498.398	85.19
498.615	97.19
498.832	95.19
499.049	92.19
499.267	84.19
499.484	99.19
499.701	101.19
499.918	81.19
500.135	78.19
500.352	83.19
500.569	91.19
500.786	108.19
501.003	96.19
501.22	85.19
501.437	95.19
501.654	69.19
501.871	91.19
502.088	99.19
502.305	96.19
502.522	100.19
502.739	75.19
502.956	80.19
503.172	89.19
503.389	98.19
503.606	77.19
503.823	79.19
504.04	90.19
504.256	91.19
504.473	81.19
504.69	89.19
504.907	91.19
505.123	84.19
505.34	76.19
505.557	84.19
505.773	76.19
505.99	89.19
506.207	76.19
506.423	91.19
506.64	89.19
506.856	90.19
507.073	96.19
507.289	89.19
507.506	81.19
507.722	85.19
507.939	85.19
508.155	83.19
508.372	86.19
508.588	99.19
508.805	83.19
509.021	86.19
509.238	97.19
509.454	91.19
509.67	90.19
509.887	78.19
510.103	89.19
510.319	105.19
510.536	84.19
510.752	91.19
510.968	86.19
511.184	99.19
511.401	80.19
511.617	87.19
511.833	91.19
512.049	82.19
512.265	64.19
512.481	88.19
512.698	83.19
512.914	92.19
513.13	75.19
513.346	88.19
513.562	83.19
513.778	82.19
513.994	114.19
514.21	86.19
514.426	80.19
514.642	85.19
514.858	78.19
515.074	97.19
515.29	79.19
515.506	77.19
515.721	75.19
515.937	88.19
516.153	79.19
516.369	97.19
516.585	81.19
516.801	85.19
517.016	87.19
517.232	76.19
517.448	90.19
517.664	95.19
517.879	90.19
518.095	99.19
518.311	85.19
518.527	90.19
518.742	67.19
518.958	80.19
519.173	97.19
519.389	81.19
519.605	102.19
