Data from 1600_3_HRD10591_00035.txt Node
Date: Mon Jan 19 13:55:10 EST 2026
User: Yrep
Spectrometer: HR+D1059
Trigger mode: 1
Integration Time (sec): 1.000000E-1
Scans to average: 1
Electric dark correction enabled: true
Nonlinearity correction enabled: false
Boxcar width: 0
XAxis mode: Wavelengths
Number of Pixels in Spectrum: 2048
>>>>>Begin Spectral Data<<<<<
223.165	-15.25
223.4	-15.25
223.635	-15.25
223.869	-24.25
224.104	-24.25
224.338	-6.25
224.573	-10.25
224.808	-28.25
225.042	-4.25
225.277	-9.25
225.511	-11.25
225.746	14.75
225.98	0.75
226.215	23.75
226.449	17.75
226.683	17.75
226.918	22.75
227.152	35.75
227.387	35.75
227.621	49.75
227.856	39.75
228.09	49.75
228.324	55.75
228.559	60.75
228.793	55.75
229.027	73.75
229.262	56.75
229.496	72.75
229.73	63.75
229.964	66.75
230.199	62.75
230.433	75.75
230.667	70.75
230.901	79.75
231.136	73.75
231.37	83.75
231.604	83.75
231.838	89.75
232.072	80.75
232.306	64.75
232.541	78.75
232.775	70.75
233.009	61.75
233.243	91.75
233.477	77.75
233.711	81.75
233.945	75.75
234.179	71.75
234.413	80.75
234.647	73.75
234.881	71.75
235.115	83.75
235.349	83.75
235.583	74.75
235.817	81.75
236.051	76.75
236.285	79.75
236.519	77.75
236.753	90.75
236.987	75.75
237.221	72.75
237.455	66.75
237.689	63.75
237.922	64.75
238.156	78.75
238.39	75.75
238.624	63.75
238.858	74.75
239.091	59.75
239.325	85.75
239.559	76.75
239.793	74.75
240.027	78.75
240.26	84.75
240.494	78.75
240.728	64.75
240.961	73.75
241.195	75.75
241.429	87.75
241.662	68.75
241.896	64.75
242.13	85.75
242.363	76.75
242.597	60.75
242.83	61.75
243.064	70.75
243.298	71.75
243.531	85.75
243.765	76.75
243.998	87.75
244.232	84.75
244.465	75.75
244.699	76.75
244.932	82.75
245.166	89.75
245.399	68.75
245.633	77.75
245.866	80.75
246.099	60.75
246.333	72.75
246.566	96.75
246.8	75.75
247.033	111.75
247.266	80.75
247.5	70.75
247.733	76.75
247.966	74.75
248.2	61.75
248.433	85.75
248.666	81.75
248.899	83.75
249.133	85.75
249.366	80.75
249.599	74.75
249.832	70.75
250.066	79.75
250.299	78.75
250.532	80.75
250.765	65.75
250.998	71.75
251.231	67.75
251.465	73.75
251.698	70.75
251.931	65.75
252.164	81.75
252.397	76.75
252.63	78.75
252.863	77.75
253.096	89.75
253.329	72.75
253.562	69.75
253.795	75.75
254.028	83.75
254.261	79.75
254.494	85.75
254.727	79.75
254.96	73.75
255.193	79.75
255.426	81.75
255.659	76.75
255.892	72.75
256.124	89.75
256.357	69.75
256.59	62.75
256.823	79.75
257.056	70.75
257.289	74.75
257.521	69.75
257.754	79.75
257.987	68.75
258.22	87.75
258.452	88.75
258.685	77.75
258.918	74.75
259.151	66.75
259.383	85.75
259.616	83.75
259.849	78.75
260.081	80.75
260.314	78.75
260.547	80.75
260.779	84.75
261.012	76.75
261.244	68.75
261.477	83.75
261.71	79.75
261.942	83.75
262.175	87.75
262.407	87.75
262.64	73.75
262.872	70.75
263.105	80.75
263.337	79.75
263.57	76.75
263.802	78.75
264.035	80.75
264.267	72.75
264.499	84.75
264.732	94.75
264.964	70.75
265.197	56.75
265.429	101.75
265.661	83.75
265.894	74.75
266.126	83.75
266.358	61.75
266.591	73.75
266.823	77.75
267.055	77.75
267.287	67.75
267.52	75.75
267.752	85.75
267.984	85.75
268.216	82.75
268.448	73.75
268.681	70.75
268.913	72.75
269.145	70.75
269.377	82.75
269.609	74.75
269.841	88.75
270.073	70.75
270.306	74.75
270.538	63.75
270.77	83.75
271.002	91.75
271.234	76.75
271.466	92.75
271.698	76.75
271.93	68.75
272.162	89.75
272.394	84.75
272.626	76.75
272.858	78.75
273.09	82.75
273.322	69.75
273.553	66.75
273.785	72.75
274.017	76.75
274.249	87.75
274.481	69.75
274.713	74.75
274.945	77.75
275.176	79.75
275.408	73.75
275.64	88.75
275.872	69.75
276.104	82.75
276.335	97.75
276.567	88.75
276.799	96.75
277.031	78.75
277.262	81.75
277.494	71.75
277.726	81.75
277.957	92.75
278.189	96.75
278.421	80.75
278.652	91.75
278.884	73.75
279.115	72.75
279.347	85.75
279.579	73.75
279.81	79.75
280.042	83.75
280.273	83.75
280.505	95.75
280.736	86.75
280.968	82.75
281.199	82.75
281.431	80.75
281.662	83.75
281.894	91.75
282.125	90.75
282.356	88.75
282.588	77.75
282.819	80.75
283.051	90.75
283.282	82.75
283.513	88.75
283.745	80.75
283.976	76.75
284.207	84.75
284.439	87.75
284.67	83.75
284.901	80.75
285.132	87.75
285.364	100.75
285.595	74.75
285.826	83.75
286.057	83.75
286.288	80.75
286.52	89.75
286.751	85.75
286.982	83.75
287.213	78.75
287.444	91.75
287.675	83.75
287.906	92.75
288.138	70.75
288.369	79.75
288.6	72.75
288.831	78.75
289.062	90.75
289.293	86.75
289.524	73.75
289.755	78.75
289.986	92.75
290.217	87.75
290.448	89.75
290.679	87.75
290.91	73.75
291.141	84.75
291.371	73.75
291.602	81.75
291.833	73.75
292.064	89.75
292.295	71.75
292.526	83.75
292.757	77.75
292.987	83.75
293.218	75.75
293.449	68.75
293.68	75.75
293.91	77.75
294.141	78.75
294.372	80.75
294.603	76.75
294.833	88.75
295.064	76.75
295.295	66.75
295.525	85.75
295.756	88.75
295.987	74.75
296.217	80.75
296.448	87.75
296.679	79.75
296.909	76.75
297.14	93.75
297.37	78.75
297.601	74.75
297.831	84.75
298.062	73.75
298.292	62.75
298.523	91.75
298.753	71.75
298.984	69.75
299.214	93.75
299.445	65.75
299.675	78.75
299.905	91.75
300.136	79.75
300.366	81.75
300.597	86.75
300.827	80.75
301.057	81.75
301.288	76.75
301.518	93.75
301.748	99.75
301.979	110.75
302.209	80.75
302.439	84.75
302.669	80.75
302.9	82.75
303.13	66.75
303.36	93.75
303.59	91.75
303.82	76.75
304.051	64.75
304.281	81.75
304.511	87.75
304.741	79.75
304.971	71.75
305.201	79.75
305.431	88.75
305.661	89.75
305.891	73.75
306.121	91.75
306.352	85.75
306.582	85.75
306.812	79.75
307.042	68.75
307.272	81.75
307.502	77.75
307.731	85.75
307.961	85.75
308.191	73.75
308.421	85.75
308.651	96.75
308.881	80.75
309.111	90.75
309.341	73.75
309.571	78.75
309.8	77.75
310.03	76.75
310.26	86.75
310.49	76.75
310.72	73.75
310.949	75.75
311.179	86.75
311.409	86.75
311.639	78.75
311.868	81.75
312.098	79.75
312.328	87.75
312.557	94.75
312.787	92.75
313.017	86.75
313.246	79.75
313.476	88.75
313.706	85.75
313.935	76.75
314.165	84.75
314.394	92.75
314.624	82.75
314.853	71.75
315.083	72.75
315.312	68.75
315.542	74.75
315.771	90.75
316.001	73.75
316.23	72.75
316.46	89.75
316.689	84.75
316.919	80.75
317.148	91.75
317.377	84.75
317.607	81.75
317.836	85.75
318.065	78.75
318.295	94.75
318.524	84.75
318.753	91.75
318.983	87.75
319.212	93.75
319.441	81.75
319.67	85.75
319.9	84.75
320.129	93.75
320.358	97.75
320.587	95.75
320.816	79.75
321.046	102.75
321.275	89.75
321.504	82.75
321.733	81.75
321.962	76.75
322.191	71.75
322.42	86.75
322.649	99.75
322.878	85.75
323.108	82.75
323.337	90.75
323.566	94.75
323.795	97.75
324.024	82.75
324.253	83.75
324.482	71.75
324.71	74.75
324.939	81.75
325.168	98.75
325.397	87.75
325.626	103.75
325.855	72.75
326.084	94.75
326.313	83.75
326.542	77.75
326.77	92.75
326.999	79.75
327.228	84.75
327.457	89.75
327.686	80.75
327.914	80.75
328.143	88.75
328.372	86.75
328.6	87.75
328.829	85.75
329.058	79.75
329.287	88.75
329.515	80.75
329.744	84.75
329.972	73.75
330.201	85.75
330.43	85.75
330.658	73.75
330.887	68.75
331.115	82.75
331.344	85.75
331.572	96.75
331.801	85.75
332.03	93.75
332.258	86.75
332.486	79.75
332.715	74.75
332.943	71.75
333.172	96.75
333.4	88.75
333.629	76.75
333.857	79.75
334.085	75.75
334.314	85.75
334.542	80.75
334.771	90.75
334.999	83.75
335.227	70.75
335.455	93.75
335.684	88.75
335.912	79.75
336.14	88.75
336.369	90.75
336.597	91.75
336.825	87.75
337.053	83.75
337.281	89.75
337.51	80.75
337.738	81.75
337.966	76.75
338.194	84.75
338.422	83.75
338.65	80.75
338.878	88.75
339.106	75.75
339.334	86.75
339.562	79.75
339.79	84.75
340.018	78.75
340.246	93.75
340.474	81.75
340.702	74.75
340.93	95.75
341.158	93.75
341.386	79.75
341.614	75.75
341.842	76.75
342.07	73.75
342.298	91.75
342.526	77.75
342.754	91.75
342.981	88.75
343.209	83.75
343.437	91.75
343.665	84.75
343.893	79.75
344.12	96.75
344.348	76.75
344.576	79.75
344.804	86.75
345.031	74.75
345.259	72.75
345.487	79.75
345.714	78.75
345.942	69.75
346.17	72.75
346.397	73.75
346.625	78.75
346.853	84.75
347.08	72.75
347.308	80.75
347.535	79.75
347.763	71.75
347.99	77.75
348.218	87.75
348.445	75.75
348.673	82.75
348.9	88.75
349.128	85.75
349.355	84.75
349.583	74.75
349.81	91.75
350.037	68.75
350.265	78.75
350.492	84.75
350.72	68.75
350.947	79.75
351.174	93.75
351.402	88.75
351.629	79.75
351.856	71.75
352.083	84.75
352.311	87.75
352.538	73.75
352.765	76.75
352.992	92.75
353.22	85.75
353.447	83.75
353.674	76.75
353.901	68.75
354.128	69.75
354.355	92.75
354.583	71.75
354.81	92.75
355.037	92.75
355.264	83.75
355.491	85.75
355.718	87.75
355.945	74.75
356.172	77.75
356.399	81.75
356.626	95.75
356.853	69.75
357.08	88.75
357.307	92.75
357.534	83.75
357.761	88.75
357.988	93.75
358.215	73.75
358.441	73.75
358.668	68.75
358.895	96.75
359.122	79.75
359.349	84.75
359.576	71.75
359.802	69.75
360.029	70.75
360.256	71.75
360.483	88.75
360.709	80.75
360.936	88.75
361.163	84.75
361.39	84.75
361.616	76.75
361.843	80.75
362.07	89.75
362.296	86.75
362.523	88.75
362.749	72.75
362.976	93.75
363.203	94.75
363.429	75.75
363.656	79.75
363.882	85.75
364.109	72.75
364.335	86.75
364.562	80.75
364.788	81.75
365.015	81.75
365.241	69.75
365.468	96.75
365.694	84.75
365.92	83.75
366.147	77.75
366.373	83.75
366.599	86.75
366.826	81.75
367.052	80.75
367.278	86.75
367.505	83.75
367.731	92.75
367.957	84.75
368.184	91.75
368.41	88.75
368.636	80.75
368.862	82.75
369.089	87.75
369.315	67.75
369.541	70.75
369.767	89.75
369.993	81.75
370.219	84.75
370.445	76.75
370.672	82.75
370.898	96.75
371.124	87.75
371.35	73.75
371.576	83.75
371.802	83.75
372.028	67.75
372.254	97.75
372.48	69.75
372.706	75.75
372.932	80.75
373.158	73.75
373.384	78.75
373.61	87.75
373.835	87.75
374.061	82.75
374.287	78.75
374.513	80.75
374.739	95.75
374.965	89.75
375.191	76.75
375.416	96.75
375.642	90.75
375.868	79.75
376.094	88.75
376.319	78.75
376.545	75.75
376.771	81.75
376.997	87.75
377.222	67.75
377.448	77.75
377.674	85.75
377.899	97.75
378.125	77.75
378.35	75.75
378.576	91.75
378.802	85.75
379.027	76.75
379.253	80.75
379.478	94.75
379.704	89.75
379.929	86.75
380.155	84.75
380.38	88.75
380.606	76.75
380.831	88.75
381.057	82.75
381.282	94.75
381.507	93.75
381.733	85.75
381.958	84.75
382.184	80.75
382.409	80.75
382.634	86.75
382.86	88.75
383.085	76.75
383.31	93.75
383.535	82.75
383.761	85.75
383.986	79.75
384.211	77.75
384.436	64.75
384.662	65.75
384.887	73.75
385.112	77.75
385.337	83.75
385.562	68.75
385.787	93.75
386.013	93.75
386.238	99.75
386.463	78.75
386.688	72.75
386.913	79.75
387.138	91.75
387.363	92.75
387.588	76.75
387.813	96.75
388.038	74.75
388.263	83.75
388.488	83.75
388.713	84.75
388.938	90.75
389.163	73.75
389.387	77.75
389.612	71.75
389.837	87.75
390.062	82.75
390.287	83.75
390.512	94.75
390.736	75.75
390.961	82.75
391.186	77.75
391.411	80.75
391.636	84.75
391.86	78.75
392.085	71.75
392.31	71.75
392.534	87.75
392.759	90.75
392.984	91.75
393.208	116.75
393.433	165.75
393.658	126.75
393.882	91.75
394.107	87.75
394.331	94.75
394.556	93.75
394.78	74.75
395.005	80.75
395.229	68.75
395.454	88.75
395.678	81.75
395.903	89.75
396.127	97.75
396.352	102.75
396.576	96.75
396.801	123.75
397.025	141.75
397.249	87.75
397.474	88.75
397.698	92.75
397.922	92.75
398.147	65.75
398.371	74.75
398.595	72.75
398.82	84.75
399.044	89.75
399.268	87.75
399.492	84.75
399.717	85.75
399.941	89.75
400.165	84.75
400.389	85.75
400.613	78.75
400.837	74.75
401.062	80.75
401.286	95.75
401.51	87.75
401.734	76.75
401.958	85.75
402.182	76.75
402.406	78.75
402.63	83.75
402.854	76.75
403.078	85.75
403.302	93.75
403.526	86.75
403.75	64.75
403.974	81.75
404.198	93.75
404.422	67.75
404.645	93.75
404.869	73.75
405.093	68.75
405.317	77.75
405.541	77.75
405.765	62.75
405.988	84.75
406.212	88.75
406.436	79.75
406.66	67.75
406.883	84.75
407.107	71.75
407.331	66.75
407.555	58.75
407.778	76.75
408.002	81.75
408.226	87.75
408.449	79.75
408.673	83.75
408.896	81.75
409.12	81.75
409.344	76.75
409.567	81.75
409.791	89.75
410.014	94.75
410.238	79.75
410.461	76.75
410.685	81.75
410.908	83.75
411.132	79.75
411.355	71.75
411.578	72.75
411.802	86.75
412.025	79.75
412.249	88.75
412.472	78.75
412.695	88.75
412.919	71.75
413.142	76.75
413.365	79.75
413.589	96.75
413.812	63.75
414.035	75.75
414.258	79.75
414.482	85.75
414.705	87.75
414.928	92.75
415.151	87.75
415.374	81.75
415.597	75.75
415.821	88.75
416.044	80.75
416.267	79.75
416.49	85.75
416.713	73.75
416.936	94.75
417.159	77.75
417.382	83.75
417.605	83.75
417.828	82.75
418.051	96.75
418.274	81.75
418.497	87.75
418.72	72.75
418.943	76.75
419.166	77.75
419.389	79.75
419.611	68.75
419.834	81.75
420.057	88.75
420.28	91.75
420.503	69.75
420.726	78.75
420.948	88.75
421.171	73.75
421.394	92.75
421.617	82.75
421.839	84.75
422.062	76.75
422.285	74.75
422.507	95.75
422.73	125.75
422.953	109.75
423.175	83.75
423.398	89.75
423.621	73.75
423.843	83.75
424.066	74.75
424.288	67.75
424.511	73.75
424.733	77.75
424.956	79.75
425.178	76.75
425.401	83.75
425.623	82.75
425.846	81.75
426.068	79.75
426.291	82.75
426.513	92.75
426.735	87.75
426.958	77.75
427.18	73.75
427.402	78.75
427.625	78.75
427.847	77.75
428.069	71.75
428.292	89.75
428.514	99.75
428.736	87.75
428.958	88.75
429.181	87.75
429.403	82.75
429.625	86.75
429.847	81.75
430.069	85.75
430.292	96.75
430.514	81.75
430.736	86.75
430.958	87.75
431.18	75.75
431.402	84.75
431.624	86.75
431.846	67.75
432.068	96.75
432.29	81.75
432.512	74.75
432.734	73.75
432.956	69.75
433.178	79.75
433.4	79.75
433.622	89.75
433.844	73.75
434.066	83.75
434.287	77.75
434.509	78.75
434.731	82.75
434.953	89.75
435.175	70.75
435.397	85.75
435.618	94.75
435.84	73.75
436.062	74.75
436.284	90.75
436.505	90.75
436.727	74.75
436.949	88.75
437.17	67.75
437.392	89.75
437.614	77.75
437.835	86.75
438.057	74.75
438.278	80.75
438.5	74.75
438.721	67.75
438.943	87.75
439.165	83.75
439.386	77.75
439.608	71.75
439.829	69.75
440.05	75.75
440.272	87.75
440.493	78.75
440.715	96.75
440.936	78.75
441.158	83.75
441.379	91.75
441.6	98.75
441.822	91.75
442.043	74.75
442.264	90.75
442.486	77.75
442.707	79.75
442.928	86.75
443.149	85.75
443.371	83.75
443.592	97.75
443.813	76.75
444.034	71.75
444.255	69.75
444.476	93.75
444.698	71.75
444.919	90.75
445.14	149.75
445.361	113.75
445.582	94.75
445.803	89.75
446.024	84.75
446.245	80.75
446.466	61.75
446.687	79.75
446.908	90.75
447.129	99.75
447.35	86.75
447.571	81.75
447.792	91.75
448.013	88.75
448.234	73.75
448.455	86.75
448.675	89.75
448.896	67.75
449.117	84.75
449.338	83.75
449.559	87.75
449.779	80.75
450	73.75
450.221	79.75
450.442	88.75
450.662	99.75
450.883	77.75
451.104	80.75
451.324	71.75
451.545	84.75
451.766	85.75
451.986	82.75
452.207	65.75
452.428	75.75
452.648	79.75
452.869	83.75
453.089	83.75
453.31	67.75
453.53	79.75
453.751	72.75
453.971	88.75
454.192	88.75
454.412	77.75
454.633	95.75
454.853	77.75
455.073	77.75
455.294	93.75
455.514	72.75
455.734	77.75
455.955	77.75
456.175	70.75
456.395	79.75
456.616	68.75
456.836	87.75
457.056	84.75
457.276	76.75
457.497	74.75
457.717	83.75
457.937	83.75
458.157	71.75
458.377	78.75
458.598	81.75
458.818	81.75
459.038	86.75
459.258	97.75
459.478	84.75
459.698	70.75
459.918	72.75
460.138	75.75
460.358	84.75
460.578	91.75
460.798	80.75
461.018	69.75
461.238	80.75
461.458	69.75
461.678	82.75
461.898	85.75
462.118	92.75
462.338	87.75
462.558	89.75
462.777	80.75
462.997	85.75
463.217	78.75
463.437	81.75
463.657	81.75
463.876	85.75
464.096	88.75
464.316	70.75
464.536	79.75
464.755	71.75
464.975	67.75
465.195	100.75
465.414	82.75
465.634	71.75
465.854	79.75
466.073	78.75
466.293	75.75
466.512	67.75
466.732	84.75
466.951	84.75
467.171	73.75
467.391	73.75
467.61	81.75
467.829	90.75
468.049	73.75
468.268	79.75
468.488	77.75
468.707	80.75
468.927	85.75
469.146	73.75
469.365	88.75
469.585	93.75
469.804	86.75
470.023	77.75
470.243	75.75
470.462	70.75
470.681	84.75
470.901	78.75
471.12	91.75
471.339	82.75
471.558	73.75
471.777	81.75
471.997	91.75
472.216	72.75
472.435	79.75
472.654	75.75
472.873	92.75
473.092	75.75
473.311	76.75
473.53	86.75
473.749	78.75
473.968	88.75
474.187	79.75
474.406	85.75
474.625	66.75
474.844	88.75
475.063	81.75
475.282	87.75
475.501	72.75
475.72	81.75
475.939	77.75
476.158	76.75
476.377	75.75
476.596	56.75
476.814	68.75
477.033	90.75
477.252	87.75
477.471	83.75
477.69	91.75
477.908	80.75
478.127	83.75
478.346	79.75
478.564	69.75
478.783	88.75
479.002	89.75
479.22	82.75
479.439	63.75
479.658	73.75
479.876	73.75
480.095	71.75
480.313	81.75
480.532	71.75
480.751	94.75
480.969	86.75
481.188	85.75
481.406	92.75
481.624	64.75
481.843	75.75
482.061	77.75
482.28	76.75
482.498	76.75
482.717	89.75
482.935	79.75
483.153	83.75
483.372	85.75
483.59	82.75
483.808	78.75
484.027	87.75
484.245	86.75
484.463	73.75
484.681	73.75
484.9	90.75
485.118	85.75
485.336	91.75
485.554	82.75
485.772	70.75
485.99	80.75
486.209	87.75
486.427	61.75
486.645	82.75
486.863	87.75
487.081	85.75
487.299	78.75
487.517	91.75
487.735	81.75
487.953	80.75
488.171	85.75
488.389	69.75
488.607	79.75
488.825	91.75
489.043	93.75
489.261	83.75
489.479	87.75
489.696	90.75
489.914	67.75
490.132	80.75
490.35	75.75
490.568	79.75
490.786	99.75
491.003	71.75
491.221	78.75
491.439	79.75
491.657	82.75
491.874	81.75
492.092	96.75
492.31	83.75
492.527	94.75
492.745	77.75
492.963	74.75
493.18	87.75
493.398	78.75
493.615	85.75
493.833	77.75
494.05	64.75
494.268	85.75
494.485	91.75
494.703	89.75
494.92	81.75
495.138	72.75
495.355	97.75
495.573	84.75
495.79	89.75
496.008	74.75
496.225	86.75
496.442	75.75
496.66	83.75
496.877	81.75
497.094	90.75
497.312	78.75
497.529	81.75
497.746	81.75
497.963	82.75
498.181	77.75
498.398	84.75
498.615	84.75
498.832	86.75
499.049	79.75
499.267	85.75
499.484	71.75
499.701	84.75
499.918	68.75
500.135	79.75
500.352	81.75
500.569	83.75
500.786	81.75
501.003	81.75
501.22	73.75
501.437	77.75
501.654	72.75
501.871	92.75
502.088	76.75
502.305	87.75
502.522	83.75
502.739	80.75
502.956	83.75
503.172	88.75
503.389	79.75
503.606	77.75
503.823	74.75
504.04	86.75
504.256	75.75
504.473	71.75
504.69	91.75
504.907	98.75
505.123	76.75
505.34	83.75
505.557	72.75
505.773	90.75
505.99	87.75
506.207	84.75
506.423	87.75
506.64	78.75
506.856	81.75
507.073	81.75
507.289	87.75
507.506	80.75
507.722	83.75
507.939	92.75
508.155	83.75
508.372	84.75
508.588	89.75
508.805	75.75
509.021	91.75
509.238	83.75
509.454	96.75
509.67	77.75
509.887	83.75
510.103	88.75
510.319	70.75
510.536	80.75
510.752	74.75
510.968	84.75
511.184	79.75
511.401	72.75
511.617	76.75
511.833	91.75
512.049	81.75
512.265	69.75
512.481	94.75
512.698	83.75
512.914	69.75
513.13	69.75
513.346	72.75
513.562	69.75
513.778	91.75
513.994	92.75
514.21	95.75
514.426	81.75
514.642	77.75
514.858	87.75
515.074	77.75
515.29	86.75
515.506	88.75
515.721	96.75
515.937	78.75
516.153	69.75
516.369	85.75
516.585	82.75
516.801	91.75
517.016	95.75
517.232	71.75
517.448	70.75
517.664	89.75
517.879	83.75
518.095	81.75
518.311	76.75
518.527	86.75
518.742	88.75
518.958	94.75
519.173	86.75
519.389	68.75
519.605	67.75
519.82	75.75
520.036	79.75
