Data from 1600_3_HRD10591_00010.txt Node
Date: Mon Jan 19 13:54:58 EST 2026
User: Yrep
Spectrometer: HR+D1059
Trigger mode: 1
Integration Time (sec): 1.000000E-1
Scans to average: 1
Electric dark correction enabled: true
Nonlinearity correction enabled: false
Boxcar width: 0
XAxis mode: Wavelengths
Number of Pixels in Spectrum: 2048
>>>>>Begin Spectral Data<<<<<
223.165	-5
223.4	-5
223.635	-5
223.869	-24
224.104	-9
224.338	-23
224.573	-15
224.808	-23
225.042	-9
225.277	-8
225.511	-2
225.746	8
225.98	1
226.215	17
226.449	6
226.683	9
226.918	48
227.152	29
227.387	43
227.621	37
227.856	42
228.09	55
228.324	53
228.559	57
228.793	65
229.027	62
229.262	64
229.496	77
229.73	62
229.964	63
230.199	77
230.433	66
230.667	82
230.901	84
231.136	79
231.37	79
231.604	80
231.838	73
232.072	83
232.306	87
232.541	72
232.775	93
233.009	79
233.243	83
233.477	71
233.711	77
233.945	83
234.179	75
234.413	69
234.647	79
234.881	74
235.115	83
235.349	92
235.583	91
235.817	92
236.051	67
236.285	68
236.519	73
236.753	77
236.987	78
237.221	71
237.455	85
237.689	73
237.922	83
238.156	67
238.39	57
238.624	76
238.858	77
239.091	78
239.325	70
239.559	72
239.793	71
240.027	69
240.26	63
240.494	63
240.728	73
240.961	87
241.195	61
241.429	63
241.662	65
241.896	75
242.13	77
242.363	71
242.597	64
242.83	77
243.064	63
243.298	79
243.531	79
243.765	80
243.998	81
244.232	69
244.465	80
244.699	79
244.932	81
245.166	72
245.399	85
245.633	69
245.866	82
246.099	80
246.333	80
246.566	79
246.8	69
247.033	80
247.266	88
247.5	73
247.733	86
247.966	85
248.2	79
248.433	73
248.666	76
248.899	88
249.133	72
249.366	74
249.599	70
249.832	93
250.066	81
250.299	61
250.532	80
250.765	82
250.998	68
251.231	74
251.465	73
251.698	84
251.931	81
252.164	95
252.397	90
252.63	79
252.863	77
253.096	88
253.329	93
253.562	87
253.795	87
254.028	91
254.261	73
254.494	65
254.727	87
254.96	76
255.193	84
255.426	72
255.659	77
255.892	86
256.124	77
256.357	89
256.59	90
256.823	77
257.056	83
257.289	87
257.521	87
257.754	73
257.987	86
258.22	101
258.452	61
258.685	70
258.918	87
259.151	78
259.383	85
259.616	77
259.849	95
260.081	81
260.314	78
260.547	87
260.779	87
261.012	79
261.244	84
261.477	91
261.71	78
261.942	84
262.175	86
262.407	83
262.64	79
262.872	85
263.105	100
263.337	84
263.57	73
263.802	80
264.035	93
264.267	77
264.499	73
264.732	73
264.964	75
265.197	94
265.429	95
265.661	71
265.894	73
266.126	94
266.358	79
266.591	88
266.823	81
267.055	73
267.287	77
267.52	66
267.752	98
267.984	86
268.216	79
268.448	81
268.681	84
268.913	89
269.145	75
269.377	70
269.609	75
269.841	76
270.073	75
270.306	77
270.538	94
270.77	83
271.002	87
271.234	87
271.466	83
271.698	75
271.93	84
272.162	84
272.394	81
272.626	81
272.858	84
273.09	70
273.322	88
273.553	83
273.785	92
274.017	88
274.249	85
274.481	87
274.713	93
274.945	74
275.176	69
275.408	73
275.64	77
275.872	78
276.104	88
276.335	95
276.567	79
276.799	103
277.031	76
277.262	89
277.494	75
277.726	82
277.957	81
278.189	88
278.421	92
278.652	68
278.884	92
279.115	81
279.347	80
279.579	80
279.81	69
280.042	83
280.273	80
280.505	77
280.736	93
280.968	80
281.199	94
281.431	102
281.662	79
281.894	87
282.125	80
282.356	82
282.588	85
282.819	81
283.051	79
283.282	84
283.513	73
283.745	83
283.976	83
284.207	102
284.439	84
284.67	91
284.901	81
285.132	82
285.364	74
285.595	81
285.826	79
286.057	83
286.288	73
286.52	91
286.751	77
286.982	79
287.213	91
287.444	75
287.675	80
287.906	98
288.138	85
288.369	80
288.6	102
288.831	91
289.062	77
289.293	86
289.524	87
289.755	77
289.986	79
290.217	70
290.448	79
290.679	91
290.91	83
291.141	87
291.371	94
291.602	87
291.833	86
292.064	79
292.295	90
292.526	82
292.757	73
292.987	86
293.218	95
293.449	91
293.68	84
293.91	68
294.141	103
294.372	90
294.603	97
294.833	87
295.064	81
295.295	83
295.525	80
295.756	79
295.987	68
296.217	87
296.448	91
296.679	78
296.909	71
297.14	81
297.37	93
297.601	80
297.831	87
298.062	81
298.292	94
298.523	84
298.753	77
298.984	81
299.214	85
299.445	86
299.675	101
299.905	99
300.136	83
300.366	105
300.597	83
300.827	95
301.057	87
301.288	70
301.518	79
301.748	83
301.979	108
302.209	77
302.439	98
302.669	77
302.9	78
303.13	88
303.36	75
303.59	83
303.82	96
304.051	77
304.281	81
304.511	96
304.741	85
304.971	87
305.201	81
305.431	85
305.661	87
305.891	83
306.121	83
306.352	83
306.582	80
306.812	86
307.042	81
307.272	97
307.502	91
307.731	87
307.961	78
308.191	77
308.421	88
308.651	87
308.881	85
309.111	91
309.341	91
309.571	91
309.8	98
310.03	82
310.26	74
310.49	83
310.72	93
310.949	89
311.179	71
311.409	88
311.639	78
311.868	89
312.098	77
312.328	71
312.557	85
312.787	93
313.017	85
313.246	80
313.476	83
313.706	94
313.935	89
314.165	74
314.394	69
314.624	94
314.853	80
315.083	86
315.312	95
315.542	92
315.771	59
316.001	81
316.23	70
316.46	91
316.689	97
316.919	82
317.148	83
317.377	80
317.607	87
317.836	80
318.065	81
318.295	74
318.524	89
318.753	84
318.983	94
319.212	68
319.441	88
319.67	89
319.9	77
320.129	87
320.358	93
320.587	89
320.816	88
321.046	79
321.275	85
321.504	78
321.733	93
321.962	97
322.191	85
322.42	82
322.649	70
322.878	95
323.108	85
323.337	77
323.566	76
323.795	79
324.024	81
324.253	82
324.482	83
324.71	71
324.939	88
325.168	93
325.397	89
325.626	73
325.855	92
326.084	87
326.313	91
326.542	88
326.77	81
326.999	95
327.228	79
327.457	93
327.686	80
327.914	83
328.143	85
328.372	91
328.6	92
328.829	73
329.058	74
329.287	77
329.515	92
329.744	86
329.972	96
330.201	75
330.43	88
330.658	79
330.887	80
331.115	86
331.344	91
331.572	96
331.801	91
332.03	79
332.258	82
332.486	70
332.715	85
332.943	85
333.172	80
333.4	81
333.629	99
333.857	92
334.085	86
334.314	73
334.542	87
334.771	77
334.999	98
335.227	86
335.455	95
335.684	92
335.912	94
336.14	87
336.369	91
336.597	89
336.825	87
337.053	68
337.281	88
337.51	91
337.738	96
337.966	97
338.194	92
338.422	68
338.65	73
338.878	95
339.106	76
339.334	98
339.562	71
339.79	68
340.018	80
340.246	81
340.474	76
340.702	78
340.93	89
341.158	95
341.386	88
341.614	91
341.842	94
342.07	81
342.298	69
342.526	89
342.754	89
342.981	92
343.209	91
343.437	95
343.665	84
343.893	79
344.12	89
344.348	86
344.576	68
344.804	91
345.031	81
345.259	72
345.487	68
345.714	83
345.942	84
346.17	77
346.397	82
346.625	77
346.853	89
347.08	83
347.308	79
347.535	85
347.763	82
347.99	79
348.218	78
348.445	87
348.673	89
348.9	109
349.128	83
349.355	88
349.583	86
349.81	80
350.037	80
350.265	99
350.492	77
350.72	85
350.947	86
351.174	87
351.402	85
351.629	93
351.856	95
352.083	85
352.311	85
352.538	86
352.765	82
352.992	86
353.22	105
353.447	92
353.674	87
353.901	92
354.128	83
354.355	96
354.583	80
354.81	72
355.037	81
355.264	88
355.491	74
355.718	72
355.945	87
356.172	83
356.399	69
356.626	89
356.853	87
357.08	99
357.307	88
357.534	80
357.761	89
357.988	85
358.215	88
358.441	88
358.668	87
358.895	92
359.122	67
359.349	75
359.576	91
359.802	78
360.029	79
360.256	77
360.483	95
360.709	84
360.936	96
361.163	86
361.39	93
361.616	85
361.843	83
362.07	93
362.296	79
362.523	84
362.749	101
362.976	88
363.203	99
363.429	85
363.656	90
363.882	89
364.109	79
364.335	81
364.562	105
364.788	85
365.015	76
365.241	86
365.468	83
365.694	81
365.92	93
366.147	80
366.373	88
366.599	85
366.826	93
367.052	69
367.278	97
367.505	87
367.731	100
367.957	76
368.184	87
368.41	78
368.636	83
368.862	69
369.089	86
369.315	84
369.541	82
369.767	97
369.993	89
370.219	88
370.445	76
370.672	92
370.898	85
371.124	96
371.35	96
371.576	77
371.802	91
372.028	102
372.254	99
372.48	83
372.706	89
372.932	90
373.158	97
373.384	89
373.61	103
373.835	91
374.061	88
374.287	90
374.513	91
374.739	97
374.965	90
375.191	83
375.416	85
375.642	87
375.868	100
376.094	88
376.319	83
376.545	107
376.771	92
376.997	83
377.222	74
377.448	71
377.674	85
377.899	79
378.125	83
378.35	86
378.576	79
378.802	93
379.027	79
379.253	91
379.478	95
379.704	87
379.929	86
380.155	80
380.38	81
380.606	86
380.831	83
381.057	93
381.282	86
381.507	88
381.733	72
381.958	98
382.184	91
382.409	108
382.634	90
382.86	103
383.085	93
383.31	111
383.535	92
383.761	91
383.986	115
384.211	83
384.436	87
384.662	73
384.887	81
385.112	88
385.337	102
385.562	79
385.787	87
386.013	88
386.238	94
386.463	86
386.688	88
386.913	94
387.138	86
387.363	80
387.588	96
387.813	90
388.038	77
388.263	86
388.488	75
388.713	62
388.938	85
389.163	93
389.387	87
389.612	73
389.837	89
390.062	99
390.287	89
390.512	91
390.736	77
390.961	79
391.186	84
391.411	94
391.636	89
391.86	91
392.085	94
392.31	102
392.534	89
392.759	84
392.984	115
393.208	120
393.433	142
393.658	131
393.882	103
394.107	80
394.331	94
394.556	98
394.78	89
395.005	87
395.229	93
395.454	88
395.678	86
395.903	97
396.127	101
396.352	105
396.576	89
396.801	107
397.025	134
397.249	100
397.474	98
397.698	82
397.922	78
398.147	79
398.371	86
398.595	80
398.82	91
399.044	69
399.268	84
399.492	91
399.717	83
399.941	75
400.165	75
400.389	79
400.613	86
400.837	74
401.062	89
401.286	85
401.51	83
401.734	82
401.958	89
402.182	73
402.406	87
402.63	71
402.854	81
403.078	93
403.302	77
403.526	81
403.75	68
403.974	80
404.198	86
404.422	90
404.645	92
404.869	82
405.093	81
405.317	85
405.541	81
405.765	79
405.988	88
406.212	88
406.436	72
406.66	90
406.883	73
407.107	83
407.331	87
407.555	88
407.778	88
408.002	76
408.226	81
408.449	81
408.673	83
408.896	86
409.12	80
409.344	75
409.567	83
409.791	79
410.014	89
410.238	84
410.461	85
410.685	85
410.908	66
411.132	103
411.355	71
411.578	83
411.802	87
412.025	86
412.249	85
412.472	67
412.695	80
412.919	86
413.142	85
413.365	83
413.589	79
413.812	79
414.035	95
414.258	84
414.482	87
414.705	89
414.928	78
415.151	84
415.374	83
415.597	80
415.821	87
416.044	78
416.267	80
416.49	70
416.713	63
416.936	80
417.159	87
417.382	97
417.605	76
417.828	73
418.051	80
418.274	83
418.497	75
418.72	73
418.943	77
419.166	76
419.389	72
419.611	92
419.834	79
420.057	85
420.28	84
420.503	82
420.726	63
420.948	85
421.171	73
421.394	80
421.617	96
421.839	92
422.062	75
422.285	91
422.507	116
422.73	167
422.953	141
423.175	98
423.398	82
423.621	85
423.843	86
424.066	87
424.288	81
424.511	91
424.733	86
424.956	87
425.178	88
425.401	86
425.623	74
425.846	94
426.068	89
426.291	79
426.513	79
426.735	78
426.958	85
427.18	75
427.402	88
427.625	78
427.847	96
428.069	79
428.292	92
428.514	77
428.736	111
428.958	89
429.181	84
429.403	83
429.625	83
429.847	84
430.069	104
430.292	108
430.514	111
430.736	100
430.958	91
431.18	90
431.402	94
431.624	96
431.846	80
432.068	73
432.29	87
432.512	79
432.734	92
432.956	75
433.178	76
433.4	77
433.622	80
433.844	75
434.066	83
434.287	80
434.509	79
434.731	75
434.953	80
435.175	81
435.397	84
435.618	85
435.84	86
436.062	83
436.284	78
436.505	79
436.727	80
436.949	88
437.17	83
437.392	90
437.614	84
437.835	73
438.057	83
438.278	100
438.5	90
438.721	81
438.943	92
439.165	83
439.386	71
439.608	71
439.829	82
440.05	91
440.272	74
440.493	94
440.715	82
440.936	78
441.158	82
441.379	73
441.6	87
441.822	67
442.043	93
442.264	89
442.486	80
442.707	93
442.928	82
443.149	74
443.371	92
443.592	111
443.813	107
444.034	85
444.255	98
444.476	87
444.698	79
444.919	78
445.14	147
445.361	125
445.582	121
445.803	94
446.024	99
446.245	86
446.466	63
446.687	80
446.908	79
447.129	78
447.35	89
447.571	85
447.792	79
448.013	85
448.234	83
448.455	78
448.675	82
448.896	80
449.117	70
449.338	83
449.559	79
449.779	69
450	89
450.221	91
450.442	83
450.662	79
450.883	68
451.104	77
451.324	79
451.545	63
451.766	72
451.986	81
452.207	89
452.428	87
452.648	83
452.869	79
453.089	85
453.31	89
453.53	84
453.751	77
453.971	80
454.192	81
454.412	78
454.633	77
454.853	72
455.073	73
455.294	82
455.514	69
455.734	102
455.955	83
456.175	73
456.395	71
456.616	80
456.836	81
457.056	81
457.276	68
457.497	61
457.717	89
457.937	81
458.157	89
458.377	89
458.598	100
458.818	78
459.038	75
459.258	65
459.478	68
459.698	91
459.918	81
460.138	79
460.358	85
460.578	83
460.798	79
461.018	80
461.238	87
461.458	73
461.678	79
461.898	100
462.118	79
462.338	99
462.558	91
462.777	78
462.997	81
463.217	75
463.437	87
463.657	74
463.876	85
464.096	79
464.316	87
464.536	87
464.755	87
464.975	95
465.195	85
465.414	85
465.634	77
465.854	95
466.073	80
466.293	81
466.512	87
466.732	90
466.951	77
467.171	79
467.391	94
467.61	86
467.829	76
468.049	90
468.268	79
468.488	73
468.707	85
468.927	77
469.146	84
469.365	67
469.585	72
469.804	81
470.023	75
470.243	73
470.462	78
470.681	75
470.901	85
471.12	79
471.339	87
471.558	91
471.777	79
471.997	78
472.216	92
472.435	68
472.654	80
472.873	80
473.092	80
473.311	94
473.53	86
473.749	88
473.968	87
474.187	95
474.406	80
474.625	80
474.844	73
475.063	79
475.282	82
475.501	87
475.72	79
475.939	71
476.158	71
476.377	83
476.596	81
476.814	85
477.033	84
477.252	82
477.471	73
477.69	80
477.908	84
478.127	87
478.346	84
478.564	69
478.783	76
479.002	96
479.22	74
479.439	80
479.658	74
479.876	82
480.095	77
480.313	78
480.532	77
480.751	82
480.969	80
481.188	87
481.406	81
481.624	86
481.843	70
482.061	79
482.28	76
482.498	75
482.717	93
482.935	78
483.153	95
483.372	77
483.59	88
483.808	73
484.027	93
484.245	85
484.463	74
484.681	77
484.9	78
485.118	87
485.336	96
485.554	95
485.772	95
485.99	96
486.209	92
486.427	87
486.645	81
486.863	70
487.081	88
487.299	87
487.517	100
487.735	89
487.953	89
488.171	108
488.389	95
488.607	73
488.825	79
489.043	80
489.261	87
489.479	85
489.696	77
489.914	81
490.132	86
490.35	79
490.568	79
490.786	76
491.003	84
491.221	72
491.439	81
491.657	68
491.874	81
492.092	85
492.31	89
492.527	73
492.745	83
492.963	101
493.18	61
493.398	85
493.615	93
493.833	82
494.05	88
494.268	82
494.485	81
494.703	91
494.92	69
495.138	73
495.355	77
495.573	89
495.79	88
496.008	74
496.225	79
496.442	90
496.66	84
496.877	91
497.094	77
497.312	72
497.529	95
497.746	89
497.963	94
498.181	91
498.398	89
498.615	88
498.832	85
499.049	72
499.267	81
499.484	89
499.701	95
499.918	72
500.135	81
500.352	91
500.569	80
500.786	79
501.003	88
501.22	65
501.437	83
501.654	88
501.871	79
502.088	88
502.305	85
502.522	89
502.739	96
502.956	77
503.172	87
503.389	81
503.606	87
503.823	90
504.04	79
504.256	104
504.473	72
504.69	61
504.907	84
505.123	86
505.34	87
505.557	91
505.773	71
505.99	80
506.207	87
506.423	81
506.64	88
506.856	76
507.073	88
507.289	82
507.506	77
507.722	88
507.939	88
508.155	88
508.372	77
508.588	77
508.805	96
509.021	81
509.238	87
509.454	74
509.67	85
509.887	86
510.103	77
510.319	75
510.536	88
510.752	71
510.968	77
511.184	77
511.401	85
511.617	89
511.833	82
512.049	88
512.265	76
512.481	71
512.698	79
512.914	96
513.13	86
513.346	81
513.562	79
513.778	75
513.994	88
514.21	79
514.426	93
514.642	88
514.858	67
515.074	89
515.29	78
515.506	84
515.721	94
515.937	98
516.153	87
516.369	80
516.585	85
516.801	87
517.016	107
517.232	86
517.448	100
517.664	96
517.879	87
518.095	99
518.311	96
518.527	112
518.742	92
518.958	81
519.173	93
519.389	85
519.605	94
519.82	73
520.036	84
520.251	72
520.467	80
520.682	83
520.898	86
521.113	84
521.329	95
521.544	88
521.76	94
521.975	86
522.19	83
522.406	84
522.621	83
522.836	85
523.052	86
523.267	84
523.482	91
523.698	73
523.913	92
524.128	70
524.343	87
524.559	80
524.774	82
524.989	87
525.204	81
525.419	84
525.634	90
525.849	82
526.064	93
526.28	109
526.495	115
526.71	123
526.925	111
527.14	123
527.355	129
527.57	83
527.785	75
527.999	83
528.214	86
528.429	89
528.644	69
528.859	89
529.074	81
529.289	83
529.503	84
529.718	85
529.933	94
530.148	75
530.363	82
530.577	77
530.792	86
531.007	100
531.221	85
531.436	77
531.651	87
531.865	95
532.08	78
532.295	80
532.509	86
532.724	82
532.938	86
533.153	96
533.367	86
533.582	75
533.796	87
534.011	78
534.225	84
534.44	83
534.654	69
534.868	81
535.083	97
535.297	101
535.511	101
535.726	89
535.94	84
536.154	78
536.369	90
536.583	85
536.797	85
537.011	87
537.225	87
537.44	97
537.654	72
537.868	77
538.082	86
538.296	96
538.51	85
538.724	84
538.938	86
539.153	95
539.367	104
539.581	94
539.795	79
540.009	77
540.222	90
540.436	92
540.65	95
540.864	95
541.078	87
541.292	103
541.506	86
541.72	82
541.934	96
542.147	94
542.361	95
542.575	92
542.789	77
543.002	93
543.216	98
543.43	90
543.644	87
543.857	97
544.071	70
544.285	86
544.498	94
544.712	91
544.925	94
545.139	91
545.352	86
545.566	89
545.779	108
545.993	79
546.206	90
546.42	97
546.633	100
546.847	85
547.06	88
547.274	83
547.487	101
547.7	95
547.914	98
548.127	110
548.34	103
548.554	111
548.767	90
548.98	102
549.193	102
549.407	93
549.62	102
549.833	107
550.046	104
550.259	108
550.473	113
550.686	107
550.899	112
551.112	133
551.325	118
551.538	122
551.751	131
551.964	126
552.177	121
552.39	125
552.603	119
552.816	128
553.029	127
553.242	107
553.455	116
553.667	124
553.88	141
554.093	127
554.306	138
554.519	127
554.732	129
554.944	140
555.157	108
555.37	129
555.583	129
555.795	126
556.008	119
556.221	131
556.433	95
556.646	119
556.859	109
557.071	103
557.284	93
557.496	102
557.709	96
557.921	91
558.134	108
558.346	112
558.559	111
558.771	99
558.984	125
559.196	144
559.409	111
559.621	128
559.833	117
560.046	123
560.258	111
560.47	111
560.683	93
560.895	91
561.107	86
561.32	83
561.532	81
561.744	91
561.956	97
562.168	88
562.381	91
562.593	90
562.805	76
563.017	106
563.229	94
563.441	74
563.653	84
563.865	105
564.077	110
564.289	91
564.501	89
564.713	93
564.925	86
565.137	88
565.349	79
565.561	78
565.773	83
565.985	97
566.197	73
566.408	103
566.62	80
566.832	85
567.044	74
567.255	92
567.467	90
567.679	97
567.891	78
568.102	93
568.314	95
568.526	78
568.737	82
568.949	86
569.161	79
569.372	86
569.584	87
569.795	93
570.007	82
570.218	84
570.43	77
570.641	82
570.853	79
571.064	103
571.276	92
571.487	89
571.698	80
571.91	94
572.121	72
572.333	93
572.544	88
572.755	75
572.966	95
573.178	94
573.389	92
573.6	93
573.811	88
574.023	93
574.234	109
574.445	95
574.656	89
574.867	78
575.078	84
575.289	88
575.501	78
575.712	82
575.923	83
576.134	94
576.345	93
576.556	73
576.767	98
576.978	86
577.188	80
577.399	87
577.61	115
577.821	89
578.032	81
578.243	88
578.454	74
578.665	100
578.875	81
579.086	86
579.297	91
579.508	93
579.718	88
579.929	86
580.14	85
580.35	95
580.561	75
580.772	84
580.982	85
581.193	97
581.403	102
581.614	91
581.825	104
582.035	97
582.246	95
582.456	99
582.667	95
582.877	103
583.087	92
583.298	79
583.508	78
583.719	99
583.929	101
584.139	92
584.35	91
584.56	84
584.77	98
584.981	90
585.191	83
585.401	81
585.611	98
585.821	93
586.032	112
586.242	96
586.452	89
586.662	86
586.872	84
587.082	78
587.292	83
587.502	91
587.713	101
587.923	88
588.133	93
588.343	107
588.553	104
588.762	111
