Data from 1600_3_HRD10591_00031.txt Node
Date: Mon Jan 19 13:55:08 EST 2026
User: Yrep
Spectrometer: HR+D1059
Trigger mode: 1
Integration Time (sec): 1.000000E-1
Scans to average: 1
Electric dark correction enabled: true
Nonlinearity correction enabled: false
Boxcar width: 0
XAxis mode: Wavelengths
Number of Pixels in Spectrum: 2048
>>>>>Begin Spectral Data<<<<<
223.165	-24.5
223.4	-24.5
223.635	-24.5
223.869	-31.5
224.104	-5.5
224.338	-9.5
224.573	-12.5
224.808	-17.5
225.042	-19.5
225.277	-6.5
225.511	-7.5
225.746	7.5
225.98	13.5
226.215	7.5
226.449	27.5
226.683	21.5
226.918	20.5
227.152	36.5
227.387	35.5
227.621	35.5
227.856	36.5
228.09	45.5
228.324	42.5
228.559	61.5
228.793	58.5
229.027	49.5
229.262	75.5
229.496	88.5
229.73	60.5
229.964	79.5
230.199	86.5
230.433	64.5
230.667	72.5
230.901	73.5
231.136	79.5
231.37	71.5
231.604	80.5
231.838	81.5
232.072	71.5
232.306	82.5
232.541	75.5
232.775	71.5
233.009	70.5
233.243	78.5
233.477	76.5
233.711	87.5
233.945	97.5
234.179	67.5
234.413	70.5
234.647	80.5
234.881	75.5
235.115	68.5
235.349	80.5
235.583	71.5
235.817	72.5
236.051	75.5
236.285	82.5
236.519	78.5
236.753	75.5
236.987	78.5
237.221	69.5
237.455	71.5
237.689	70.5
237.922	75.5
238.156	65.5
238.39	75.5
238.624	70.5
238.858	62.5
239.091	67.5
239.325	72.5
239.559	83.5
239.793	71.5
240.027	79.5
240.26	75.5
240.494	78.5
240.728	64.5
240.961	74.5
241.195	68.5
241.429	59.5
241.662	70.5
241.896	65.5
242.13	71.5
242.363	75.5
242.597	71.5
242.83	67.5
243.064	72.5
243.298	64.5
243.531	78.5
243.765	70.5
243.998	67.5
244.232	74.5
244.465	82.5
244.699	69.5
244.932	88.5
245.166	83.5
245.399	76.5
245.633	68.5
245.866	78.5
246.099	72.5
246.333	87.5
246.566	70.5
246.8	79.5
247.033	81.5
247.266	88.5
247.5	81.5
247.733	72.5
247.966	79.5
248.2	82.5
248.433	68.5
248.666	78.5
248.899	76.5
249.133	89.5
249.366	69.5
249.599	83.5
249.832	74.5
250.066	70.5
250.299	83.5
250.532	73.5
250.765	78.5
250.998	85.5
251.231	81.5
251.465	102.5
251.698	89.5
251.931	91.5
252.164	79.5
252.397	75.5
252.63	75.5
252.863	75.5
253.096	72.5
253.329	79.5
253.562	68.5
253.795	71.5
254.028	72.5
254.261	69.5
254.494	81.5
254.727	82.5
254.96	72.5
255.193	79.5
255.426	86.5
255.659	91.5
255.892	76.5
256.124	75.5
256.357	80.5
256.59	82.5
256.823	82.5
257.056	75.5
257.289	74.5
257.521	72.5
257.754	88.5
257.987	70.5
258.22	74.5
258.452	76.5
258.685	82.5
258.918	76.5
259.151	82.5
259.383	89.5
259.616	89.5
259.849	87.5
260.081	67.5
260.314	79.5
260.547	98.5
260.779	87.5
261.012	83.5
261.244	68.5
261.477	70.5
261.71	66.5
261.942	73.5
262.175	70.5
262.407	73.5
262.64	72.5
262.872	84.5
263.105	85.5
263.337	71.5
263.57	65.5
263.802	58.5
264.035	72.5
264.267	84.5
264.499	85.5
264.732	69.5
264.964	70.5
265.197	84.5
265.429	86.5
265.661	78.5
265.894	85.5
266.126	89.5
266.358	85.5
266.591	90.5
266.823	76.5
267.055	80.5
267.287	75.5
267.52	84.5
267.752	96.5
267.984	86.5
268.216	84.5
268.448	79.5
268.681	84.5
268.913	79.5
269.145	76.5
269.377	72.5
269.609	64.5
269.841	79.5
270.073	84.5
270.306	85.5
270.538	82.5
270.77	93.5
271.002	76.5
271.234	83.5
271.466	81.5
271.698	78.5
271.93	73.5
272.162	75.5
272.394	80.5
272.626	84.5
272.858	83.5
273.09	75.5
273.322	78.5
273.553	87.5
273.785	73.5
274.017	87.5
274.249	79.5
274.481	65.5
274.713	82.5
274.945	92.5
275.176	72.5
275.408	88.5
275.64	80.5
275.872	85.5
276.104	92.5
276.335	82.5
276.567	73.5
276.799	84.5
277.031	75.5
277.262	83.5
277.494	64.5
277.726	81.5
277.957	83.5
278.189	81.5
278.421	79.5
278.652	71.5
278.884	76.5
279.115	80.5
279.347	72.5
279.579	91.5
279.81	83.5
280.042	81.5
280.273	90.5
280.505	75.5
280.736	75.5
280.968	78.5
281.199	84.5
281.431	82.5
281.662	85.5
281.894	80.5
282.125	78.5
282.356	93.5
282.588	86.5
282.819	85.5
283.051	76.5
283.282	78.5
283.513	80.5
283.745	81.5
283.976	86.5
284.207	86.5
284.439	77.5
284.67	100.5
284.901	82.5
285.132	72.5
285.364	74.5
285.595	72.5
285.826	62.5
286.057	85.5
286.288	74.5
286.52	85.5
286.751	75.5
286.982	96.5
287.213	79.5
287.444	92.5
287.675	96.5
287.906	77.5
288.138	83.5
288.369	78.5
288.6	82.5
288.831	86.5
289.062	69.5
289.293	79.5
289.524	79.5
289.755	73.5
289.986	73.5
290.217	71.5
290.448	87.5
290.679	82.5
290.91	83.5
291.141	78.5
291.371	80.5
291.602	84.5
291.833	80.5
292.064	77.5
292.295	87.5
292.526	94.5
292.757	80.5
292.987	80.5
293.218	76.5
293.449	82.5
293.68	96.5
293.91	70.5
294.141	66.5
294.372	78.5
294.603	89.5
294.833	86.5
295.064	82.5
295.295	79.5
295.525	83.5
295.756	101.5
295.987	81.5
296.217	85.5
296.448	81.5
296.679	76.5
296.909	65.5
297.14	79.5
297.37	67.5
297.601	83.5
297.831	75.5
298.062	83.5
298.292	75.5
298.523	84.5
298.753	91.5
298.984	91.5
299.214	80.5
299.445	74.5
299.675	75.5
299.905	95.5
300.136	86.5
300.366	79.5
300.597	83.5
300.827	86.5
301.057	83.5
301.288	74.5
301.518	79.5
301.748	92.5
301.979	90.5
302.209	85.5
302.439	64.5
302.669	77.5
302.9	68.5
303.13	92.5
303.36	85.5
303.59	85.5
303.82	87.5
304.051	95.5
304.281	88.5
304.511	87.5
304.741	72.5
304.971	80.5
305.201	76.5
305.431	79.5
305.661	91.5
305.891	71.5
306.121	74.5
306.352	76.5
306.582	80.5
306.812	80.5
307.042	85.5
307.272	78.5
307.502	71.5
307.731	82.5
307.961	71.5
308.191	78.5
308.421	94.5
308.651	63.5
308.881	75.5
309.111	80.5
309.341	81.5
309.571	80.5
309.8	91.5
310.03	102.5
310.26	83.5
310.49	83.5
310.72	78.5
310.949	75.5
311.179	69.5
311.409	84.5
311.639	91.5
311.868	81.5
312.098	96.5
312.328	83.5
312.557	77.5
312.787	83.5
313.017	89.5
313.246	60.5
313.476	84.5
313.706	85.5
313.935	82.5
314.165	71.5
314.394	88.5
314.624	81.5
314.853	85.5
315.083	87.5
315.312	76.5
315.542	73.5
315.771	90.5
316.001	86.5
316.23	69.5
316.46	82.5
316.689	87.5
316.919	83.5
317.148	80.5
317.377	82.5
317.607	65.5
317.836	79.5
318.065	80.5
318.295	83.5
318.524	94.5
318.753	72.5
318.983	72.5
319.212	78.5
319.441	86.5
319.67	94.5
319.9	91.5
320.129	87.5
320.358	83.5
320.587	85.5
320.816	92.5
321.046	81.5
321.275	73.5
321.504	87.5
321.733	76.5
321.962	78.5
322.191	85.5
322.42	90.5
322.649	87.5
322.878	82.5
323.108	94.5
323.337	88.5
323.566	87.5
323.795	78.5
324.024	92.5
324.253	79.5
324.482	90.5
324.71	85.5
324.939	78.5
325.168	93.5
325.397	92.5
325.626	88.5
325.855	81.5
326.084	77.5
326.313	88.5
326.542	94.5
326.77	84.5
326.999	82.5
327.228	80.5
327.457	96.5
327.686	78.5
327.914	80.5
328.143	85.5
328.372	86.5
328.6	85.5
328.829	88.5
329.058	84.5
329.287	90.5
329.515	63.5
329.744	80.5
329.972	97.5
330.201	85.5
330.43	84.5
330.658	76.5
330.887	77.5
331.115	82.5
331.344	82.5
331.572	85.5
331.801	59.5
332.03	72.5
332.258	85.5
332.486	73.5
332.715	89.5
332.943	82.5
333.172	87.5
333.4	83.5
333.629	88.5
333.857	68.5
334.085	78.5
334.314	68.5
334.542	87.5
334.771	78.5
334.999	85.5
335.227	86.5
335.455	70.5
335.684	85.5
335.912	80.5
336.14	79.5
336.369	93.5
336.597	90.5
336.825	79.5
337.053	83.5
337.281	76.5
337.51	76.5
337.738	86.5
337.966	67.5
338.194	95.5
338.422	85.5
338.65	68.5
338.878	84.5
339.106	79.5
339.334	83.5
339.562	84.5
339.79	93.5
340.018	72.5
340.246	84.5
340.474	84.5
340.702	84.5
340.93	80.5
341.158	86.5
341.386	78.5
341.614	75.5
341.842	90.5
342.07	83.5
342.298	87.5
342.526	72.5
342.754	94.5
342.981	75.5
343.209	78.5
343.437	85.5
343.665	84.5
343.893	68.5
344.12	75.5
344.348	74.5
344.576	88.5
344.804	80.5
345.031	79.5
345.259	79.5
345.487	84.5
345.714	83.5
345.942	69.5
346.17	77.5
346.397	80.5
346.625	80.5
346.853	82.5
347.08	84.5
347.308	77.5
347.535	84.5
347.763	76.5
347.99	87.5
348.218	92.5
348.445	62.5
348.673	70.5
348.9	77.5
349.128	78.5
349.355	78.5
349.583	92.5
349.81	85.5
350.037	78.5
350.265	90.5
350.492	87.5
350.72	80.5
350.947	94.5
351.174	87.5
351.402	78.5
351.629	76.5
351.856	79.5
352.083	78.5
352.311	82.5
352.538	70.5
352.765	78.5
352.992	81.5
353.22	75.5
353.447	72.5
353.674	95.5
353.901	81.5
354.128	83.5
354.355	90.5
354.583	87.5
354.81	95.5
355.037	86.5
355.264	94.5
355.491	76.5
355.718	89.5
355.945	78.5
356.172	118.5
356.399	78.5
356.626	87.5
356.853	76.5
357.08	92.5
357.307	81.5
357.534	80.5
357.761	90.5
357.988	84.5
358.215	81.5
358.441	88.5
358.668	86.5
358.895	88.5
359.122	86.5
359.349	87.5
359.576	85.5
359.802	88.5
360.029	97.5
360.256	88.5
360.483	83.5
360.709	83.5
360.936	88.5
361.163	79.5
361.39	79.5
361.616	69.5
361.843	86.5
362.07	85.5
362.296	86.5
362.523	81.5
362.749	76.5
362.976	82.5
363.203	94.5
363.429	77.5
363.656	84.5
363.882	89.5
364.109	93.5
364.335	92.5
364.562	83.5
364.788	83.5
365.015	73.5
365.241	95.5
365.468	82.5
365.694	88.5
365.92	79.5
366.147	82.5
366.373	82.5
366.599	69.5
366.826	66.5
367.052	85.5
367.278	91.5
367.505	81.5
367.731	87.5
367.957	79.5
368.184	87.5
368.41	76.5
368.636	92.5
368.862	90.5
369.089	90.5
369.315	77.5
369.541	73.5
369.767	71.5
369.993	76.5
370.219	69.5
370.445	78.5
370.672	80.5
370.898	77.5
371.124	86.5
371.35	80.5
371.576	71.5
371.802	79.5
372.028	74.5
372.254	80.5
372.48	87.5
372.706	88.5
372.932	76.5
373.158	72.5
373.384	88.5
373.61	85.5
373.835	84.5
374.061	88.5
374.287	69.5
374.513	90.5
374.739	90.5
374.965	90.5
375.191	83.5
375.416	71.5
375.642	82.5
375.868	90.5
376.094	78.5
376.319	76.5
376.545	66.5
376.771	90.5
376.997	90.5
377.222	72.5
377.448	79.5
377.674	67.5
377.899	81.5
378.125	88.5
378.35	88.5
378.576	78.5
378.802	83.5
379.027	76.5
379.253	83.5
379.478	85.5
379.704	72.5
379.929	87.5
380.155	76.5
380.38	78.5
380.606	86.5
380.831	81.5
381.057	90.5
381.282	80.5
381.507	73.5
381.733	90.5
381.958	75.5
382.184	84.5
382.409	82.5
382.634	82.5
382.86	99.5
383.085	73.5
383.31	73.5
383.535	71.5
383.761	78.5
383.986	81.5
384.211	84.5
384.436	83.5
384.662	78.5
384.887	81.5
385.112	84.5
385.337	84.5
385.562	82.5
385.787	82.5
386.013	80.5
386.238	83.5
386.463	65.5
386.688	92.5
386.913	80.5
387.138	90.5
387.363	88.5
387.588	88.5
387.813	68.5
388.038	82.5
388.263	86.5
388.488	73.5
388.713	79.5
388.938	73.5
389.163	65.5
389.387	62.5
389.612	71.5
389.837	83.5
390.062	87.5
390.287	74.5
390.512	85.5
390.736	75.5
390.961	79.5
391.186	89.5
391.411	81.5
391.636	72.5
391.86	80.5
392.085	89.5
392.31	69.5
392.534	85.5
392.759	86.5
392.984	86.5
393.208	95.5
393.433	108.5
393.658	119.5
393.882	87.5
394.107	85.5
394.331	79.5
394.556	77.5
394.78	78.5
395.005	76.5
395.229	73.5
395.454	81.5
395.678	89.5
395.903	68.5
396.127	95.5
396.352	78.5
396.576	89.5
396.801	118.5
397.025	127.5
397.249	82.5
397.474	83.5
397.698	87.5
397.922	74.5
398.147	78.5
398.371	72.5
398.595	80.5
398.82	86.5
399.044	76.5
399.268	95.5
399.492	86.5
399.717	71.5
399.941	67.5
400.165	80.5
400.389	83.5
400.613	79.5
400.837	89.5
401.062	78.5
401.286	78.5
401.51	85.5
401.734	65.5
401.958	92.5
402.182	74.5
402.406	63.5
402.63	89.5
402.854	86.5
403.078	82.5
403.302	70.5
403.526	78.5
403.75	67.5
403.974	68.5
404.198	75.5
404.422	86.5
404.645	77.5
404.869	85.5
405.093	81.5
405.317	79.5
405.541	96.5
405.765	70.5
405.988	89.5
406.212	74.5
406.436	82.5
406.66	97.5
406.883	87.5
407.107	80.5
407.331	82.5
407.555	80.5
407.778	81.5
408.002	86.5
408.226	77.5
408.449	76.5
408.673	70.5
408.896	63.5
409.12	82.5
409.344	76.5
409.567	71.5
409.791	90.5
410.014	68.5
410.238	88.5
410.461	73.5
410.685	62.5
410.908	78.5
411.132	92.5
411.355	80.5
411.578	91.5
411.802	84.5
412.025	79.5
412.249	77.5
412.472	86.5
412.695	66.5
412.919	72.5
413.142	90.5
413.365	82.5
413.589	86.5
413.812	82.5
414.035	87.5
414.258	73.5
414.482	68.5
414.705	74.5
414.928	84.5
415.151	73.5
415.374	91.5
415.597	87.5
415.821	92.5
416.044	70.5
416.267	85.5
416.49	82.5
416.713	73.5
416.936	87.5
417.159	82.5
417.382	92.5
417.605	93.5
417.828	77.5
418.051	75.5
418.274	86.5
418.497	85.5
418.72	72.5
418.943	90.5
419.166	88.5
419.389	82.5
419.611	70.5
419.834	75.5
420.057	94.5
420.28	68.5
420.503	71.5
420.726	71.5
420.948	92.5
421.171	77.5
421.394	76.5
421.617	71.5
421.839	74.5
422.062	73.5
422.285	80.5
422.507	87.5
422.73	96.5
422.953	110.5
423.175	74.5
423.398	87.5
423.621	79.5
423.843	93.5
424.066	74.5
424.288	70.5
424.511	82.5
424.733	71.5
424.956	87.5
425.178	83.5
425.401	78.5
425.623	74.5
425.846	71.5
426.068	86.5
426.291	90.5
426.513	53.5
426.735	78.5
426.958	84.5
427.18	82.5
427.402	72.5
427.625	76.5
427.847	82.5
428.069	92.5
428.292	84.5
428.514	105.5
428.736	76.5
428.958	82.5
429.181	84.5
429.403	82.5
429.625	82.5
429.847	89.5
430.069	88.5
430.292	90.5
430.514	70.5
430.736	77.5
430.958	88.5
431.18	86.5
431.402	76.5
431.624	80.5
431.846	81.5
432.068	87.5
432.29	70.5
432.512	96.5
432.734	77.5
432.956	86.5
433.178	71.5
433.4	83.5
433.622	87.5
433.844	78.5
434.066	90.5
434.287	67.5
434.509	79.5
434.731	84.5
434.953	97.5
435.175	68.5
435.397	82.5
435.618	72.5
435.84	79.5
436.062	76.5
436.284	77.5
436.505	88.5
436.727	71.5
436.949	70.5
437.17	70.5
437.392	79.5
437.614	73.5
437.835	87.5
438.057	75.5
438.278	75.5
438.5	81.5
438.721	75.5
438.943	70.5
439.165	86.5
439.386	97.5
439.608	78.5
439.829	80.5
440.05	88.5
440.272	73.5
440.493	63.5
440.715	73.5
440.936	71.5
441.158	71.5
441.379	84.5
441.6	88.5
441.822	77.5
442.043	83.5
442.264	80.5
442.486	71.5
442.707	79.5
442.928	80.5
443.149	79.5
443.371	67.5
443.592	77.5
443.813	76.5
444.034	72.5
444.255	89.5
444.476	94.5
444.698	76.5
444.919	83.5
445.14	138.5
445.361	112.5
445.582	96.5
445.803	93.5
446.024	87.5
446.245	72.5
446.466	73.5
446.687	72.5
446.908	87.5
447.129	81.5
447.35	75.5
447.571	79.5
447.792	83.5
448.013	73.5
448.234	81.5
448.455	82.5
448.675	89.5
448.896	85.5
449.117	73.5
449.338	70.5
449.559	72.5
449.779	73.5
450	85.5
450.221	71.5
450.442	75.5
450.662	80.5
450.883	90.5
451.104	78.5
451.324	81.5
451.545	72.5
451.766	72.5
451.986	93.5
452.207	76.5
452.428	79.5
452.648	81.5
452.869	68.5
453.089	80.5
453.31	61.5
453.53	85.5
453.751	89.5
453.971	82.5
454.192	66.5
454.412	84.5
454.633	80.5
454.853	67.5
455.073	78.5
455.294	84.5
455.514	64.5
455.734	78.5
455.955	78.5
456.175	73.5
456.395	72.5
456.616	82.5
456.836	80.5
457.056	71.5
457.276	78.5
457.497	97.5
457.717	60.5
457.937	90.5
458.157	86.5
458.377	86.5
458.598	84.5
458.818	89.5
459.038	85.5
459.258	87.5
459.478	72.5
459.698	76.5
459.918	89.5
460.138	66.5
460.358	71.5
460.578	83.5
460.798	91.5
461.018	97.5
461.238	71.5
461.458	95.5
461.678	79.5
461.898	72.5
462.118	72.5
462.338	91.5
462.558	84.5
462.777	80.5
462.997	77.5
463.217	69.5
463.437	70.5
463.657	71.5
463.876	69.5
464.096	76.5
464.316	70.5
464.536	74.5
464.755	73.5
464.975	73.5
465.195	71.5
465.414	79.5
465.634	91.5
465.854	86.5
466.073	79.5
466.293	76.5
466.512	81.5
466.732	66.5
466.951	78.5
467.171	78.5
467.391	94.5
467.61	75.5
467.829	86.5
468.049	78.5
468.268	86.5
468.488	86.5
468.707	86.5
468.927	73.5
469.146	95.5
469.365	81.5
469.585	82.5
469.804	67.5
470.023	75.5
470.243	78.5
470.462	71.5
470.681	77.5
470.901	72.5
471.12	77.5
471.339	82.5
471.558	77.5
471.777	84.5
471.997	78.5
472.216	103.5
472.435	88.5
472.654	84.5
472.873	87.5
473.092	77.5
473.311	93.5
473.53	76.5
473.749	75.5
473.968	75.5
474.187	87.5
474.406	67.5
474.625	81.5
474.844	89.5
475.063	76.5
475.282	68.5
475.501	78.5
475.72	73.5
475.939	90.5
476.158	71.5
476.377	78.5
476.596	62.5
476.814	74.5
477.033	69.5
477.252	74.5
477.471	82.5
477.69	71.5
477.908	77.5
478.127	72.5
478.346	85.5
478.564	92.5
478.783	84.5
479.002	78.5
479.22	94.5
479.439	82.5
479.658	88.5
479.876	77.5
480.095	74.5
480.313	82.5
480.532	75.5
480.751	70.5
480.969	72.5
481.188	95.5
481.406	75.5
481.624	59.5
481.843	79.5
482.061	97.5
482.28	86.5
482.498	72.5
482.717	100.5
482.935	71.5
483.153	90.5
483.372	86.5
483.59	70.5
483.808	92.5
484.027	84.5
484.245	75.5
484.463	69.5
484.681	83.5
484.9	86.5
485.118	76.5
485.336	72.5
485.554	82.5
485.772	80.5
485.99	87.5
486.209	94.5
486.427	83.5
486.645	76.5
486.863	82.5
487.081	75.5
487.299	81.5
487.517	88.5
487.735	70.5
487.953	91.5
488.171	68.5
488.389	84.5
488.607	87.5
488.825	81.5
489.043	83.5
489.261	75.5
489.479	86.5
489.696	86.5
489.914	71.5
490.132	88.5
490.35	74.5
490.568	72.5
490.786	76.5
491.003	79.5
491.221	81.5
491.439	76.5
491.657	77.5
491.874	87.5
492.092	80.5
492.31	76.5
492.527	70.5
492.745	79.5
492.963	90.5
493.18	83.5
493.398	77.5
493.615	65.5
493.833	79.5
494.05	87.5
494.268	74.5
494.485	70.5
494.703	74.5
494.92	80.5
495.138	74.5
495.355	78.5
495.573	75.5
495.79	91.5
496.008	87.5
496.225	70.5
496.442	89.5
496.66	81.5
496.877	93.5
497.094	86.5
497.312	84.5
497.529	70.5
497.746	84.5
497.963	89.5
498.181	76.5
498.398	84.5
498.615	71.5
498.832	80.5
499.049	73.5
499.267	82.5
499.484	101.5
499.701	95.5
499.918	85.5
500.135	75.5
500.352	83.5
500.569	75.5
500.786	82.5
501.003	89.5
501.22	82.5
501.437	71.5
501.654	77.5
501.871	65.5
502.088	68.5
502.305	83.5
502.522	75.5
502.739	86.5
502.956	83.5
503.172	63.5
503.389	85.5
503.606	80.5
503.823	101.5
504.04	67.5
504.256	86.5
504.473	71.5
504.69	73.5
504.907	75.5
505.123	81.5
505.34	83.5
505.557	67.5
505.773	71.5
505.99	77.5
506.207	81.5
506.423	68.5
506.64	79.5
506.856	87.5
507.073	76.5
507.289	80.5
507.506	86.5
507.722	70.5
507.939	87.5
508.155	74.5
508.372	72.5
508.588	84.5
508.805	85.5
509.021	90.5
509.238	81.5
509.454	90.5
509.67	86.5
509.887	82.5
510.103	87.5
510.319	80.5
510.536	88.5
510.752	80.5
510.968	90.5
511.184	77.5
511.401	82.5
511.617	83.5
511.833	72.5
512.049	86.5
512.265	75.5
512.481	81.5
512.698	72.5
512.914	76.5
513.13	84.5
513.346	78.5
513.562	83.5
513.778	94.5
513.994	82.5
514.21	91.5
514.426	73.5
514.642	75.5
514.858	89.5
515.074	89.5
515.29	77.5
515.506	81.5
515.721	80.5
515.937	78.5
516.153	77.5
516.369	93.5
516.585	80.5
516.801	67.5
517.016	83.5
517.232	79.5
517.448	82.5
517.664	80.5
517.879	90.5
518.095	72.5
518.311	93.5
518.527	79.5
518.742	80.5
518.958	81.5
519.173	98.5
519.389	79.5
519.605	85.5
519.82	78.5
520.036	91.5
520.251	86.5
520.467	74.5
520.682	71.5
520.898	70.5
521.113	76.5
521.329	91.5
521.544	73.5
521.76	71.5
521.975	89.5
522.19	83.5
522.406	89.5
522.621	76.5
522.836	84.5
523.052	80.5
523.267	71.5
523.482	71.5
523.698	93.5
523.913	83.5
524.128	74.5
524.343	66.5
524.559	91.5
524.774	75.5
524.989	75.5
525.204	67.5
525.419	80.5
525.634	76.5
525.849	78.5
526.064	75.5
526.28	81.5
526.495	108.5
526.71	97.5
526.925	90.5
527.14	94.5
527.355	82.5
527.57	76.5
527.785	79.5
527.999	87.5
528.214	91.5
528.429	66.5
528.644	87.5
528.859	71.5
529.074	77.5
529.289	99.5
529.503	76.5
529.718	95.5
529.933	82.5
530.148	79.5
530.363	86.5
530.577	75.5
530.792	79.5
531.007	94.5
531.221	86.5
531.436	78.5
531.651	83.5
531.865	88.5
532.08	80.5
532.295	93.5
532.509	86.5
532.724	87.5
532.938	83.5
533.153	99.5
533.367	90.5
533.582	87.5
533.796	74.5
534.011	73.5
534.225	90.5
534.44	83.5
534.654	86.5
534.868	68.5
535.083	96.5
535.297	84.5
535.511	86.5
535.726	92.5
535.94	78.5
536.154	96.5
536.369	84.5
536.583	77.5
536.797	85.5
537.011	85.5
537.225	87.5
537.44	85.5
537.654	79.5
537.868	73.5
538.082	92.5
538.296	84.5
538.51	72.5
538.724	90.5
538.938	92.5
539.153	95.5
539.367	91.5
539.581	70.5
539.795	74.5
540.009	94.5
540.222	89.5
540.436	88.5
