Data from 1600_3_HRD10591_00008.txt Node
Date: Mon Jan 19 13:54:57 EST 2026
User: Yrep
Spectrometer: HR+D1059
Trigger mode: 1
Integration Time (sec): 1.000000E-1
Scans to average: 1
Electric dark correction enabled: true
Nonlinearity correction enabled: false
Boxcar width: 0
XAxis mode: Wavelengths
Number of Pixels in Spectrum: 2048
>>>>>Begin Spectral Data<<<<<
223.165	-21
223.4	-21
223.635	-21
223.869	1
224.104	-29
224.338	-34
224.573	3
224.808	-16
225.042	-8
225.277	-2
225.511	-2
225.746	-1
225.98	10
226.215	2
226.449	22
226.683	15
226.918	31
227.152	29
227.387	19
227.621	39
227.856	33
228.09	46
228.324	54
228.559	57
228.793	51
229.027	52
229.262	79
229.496	65
229.73	74
229.964	70
230.199	63
230.433	70
230.667	70
230.901	73
231.136	64
231.37	69
231.604	74
231.838	83
232.072	72
232.306	80
232.541	68
232.775	78
233.009	84
233.243	90
233.477	79
233.711	76
233.945	83
234.179	95
234.413	82
234.647	78
234.881	79
235.115	82
235.349	68
235.583	85
235.817	81
236.051	76
236.285	76
236.519	71
236.753	82
236.987	83
237.221	66
237.455	76
237.689	75
237.922	80
238.156	94
238.39	82
238.624	78
238.858	83
239.091	79
239.325	75
239.559	65
239.793	80
240.027	62
240.26	72
240.494	76
240.728	70
240.961	77
241.195	71
241.429	75
241.662	78
241.896	65
242.13	79
242.363	74
242.597	83
242.83	90
243.064	71
243.298	70
243.531	79
243.765	78
243.998	69
244.232	86
244.465	71
244.699	82
244.932	82
245.166	69
245.399	74
245.633	76
245.866	75
246.099	66
246.333	56
246.566	80
246.8	81
247.033	78
247.266	75
247.5	70
247.733	79
247.966	62
248.2	76
248.433	68
248.666	73
248.899	70
249.133	70
249.366	93
249.599	84
249.832	88
250.066	79
250.299	70
250.532	72
250.765	76
250.998	69
251.231	79
251.465	78
251.698	74
251.931	63
252.164	71
252.397	69
252.63	73
252.863	82
253.096	71
253.329	77
253.562	71
253.795	76
254.028	83
254.261	71
254.494	76
254.727	66
254.96	73
255.193	74
255.426	71
255.659	78
255.892	74
256.124	72
256.357	71
256.59	72
256.823	73
257.056	80
257.289	81
257.521	89
257.754	70
257.987	67
258.22	80
258.452	72
258.685	76
258.918	78
259.151	65
259.383	92
259.616	80
259.849	82
260.081	77
260.314	74
260.547	74
260.779	64
261.012	58
261.244	71
261.477	86
261.71	77
261.942	75
262.175	75
262.407	72
262.64	78
262.872	76
263.105	81
263.337	73
263.57	86
263.802	82
264.035	77
264.267	82
264.499	77
264.732	84
264.964	82
265.197	83
265.429	84
265.661	78
265.894	78
266.126	92
266.358	86
266.591	67
266.823	58
267.055	84
267.287	70
267.52	78
267.752	77
267.984	88
268.216	81
268.448	73
268.681	78
268.913	78
269.145	74
269.377	75
269.609	79
269.841	82
270.073	87
270.306	84
270.538	81
270.77	82
271.002	71
271.234	76
271.466	73
271.698	92
271.93	80
272.162	73
272.394	91
272.626	89
272.858	71
273.09	78
273.322	83
273.553	80
273.785	101
274.017	66
274.249	77
274.481	84
274.713	77
274.945	69
275.176	76
275.408	74
275.64	73
275.872	86
276.104	87
276.335	79
276.567	76
276.799	75
277.031	88
277.262	86
277.494	74
277.726	81
277.957	90
278.189	73
278.421	82
278.652	78
278.884	66
279.115	90
279.347	97
279.579	83
279.81	94
280.042	79
280.273	77
280.505	87
280.736	93
280.968	82
281.199	90
281.431	87
281.662	78
281.894	80
282.125	85
282.356	90
282.588	81
282.819	103
283.051	67
283.282	90
283.513	93
283.745	83
283.976	89
284.207	73
284.439	68
284.67	83
284.901	81
285.132	83
285.364	83
285.595	96
285.826	97
286.057	94
286.288	79
286.52	88
286.751	81
286.982	79
287.213	76
287.444	92
287.675	67
287.906	84
288.138	92
288.369	89
288.6	84
288.831	79
289.062	82
289.293	89
289.524	80
289.755	80
289.986	79
290.217	80
290.448	71
290.679	77
290.91	86
291.141	91
291.371	79
291.602	87
291.833	85
292.064	76
292.295	80
292.526	85
292.757	69
292.987	77
293.218	87
293.449	88
293.68	97
293.91	78
294.141	80
294.372	87
294.603	81
294.833	71
295.064	79
295.295	71
295.525	81
295.756	81
295.987	93
296.217	82
296.448	71
296.679	75
296.909	80
297.14	89
297.37	73
297.601	92
297.831	81
298.062	88
298.292	83
298.523	96
298.753	87
298.984	87
299.214	81
299.445	93
299.675	80
299.905	71
300.136	70
300.366	91
300.597	93
300.827	73
301.057	82
301.288	89
301.518	78
301.748	95
301.979	94
302.209	83
302.439	86
302.669	81
302.9	77
303.13	92
303.36	93
303.59	88
303.82	94
304.051	87
304.281	82
304.511	76
304.741	76
304.971	75
305.201	85
305.431	82
305.661	72
305.891	88
306.121	87
306.352	79
306.582	72
306.812	94
307.042	81
307.272	80
307.502	96
307.731	83
307.961	85
308.191	92
308.421	90
308.651	86
308.881	98
309.111	87
309.341	88
309.571	94
309.8	97
310.03	76
310.26	91
310.49	78
310.72	80
310.949	82
311.179	79
311.409	82
311.639	82
311.868	51
312.098	81
312.328	75
312.557	82
312.787	72
313.017	81
313.246	72
313.476	84
313.706	85
313.935	74
314.165	82
314.394	86
314.624	83
314.853	95
315.083	83
315.312	96
315.542	76
315.771	78
316.001	84
316.23	90
316.46	79
316.689	85
316.919	83
317.148	86
317.377	93
317.607	96
317.836	93
318.065	93
318.295	95
318.524	82
318.753	98
318.983	100
319.212	72
319.441	78
319.67	86
319.9	80
320.129	70
320.358	78
320.587	87
320.816	86
321.046	82
321.275	100
321.504	73
321.733	96
321.962	94
322.191	95
322.42	81
322.649	76
322.878	77
323.108	108
323.337	80
323.566	91
323.795	98
324.024	90
324.253	94
324.482	83
324.71	63
324.939	83
325.168	70
325.397	80
325.626	89
325.855	72
326.084	78
326.313	64
326.542	74
326.77	87
326.999	76
327.228	91
327.457	84
327.686	86
327.914	87
328.143	88
328.372	82
328.6	71
328.829	81
329.058	101
329.287	99
329.515	92
329.744	92
329.972	91
330.201	84
330.43	78
330.658	84
330.887	91
331.115	85
331.344	92
331.572	85
331.801	93
332.03	91
332.258	80
332.486	76
332.715	84
332.943	75
333.172	64
333.4	80
333.629	82
333.857	79
334.085	75
334.314	90
334.542	86
334.771	89
334.999	87
335.227	83
335.455	88
335.684	66
335.912	86
336.14	71
336.369	95
336.597	69
336.825	82
337.053	77
337.281	90
337.51	88
337.738	94
337.966	79
338.194	72
338.422	84
338.65	80
338.878	78
339.106	86
339.334	81
339.562	95
339.79	98
340.018	102
340.246	91
340.474	75
340.702	90
340.93	86
341.158	86
341.386	79
341.614	81
341.842	83
342.07	82
342.298	81
342.526	91
342.754	84
342.981	90
343.209	88
343.437	102
343.665	89
343.893	84
344.12	98
344.348	89
344.576	86
344.804	88
345.031	92
345.259	75
345.487	83
345.714	84
345.942	71
346.17	76
346.397	86
346.625	64
346.853	94
347.08	76
347.308	80
347.535	91
347.763	88
347.99	99
348.218	91
348.445	78
348.673	80
348.9	87
349.128	89
349.355	88
349.583	84
349.81	72
350.037	80
350.265	91
350.492	86
350.72	85
350.947	94
351.174	85
351.402	68
351.629	78
351.856	86
352.083	77
352.311	86
352.538	86
352.765	87
352.992	91
353.22	95
353.447	63
353.674	92
353.901	86
354.128	80
354.355	72
354.583	84
354.81	86
355.037	91
355.264	83
355.491	95
355.718	79
355.945	79
356.172	86
356.399	98
356.626	91
356.853	84
357.08	87
357.307	99
357.534	84
357.761	97
357.988	99
358.215	79
358.441	85
358.668	99
358.895	78
359.122	70
359.349	89
359.576	97
359.802	91
360.029	85
360.256	92
360.483	68
360.709	84
360.936	95
361.163	90
361.39	87
361.616	86
361.843	94
362.07	91
362.296	87
362.523	99
362.749	84
362.976	84
363.203	105
363.429	74
363.656	96
363.882	82
364.109	84
364.335	100
364.562	93
364.788	120
365.015	106
365.241	80
365.468	95
365.694	80
365.92	68
366.147	74
366.373	79
366.599	86
366.826	83
367.052	76
367.278	93
367.505	77
367.731	97
367.957	79
368.184	80
368.41	76
368.636	93
368.862	98
369.089	90
369.315	95
369.541	93
369.767	76
369.993	72
370.219	80
370.445	76
370.672	88
370.898	80
371.124	82
371.35	95
371.576	94
371.802	86
372.028	88
372.254	101
372.48	88
372.706	90
372.932	80
373.158	81
373.384	94
373.61	95
373.835	80
374.061	80
374.287	82
374.513	80
374.739	97
374.965	96
375.191	93
375.416	80
375.642	81
375.868	87
376.094	79
376.319	75
376.545	91
376.771	86
376.997	70
377.222	73
377.448	78
377.674	66
377.899	79
378.125	86
378.35	90
378.576	85
378.802	92
379.027	86
379.253	96
379.478	90
379.704	89
379.929	82
380.155	86
380.38	93
380.606	78
380.831	86
381.057	97
381.282	101
381.507	83
381.733	85
381.958	88
382.184	86
382.409	79
382.634	91
382.86	110
383.085	96
383.31	107
383.535	107
383.761	99
383.986	99
384.211	81
384.436	89
384.662	92
384.887	89
385.112	76
385.337	71
385.562	91
385.787	93
386.013	93
386.238	98
386.463	70
386.688	102
386.913	76
387.138	99
387.363	94
387.588	78
387.813	84
388.038	91
388.263	94
388.488	82
388.713	78
388.938	89
389.163	99
389.387	86
389.612	81
389.837	92
390.062	91
390.287	91
390.512	78
390.736	82
390.961	81
391.186	100
391.411	75
391.636	78
391.86	75
392.085	82
392.31	104
392.534	92
392.759	104
392.984	100
393.208	147
393.433	190
393.658	147
393.882	106
394.107	86
394.331	106
394.556	100
394.78	98
395.005	85
395.229	87
395.454	75
395.678	80
395.903	103
396.127	123
396.352	99
396.576	115
396.801	151
397.025	153
397.249	116
397.474	91
397.698	78
397.922	99
398.147	94
398.371	64
398.595	67
398.82	76
399.044	91
399.268	86
399.492	74
399.717	92
399.941	83
400.165	82
400.389	85
400.613	75
400.837	86
401.062	78
401.286	66
401.51	93
401.734	83
401.958	80
402.182	73
402.406	73
402.63	58
402.854	92
403.078	83
403.302	85
403.526	97
403.75	84
403.974	77
404.198	73
404.422	92
404.645	94
404.869	82
405.093	68
405.317	80
405.541	86
405.765	79
405.988	80
406.212	90
406.436	83
406.66	96
406.883	94
407.107	70
407.331	72
407.555	76
407.778	85
408.002	92
408.226	88
408.449	85
408.673	76
408.896	82
409.12	81
409.344	82
409.567	85
409.791	96
410.014	90
410.238	88
410.461	78
410.685	80
410.908	72
411.132	103
411.355	68
411.578	90
411.802	74
412.025	71
412.249	76
412.472	78
412.695	89
412.919	67
413.142	84
413.365	87
413.589	71
413.812	75
414.035	82
414.258	93
414.482	82
414.705	87
414.928	87
415.151	80
415.374	89
415.597	78
415.821	81
416.044	80
416.267	66
416.49	68
416.713	72
416.936	80
417.159	81
417.382	72
417.605	82
417.828	78
418.051	69
418.274	70
418.497	64
418.72	78
418.943	85
419.166	81
419.389	85
419.611	78
419.834	84
420.057	78
420.28	87
420.503	79
420.726	69
420.948	88
421.171	94
421.394	93
421.617	64
421.839	89
422.062	108
422.285	98
422.507	158
422.73	235
422.953	206
423.175	106
423.398	85
423.621	100
423.843	90
424.066	95
424.288	78
424.511	70
424.733	82
424.956	97
425.178	72
425.401	79
425.623	86
425.846	73
426.068	92
426.291	80
426.513	77
426.735	83
426.958	87
427.18	80
427.402	94
427.625	83
427.847	89
428.069	83
428.292	96
428.514	104
428.736	85
428.958	106
429.181	95
429.403	84
429.625	90
429.847	101
430.069	124
430.292	124
430.514	112
430.736	100
430.958	100
431.18	86
431.402	87
431.624	81
431.846	79
432.068	95
432.29	85
432.512	81
432.734	74
432.956	79
433.178	59
433.4	66
433.622	95
433.844	73
434.066	80
434.287	82
434.509	79
434.731	76
434.953	89
435.175	82
435.397	86
435.618	78
435.84	74
436.062	93
436.284	80
436.505	76
436.727	75
436.949	87
437.17	87
437.392	78
437.614	70
437.835	76
438.057	85
438.278	95
438.5	84
438.721	80
438.943	83
439.165	72
439.386	90
439.608	81
439.829	80
440.05	96
440.272	87
440.493	91
440.715	85
440.936	80
441.158	85
441.379	78
441.6	95
441.822	79
442.043	79
442.264	86
442.486	92
442.707	105
442.928	87
443.149	74
443.371	110
443.592	142
443.813	130
444.034	91
444.255	78
444.476	63
444.698	83
444.919	76
445.14	149
445.361	155
445.582	147
445.803	140
446.024	98
446.245	86
446.466	72
446.687	78
446.908	68
447.129	82
447.35	84
447.571	94
447.792	78
448.013	82
448.234	76
448.455	89
448.675	94
448.896	90
449.117	90
449.338	78
449.559	63
449.779	86
450	66
450.221	73
450.442	80
450.662	90
450.883	82
451.104	76
451.324	90
451.545	88
451.766	70
451.986	67
452.207	74
452.428	73
452.648	82
452.869	86
453.089	74
453.31	80
453.53	95
453.751	96
453.971	97
454.192	72
454.412	73
454.633	77
454.853	91
455.073	90
455.294	94
455.514	93
455.734	82
455.955	101
456.175	90
456.395	76
456.616	85
456.836	79
457.056	71
457.276	87
457.497	66
457.717	85
457.937	89
458.157	92
458.377	100
458.598	88
458.818	78
459.038	95
459.258	74
459.478	84
459.698	78
459.918	89
460.138	80
460.358	83
460.578	100
460.798	91
461.018	98
461.238	91
461.458	78
461.678	76
461.898	87
462.118	98
462.338	76
462.558	88
462.777	70
462.997	94
463.217	90
463.437	86
463.657	80
463.876	98
464.096	80
464.316	88
464.536	86
464.755	84
464.975	74
465.195	81
465.414	72
465.634	79
465.854	91
466.073	81
466.293	83
466.512	96
466.732	86
466.951	85
467.171	82
467.391	70
467.61	81
467.829	83
468.049	76
468.268	88
468.488	93
468.707	71
468.927	83
469.146	73
469.365	80
469.585	86
469.804	88
470.023	93
470.243	78
470.462	77
470.681	79
470.901	95
471.12	89
471.339	74
471.558	75
471.777	66
471.997	82
472.216	76
472.435	92
472.654	69
472.873	90
473.092	78
473.311	85
473.53	90
473.749	68
473.968	84
474.187	83
474.406	84
474.625	68
474.844	92
475.063	76
475.282	93
475.501	84
475.72	107
475.939	84
476.158	87
476.377	95
476.596	72
476.814	88
477.033	86
477.252	78
477.471	78
477.69	82
477.908	79
478.127	96
478.346	82
478.564	82
478.783	94
479.002	72
479.22	71
479.439	86
479.658	88
479.876	78
480.095	92
480.313	90
480.532	70
480.751	78
480.969	83
481.188	76
481.406	90
481.624	82
481.843	86
482.061	76
482.28	80
482.498	84
482.717	95
482.935	78
483.153	80
483.372	94
483.59	94
483.808	90
484.027	99
484.245	78
484.463	72
484.681	90
484.9	93
485.118	84
485.336	103
485.554	82
485.772	90
485.99	83
486.209	79
486.427	90
486.645	88
486.863	96
487.081	78
487.299	81
487.517	78
487.735	92
487.953	113
488.171	90
488.389	90
488.607	103
488.825	86
489.043	95
489.261	100
489.479	86
489.696	88
489.914	73
490.132	91
490.35	86
490.568	94
490.786	84
491.003	97
491.221	70
491.439	83
491.657	76
491.874	83
492.092	81
492.31	87
492.527	83
492.745	97
492.963	91
493.18	93
493.398	90
493.615	95
493.833	94
494.05	77
494.268	82
494.485	100
494.703	98
494.92	85
495.138	70
495.355	76
495.573	86
495.79	94
496.008	95
496.225	87
496.442	78
496.66	96
496.877	94
497.094	83
497.312	89
497.529	94
497.746	84
497.963	94
498.181	97
498.398	104
498.615	88
498.832	92
499.049	94
499.267	103
499.484	106
499.701	90
499.918	81
500.135	95
500.352	99
500.569	69
500.786	106
501.003	111
501.22	101
501.437	82
501.654	86
501.871	102
502.088	84
502.305	100
502.522	94
502.739	92
502.956	84
503.172	87
503.389	80
503.606	86
503.823	93
504.04	101
504.256	103
504.473	104
504.69	96
504.907	93
505.123	78
505.34	79
505.557	85
505.773	77
505.99	93
506.207	87
506.423	80
506.64	92
506.856	98
507.073	82
507.289	83
507.506	95
507.722	78
507.939	91
508.155	94
508.372	76
508.588	90
508.805	83
509.021	73
509.238	90
509.454	86
509.67	71
509.887	91
510.103	88
510.319	86
510.536	92
510.752	78
510.968	80
511.184	83
511.401	78
511.617	90
511.833	81
512.049	78
512.265	85
512.481	95
512.698	83
512.914	87
513.13	92
513.346	94
513.562	93
513.778	87
513.994	87
514.21	89
514.426	92
514.642	87
514.858	82
515.074	83
515.29	90
515.506	80
515.721	93
515.937	94
516.153	72
516.369	93
516.585	75
516.801	70
517.016	90
517.232	91
517.448	115
517.664	115
517.879	103
518.095	78
518.311	106
518.527	116
518.742	96
518.958	112
519.173	113
519.389	87
519.605	98
519.82	87
520.036	98
520.251	90
520.467	100
520.682	83
520.898	84
521.113	89
521.329	104
521.544	92
521.76	91
521.975	102
522.19	88
522.406	72
522.621	102
522.836	82
523.052	77
523.267	90
523.482	90
523.698	88
523.913	94
524.128	91
524.343	82
524.559	84
524.774	84
524.989	87
525.204	80
525.419	93
525.634	83
525.849	85
526.064	102
526.28	129
526.495	137
526.71	161
526.925	124
527.14	148
527.355	136
527.57	93
527.785	90
527.999	93
528.214	97
528.429	88
528.644	82
528.859	96
529.074	90
529.289	93
529.503	102
529.718	85
529.933	94
530.148	86
530.363	92
530.577	99
530.792	86
531.007	93
531.221	85
531.436	76
531.651	82
531.865	91
532.08	99
532.295	82
532.509	83
532.724	86
532.938	91
533.153	94
533.367	97
533.582	84
533.796	92
534.011	94
534.225	86
534.44	102
534.654	100
534.868	84
535.083	103
535.297	106
535.511	94
535.726	96
535.94	90
536.154	100
536.369	82
536.583	95
536.797	96
537.011	101
537.225	95
537.44	91
537.654	86
537.868	101
538.082	86
538.296	84
538.51	101
538.724	88
538.938	82
539.153	99
539.367	96
539.581	96
539.795	91
540.009	100
540.222	101
540.436	100
540.65	88
540.864	103
541.078	97
541.292	80
541.506	88
541.72	99
541.934	101
542.147	94
542.361	83
542.575	84
542.789	92
543.002	95
543.216	106
543.43	99
543.644	91
543.857	90
544.071	94
544.285	80
544.498	83
544.712	86
544.925	87
545.139	85
545.352	90
545.566	95
545.779	108
545.993	80
546.206	107
546.42	91
546.633	108
546.847	100
547.06	116
547.274	117
547.487	108
547.7	127
547.914	124
548.127	112
548.34	132
548.554	123
548.767	134
548.98	142
549.193	123
549.407	147
549.62	124
549.833	140
550.046	146
550.259	143
550.473	146
550.686	146
550.899	152
551.112	173
551.325	177
551.538	190
551.751	199
551.964	162
552.177	164
552.39	170
552.603	164
552.816	189
553.029	200
553.242	182
553.455	191
553.667	203
553.88	206
554.093	207
554.306	208
554.519	224
554.732	203
554.944	212
555.157	198
555.37	206
555.583	194
555.795	186
556.008	182
556.221	159
556.433	154
556.646	161
556.859	142
557.071	130
557.284	131
557.496	125
557.709	113
557.921	134
558.134	114
558.346	142
558.559	129
558.771	152
558.984	181
559.196	205
559.409	152
559.621	155
559.833	147
560.046	153
560.258	151
560.47	142
560.683	104
560.895	115
561.107	116
561.32	102
561.532	110
561.744	103
561.956	101
562.168	76
562.381	92
562.593	100
562.805	104
563.017	103
563.229	96
563.441	96
563.653	96
563.865	87
564.077	95
564.289	112
564.501	100
564.713	87
564.925	99
565.137	97
565.349	107
565.561	94
565.773	95
565.985	95
566.197	95
566.408	93
566.62	81
566.832	94
567.044	86
567.255	95
567.467	108
567.679	98
567.891	96
568.102	101
568.314	95
568.526	84
568.737	99
568.949	105
569.161	104
569.372	106
569.584	102
569.795	86
570.007	92
570.218	107
570.43	95
570.641	90
570.853	94
571.064	101
571.276	85
571.487	99
571.698	81
571.91	90
572.121	100
572.333	94
572.544	95
572.755	79
572.966	98
573.178	84
573.389	94
573.6	96
573.811	92
574.023	97
574.234	91
574.445	94
574.656	79
574.867	90
575.078	79
575.289	97
575.501	80
575.712	92
575.923	99
576.134	96
576.345	90
576.556	95
576.767	102
576.978	98
577.188	95
577.399	85
577.61	82
577.821	91
578.032	67
578.243	84
578.454	90
578.665	82
578.875	101
579.086	72
579.297	103
579.508	78
579.718	67
579.929	100
580.14	94
580.35	83
580.561	106
580.772	96
580.982	98
581.193	102
581.403	71
581.614	88
581.825	85
582.035	91
582.246	92
582.456	94
582.667	94
582.877	82
583.087	96
583.298	103
583.508	103
583.719	88
583.929	102
584.139	88
584.35	102
584.56	97
584.77	81
584.981	99
585.191	97
585.401	94
585.611	104
585.821	126
586.032	130
586.242	101
586.452	96
586.662	87
586.872	85
587.082	94
587.292	97
587.502	83
