Data from 1600_3_HRD10591_00012.txt Node
Date: Mon Jan 19 13:54:59 EST 2026
User: Yrep
Spectrometer: HR+D1059
Trigger mode: 1
Integration Time (sec): 1.000000E-1
Scans to average: 1
Electric dark correction enabled: true
Nonlinearity correction enabled: false
Boxcar width: 0
XAxis mode: Wavelengths
Number of Pixels in Spectrum: 2048
>>>>>Begin Spectral Data<<<<<
223.165	-21.19
223.4	-21.19
223.635	-21.19
223.869	-31.19
224.104	-23.19
224.338	-21.19
224.573	-31.19
224.808	-11.19
225.042	-5.19
225.277	-16.19
225.511	-1.19
225.746	4.81
225.98	16.81
226.215	12.81
226.449	23.81
226.683	33.81
226.918	31.81
227.152	37.81
227.387	35.81
227.621	36.81
227.856	49.81
228.09	53.81
228.324	59.81
228.559	60.81
228.793	67.81
229.027	72.81
229.262	75.81
229.496	71.81
229.73	51.81
229.964	83.81
230.199	74.81
230.433	80.81
230.667	86.81
230.901	85.81
231.136	82.81
231.37	99.81
231.604	80.81
231.838	95.81
232.072	74.81
232.306	80.81
232.541	78.81
232.775	90.81
233.009	76.81
233.243	78.81
233.477	80.81
233.711	86.81
233.945	96.81
234.179	89.81
234.413	70.81
234.647	84.81
234.881	74.81
235.115	70.81
235.349	87.81
235.583	83.81
235.817	79.81
236.051	71.81
236.285	74.81
236.519	85.81
236.753	72.81
236.987	76.81
237.221	72.81
237.455	90.81
237.689	65.81
237.922	75.81
238.156	93.81
238.39	60.81
238.624	68.81
238.858	82.81
239.091	76.81
239.325	83.81
239.559	72.81
239.793	95.81
240.027	90.81
240.26	86.81
240.494	74.81
240.728	87.81
240.961	76.81
241.195	80.81
241.429	75.81
241.662	86.81
241.896	69.81
242.13	68.81
242.363	80.81
242.597	70.81
242.83	66.81
243.064	77.81
243.298	91.81
243.531	72.81
243.765	82.81
243.998	69.81
244.232	88.81
244.465	66.81
244.699	91.81
244.932	71.81
245.166	78.81
245.399	70.81
245.633	61.81
245.866	81.81
246.099	82.81
246.333	84.81
246.566	82.81
246.8	75.81
247.033	77.81
247.266	87.81
247.5	91.81
247.733	82.81
247.966	86.81
248.2	88.81
248.433	73.81
248.666	72.81
248.899	70.81
249.133	89.81
249.366	103.81
249.599	80.81
249.832	79.81
250.066	82.81
250.299	76.81
250.532	75.81
250.765	90.81
250.998	86.81
251.231	85.81
251.465	87.81
251.698	72.81
251.931	70.81
252.164	87.81
252.397	78.81
252.63	88.81
252.863	90.81
253.096	90.81
253.329	92.81
253.562	84.81
253.795	80.81
254.028	91.81
254.261	78.81
254.494	60.81
254.727	82.81
254.96	95.81
255.193	94.81
255.426	77.81
255.659	75.81
255.892	82.81
256.124	85.81
256.357	91.81
256.59	96.81
256.823	86.81
257.056	86.81
257.289	65.81
257.521	88.81
257.754	81.81
257.987	94.81
258.22	90.81
258.452	72.81
258.685	98.81
258.918	91.81
259.151	92.81
259.383	67.81
259.616	75.81
259.849	105.81
260.081	90.81
260.314	100.81
260.547	99.81
260.779	93.81
261.012	80.81
261.244	86.81
261.477	76.81
261.71	84.81
261.942	88.81
262.175	97.81
262.407	86.81
262.64	80.81
262.872	89.81
263.105	78.81
263.337	77.81
263.57	83.81
263.802	68.81
264.035	78.81
264.267	82.81
264.499	90.81
264.732	89.81
264.964	88.81
265.197	83.81
265.429	85.81
265.661	90.81
265.894	95.81
266.126	82.81
266.358	76.81
266.591	82.81
266.823	103.81
267.055	86.81
267.287	82.81
267.52	88.81
267.752	78.81
267.984	91.81
268.216	83.81
268.448	86.81
268.681	88.81
268.913	96.81
269.145	88.81
269.377	94.81
269.609	84.81
269.841	99.81
270.073	94.81
270.306	88.81
270.538	89.81
270.77	75.81
271.002	89.81
271.234	81.81
271.466	78.81
271.698	79.81
271.93	84.81
272.162	79.81
272.394	103.81
272.626	88.81
272.858	88.81
273.09	82.81
273.322	87.81
273.553	97.81
273.785	99.81
274.017	78.81
274.249	94.81
274.481	89.81
274.713	82.81
274.945	99.81
275.176	85.81
275.408	99.81
275.64	81.81
275.872	94.81
276.104	69.81
276.335	82.81
276.567	80.81
276.799	71.81
277.031	90.81
277.262	86.81
277.494	96.81
277.726	78.81
277.957	97.81
278.189	82.81
278.421	74.81
278.652	82.81
278.884	87.81
279.115	92.81
279.347	88.81
279.579	101.81
279.81	84.81
280.042	94.81
280.273	103.81
280.505	83.81
280.736	92.81
280.968	88.81
281.199	86.81
281.431	70.81
281.662	82.81
281.894	89.81
282.125	66.81
282.356	94.81
282.588	102.81
282.819	84.81
283.051	81.81
283.282	82.81
283.513	90.81
283.745	76.81
283.976	86.81
284.207	77.81
284.439	95.81
284.67	110.81
284.901	102.81
285.132	91.81
285.364	90.81
285.595	91.81
285.826	90.81
286.057	82.81
286.288	76.81
286.52	80.81
286.751	78.81
286.982	100.81
287.213	87.81
287.444	88.81
287.675	88.81
287.906	89.81
288.138	115.81
288.369	100.81
288.6	90.81
288.831	84.81
289.062	93.81
289.293	76.81
289.524	77.81
289.755	75.81
289.986	90.81
290.217	89.81
290.448	90.81
290.679	88.81
290.91	80.81
291.141	94.81
291.371	77.81
291.602	84.81
291.833	89.81
292.064	86.81
292.295	90.81
292.526	94.81
292.757	79.81
292.987	89.81
293.218	70.81
293.449	89.81
293.68	89.81
293.91	77.81
294.141	87.81
294.372	94.81
294.603	84.81
294.833	91.81
295.064	90.81
295.295	92.81
295.525	86.81
295.756	76.81
295.987	84.81
296.217	90.81
296.448	92.81
296.679	89.81
296.909	89.81
297.14	85.81
297.37	93.81
297.601	88.81
297.831	86.81
298.062	87.81
298.292	77.81
298.523	81.81
298.753	91.81
298.984	100.81
299.214	88.81
299.445	96.81
299.675	90.81
299.905	96.81
300.136	94.81
300.366	93.81
300.597	73.81
300.827	95.81
301.057	83.81
301.288	89.81
301.518	85.81
301.748	90.81
301.979	103.81
302.209	91.81
302.439	85.81
302.669	100.81
302.9	81.81
303.13	88.81
303.36	89.81
303.59	86.81
303.82	82.81
304.051	90.81
304.281	91.81
304.511	88.81
304.741	89.81
304.971	89.81
305.201	92.81
305.431	89.81
305.661	97.81
305.891	64.81
306.121	78.81
306.352	93.81
306.582	99.81
306.812	80.81
307.042	90.81
307.272	85.81
307.502	82.81
307.731	81.81
307.961	87.81
308.191	94.81
308.421	94.81
308.651	90.81
308.881	85.81
309.111	93.81
309.341	86.81
309.571	109.81
309.8	81.81
310.03	101.81
310.26	90.81
310.49	97.81
310.72	85.81
310.949	92.81
311.179	94.81
311.409	86.81
311.639	78.81
311.868	79.81
312.098	90.81
312.328	89.81
312.557	81.81
312.787	92.81
313.017	81.81
313.246	91.81
313.476	84.81
313.706	82.81
313.935	97.81
314.165	89.81
314.394	80.81
314.624	86.81
314.853	93.81
315.083	87.81
315.312	82.81
315.542	88.81
315.771	94.81
316.001	75.81
316.23	111.81
316.46	76.81
316.689	66.81
316.919	82.81
317.148	90.81
317.377	77.81
317.607	82.81
317.836	85.81
318.065	101.81
318.295	97.81
318.524	80.81
318.753	90.81
318.983	86.81
319.212	75.81
319.441	77.81
319.67	85.81
319.9	83.81
320.129	87.81
320.358	82.81
320.587	87.81
320.816	75.81
321.046	90.81
321.275	92.81
321.504	79.81
321.733	81.81
321.962	82.81
322.191	74.81
322.42	77.81
322.649	94.81
322.878	99.81
323.108	80.81
323.337	89.81
323.566	73.81
323.795	94.81
324.024	94.81
324.253	98.81
324.482	83.81
324.71	80.81
324.939	83.81
325.168	88.81
325.397	89.81
325.626	91.81
325.855	83.81
326.084	63.81
326.313	84.81
326.542	82.81
326.77	89.81
326.999	86.81
327.228	97.81
327.457	96.81
327.686	89.81
327.914	88.81
328.143	86.81
328.372	88.81
328.6	92.81
328.829	78.81
329.058	80.81
329.287	82.81
329.515	81.81
329.744	93.81
329.972	88.81
330.201	94.81
330.43	95.81
330.658	82.81
330.887	87.81
331.115	94.81
331.344	95.81
331.572	86.81
331.801	85.81
332.03	83.81
332.258	89.81
332.486	81.81
332.715	79.81
332.943	66.81
333.172	82.81
333.4	91.81
333.629	82.81
333.857	87.81
334.085	91.81
334.314	85.81
334.542	74.81
334.771	94.81
334.999	91.81
335.227	85.81
335.455	102.81
335.684	87.81
335.912	86.81
336.14	84.81
336.369	85.81
336.597	80.81
336.825	94.81
337.053	80.81
337.281	83.81
337.51	80.81
337.738	96.81
337.966	104.81
338.194	86.81
338.422	86.81
338.65	90.81
338.878	86.81
339.106	101.81
339.334	84.81
339.562	91.81
339.79	73.81
340.018	88.81
340.246	81.81
340.474	79.81
340.702	98.81
340.93	77.81
341.158	87.81
341.386	83.81
341.614	73.81
341.842	85.81
342.07	94.81
342.298	82.81
342.526	76.81
342.754	80.81
342.981	96.81
343.209	83.81
343.437	89.81
343.665	74.81
343.893	100.81
344.12	106.81
344.348	83.81
344.576	84.81
344.804	79.81
345.031	85.81
345.259	86.81
345.487	95.81
345.714	92.81
345.942	89.81
346.17	94.81
346.397	91.81
346.625	90.81
346.853	95.81
347.08	90.81
347.308	83.81
347.535	87.81
347.763	96.81
347.99	73.81
348.218	90.81
348.445	86.81
348.673	89.81
348.9	89.81
349.128	87.81
349.355	84.81
349.583	90.81
349.81	71.81
350.037	76.81
350.265	83.81
350.492	87.81
350.72	79.81
350.947	76.81
351.174	74.81
351.402	85.81
351.629	85.81
351.856	67.81
352.083	89.81
352.311	85.81
352.538	82.81
352.765	97.81
352.992	93.81
353.22	81.81
353.447	89.81
353.674	89.81
353.901	73.81
354.128	76.81
354.355	88.81
354.583	90.81
354.81	81.81
355.037	85.81
355.264	96.81
355.491	91.81
355.718	81.81
355.945	80.81
356.172	83.81
356.399	75.81
356.626	88.81
356.853	103.81
357.08	108.81
357.307	90.81
357.534	98.81
357.761	102.81
357.988	102.81
358.215	92.81
358.441	94.81
358.668	84.81
358.895	74.81
359.122	89.81
359.349	82.81
359.576	89.81
359.802	85.81
360.029	79.81
360.256	83.81
360.483	89.81
360.709	81.81
360.936	105.81
361.163	96.81
361.39	111.81
361.616	84.81
361.843	102.81
362.07	91.81
362.296	97.81
362.523	96.81
362.749	94.81
362.976	88.81
363.203	116.81
363.429	70.81
363.656	96.81
363.882	99.81
364.109	83.81
364.335	98.81
364.562	88.81
364.788	89.81
365.015	90.81
365.241	101.81
365.468	80.81
365.694	91.81
365.92	93.81
366.147	69.81
366.373	84.81
366.599	86.81
366.826	101.81
367.052	74.81
367.278	92.81
367.505	77.81
367.731	88.81
367.957	87.81
368.184	83.81
368.41	82.81
368.636	90.81
368.862	91.81
369.089	87.81
369.315	102.81
369.541	89.81
369.767	74.81
369.993	66.81
370.219	81.81
370.445	90.81
370.672	107.81
370.898	87.81
371.124	98.81
371.35	94.81
371.576	100.81
371.802	103.81
372.028	96.81
372.254	86.81
372.48	88.81
372.706	87.81
372.932	95.81
373.158	88.81
373.384	104.81
373.61	99.81
373.835	106.81
374.061	95.81
374.287	84.81
374.513	102.81
374.739	98.81
374.965	96.81
375.191	112.81
375.416	89.81
375.642	87.81
375.868	82.81
376.094	92.81
376.319	86.81
376.545	84.81
376.771	93.81
376.997	98.81
377.222	96.81
377.448	91.81
377.674	77.81
377.899	86.81
378.125	83.81
378.35	87.81
378.576	85.81
378.802	94.81
379.027	67.81
379.253	78.81
379.478	90.81
379.704	89.81
379.929	92.81
380.155	78.81
380.38	87.81
380.606	86.81
380.831	71.81
381.057	72.81
381.282	96.81
381.507	90.81
381.733	92.81
381.958	94.81
382.184	98.81
382.409	99.81
382.634	118.81
382.86	106.81
383.085	107.81
383.31	120.81
383.535	106.81
383.761	116.81
383.986	112.81
384.211	104.81
384.436	98.81
384.662	76.81
384.887	96.81
385.112	94.81
385.337	90.81
385.562	81.81
385.787	94.81
386.013	107.81
386.238	110.81
386.463	78.81
386.688	83.81
386.913	103.81
387.138	84.81
387.363	86.81
387.588	86.81
387.813	98.81
388.038	99.81
388.263	82.81
388.488	88.81
388.713	103.81
388.938	100.81
389.163	90.81
389.387	87.81
389.612	97.81
389.837	105.81
390.062	95.81
390.287	102.81
390.512	88.81
390.736	94.81
390.961	84.81
391.186	91.81
391.411	80.81
391.636	90.81
391.86	96.81
392.085	89.81
392.31	98.81
392.534	88.81
392.759	94.81
392.984	116.81
393.208	179.81
393.433	250.81
393.658	193.81
393.882	110.81
394.107	104.81
394.331	100.81
394.556	104.81
394.78	96.81
395.005	90.81
395.229	75.81
395.454	88.81
395.678	101.81
395.903	120.81
396.127	143.81
396.352	137.81
396.576	130.81
396.801	162.81
397.025	204.81
397.249	114.81
397.474	84.81
397.698	94.81
397.922	83.81
398.147	99.81
398.371	97.81
398.595	87.81
398.82	86.81
399.044	87.81
399.268	74.81
399.492	82.81
399.717	82.81
399.941	92.81
400.165	91.81
400.389	80.81
400.613	89.81
400.837	92.81
401.062	93.81
401.286	94.81
401.51	93.81
401.734	89.81
401.958	83.81
402.182	87.81
402.406	82.81
402.63	97.81
402.854	82.81
403.078	88.81
403.302	92.81
403.526	80.81
403.75	94.81
403.974	83.81
404.198	85.81
404.422	81.81
404.645	89.81
404.869	102.81
405.093	75.81
405.317	91.81
405.541	90.81
405.765	79.81
405.988	69.81
406.212	98.81
406.436	107.81
406.66	79.81
406.883	82.81
407.107	84.81
407.331	93.81
407.555	75.81
407.778	98.81
408.002	110.81
408.226	88.81
408.449	88.81
408.673	86.81
408.896	86.81
409.12	86.81
409.344	90.81
409.567	75.81
409.791	82.81
410.014	85.81
410.238	90.81
410.461	79.81
410.685	94.81
410.908	86.81
411.132	87.81
411.355	84.81
411.578	95.81
411.802	87.81
412.025	67.81
412.249	80.81
412.472	71.81
412.695	86.81
412.919	82.81
413.142	95.81
413.365	86.81
413.589	74.81
413.812	84.81
414.035	88.81
414.258	85.81
414.482	80.81
414.705	88.81
414.928	87.81
415.151	67.81
415.374	102.81
415.597	69.81
415.821	75.81
416.044	93.81
416.267	84.81
416.49	80.81
416.713	89.81
416.936	86.81
417.159	87.81
417.382	93.81
417.605	80.81
417.828	76.81
418.051	82.81
418.274	86.81
418.497	94.81
418.72	106.81
418.943	86.81
419.166	93.81
419.389	97.81
419.611	72.81
419.834	91.81
420.057	80.81
420.28	81.81
420.503	90.81
420.726	106.81
420.948	74.81
421.171	85.81
421.394	94.81
421.617	102.81
421.839	83.81
422.062	88.81
422.285	94.81
422.507	130.81
422.73	204.81
422.953	182.81
423.175	102.81
423.398	83.81
423.621	95.81
423.843	93.81
424.066	84.81
424.288	91.81
424.511	99.81
424.733	92.81
424.956	93.81
425.178	91.81
425.401	88.81
425.623	89.81
425.846	85.81
426.068	80.81
426.291	82.81
426.513	86.81
426.735	105.81
426.958	95.81
427.18	81.81
427.402	86.81
427.625	83.81
427.847	88.81
428.069	99.81
428.292	94.81
428.514	100.81
428.736	102.81
428.958	89.81
429.181	106.81
429.403	88.81
429.625	84.81
429.847	93.81
430.069	107.81
430.292	128.81
430.514	128.81
430.736	115.81
430.958	113.81
431.18	83.81
431.402	72.81
431.624	96.81
431.846	100.81
432.068	103.81
432.29	96.81
432.512	95.81
432.734	90.81
432.956	86.81
433.178	82.81
433.4	95.81
433.622	95.81
433.844	95.81
434.066	82.81
434.287	98.81
434.509	85.81
434.731	98.81
434.953	85.81
435.175	86.81
435.397	89.81
435.618	86.81
435.84	88.81
436.062	84.81
436.284	82.81
436.505	82.81
436.727	91.81
436.949	67.81
437.17	82.81
437.392	85.81
437.614	90.81
437.835	90.81
438.057	91.81
438.278	82.81
438.5	97.81
438.721	85.81
438.943	84.81
439.165	87.81
439.386	83.81
439.608	87.81
439.829	86.81
440.05	81.81
440.272	84.81
440.493	78.81
440.715	88.81
440.936	97.81
441.158	80.81
441.379	86.81
441.6	88.81
441.822	78.81
442.043	91.81
442.264	96.81
442.486	97.81
442.707	102.81
442.928	96.81
443.149	92.81
443.371	96.81
443.592	133.81
443.813	132.81
444.034	89.81
444.255	79.81
444.476	88.81
444.698	99.81
444.919	82.81
445.14	140.81
445.361	144.81
445.582	134.81
445.803	132.81
446.024	83.81
446.245	77.81
446.466	66.81
446.687	84.81
446.908	90.81
447.129	78.81
447.35	86.81
447.571	72.81
447.792	93.81
448.013	88.81
448.234	99.81
448.455	85.81
448.675	84.81
448.896	86.81
449.117	78.81
449.338	83.81
449.559	67.81
449.779	88.81
450	91.81
450.221	71.81
450.442	86.81
450.662	88.81
450.883	76.81
451.104	80.81
451.324	88.81
451.545	89.81
451.766	86.81
451.986	96.81
452.207	73.81
452.428	94.81
452.648	91.81
452.869	95.81
453.089	82.81
453.31	90.81
453.53	83.81
453.751	102.81
453.971	82.81
454.192	85.81
454.412	98.81
454.633	78.81
454.853	87.81
455.073	84.81
455.294	86.81
455.514	89.81
455.734	87.81
455.955	86.81
456.175	84.81
456.395	96.81
456.616	94.81
456.836	89.81
457.056	96.81
457.276	76.81
457.497	69.81
457.717	95.81
457.937	82.81
458.157	87.81
458.377	91.81
458.598	94.81
458.818	90.81
459.038	104.81
459.258	73.81
459.478	74.81
459.698	77.81
459.918	90.81
460.138	92.81
460.358	96.81
460.578	89.81
460.798	94.81
461.018	98.81
461.238	87.81
461.458	92.81
461.678	87.81
461.898	98.81
462.118	92.81
462.338	86.81
462.558	81.81
462.777	85.81
462.997	91.81
463.217	71.81
463.437	84.81
463.657	84.81
463.876	76.81
464.096	81.81
464.316	87.81
464.536	83.81
464.755	80.81
464.975	84.81
465.195	76.81
465.414	79.81
465.634	82.81
465.854	86.81
466.073	85.81
466.293	81.81
466.512	94.81
466.732	82.81
466.951	68.81
467.171	80.81
467.391	90.81
467.61	83.81
467.829	87.81
468.049	95.81
468.268	93.81
468.488	85.81
468.707	83.81
468.927	82.81
469.146	66.81
469.365	68.81
469.585	90.81
469.804	85.81
470.023	86.81
470.243	90.81
470.462	88.81
470.681	88.81
470.901	88.81
471.12	82.81
471.339	94.81
471.558	76.81
471.777	83.81
471.997	84.81
472.216	89.81
472.435	86.81
472.654	79.81
472.873	82.81
473.092	84.81
473.311	84.81
473.53	91.81
473.749	83.81
473.968	90.81
474.187	92.81
474.406	89.81
474.625	103.81
474.844	101.81
475.063	89.81
475.282	87.81
475.501	77.81
475.72	80.81
475.939	66.81
476.158	80.81
476.377	84.81
476.596	76.81
476.814	91.81
477.033	76.81
477.252	94.81
477.471	87.81
477.69	82.81
477.908	73.81
478.127	95.81
478.346	78.81
478.564	76.81
478.783	88.81
479.002	88.81
479.22	85.81
479.439	70.81
479.658	80.81
479.876	86.81
480.095	98.81
480.313	83.81
480.532	85.81
480.751	75.81
480.969	83.81
481.188	86.81
481.406	83.81
481.624	92.81
481.843	81.81
482.061	87.81
482.28	86.81
482.498	94.81
482.717	91.81
482.935	90.81
483.153	84.81
483.372	88.81
483.59	70.81
483.808	88.81
484.027	90.81
484.245	74.81
484.463	77.81
484.681	87.81
484.9	82.81
485.118	66.81
485.336	90.81
485.554	82.81
485.772	82.81
485.99	83.81
486.209	78.81
486.427	84.81
486.645	82.81
486.863	85.81
487.081	79.81
487.299	92.81
487.517	91.81
487.735	105.81
487.953	115.81
488.171	94.81
488.389	86.81
488.607	96.81
488.825	99.81
489.043	91.81
489.261	95.81
489.479	87.81
489.696	88.81
489.914	93.81
490.132	93.81
490.35	77.81
490.568	86.81
490.786	85.81
491.003	74.81
491.221	92.81
491.439	75.81
491.657	83.81
491.874	90.81
492.092	88.81
492.31	95.81
492.527	73.81
492.745	83.81
492.963	87.81
493.18	87.81
493.398	86.81
493.615	108.81
493.833	105.81
494.05	77.81
494.268	75.81
494.485	91.81
494.703	93.81
494.92	79.81
495.138	97.81
495.355	68.81
495.573	95.81
495.79	95.81
496.008	101.81
496.225	85.81
496.442	94.81
496.66	78.81
496.877	84.81
497.094	88.81
497.312	88.81
497.529	98.81
497.746	76.81
497.963	87.81
498.181	74.81
498.398	71.81
498.615	91.81
498.832	84.81
499.049	84.81
499.267	77.81
499.484	90.81
499.701	83.81
499.918	97.81
500.135	90.81
500.352	87.81
500.569	85.81
500.786	88.81
501.003	86.81
501.22	85.81
501.437	94.81
501.654	91.81
501.871	71.81
502.088	82.81
502.305	91.81
502.522	80.81
502.739	87.81
502.956	97.81
503.172	80.81
503.389	78.81
503.606	79.81
503.823	96.81
504.04	104.81
504.256	102.81
504.473	103.81
504.69	103.81
504.907	100.81
505.123	79.81
505.34	98.81
505.557	76.81
505.773	78.81
505.99	87.81
506.207	85.81
506.423	75.81
506.64	95.81
506.856	81.81
507.073	82.81
507.289	86.81
507.506	89.81
507.722	80.81
507.939	83.81
508.155	82.81
508.372	88.81
508.588	88.81
508.805	83.81
509.021	92.81
509.238	90.81
509.454	84.81
509.67	86.81
509.887	82.81
510.103	87.81
510.319	86.81
510.536	88.81
510.752	86.81
510.968	89.81
511.184	82.81
511.401	86.81
511.617	91.81
511.833	85.81
512.049	78.81
512.265	81.81
512.481	86.81
512.698	94.81
512.914	73.81
513.13	99.81
513.346	75.81
513.562	88.81
513.778	81.81
513.994	86.81
514.21	68.81
514.426	75.81
514.642	94.81
514.858	82.81
515.074	76.81
515.29	89.81
515.506	81.81
515.721	94.81
515.937	90.81
516.153	82.81
516.369	87.81
516.585	95.81
516.801	101.81
517.016	102.81
517.232	104.81
517.448	114.81
517.664	100.81
517.879	72.81
518.095	92.81
518.311	93.81
518.527	129.81
