Data from 1600_3_HRD10591_00026.txt Node
Date: Mon Jan 19 13:55:06 EST 2026
User: Yrep
Spectrometer: HR+D1059
Trigger mode: 1
Integration Time (sec): 1.000000E-1
Scans to average: 1
Electric dark correction enabled: true
Nonlinearity correction enabled: false
Boxcar width: 0
XAxis mode: Wavelengths
Number of Pixels in Spectrum: 2048
>>>>>Begin Spectral Data<<<<<
223.165	-13.38
223.4	-13.38
223.635	-13.38
223.869	-26.38
224.104	-14.38
224.338	-9.38
224.573	-5.38
224.808	-21.38
225.042	-11.38
225.277	-9.38
225.511	-8.38
225.746	-8.38
225.98	19.62
226.215	14.62
226.449	13.62
226.683	12.62
226.918	32.62
227.152	34.62
227.387	36.62
227.621	48.62
227.856	45.62
228.09	49.62
228.324	63.62
228.559	69.62
228.793	46.62
229.027	61.62
229.262	49.62
229.496	64.62
229.73	73.62
229.964	58.62
230.199	67.62
230.433	78.62
230.667	78.62
230.901	87.62
231.136	66.62
231.37	89.62
231.604	83.62
231.838	85.62
232.072	67.62
232.306	72.62
232.541	93.62
232.775	76.62
233.009	73.62
233.243	75.62
233.477	75.62
233.711	84.62
233.945	85.62
234.179	86.62
234.413	91.62
234.647	79.62
234.881	75.62
235.115	76.62
235.349	69.62
235.583	71.62
235.817	76.62
236.051	66.62
236.285	83.62
236.519	74.62
236.753	73.62
236.987	71.62
237.221	77.62
237.455	75.62
237.689	86.62
237.922	83.62
238.156	78.62
238.39	71.62
238.624	71.62
238.858	86.62
239.091	78.62
239.325	73.62
239.559	75.62
239.793	68.62
240.027	68.62
240.26	64.62
240.494	76.62
240.728	86.62
240.961	79.62
241.195	63.62
241.429	79.62
241.662	73.62
241.896	84.62
242.13	67.62
242.363	75.62
242.597	70.62
242.83	83.62
243.064	79.62
243.298	85.62
243.531	80.62
243.765	86.62
243.998	61.62
244.232	74.62
244.465	73.62
244.699	90.62
244.932	66.62
245.166	87.62
245.399	74.62
245.633	80.62
245.866	82.62
246.099	73.62
246.333	67.62
246.566	67.62
246.8	80.62
247.033	84.62
247.266	82.62
247.5	92.62
247.733	65.62
247.966	70.62
248.2	75.62
248.433	72.62
248.666	81.62
248.899	90.62
249.133	86.62
249.366	90.62
249.599	73.62
249.832	83.62
250.066	86.62
250.299	72.62
250.532	82.62
250.765	86.62
250.998	76.62
251.231	77.62
251.465	84.62
251.698	79.62
251.931	95.62
252.164	80.62
252.397	89.62
252.63	90.62
252.863	82.62
253.096	75.62
253.329	82.62
253.562	84.62
253.795	67.62
254.028	86.62
254.261	66.62
254.494	75.62
254.727	75.62
254.96	80.62
255.193	74.62
255.426	76.62
255.659	73.62
255.892	72.62
256.124	74.62
256.357	80.62
256.59	73.62
256.823	69.62
257.056	83.62
257.289	71.62
257.521	81.62
257.754	93.62
257.987	67.62
258.22	85.62
258.452	74.62
258.685	84.62
258.918	76.62
259.151	81.62
259.383	93.62
259.616	83.62
259.849	87.62
260.081	86.62
260.314	95.62
260.547	81.62
260.779	82.62
261.012	86.62
261.244	74.62
261.477	83.62
261.71	79.62
261.942	76.62
262.175	72.62
262.407	87.62
262.64	71.62
262.872	71.62
263.105	82.62
263.337	93.62
263.57	96.62
263.802	80.62
264.035	81.62
264.267	89.62
264.499	78.62
264.732	101.62
264.964	71.62
265.197	92.62
265.429	82.62
265.661	92.62
265.894	80.62
266.126	81.62
266.358	101.62
266.591	77.62
266.823	80.62
267.055	89.62
267.287	94.62
267.52	83.62
267.752	79.62
267.984	77.62
268.216	75.62
268.448	94.62
268.681	87.62
268.913	87.62
269.145	75.62
269.377	73.62
269.609	88.62
269.841	81.62
270.073	78.62
270.306	84.62
270.538	86.62
270.77	78.62
271.002	78.62
271.234	91.62
271.466	81.62
271.698	71.62
271.93	76.62
272.162	77.62
272.394	93.62
272.626	86.62
272.858	87.62
273.09	84.62
273.322	73.62
273.553	85.62
273.785	88.62
274.017	105.62
274.249	91.62
274.481	86.62
274.713	75.62
274.945	75.62
275.176	76.62
275.408	91.62
275.64	70.62
275.872	76.62
276.104	91.62
276.335	86.62
276.567	72.62
276.799	86.62
277.031	76.62
277.262	69.62
277.494	95.62
277.726	87.62
277.957	89.62
278.189	91.62
278.421	79.62
278.652	69.62
278.884	75.62
279.115	92.62
279.347	81.62
279.579	97.62
279.81	85.62
280.042	96.62
280.273	67.62
280.505	100.62
280.736	82.62
280.968	69.62
281.199	87.62
281.431	82.62
281.662	75.62
281.894	66.62
282.125	75.62
282.356	87.62
282.588	91.62
282.819	81.62
283.051	82.62
283.282	80.62
283.513	79.62
283.745	85.62
283.976	92.62
284.207	79.62
284.439	87.62
284.67	85.62
284.901	90.62
285.132	85.62
285.364	98.62
285.595	78.62
285.826	74.62
286.057	96.62
286.288	83.62
286.52	76.62
286.751	101.62
286.982	97.62
287.213	84.62
287.444	87.62
287.675	78.62
287.906	68.62
288.138	84.62
288.369	83.62
288.6	75.62
288.831	93.62
289.062	91.62
289.293	89.62
289.524	91.62
289.755	85.62
289.986	78.62
290.217	97.62
290.448	82.62
290.679	82.62
290.91	88.62
291.141	95.62
291.371	91.62
291.602	78.62
291.833	81.62
292.064	88.62
292.295	87.62
292.526	65.62
292.757	76.62
292.987	104.62
293.218	85.62
293.449	75.62
293.68	81.62
293.91	83.62
294.141	83.62
294.372	93.62
294.603	102.62
294.833	88.62
295.064	81.62
295.295	89.62
295.525	87.62
295.756	91.62
295.987	95.62
296.217	90.62
296.448	81.62
296.679	86.62
296.909	106.62
297.14	90.62
297.37	97.62
297.601	82.62
297.831	91.62
298.062	86.62
298.292	82.62
298.523	91.62
298.753	81.62
298.984	81.62
299.214	84.62
299.445	93.62
299.675	97.62
299.905	96.62
300.136	93.62
300.366	67.62
300.597	89.62
300.827	76.62
301.057	74.62
301.288	88.62
301.518	87.62
301.748	85.62
301.979	103.62
302.209	88.62
302.439	90.62
302.669	69.62
302.9	74.62
303.13	87.62
303.36	87.62
303.59	93.62
303.82	79.62
304.051	83.62
304.281	81.62
304.511	88.62
304.741	84.62
304.971	87.62
305.201	83.62
305.431	100.62
305.661	91.62
305.891	80.62
306.121	101.62
306.352	87.62
306.582	75.62
306.812	84.62
307.042	83.62
307.272	89.62
307.502	81.62
307.731	83.62
307.961	87.62
308.191	92.62
308.421	88.62
308.651	82.62
308.881	87.62
309.111	95.62
309.341	98.62
309.571	75.62
309.8	95.62
310.03	99.62
310.26	76.62
310.49	68.62
310.72	83.62
310.949	80.62
311.179	85.62
311.409	91.62
311.639	83.62
311.868	89.62
312.098	83.62
312.328	80.62
312.557	84.62
312.787	77.62
313.017	82.62
313.246	83.62
313.476	84.62
313.706	103.62
313.935	91.62
314.165	97.62
314.394	99.62
314.624	91.62
314.853	90.62
315.083	97.62
315.312	87.62
315.542	93.62
315.771	86.62
316.001	98.62
316.23	92.62
316.46	89.62
316.689	87.62
316.919	87.62
317.148	89.62
317.377	84.62
317.607	85.62
317.836	81.62
318.065	89.62
318.295	71.62
318.524	77.62
318.753	82.62
318.983	85.62
319.212	85.62
319.441	86.62
319.67	80.62
319.9	86.62
320.129	81.62
320.358	84.62
320.587	83.62
320.816	96.62
321.046	90.62
321.275	101.62
321.504	89.62
321.733	89.62
321.962	80.62
322.191	83.62
322.42	75.62
322.649	89.62
322.878	71.62
323.108	98.62
323.337	81.62
323.566	72.62
323.795	93.62
324.024	74.62
324.253	94.62
324.482	71.62
324.71	81.62
324.939	85.62
325.168	87.62
325.397	98.62
325.626	89.62
325.855	86.62
326.084	81.62
326.313	91.62
326.542	88.62
326.77	85.62
326.999	85.62
327.228	73.62
327.457	83.62
327.686	77.62
327.914	89.62
328.143	86.62
328.372	89.62
328.6	80.62
328.829	79.62
329.058	82.62
329.287	75.62
329.515	90.62
329.744	89.62
329.972	61.62
330.201	93.62
330.43	84.62
330.658	83.62
330.887	74.62
331.115	79.62
331.344	88.62
331.572	85.62
331.801	80.62
332.03	103.62
332.258	87.62
332.486	89.62
332.715	89.62
332.943	90.62
333.172	91.62
333.4	87.62
333.629	80.62
333.857	79.62
334.085	94.62
334.314	101.62
334.542	73.62
334.771	76.62
334.999	82.62
335.227	96.62
335.455	103.62
335.684	104.62
335.912	86.62
336.14	82.62
336.369	82.62
336.597	87.62
336.825	76.62
337.053	73.62
337.281	97.62
337.51	76.62
337.738	90.62
337.966	75.62
338.194	77.62
338.422	79.62
338.65	86.62
338.878	80.62
339.106	97.62
339.334	82.62
339.562	87.62
339.79	82.62
340.018	106.62
340.246	69.62
340.474	97.62
340.702	85.62
340.93	94.62
341.158	95.62
341.386	86.62
341.614	87.62
341.842	73.62
342.07	81.62
342.298	75.62
342.526	81.62
342.754	81.62
342.981	96.62
343.209	75.62
343.437	114.62
343.665	101.62
343.893	97.62
344.12	92.62
344.348	87.62
344.576	83.62
344.804	80.62
345.031	77.62
345.259	82.62
345.487	79.62
345.714	81.62
345.942	79.62
346.17	82.62
346.397	79.62
346.625	89.62
346.853	92.62
347.08	85.62
347.308	90.62
347.535	76.62
347.763	81.62
347.99	82.62
348.218	97.62
348.445	104.62
348.673	87.62
348.9	93.62
349.128	97.62
349.355	97.62
349.583	84.62
349.81	84.62
350.037	91.62
350.265	79.62
350.492	80.62
350.72	79.62
350.947	87.62
351.174	86.62
351.402	95.62
351.629	90.62
351.856	88.62
352.083	85.62
352.311	91.62
352.538	74.62
352.765	69.62
352.992	85.62
353.22	79.62
353.447	76.62
353.674	97.62
353.901	95.62
354.128	89.62
354.355	90.62
354.583	81.62
354.81	91.62
355.037	82.62
355.264	87.62
355.491	88.62
355.718	69.62
355.945	72.62
356.172	97.62
356.399	94.62
356.626	98.62
356.853	86.62
357.08	82.62
357.307	77.62
357.534	84.62
357.761	86.62
357.988	93.62
358.215	98.62
358.441	94.62
358.668	95.62
358.895	93.62
359.122	100.62
359.349	82.62
359.576	90.62
359.802	79.62
360.029	80.62
360.256	83.62
360.483	96.62
360.709	85.62
360.936	98.62
361.163	97.62
361.39	74.62
361.616	100.62
361.843	87.62
362.07	90.62
362.296	90.62
362.523	90.62
362.749	70.62
362.976	84.62
363.203	79.62
363.429	81.62
363.656	82.62
363.882	91.62
364.109	106.62
364.335	81.62
364.562	85.62
364.788	76.62
365.015	98.62
365.241	101.62
365.468	80.62
365.694	84.62
365.92	90.62
366.147	96.62
366.373	73.62
366.599	81.62
366.826	96.62
367.052	80.62
367.278	86.62
367.505	89.62
367.731	95.62
367.957	79.62
368.184	81.62
368.41	95.62
368.636	93.62
368.862	84.62
369.089	82.62
369.315	80.62
369.541	103.62
369.767	67.62
369.993	85.62
370.219	97.62
370.445	80.62
370.672	76.62
370.898	77.62
371.124	83.62
371.35	90.62
371.576	79.62
371.802	85.62
372.028	87.62
372.254	101.62
372.48	83.62
372.706	83.62
372.932	84.62
373.158	91.62
373.384	89.62
373.61	80.62
373.835	94.62
374.061	86.62
374.287	80.62
374.513	99.62
374.739	88.62
374.965	90.62
375.191	100.62
375.416	85.62
375.642	75.62
375.868	90.62
376.094	86.62
376.319	81.62
376.545	89.62
376.771	90.62
376.997	86.62
377.222	89.62
377.448	65.62
377.674	70.62
377.899	88.62
378.125	81.62
378.35	75.62
378.576	95.62
378.802	79.62
379.027	87.62
379.253	104.62
379.478	71.62
379.704	86.62
379.929	74.62
380.155	78.62
380.38	79.62
380.606	105.62
380.831	99.62
381.057	84.62
381.282	79.62
381.507	76.62
381.733	89.62
381.958	95.62
382.184	75.62
382.409	80.62
382.634	90.62
382.86	97.62
383.085	87.62
383.31	81.62
383.535	79.62
383.761	82.62
383.986	74.62
384.211	80.62
384.436	89.62
384.662	88.62
384.887	89.62
385.112	81.62
385.337	87.62
385.562	85.62
385.787	65.62
386.013	88.62
386.238	79.62
386.463	87.62
386.688	93.62
386.913	88.62
387.138	72.62
387.363	67.62
387.588	94.62
387.813	79.62
388.038	85.62
388.263	71.62
388.488	85.62
388.713	71.62
388.938	90.62
389.163	73.62
389.387	91.62
389.612	85.62
389.837	95.62
390.062	82.62
390.287	84.62
390.512	93.62
390.736	76.62
390.961	83.62
391.186	84.62
391.411	80.62
391.636	76.62
391.86	92.62
392.085	80.62
392.31	85.62
392.534	76.62
392.759	81.62
392.984	103.62
393.208	127.62
393.433	132.62
393.658	110.62
393.882	93.62
394.107	93.62
394.331	89.62
394.556	85.62
394.78	80.62
395.005	83.62
395.229	76.62
395.454	80.62
395.678	82.62
395.903	79.62
396.127	100.62
396.352	95.62
396.576	103.62
396.801	118.62
397.025	109.62
397.249	93.62
397.474	98.62
397.698	83.62
397.922	87.62
398.147	80.62
398.371	65.62
398.595	86.62
398.82	72.62
399.044	75.62
399.268	65.62
399.492	83.62
399.717	77.62
399.941	80.62
400.165	89.62
400.389	80.62
400.613	80.62
400.837	85.62
401.062	79.62
401.286	81.62
401.51	86.62
401.734	81.62
401.958	79.62
402.182	84.62
402.406	83.62
402.63	67.62
402.854	86.62
403.078	88.62
403.302	74.62
403.526	93.62
403.75	77.62
403.974	80.62
404.198	84.62
404.422	86.62
404.645	87.62
404.869	74.62
405.093	73.62
405.317	88.62
405.541	84.62
405.765	74.62
405.988	74.62
406.212	84.62
406.436	90.62
406.66	87.62
406.883	69.62
407.107	79.62
407.331	89.62
407.555	83.62
407.778	86.62
408.002	85.62
408.226	98.62
408.449	89.62
408.673	80.62
408.896	73.62
409.12	76.62
409.344	82.62
409.567	79.62
409.791	84.62
410.014	89.62
410.238	83.62
410.461	66.62
410.685	72.62
410.908	81.62
411.132	79.62
411.355	75.62
411.578	92.62
411.802	79.62
412.025	89.62
412.249	87.62
412.472	85.62
412.695	75.62
412.919	86.62
413.142	79.62
413.365	78.62
413.589	98.62
413.812	82.62
414.035	95.62
414.258	72.62
414.482	75.62
414.705	86.62
414.928	83.62
415.151	87.62
415.374	83.62
415.597	74.62
415.821	92.62
416.044	85.62
416.267	77.62
416.49	79.62
416.713	81.62
416.936	69.62
417.159	87.62
417.382	91.62
417.605	89.62
417.828	89.62
418.051	86.62
418.274	70.62
418.497	74.62
418.72	84.62
418.943	69.62
419.166	92.62
419.389	80.62
419.611	81.62
419.834	83.62
420.057	84.62
420.28	75.62
420.503	87.62
420.726	82.62
420.948	93.62
421.171	79.62
421.394	84.62
421.617	74.62
421.839	83.62
422.062	93.62
422.285	93.62
422.507	109.62
422.73	125.62
422.953	125.62
423.175	69.62
423.398	89.62
423.621	100.62
423.843	78.62
424.066	87.62
424.288	74.62
424.511	80.62
424.733	87.62
424.956	78.62
425.178	78.62
425.401	93.62
425.623	86.62
425.846	73.62
426.068	87.62
426.291	73.62
426.513	78.62
426.735	72.62
426.958	67.62
427.18	70.62
427.402	82.62
427.625	80.62
427.847	71.62
428.069	92.62
428.292	91.62
428.514	87.62
428.736	91.62
428.958	61.62
429.181	87.62
429.403	77.62
429.625	65.62
429.847	83.62
430.069	89.62
430.292	98.62
430.514	95.62
430.736	88.62
430.958	105.62
431.18	69.62
431.402	73.62
431.624	93.62
431.846	82.62
432.068	98.62
432.29	83.62
432.512	75.62
432.734	76.62
432.956	81.62
433.178	98.62
433.4	85.62
433.622	68.62
433.844	61.62
434.066	85.62
434.287	71.62
434.509	78.62
434.731	72.62
434.953	87.62
435.175	85.62
435.397	93.62
435.618	87.62
435.84	61.62
436.062	93.62
436.284	93.62
436.505	80.62
436.727	69.62
436.949	72.62
437.17	74.62
437.392	82.62
437.614	78.62
437.835	83.62
438.057	88.62
438.278	65.62
438.5	89.62
438.721	89.62
438.943	79.62
439.165	81.62
439.386	72.62
439.608	99.62
439.829	65.62
440.05	82.62
440.272	73.62
440.493	80.62
440.715	73.62
440.936	74.62
441.158	89.62
441.379	80.62
441.6	83.62
441.822	91.62
442.043	79.62
442.264	75.62
442.486	73.62
442.707	85.62
442.928	84.62
443.149	84.62
443.371	90.62
443.592	91.62
443.813	84.62
444.034	87.62
444.255	90.62
444.476	76.62
444.698	73.62
444.919	79.62
445.14	129.62
445.361	122.62
445.582	88.62
445.803	87.62
446.024	91.62
446.245	84.62
446.466	90.62
446.687	78.62
446.908	78.62
447.129	82.62
447.35	85.62
447.571	84.62
447.792	94.62
448.013	80.62
448.234	92.62
448.455	84.62
448.675	83.62
448.896	71.62
449.117	78.62
449.338	79.62
449.559	78.62
449.779	78.62
450	78.62
450.221	91.62
450.442	78.62
450.662	70.62
450.883	89.62
451.104	87.62
451.324	77.62
451.545	85.62
451.766	82.62
451.986	92.62
452.207	101.62
452.428	79.62
452.648	88.62
452.869	72.62
453.089	79.62
453.31	82.62
453.53	74.62
453.751	82.62
453.971	81.62
454.192	83.62
454.412	75.62
454.633	83.62
454.853	91.62
455.073	86.62
455.294	90.62
455.514	77.62
455.734	95.62
455.955	84.62
456.175	92.62
456.395	83.62
456.616	81.62
456.836	68.62
457.056	86.62
457.276	73.62
457.497	71.62
457.717	72.62
457.937	69.62
458.157	70.62
458.377	69.62
458.598	72.62
458.818	83.62
459.038	85.62
459.258	78.62
459.478	66.62
459.698	78.62
459.918	69.62
460.138	83.62
460.358	92.62
460.578	78.62
460.798	82.62
461.018	98.62
461.238	78.62
461.458	85.62
461.678	73.62
461.898	85.62
462.118	85.62
462.338	95.62
462.558	82.62
462.777	79.62
462.997	82.62
463.217	68.62
463.437	75.62
463.657	78.62
463.876	77.62
464.096	85.62
464.316	87.62
464.536	75.62
464.755	97.62
464.975	86.62
465.195	66.62
465.414	74.62
465.634	78.62
465.854	74.62
466.073	78.62
466.293	81.62
466.512	74.62
466.732	75.62
466.951	83.62
467.171	93.62
467.391	90.62
467.61	88.62
467.829	84.62
468.049	79.62
468.268	87.62
468.488	85.62
468.707	91.62
468.927	91.62
469.146	72.62
469.365	89.62
469.585	80.62
469.804	88.62
470.023	79.62
470.243	88.62
470.462	66.62
470.681	82.62
470.901	79.62
471.12	88.62
471.339	75.62
471.558	78.62
471.777	89.62
471.997	95.62
472.216	82.62
472.435	73.62
472.654	82.62
472.873	75.62
473.092	77.62
473.311	77.62
473.53	85.62
473.749	73.62
473.968	82.62
474.187	90.62
474.406	88.62
474.625	77.62
474.844	76.62
475.063	82.62
475.282	76.62
475.501	74.62
475.72	71.62
475.939	89.62
476.158	79.62
476.377	60.62
476.596	79.62
476.814	91.62
477.033	78.62
477.252	71.62
477.471	80.62
477.69	84.62
477.908	91.62
478.127	83.62
478.346	81.62
478.564	86.62
478.783	82.62
479.002	74.62
479.22	81.62
479.439	83.62
479.658	80.62
479.876	73.62
480.095	71.62
480.313	72.62
480.532	88.62
480.751	66.62
480.969	86.62
481.188	79.62
481.406	68.62
481.624	68.62
481.843	79.62
482.061	81.62
482.28	71.62
482.498	83.62
482.717	85.62
482.935	59.62
483.153	77.62
483.372	72.62
483.59	99.62
483.808	80.62
484.027	79.62
484.245	82.62
484.463	87.62
484.681	91.62
484.9	86.62
485.118	85.62
485.336	89.62
485.554	78.62
485.772	88.62
485.99	75.62
486.209	85.62
486.427	85.62
486.645	82.62
486.863	74.62
487.081	81.62
487.299	78.62
487.517	73.62
487.735	85.62
487.953	85.62
488.171	94.62
488.389	99.62
488.607	71.62
488.825	81.62
489.043	82.62
489.261	95.62
489.479	81.62
489.696	100.62
489.914	80.62
490.132	85.62
490.35	92.62
490.568	74.62
490.786	74.62
491.003	87.62
491.221	77.62
491.439	93.62
491.657	68.62
491.874	82.62
492.092	75.62
492.31	96.62
492.527	88.62
492.745	88.62
492.963	80.62
493.18	83.62
493.398	89.62
493.615	82.62
493.833	82.62
494.05	74.62
494.268	68.62
494.485	92.62
494.703	72.62
494.92	77.62
495.138	92.62
495.355	90.62
495.573	95.62
495.79	88.62
496.008	85.62
496.225	91.62
496.442	74.62
496.66	87.62
496.877	86.62
497.094	82.62
497.312	88.62
497.529	85.62
497.746	97.62
497.963	81.62
498.181	79.62
498.398	83.62
498.615	82.62
498.832	94.62
499.049	87.62
499.267	83.62
499.484	87.62
499.701	93.62
499.918	75.62
500.135	75.62
500.352	89.62
500.569	77.62
500.786	74.62
501.003	78.62
501.22	67.62
501.437	88.62
501.654	94.62
501.871	81.62
502.088	104.62
502.305	95.62
502.522	76.62
502.739	92.62
502.956	76.62
503.172	86.62
503.389	78.62
503.606	82.62
503.823	85.62
504.04	92.62
504.256	77.62
504.473	89.62
504.69	83.62
504.907	79.62
505.123	75.62
505.34	79.62
505.557	72.62
505.773	83.62
505.99	87.62
506.207	76.62
506.423	85.62
506.64	82.62
506.856	73.62
507.073	85.62
507.289	89.62
507.506	86.62
507.722	88.62
507.939	95.62
508.155	81.62
508.372	88.62
508.588	83.62
508.805	82.62
509.021	86.62
509.238	86.62
509.454	88.62
509.67	81.62
509.887	85.62
510.103	89.62
510.319	72.62
510.536	84.62
510.752	75.62
510.968	83.62
511.184	69.62
511.401	76.62
511.617	91.62
511.833	90.62
512.049	80.62
512.265	73.62
512.481	73.62
512.698	87.62
512.914	84.62
513.13	99.62
513.346	81.62
513.562	73.62
513.778	75.62
513.994	74.62
514.21	85.62
514.426	77.62
514.642	86.62
514.858	90.62
515.074	81.62
515.29	95.62
515.506	87.62
515.721	80.62
515.937	93.62
516.153	84.62
516.369	88.62
516.585	70.62
516.801	84.62
517.016	82.62
517.232	87.62
517.448	111.62
517.664	74.62
517.879	81.62
518.095	92.62
518.311	97.62
518.527	82.62
518.742	95.62
518.958	105.62
519.173	83.62
519.389	79.62
519.605	84.62
