Data from 1600_3_HRD10591_00039.txt Node
Date: Mon Jan 19 13:55:12 EST 2026
User: Yrep
Spectrometer: HR+D1059
Trigger mode: 1
Integration Time (sec): 1.000000E-1
Scans to average: 1
Electric dark correction enabled: true
Nonlinearity correction enabled: false
Boxcar width: 0
XAxis mode: Wavelengths
Number of Pixels in Spectrum: 2048
>>>>>Begin Spectral Data<<<<<
223.165	-27.25
223.4	-27.25
223.635	-27.25
223.869	-21.25
224.104	-18.25
224.338	1.75
224.573	-20.25
224.808	-20.25
225.042	-6.25
225.277	-7.25
225.511	8.75
225.746	-3.25
225.98	8.75
226.215	14.75
226.449	18.75
226.683	22.75
226.918	18.75
227.152	29.75
227.387	40.75
227.621	34.75
227.856	31.75
228.09	45.75
228.324	59.75
228.559	71.75
228.793	41.75
229.027	61.75
229.262	68.75
229.496	71.75
229.73	67.75
229.964	73.75
230.199	77.75
230.433	81.75
230.667	77.75
230.901	88.75
231.136	69.75
231.37	87.75
231.604	72.75
231.838	91.75
232.072	88.75
232.306	85.75
232.541	84.75
232.775	76.75
233.009	83.75
233.243	77.75
233.477	78.75
233.711	76.75
233.945	79.75
234.179	78.75
234.413	75.75
234.647	76.75
234.881	81.75
235.115	81.75
235.349	87.75
235.583	72.75
235.817	71.75
236.051	70.75
236.285	79.75
236.519	66.75
236.753	81.75
236.987	71.75
237.221	76.75
237.455	71.75
237.689	88.75
237.922	79.75
238.156	86.75
238.39	72.75
238.624	75.75
238.858	96.75
239.091	80.75
239.325	64.75
239.559	75.75
239.793	63.75
240.027	97.75
240.26	65.75
240.494	73.75
240.728	91.75
240.961	70.75
241.195	99.75
241.429	62.75
241.662	66.75
241.896	76.75
242.13	67.75
242.363	74.75
242.597	65.75
242.83	86.75
243.064	79.75
243.298	74.75
243.531	81.75
243.765	89.75
243.998	78.75
244.232	69.75
244.465	77.75
244.699	73.75
244.932	74.75
245.166	84.75
245.399	83.75
245.633	71.75
245.866	85.75
246.099	72.75
246.333	72.75
246.566	77.75
246.8	74.75
247.033	76.75
247.266	84.75
247.5	80.75
247.733	88.75
247.966	76.75
248.2	85.75
248.433	77.75
248.666	78.75
248.899	74.75
249.133	83.75
249.366	82.75
249.599	88.75
249.832	77.75
250.066	79.75
250.299	75.75
250.532	75.75
250.765	79.75
250.998	91.75
251.231	94.75
251.465	79.75
251.698	90.75
251.931	94.75
252.164	87.75
252.397	77.75
252.63	91.75
252.863	67.75
253.096	87.75
253.329	72.75
253.562	82.75
253.795	88.75
254.028	83.75
254.261	94.75
254.494	84.75
254.727	84.75
254.96	72.75
255.193	85.75
255.426	88.75
255.659	82.75
255.892	80.75
256.124	89.75
256.357	76.75
256.59	83.75
256.823	83.75
257.056	80.75
257.289	75.75
257.521	68.75
257.754	76.75
257.987	81.75
258.22	83.75
258.452	78.75
258.685	80.75
258.918	81.75
259.151	74.75
259.383	71.75
259.616	81.75
259.849	79.75
260.081	78.75
260.314	67.75
260.547	83.75
260.779	80.75
261.012	83.75
261.244	81.75
261.477	78.75
261.71	70.75
261.942	92.75
262.175	65.75
262.407	78.75
262.64	77.75
262.872	81.75
263.105	85.75
263.337	85.75
263.57	79.75
263.802	92.75
264.035	89.75
264.267	76.75
264.499	80.75
264.732	84.75
264.964	88.75
265.197	72.75
265.429	103.75
265.661	97.75
265.894	85.75
266.126	88.75
266.358	71.75
266.591	81.75
266.823	78.75
267.055	86.75
267.287	86.75
267.52	87.75
267.752	60.75
267.984	75.75
268.216	81.75
268.448	99.75
268.681	97.75
268.913	83.75
269.145	73.75
269.377	75.75
269.609	81.75
269.841	83.75
270.073	78.75
270.306	101.75
270.538	100.75
270.77	80.75
271.002	83.75
271.234	88.75
271.466	91.75
271.698	88.75
271.93	77.75
272.162	77.75
272.394	70.75
272.626	93.75
272.858	93.75
273.09	79.75
273.322	65.75
273.553	100.75
273.785	83.75
274.017	88.75
274.249	96.75
274.481	87.75
274.713	65.75
274.945	68.75
275.176	89.75
275.408	83.75
275.64	85.75
275.872	87.75
276.104	75.75
276.335	87.75
276.567	78.75
276.799	76.75
277.031	91.75
277.262	84.75
277.494	72.75
277.726	86.75
277.957	75.75
278.189	83.75
278.421	77.75
278.652	77.75
278.884	90.75
279.115	93.75
279.347	87.75
279.579	101.75
279.81	104.75
280.042	77.75
280.273	75.75
280.505	89.75
280.736	80.75
280.968	97.75
281.199	69.75
281.431	81.75
281.662	93.75
281.894	97.75
282.125	93.75
282.356	74.75
282.588	79.75
282.819	95.75
283.051	69.75
283.282	93.75
283.513	85.75
283.745	91.75
283.976	87.75
284.207	73.75
284.439	82.75
284.67	87.75
284.901	78.75
285.132	100.75
285.364	113.75
285.595	87.75
285.826	83.75
286.057	85.75
286.288	89.75
286.52	82.75
286.751	77.75
286.982	88.75
287.213	80.75
287.444	78.75
287.675	76.75
287.906	88.75
288.138	91.75
288.369	95.75
288.6	91.75
288.831	85.75
289.062	101.75
289.293	72.75
289.524	88.75
289.755	73.75
289.986	74.75
290.217	93.75
290.448	85.75
290.679	86.75
290.91	95.75
291.141	74.75
291.371	82.75
291.602	72.75
291.833	70.75
292.064	70.75
292.295	78.75
292.526	71.75
292.757	82.75
292.987	81.75
293.218	84.75
293.449	88.75
293.68	99.75
293.91	75.75
294.141	70.75
294.372	88.75
294.603	88.75
294.833	75.75
295.064	88.75
295.295	73.75
295.525	73.75
295.756	91.75
295.987	79.75
296.217	89.75
296.448	88.75
296.679	66.75
296.909	77.75
297.14	84.75
297.37	79.75
297.601	71.75
297.831	73.75
298.062	81.75
298.292	88.75
298.523	98.75
298.753	91.75
298.984	75.75
299.214	82.75
299.445	77.75
299.675	95.75
299.905	82.75
300.136	86.75
300.366	86.75
300.597	92.75
300.827	95.75
301.057	83.75
301.288	71.75
301.518	81.75
301.748	75.75
301.979	110.75
302.209	88.75
302.439	79.75
302.669	85.75
302.9	73.75
303.13	86.75
303.36	87.75
303.59	71.75
303.82	61.75
304.051	86.75
304.281	89.75
304.511	96.75
304.741	86.75
304.971	82.75
305.201	83.75
305.431	88.75
305.661	81.75
305.891	83.75
306.121	89.75
306.352	88.75
306.582	73.75
306.812	80.75
307.042	84.75
307.272	93.75
307.502	96.75
307.731	85.75
307.961	94.75
308.191	101.75
308.421	104.75
308.651	93.75
308.881	69.75
309.111	93.75
309.341	97.75
309.571	100.75
309.8	83.75
310.03	101.75
310.26	60.75
310.49	82.75
310.72	76.75
310.949	98.75
311.179	90.75
311.409	82.75
311.639	100.75
311.868	100.75
312.098	79.75
312.328	78.75
312.557	75.75
312.787	84.75
313.017	91.75
313.246	69.75
313.476	82.75
313.706	81.75
313.935	80.75
314.165	95.75
314.394	92.75
314.624	87.75
314.853	89.75
315.083	92.75
315.312	91.75
315.542	86.75
315.771	107.75
316.001	76.75
316.23	97.75
316.46	73.75
316.689	83.75
316.919	79.75
317.148	91.75
317.377	84.75
317.607	112.75
317.836	81.75
318.065	96.75
318.295	96.75
318.524	87.75
318.753	86.75
318.983	69.75
319.212	78.75
319.441	74.75
319.67	93.75
319.9	87.75
320.129	81.75
320.358	85.75
320.587	83.75
320.816	83.75
321.046	80.75
321.275	92.75
321.504	88.75
321.733	81.75
321.962	75.75
322.191	80.75
322.42	73.75
322.649	108.75
322.878	95.75
323.108	96.75
323.337	88.75
323.566	83.75
323.795	85.75
324.024	83.75
324.253	73.75
324.482	77.75
324.71	84.75
324.939	88.75
325.168	94.75
325.397	88.75
325.626	77.75
325.855	87.75
326.084	73.75
326.313	81.75
326.542	87.75
326.77	80.75
326.999	79.75
327.228	90.75
327.457	77.75
327.686	82.75
327.914	89.75
328.143	85.75
328.372	81.75
328.6	78.75
328.829	85.75
329.058	83.75
329.287	99.75
329.515	88.75
329.744	73.75
329.972	87.75
330.201	87.75
330.43	89.75
330.658	85.75
330.887	88.75
331.115	83.75
331.344	84.75
331.572	84.75
331.801	102.75
332.03	85.75
332.258	83.75
332.486	73.75
332.715	85.75
332.943	85.75
333.172	88.75
333.4	80.75
333.629	78.75
333.857	84.75
334.085	70.75
334.314	89.75
334.542	75.75
334.771	75.75
334.999	76.75
335.227	80.75
335.455	83.75
335.684	86.75
335.912	88.75
336.14	101.75
336.369	89.75
336.597	94.75
336.825	89.75
337.053	84.75
337.281	93.75
337.51	89.75
337.738	75.75
337.966	79.75
338.194	88.75
338.422	91.75
338.65	85.75
338.878	85.75
339.106	87.75
339.334	87.75
339.562	81.75
339.79	88.75
340.018	88.75
340.246	73.75
340.474	79.75
340.702	78.75
340.93	85.75
341.158	75.75
341.386	84.75
341.614	79.75
341.842	87.75
342.07	81.75
342.298	93.75
342.526	80.75
342.754	88.75
342.981	81.75
343.209	84.75
343.437	89.75
343.665	77.75
343.893	96.75
344.12	94.75
344.348	85.75
344.576	83.75
344.804	95.75
345.031	85.75
345.259	84.75
345.487	87.75
345.714	81.75
345.942	67.75
346.17	81.75
346.397	79.75
346.625	81.75
346.853	85.75
347.08	89.75
347.308	86.75
347.535	85.75
347.763	87.75
347.99	85.75
348.218	80.75
348.445	82.75
348.673	85.75
348.9	107.75
349.128	75.75
349.355	68.75
349.583	79.75
349.81	87.75
350.037	93.75
350.265	91.75
350.492	69.75
350.72	71.75
350.947	86.75
351.174	87.75
351.402	71.75
351.629	86.75
351.856	74.75
352.083	88.75
352.311	100.75
352.538	94.75
352.765	86.75
352.992	93.75
353.22	85.75
353.447	87.75
353.674	90.75
353.901	85.75
354.128	80.75
354.355	89.75
354.583	89.75
354.81	86.75
355.037	65.75
355.264	85.75
355.491	77.75
355.718	90.75
355.945	87.75
356.172	76.75
356.399	85.75
356.626	87.75
356.853	79.75
357.08	102.75
357.307	87.75
357.534	93.75
357.761	83.75
357.988	80.75
358.215	98.75
358.441	96.75
358.668	73.75
358.895	75.75
359.122	95.75
359.349	84.75
359.576	75.75
359.802	90.75
360.029	87.75
360.256	88.75
360.483	68.75
360.709	81.75
360.936	98.75
361.163	81.75
361.39	93.75
361.616	66.75
361.843	95.75
362.07	99.75
362.296	86.75
362.523	78.75
362.749	85.75
362.976	84.75
363.203	96.75
363.429	78.75
363.656	83.75
363.882	96.75
364.109	90.75
364.335	102.75
364.562	98.75
364.788	92.75
365.015	91.75
365.241	92.75
365.468	85.75
365.694	87.75
365.92	81.75
366.147	78.75
366.373	68.75
366.599	83.75
366.826	92.75
367.052	73.75
367.278	88.75
367.505	88.75
367.731	80.75
367.957	94.75
368.184	83.75
368.41	89.75
368.636	94.75
368.862	92.75
369.089	89.75
369.315	75.75
369.541	84.75
369.767	86.75
369.993	81.75
370.219	73.75
370.445	88.75
370.672	94.75
370.898	82.75
371.124	108.75
371.35	91.75
371.576	98.75
371.802	83.75
372.028	102.75
372.254	111.75
372.48	89.75
372.706	106.75
372.932	85.75
373.158	84.75
373.384	104.75
373.61	110.75
373.835	112.75
374.061	88.75
374.287	94.75
374.513	104.75
374.739	83.75
374.965	108.75
375.191	109.75
375.416	98.75
375.642	83.75
375.868	90.75
376.094	91.75
376.319	81.75
376.545	92.75
376.771	88.75
376.997	82.75
377.222	71.75
377.448	98.75
377.674	87.75
377.899	86.75
378.125	89.75
378.35	79.75
378.576	63.75
378.802	79.75
379.027	84.75
379.253	89.75
379.478	94.75
379.704	69.75
379.929	95.75
380.155	73.75
380.38	79.75
380.606	89.75
380.831	90.75
381.057	88.75
381.282	86.75
381.507	87.75
381.733	95.75
381.958	96.75
382.184	112.75
382.409	99.75
382.634	99.75
382.86	96.75
383.085	111.75
383.31	96.75
383.535	115.75
383.761	105.75
383.986	104.75
384.211	91.75
384.436	88.75
384.662	92.75
384.887	78.75
385.112	83.75
385.337	87.75
385.562	93.75
385.787	102.75
386.013	94.75
386.238	79.75
386.463	84.75
386.688	97.75
386.913	90.75
387.138	95.75
387.363	89.75
387.588	98.75
387.813	85.75
388.038	84.75
388.263	96.75
388.488	88.75
388.713	95.75
388.938	84.75
389.163	91.75
389.387	88.75
389.612	87.75
389.837	105.75
390.062	71.75
390.287	94.75
390.512	78.75
390.736	83.75
390.961	84.75
391.186	94.75
391.411	77.75
391.636	80.75
391.86	92.75
392.085	103.75
392.31	81.75
392.534	84.75
392.759	104.75
392.984	154.75
393.208	252.75
393.433	358.75
393.658	280.75
393.882	126.75
394.107	106.75
394.331	108.75
394.556	119.75
394.78	100.75
395.005	88.75
395.229	89.75
395.454	97.75
395.678	86.75
395.903	117.75
396.127	143.75
396.352	153.75
396.576	164.75
396.801	239.75
397.025	287.75
397.249	146.75
397.474	104.75
397.698	80.75
397.922	87.75
398.147	84.75
398.371	87.75
398.595	68.75
398.82	97.75
399.044	92.75
399.268	73.75
399.492	86.75
399.717	96.75
399.941	82.75
400.165	95.75
400.389	87.75
400.613	80.75
400.837	89.75
401.062	80.75
401.286	69.75
401.51	79.75
401.734	84.75
401.958	69.75
402.182	69.75
402.406	76.75
402.63	80.75
402.854	81.75
403.078	74.75
403.302	85.75
403.526	89.75
403.75	92.75
403.974	87.75
404.198	92.75
404.422	112.75
404.645	128.75
404.869	96.75
405.093	85.75
405.317	72.75
405.541	94.75
405.765	68.75
405.988	81.75
406.212	79.75
406.436	78.75
406.66	97.75
406.883	89.75
407.107	78.75
407.331	81.75
407.555	78.75
407.778	100.75
408.002	84.75
408.226	84.75
408.449	87.75
408.673	97.75
408.896	75.75
409.12	77.75
409.344	73.75
409.567	72.75
409.791	82.75
410.014	90.75
410.238	89.75
410.461	67.75
410.685	75.75
410.908	88.75
411.132	78.75
411.355	103.75
411.578	96.75
411.802	81.75
412.025	71.75
412.249	100.75
412.472	95.75
412.695	79.75
412.919	93.75
413.142	78.75
413.365	86.75
413.589	88.75
413.812	96.75
414.035	76.75
414.258	73.75
414.482	81.75
414.705	65.75
414.928	81.75
415.151	75.75
415.374	84.75
415.597	91.75
415.821	85.75
416.044	78.75
416.267	77.75
416.49	66.75
416.713	83.75
416.936	80.75
417.159	71.75
417.382	73.75
417.605	76.75
417.828	82.75
418.051	91.75
418.274	91.75
418.497	75.75
418.72	74.75
418.943	72.75
419.166	81.75
419.389	78.75
419.611	94.75
419.834	83.75
420.057	83.75
420.28	83.75
420.503	76.75
420.726	85.75
420.948	71.75
421.171	73.75
421.394	88.75
421.617	101.75
421.839	92.75
422.062	96.75
422.285	115.75
422.507	183.75
422.73	295.75
422.953	260.75
423.175	122.75
423.398	83.75
423.621	89.75
423.843	91.75
424.066	84.75
424.288	79.75
424.511	85.75
424.733	84.75
424.956	72.75
425.178	89.75
425.401	78.75
425.623	79.75
425.846	68.75
426.068	86.75
426.291	69.75
426.513	81.75
426.735	77.75
426.958	72.75
427.18	83.75
427.402	93.75
427.625	71.75
427.847	63.75
428.069	94.75
428.292	97.75
428.514	113.75
428.736	107.75
428.958	97.75
429.181	88.75
429.403	88.75
429.625	88.75
429.847	84.75
430.069	127.75
430.292	147.75
430.514	120.75
430.736	109.75
430.958	110.75
431.18	85.75
431.402	81.75
431.624	99.75
431.846	94.75
432.068	111.75
432.29	82.75
432.512	90.75
432.734	85.75
432.956	86.75
433.178	84.75
433.4	73.75
433.622	77.75
433.844	92.75
434.066	83.75
434.287	88.75
434.509	77.75
434.731	83.75
434.953	82.75
435.175	76.75
435.397	84.75
435.618	72.75
435.84	89.75
436.062	79.75
436.284	79.75
436.505	71.75
436.727	73.75
436.949	78.75
437.17	65.75
437.392	80.75
437.614	87.75
437.835	88.75
438.057	90.75
438.278	101.75
438.5	85.75
438.721	91.75
438.943	92.75
439.165	66.75
439.386	81.75
439.608	88.75
439.829	73.75
440.05	103.75
440.272	83.75
440.493	81.75
440.715	89.75
440.936	82.75
441.158	79.75
441.379	92.75
441.6	81.75
441.822	87.75
442.043	101.75
442.264	85.75
442.486	104.75
442.707	102.75
442.928	95.75
443.149	89.75
443.371	105.75
443.592	129.75
443.813	129.75
444.034	107.75
444.255	94.75
444.476	81.75
444.698	92.75
444.919	75.75
445.14	170.75
445.361	137.75
445.582	158.75
445.803	145.75
446.024	94.75
446.245	86.75
446.466	100.75
446.687	79.75
446.908	73.75
447.129	98.75
447.35	79.75
447.571	92.75
447.792	73.75
448.013	75.75
448.234	82.75
448.455	74.75
448.675	91.75
448.896	82.75
449.117	87.75
449.338	78.75
449.559	77.75
449.779	79.75
450	97.75
450.221	80.75
450.442	75.75
450.662	71.75
450.883	76.75
451.104	77.75
451.324	87.75
451.545	70.75
451.766	83.75
451.986	73.75
452.207	77.75
452.428	93.75
452.648	85.75
452.869	91.75
453.089	83.75
453.31	84.75
453.53	77.75
453.751	89.75
453.971	86.75
454.192	101.75
454.412	80.75
454.633	90.75
454.853	81.75
455.073	85.75
455.294	79.75
455.514	85.75
455.734	76.75
455.955	76.75
456.175	81.75
456.395	71.75
456.616	71.75
456.836	92.75
457.056	95.75
457.276	83.75
457.497	71.75
457.717	72.75
457.937	93.75
458.157	98.75
458.377	86.75
458.598	95.75
458.818	93.75
459.038	84.75
459.258	84.75
459.478	78.75
459.698	79.75
459.918	82.75
460.138	82.75
460.358	93.75
460.578	89.75
460.798	88.75
461.018	93.75
461.238	75.75
461.458	81.75
461.678	81.75
461.898	91.75
462.118	85.75
462.338	73.75
462.558	81.75
462.777	72.75
462.997	83.75
463.217	79.75
463.437	72.75
463.657	72.75
463.876	86.75
464.096	89.75
464.316	81.75
464.536	73.75
464.755	73.75
464.975	77.75
465.195	85.75
465.414	68.75
465.634	78.75
465.854	71.75
466.073	69.75
466.293	85.75
466.512	77.75
466.732	67.75
466.951	100.75
467.171	75.75
467.391	81.75
467.61	72.75
467.829	82.75
468.049	101.75
468.268	71.75
468.488	71.75
468.707	100.75
468.927	71.75
469.146	79.75
469.365	77.75
469.585	86.75
469.804	93.75
470.023	79.75
470.243	82.75
470.462	95.75
470.681	90.75
470.901	78.75
471.12	79.75
471.339	81.75
471.558	81.75
471.777	81.75
471.997	76.75
472.216	88.75
472.435	97.75
472.654	79.75
472.873	83.75
473.092	90.75
473.311	83.75
473.53	59.75
473.749	91.75
473.968	84.75
474.187	81.75
474.406	85.75
474.625	99.75
474.844	91.75
475.063	84.75
475.282	73.75
475.501	71.75
475.72	90.75
475.939	72.75
476.158	100.75
476.377	79.75
476.596	65.75
476.814	83.75
477.033	87.75
477.252	80.75
477.471	83.75
477.69	78.75
477.908	84.75
478.127	88.75
478.346	80.75
478.564	98.75
478.783	94.75
479.002	88.75
479.22	79.75
479.439	73.75
479.658	67.75
479.876	86.75
480.095	80.75
480.313	73.75
480.532	84.75
480.751	83.75
480.969	74.75
481.188	75.75
481.406	84.75
481.624	90.75
481.843	81.75
482.061	73.75
482.28	74.75
482.498	90.75
482.717	81.75
482.935	78.75
483.153	70.75
483.372	87.75
483.59	79.75
483.808	88.75
484.027	85.75
484.245	94.75
484.463	92.75
484.681	91.75
484.9	69.75
485.118	95.75
485.336	95.75
485.554	84.75
485.772	71.75
485.99	81.75
486.209	77.75
486.427	89.75
486.645	85.75
486.863	80.75
487.081	83.75
487.299	86.75
487.517	96.75
487.735	86.75
487.953	97.75
488.171	95.75
488.389	87.75
488.607	93.75
488.825	75.75
489.043	80.75
489.261	87.75
489.479	93.75
489.696	90.75
489.914	71.75
490.132	101.75
490.35	105.75
490.568	99.75
490.786	89.75
491.003	88.75
491.221	86.75
491.439	87.75
491.657	86.75
491.874	96.75
492.092	81.75
492.31	82.75
492.527	90.75
492.745	85.75
492.963	83.75
493.18	92.75
493.398	89.75
493.615	97.75
493.833	100.75
494.05	85.75
494.268	96.75
494.485	84.75
494.703	85.75
494.92	88.75
495.138	94.75
495.355	84.75
495.573	78.75
495.79	100.75
496.008	81.75
496.225	84.75
496.442	89.75
496.66	95.75
496.877	81.75
497.094	82.75
497.312	80.75
497.529	95.75
497.746	77.75
497.963	80.75
498.181	96.75
498.398	94.75
498.615	91.75
498.832	81.75
499.049	110.75
499.267	92.75
499.484	95.75
499.701	79.75
499.918	100.75
500.135	80.75
500.352	73.75
500.569	83.75
500.786	80.75
501.003	91.75
501.22	91.75
501.437	92.75
501.654	83.75
501.871	87.75
502.088	87.75
502.305	85.75
502.522	69.75
502.739	96.75
502.956	85.75
503.172	85.75
503.389	87.75
503.606	78.75
503.823	82.75
504.04	86.75
504.256	91.75
504.473	99.75
504.69	72.75
504.907	94.75
505.123	80.75
505.34	71.75
505.557	91.75
505.773	81.75
505.99	94.75
506.207	95.75
506.423	82.75
506.64	88.75
506.856	86.75
507.073	81.75
507.289	87.75
507.506	88.75
507.722	89.75
507.939	84.75
508.155	87.75
508.372	87.75
508.588	87.75
508.805	83.75
509.021	87.75
509.238	79.75
509.454	84.75
509.67	83.75
509.887	71.75
510.103	94.75
510.319	82.75
510.536	102.75
510.752	80.75
510.968	86.75
511.184	91.75
511.401	86.75
511.617	94.75
511.833	85.75
512.049	94.75
512.265	72.75
512.481	93.75
512.698	84.75
512.914	83.75
513.13	79.75
513.346	84.75
513.562	83.75
513.778	93.75
513.994	83.75
514.21	87.75
514.426	96.75
514.642	85.75
514.858	83.75
515.074	87.75
515.29	88.75
515.506	94.75
515.721	78.75
515.937	84.75
516.153	111.75
516.369	65.75
516.585	93.75
516.801	88.75
517.016	92.75
517.232	94.75
517.448	91.75
517.664	83.75
517.879	95.75
518.095	89.75
518.311	105.75
518.527	123.75
518.742	92.75
