Data from 1600_3_HRD10591_00009.txt Node
Date: Mon Jan 19 13:54:57 EST 2026
User: Yrep
Spectrometer: HR+D1059
Trigger mode: 1
Integration Time (sec): 1.000000E-1
Scans to average: 1
Electric dark correction enabled: true
Nonlinearity correction enabled: false
Boxcar width: 0
XAxis mode: Wavelengths
Number of Pixels in Spectrum: 2048
>>>>>Begin Spectral Data<<<<<
223.165	-17.62
223.4	-17.62
223.635	-17.62
223.869	-3.62
224.104	-33.62
224.338	-7.62
224.573	-8.62
224.808	-2.62
225.042	-8.62
225.277	-19.62
225.511	-4.62
225.746	3.38
225.98	11.38
226.215	6.38
226.449	24.38
226.683	21.38
226.918	13.38
227.152	26.38
227.387	32.38
227.621	35.38
227.856	39.38
228.09	47.38
228.324	50.38
228.559	47.38
228.793	64.38
229.027	52.38
229.262	65.38
229.496	63.38
229.73	62.38
229.964	64.38
230.199	61.38
230.433	74.38
230.667	73.38
230.901	69.38
231.136	75.38
231.37	74.38
231.604	71.38
231.838	69.38
232.072	84.38
232.306	87.38
232.541	79.38
232.775	103.38
233.009	83.38
233.243	77.38
233.477	67.38
233.711	86.38
233.945	74.38
234.179	84.38
234.413	86.38
234.647	83.38
234.881	76.38
235.115	70.38
235.349	53.38
235.583	63.38
235.817	73.38
236.051	74.38
236.285	70.38
236.519	87.38
236.753	70.38
236.987	64.38
237.221	79.38
237.455	80.38
237.689	73.38
237.922	65.38
238.156	75.38
238.39	76.38
238.624	75.38
238.858	76.38
239.091	79.38
239.325	75.38
239.559	64.38
239.793	79.38
240.027	78.38
240.26	59.38
240.494	77.38
240.728	81.38
240.961	83.38
241.195	79.38
241.429	62.38
241.662	66.38
241.896	75.38
242.13	64.38
242.363	71.38
242.597	84.38
242.83	81.38
243.064	85.38
243.298	75.38
243.531	60.38
243.765	59.38
243.998	61.38
244.232	72.38
244.465	74.38
244.699	66.38
244.932	77.38
245.166	91.38
245.399	84.38
245.633	77.38
245.866	71.38
246.099	71.38
246.333	64.38
246.566	87.38
246.8	69.38
247.033	66.38
247.266	88.38
247.5	76.38
247.733	74.38
247.966	88.38
248.2	75.38
248.433	62.38
248.666	80.38
248.899	67.38
249.133	67.38
249.366	74.38
249.599	84.38
249.832	79.38
250.066	89.38
250.299	56.38
250.532	73.38
250.765	59.38
250.998	68.38
251.231	77.38
251.465	82.38
251.698	73.38
251.931	78.38
252.164	69.38
252.397	81.38
252.63	57.38
252.863	60.38
253.096	79.38
253.329	83.38
253.562	65.38
253.795	62.38
254.028	78.38
254.261	63.38
254.494	62.38
254.727	83.38
254.96	81.38
255.193	83.38
255.426	79.38
255.659	89.38
255.892	82.38
256.124	79.38
256.357	79.38
256.59	80.38
256.823	68.38
257.056	75.38
257.289	75.38
257.521	84.38
257.754	71.38
257.987	80.38
258.22	72.38
258.452	75.38
258.685	63.38
258.918	73.38
259.151	69.38
259.383	91.38
259.616	73.38
259.849	75.38
260.081	75.38
260.314	65.38
260.547	67.38
260.779	66.38
261.012	62.38
261.244	83.38
261.477	71.38
261.71	74.38
261.942	77.38
262.175	76.38
262.407	87.38
262.64	73.38
262.872	75.38
263.105	93.38
263.337	83.38
263.57	77.38
263.802	81.38
264.035	78.38
264.267	72.38
264.499	66.38
264.732	89.38
264.964	85.38
265.197	76.38
265.429	73.38
265.661	77.38
265.894	70.38
266.126	71.38
266.358	64.38
266.591	81.38
266.823	75.38
267.055	75.38
267.287	81.38
267.52	71.38
267.752	75.38
267.984	81.38
268.216	80.38
268.448	82.38
268.681	75.38
268.913	84.38
269.145	88.38
269.377	73.38
269.609	82.38
269.841	72.38
270.073	70.38
270.306	85.38
270.538	74.38
270.77	71.38
271.002	88.38
271.234	79.38
271.466	82.38
271.698	83.38
271.93	71.38
272.162	69.38
272.394	82.38
272.626	65.38
272.858	86.38
273.09	84.38
273.322	88.38
273.553	78.38
273.785	82.38
274.017	67.38
274.249	89.38
274.481	80.38
274.713	81.38
274.945	83.38
275.176	92.38
275.408	75.38
275.64	85.38
275.872	81.38
276.104	88.38
276.335	93.38
276.567	86.38
276.799	81.38
277.031	69.38
277.262	81.38
277.494	86.38
277.726	66.38
277.957	71.38
278.189	78.38
278.421	75.38
278.652	75.38
278.884	80.38
279.115	73.38
279.347	84.38
279.579	81.38
279.81	92.38
280.042	80.38
280.273	82.38
280.505	80.38
280.736	84.38
280.968	73.38
281.199	79.38
281.431	73.38
281.662	87.38
281.894	91.38
282.125	69.38
282.356	78.38
282.588	87.38
282.819	89.38
283.051	90.38
283.282	73.38
283.513	77.38
283.745	76.38
283.976	80.38
284.207	87.38
284.439	74.38
284.67	74.38
284.901	92.38
285.132	76.38
285.364	86.38
285.595	78.38
285.826	67.38
286.057	81.38
286.288	78.38
286.52	87.38
286.751	78.38
286.982	79.38
287.213	77.38
287.444	84.38
287.675	82.38
287.906	78.38
288.138	82.38
288.369	80.38
288.6	92.38
288.831	84.38
289.062	74.38
289.293	80.38
289.524	80.38
289.755	83.38
289.986	94.38
290.217	85.38
290.448	75.38
290.679	88.38
290.91	77.38
291.141	76.38
291.371	82.38
291.602	75.38
291.833	69.38
292.064	79.38
292.295	90.38
292.526	85.38
292.757	73.38
292.987	84.38
293.218	84.38
293.449	72.38
293.68	86.38
293.91	74.38
294.141	85.38
294.372	90.38
294.603	80.38
294.833	83.38
295.064	79.38
295.295	69.38
295.525	84.38
295.756	95.38
295.987	79.38
296.217	76.38
296.448	87.38
296.679	74.38
296.909	87.38
297.14	79.38
297.37	93.38
297.601	77.38
297.831	66.38
298.062	77.38
298.292	89.38
298.523	85.38
298.753	81.38
298.984	79.38
299.214	93.38
299.445	69.38
299.675	81.38
299.905	81.38
300.136	88.38
300.366	77.38
300.597	79.38
300.827	92.38
301.057	79.38
301.288	78.38
301.518	77.38
301.748	87.38
301.979	97.38
302.209	77.38
302.439	69.38
302.669	79.38
302.9	77.38
303.13	85.38
303.36	86.38
303.59	77.38
303.82	75.38
304.051	80.38
304.281	80.38
304.511	78.38
304.741	93.38
304.971	77.38
305.201	78.38
305.431	78.38
305.661	72.38
305.891	85.38
306.121	73.38
306.352	87.38
306.582	83.38
306.812	91.38
307.042	87.38
307.272	79.38
307.502	85.38
307.731	91.38
307.961	89.38
308.191	76.38
308.421	69.38
308.651	77.38
308.881	82.38
309.111	87.38
309.341	67.38
309.571	96.38
309.8	63.38
310.03	88.38
310.26	78.38
310.49	81.38
310.72	89.38
310.949	85.38
311.179	101.38
311.409	88.38
311.639	79.38
311.868	64.38
312.098	93.38
312.328	92.38
312.557	85.38
312.787	70.38
313.017	81.38
313.246	87.38
313.476	80.38
313.706	89.38
313.935	87.38
314.165	83.38
314.394	89.38
314.624	84.38
314.853	82.38
315.083	91.38
315.312	84.38
315.542	77.38
315.771	89.38
316.001	79.38
316.23	80.38
316.46	90.38
316.689	80.38
316.919	83.38
317.148	69.38
317.377	84.38
317.607	89.38
317.836	91.38
318.065	88.38
318.295	82.38
318.524	82.38
318.753	77.38
318.983	76.38
319.212	71.38
319.441	75.38
319.67	77.38
319.9	86.38
320.129	84.38
320.358	79.38
320.587	80.38
320.816	93.38
321.046	67.38
321.275	73.38
321.504	75.38
321.733	84.38
321.962	69.38
322.191	65.38
322.42	87.38
322.649	94.38
322.878	77.38
323.108	91.38
323.337	89.38
323.566	88.38
323.795	78.38
324.024	83.38
324.253	78.38
324.482	81.38
324.71	80.38
324.939	79.38
325.168	86.38
325.397	78.38
325.626	88.38
325.855	86.38
326.084	84.38
326.313	75.38
326.542	83.38
326.77	68.38
326.999	88.38
327.228	67.38
327.457	96.38
327.686	86.38
327.914	87.38
328.143	81.38
328.372	85.38
328.6	74.38
328.829	77.38
329.058	77.38
329.287	73.38
329.515	75.38
329.744	75.38
329.972	78.38
330.201	65.38
330.43	70.38
330.658	77.38
330.887	96.38
331.115	75.38
331.344	83.38
331.572	80.38
331.801	81.38
332.03	79.38
332.258	80.38
332.486	65.38
332.715	59.38
332.943	80.38
333.172	88.38
333.4	71.38
333.629	71.38
333.857	95.38
334.085	69.38
334.314	80.38
334.542	75.38
334.771	64.38
334.999	71.38
335.227	75.38
335.455	98.38
335.684	68.38
335.912	78.38
336.14	89.38
336.369	80.38
336.597	83.38
336.825	73.38
337.053	83.38
337.281	93.38
337.51	86.38
337.738	81.38
337.966	85.38
338.194	73.38
338.422	84.38
338.65	67.38
338.878	87.38
339.106	85.38
339.334	87.38
339.562	86.38
339.79	79.38
340.018	64.38
340.246	81.38
340.474	80.38
340.702	88.38
340.93	104.38
341.158	67.38
341.386	75.38
341.614	83.38
341.842	80.38
342.07	73.38
342.298	89.38
342.526	84.38
342.754	72.38
342.981	77.38
343.209	69.38
343.437	97.38
343.665	83.38
343.893	89.38
344.12	87.38
344.348	85.38
344.576	84.38
344.804	83.38
345.031	83.38
345.259	87.38
345.487	76.38
345.714	65.38
345.942	79.38
346.17	78.38
346.397	74.38
346.625	75.38
346.853	88.38
347.08	95.38
347.308	89.38
347.535	89.38
347.763	74.38
347.99	79.38
348.218	68.38
348.445	71.38
348.673	81.38
348.9	88.38
349.128	84.38
349.355	80.38
349.583	77.38
349.81	92.38
350.037	74.38
350.265	84.38
350.492	65.38
350.72	81.38
350.947	81.38
351.174	98.38
351.402	83.38
351.629	82.38
351.856	78.38
352.083	89.38
352.311	76.38
352.538	80.38
352.765	95.38
352.992	88.38
353.22	98.38
353.447	58.38
353.674	86.38
353.901	73.38
354.128	70.38
354.355	89.38
354.583	68.38
354.81	76.38
355.037	83.38
355.264	75.38
355.491	77.38
355.718	75.38
355.945	79.38
356.172	81.38
356.399	84.38
356.626	72.38
356.853	77.38
357.08	91.38
357.307	77.38
357.534	51.38
357.761	66.38
357.988	70.38
358.215	83.38
358.441	94.38
358.668	73.38
358.895	78.38
359.122	85.38
359.349	65.38
359.576	83.38
359.802	80.38
360.029	83.38
360.256	79.38
360.483	80.38
360.709	73.38
360.936	73.38
361.163	74.38
361.39	74.38
361.616	87.38
361.843	93.38
362.07	81.38
362.296	80.38
362.523	81.38
362.749	81.38
362.976	71.38
363.203	103.38
363.429	95.38
363.656	91.38
363.882	82.38
364.109	84.38
364.335	88.38
364.562	103.38
364.788	84.38
365.015	84.38
365.241	77.38
365.468	87.38
365.694	97.38
365.92	89.38
366.147	65.38
366.373	82.38
366.599	71.38
366.826	84.38
367.052	95.38
367.278	74.38
367.505	93.38
367.731	83.38
367.957	74.38
368.184	90.38
368.41	78.38
368.636	85.38
368.862	99.38
369.089	74.38
369.315	71.38
369.541	84.38
369.767	83.38
369.993	69.38
370.219	52.38
370.445	93.38
370.672	89.38
370.898	83.38
371.124	92.38
371.35	73.38
371.576	93.38
371.802	98.38
372.028	81.38
372.254	81.38
372.48	78.38
372.706	83.38
372.932	75.38
373.158	74.38
373.384	86.38
373.61	91.38
373.835	88.38
374.061	87.38
374.287	65.38
374.513	91.38
374.739	93.38
374.965	76.38
375.191	89.38
375.416	78.38
375.642	91.38
375.868	87.38
376.094	91.38
376.319	84.38
376.545	79.38
376.771	78.38
376.997	86.38
377.222	77.38
377.448	85.38
377.674	74.38
377.899	65.38
378.125	87.38
378.35	79.38
378.576	89.38
378.802	87.38
379.027	85.38
379.253	85.38
379.478	87.38
379.704	75.38
379.929	80.38
380.155	79.38
380.38	88.38
380.606	93.38
380.831	79.38
381.057	79.38
381.282	80.38
381.507	82.38
381.733	63.38
381.958	72.38
382.184	97.38
382.409	86.38
382.634	91.38
382.86	95.38
383.085	93.38
383.31	76.38
383.535	96.38
383.761	92.38
383.986	78.38
384.211	71.38
384.436	75.38
384.662	68.38
384.887	61.38
385.112	76.38
385.337	82.38
385.562	92.38
385.787	86.38
386.013	85.38
386.238	89.38
386.463	81.38
386.688	89.38
386.913	76.38
387.138	63.38
387.363	84.38
387.588	87.38
387.813	79.38
388.038	92.38
388.263	78.38
388.488	96.38
388.713	89.38
388.938	68.38
389.163	81.38
389.387	86.38
389.612	72.38
389.837	95.38
390.062	96.38
390.287	75.38
390.512	91.38
390.736	85.38
390.961	72.38
391.186	75.38
391.411	86.38
391.636	65.38
391.86	66.38
392.085	82.38
392.31	82.38
392.534	71.38
392.759	82.38
392.984	95.38
393.208	101.38
393.433	146.38
393.658	145.38
393.882	75.38
394.107	111.38
394.331	96.38
394.556	92.38
394.78	85.38
395.005	94.38
395.229	81.38
395.454	74.38
395.678	83.38
395.903	72.38
396.127	91.38
396.352	124.38
396.576	90.38
396.801	129.38
397.025	127.38
397.249	98.38
397.474	96.38
397.698	81.38
397.922	73.38
398.147	78.38
398.371	80.38
398.595	79.38
398.82	63.38
399.044	79.38
399.268	80.38
399.492	84.38
399.717	87.38
399.941	80.38
400.165	87.38
400.389	78.38
400.613	64.38
400.837	76.38
401.062	84.38
401.286	68.38
401.51	92.38
401.734	83.38
401.958	74.38
402.182	76.38
402.406	85.38
402.63	75.38
402.854	75.38
403.078	88.38
403.302	87.38
403.526	91.38
403.75	88.38
403.974	93.38
404.198	81.38
404.422	85.38
404.645	93.38
404.869	91.38
405.093	75.38
405.317	80.38
405.541	83.38
405.765	75.38
405.988	74.38
406.212	89.38
406.436	80.38
406.66	80.38
406.883	85.38
407.107	68.38
407.331	67.38
407.555	82.38
407.778	85.38
408.002	86.38
408.226	89.38
408.449	84.38
408.673	80.38
408.896	75.38
409.12	71.38
409.344	75.38
409.567	86.38
409.791	83.38
410.014	75.38
410.238	83.38
410.461	77.38
410.685	82.38
410.908	79.38
411.132	72.38
411.355	75.38
411.578	84.38
411.802	88.38
412.025	76.38
412.249	75.38
412.472	69.38
412.695	68.38
412.919	67.38
413.142	85.38
413.365	75.38
413.589	78.38
413.812	60.38
414.035	77.38
414.258	87.38
414.482	65.38
414.705	87.38
414.928	69.38
415.151	70.38
415.374	61.38
415.597	81.38
415.821	84.38
416.044	65.38
416.267	69.38
416.49	78.38
416.713	69.38
416.936	70.38
417.159	68.38
417.382	75.38
417.605	84.38
417.828	75.38
418.051	70.38
418.274	69.38
418.497	65.38
418.72	83.38
418.943	87.38
419.166	71.38
419.389	69.38
419.611	75.38
419.834	77.38
420.057	87.38
420.28	83.38
420.503	75.38
420.726	72.38
420.948	79.38
421.171	89.38
421.394	67.38
421.617	81.38
421.839	88.38
422.062	87.38
422.285	98.38
422.507	138.38
422.73	193.38
422.953	165.38
423.175	84.38
423.398	86.38
423.621	89.38
423.843	80.38
424.066	86.38
424.288	82.38
424.511	71.38
424.733	85.38
424.956	63.38
425.178	75.38
425.401	83.38
425.623	75.38
425.846	63.38
426.068	68.38
426.291	80.38
426.513	69.38
426.735	79.38
426.958	76.38
427.18	80.38
427.402	85.38
427.625	86.38
427.847	82.38
428.069	78.38
428.292	101.38
428.514	83.38
428.736	82.38
428.958	83.38
429.181	96.38
429.403	77.38
429.625	83.38
429.847	87.38
430.069	94.38
430.292	119.38
430.514	92.38
430.736	88.38
430.958	91.38
431.18	76.38
431.402	74.38
431.624	69.38
431.846	85.38
432.068	99.38
432.29	78.38
432.512	85.38
432.734	78.38
432.956	81.38
433.178	79.38
433.4	84.38
433.622	67.38
433.844	74.38
434.066	59.38
434.287	73.38
434.509	79.38
434.731	73.38
434.953	74.38
435.175	52.38
435.397	66.38
435.618	89.38
435.84	91.38
436.062	95.38
436.284	94.38
436.505	75.38
436.727	74.38
436.949	78.38
437.17	83.38
437.392	69.38
437.614	86.38
437.835	79.38
438.057	76.38
438.278	76.38
438.5	96.38
438.721	74.38
438.943	78.38
439.165	56.38
439.386	83.38
439.608	79.38
439.829	64.38
440.05	87.38
440.272	83.38
440.493	83.38
440.715	79.38
440.936	83.38
441.158	75.38
441.379	91.38
441.6	74.38
441.822	74.38
442.043	77.38
442.264	91.38
442.486	93.38
442.707	109.38
442.928	79.38
443.149	86.38
443.371	93.38
443.592	121.38
443.813	108.38
444.034	76.38
444.255	96.38
444.476	84.38
444.698	83.38
444.919	82.38
445.14	153.38
445.361	125.38
445.582	125.38
445.803	112.38
446.024	87.38
446.245	92.38
446.466	89.38
446.687	65.38
446.908	76.38
447.129	75.38
447.35	74.38
447.571	86.38
447.792	90.38
448.013	84.38
448.234	84.38
448.455	67.38
448.675	82.38
448.896	69.38
449.117	57.38
449.338	81.38
449.559	71.38
449.779	69.38
450	89.38
450.221	71.38
450.442	71.38
450.662	83.38
450.883	85.38
451.104	75.38
451.324	68.38
451.545	83.38
451.766	71.38
451.986	84.38
452.207	67.38
452.428	73.38
452.648	80.38
452.869	68.38
453.089	84.38
453.31	94.38
453.53	69.38
453.751	73.38
453.971	77.38
454.192	80.38
454.412	75.38
454.633	80.38
454.853	87.38
455.073	67.38
455.294	68.38
455.514	73.38
455.734	85.38
455.955	79.38
456.175	80.38
456.395	61.38
456.616	57.38
456.836	84.38
457.056	69.38
457.276	83.38
457.497	64.38
457.717	73.38
457.937	77.38
458.157	100.38
458.377	84.38
458.598	77.38
458.818	87.38
459.038	67.38
459.258	92.38
459.478	85.38
459.698	84.38
459.918	80.38
460.138	78.38
460.358	77.38
460.578	94.38
460.798	94.38
461.018	84.38
461.238	70.38
461.458	75.38
461.678	83.38
461.898	90.38
462.118	75.38
462.338	84.38
462.558	73.38
462.777	76.38
462.997	72.38
463.217	69.38
463.437	72.38
463.657	72.38
463.876	70.38
464.096	67.38
464.316	75.38
464.536	76.38
464.755	66.38
464.975	75.38
465.195	91.38
465.414	85.38
465.634	75.38
465.854	83.38
466.073	77.38
466.293	88.38
466.512	69.38
466.732	84.38
466.951	67.38
467.171	81.38
467.391	89.38
467.61	73.38
467.829	67.38
468.049	77.38
468.268	73.38
468.488	91.38
468.707	76.38
468.927	76.38
469.146	63.38
469.365	82.38
469.585	75.38
469.804	83.38
470.023	81.38
470.243	74.38
470.462	88.38
470.681	73.38
470.901	62.38
471.12	84.38
471.339	72.38
471.558	75.38
471.777	71.38
471.997	82.38
472.216	79.38
472.435	58.38
472.654	81.38
472.873	87.38
473.092	83.38
473.311	72.38
473.53	67.38
473.749	78.38
473.968	80.38
474.187	89.38
474.406	90.38
474.625	95.38
474.844	85.38
475.063	75.38
475.282	68.38
475.501	69.38
475.72	88.38
475.939	69.38
476.158	75.38
476.377	82.38
476.596	81.38
476.814	81.38
477.033	79.38
477.252	65.38
477.471	97.38
477.69	83.38
477.908	79.38
478.127	68.38
478.346	79.38
478.564	73.38
478.783	73.38
479.002	80.38
479.22	76.38
479.439	83.38
479.658	69.38
479.876	71.38
480.095	77.38
480.313	64.38
480.532	82.38
480.751	82.38
480.969	72.38
481.188	71.38
481.406	82.38
481.624	92.38
481.843	75.38
482.061	77.38
482.28	76.38
482.498	80.38
482.717	81.38
482.935	74.38
483.153	76.38
483.372	80.38
483.59	93.38
483.808	85.38
484.027	95.38
484.245	77.38
484.463	86.38
484.681	98.38
484.9	93.38
485.118	82.38
485.336	90.38
485.554	73.38
485.772	82.38
485.99	79.38
486.209	91.38
486.427	91.38
486.645	78.38
486.863	79.38
487.081	65.38
487.299	83.38
487.517	77.38
487.735	78.38
487.953	95.38
488.171	82.38
488.389	85.38
488.607	66.38
488.825	65.38
489.043	68.38
489.261	78.38
489.479	79.38
489.696	77.38
489.914	79.38
490.132	83.38
490.35	81.38
490.568	75.38
490.786	73.38
491.003	77.38
491.221	89.38
491.439	80.38
491.657	88.38
491.874	77.38
492.092	75.38
492.31	81.38
492.527	64.38
492.745	73.38
492.963	90.38
493.18	92.38
493.398	85.38
493.615	98.38
493.833	71.38
494.05	81.38
494.268	84.38
494.485	85.38
494.703	81.38
494.92	75.38
495.138	78.38
495.355	82.38
495.573	91.38
495.79	67.38
496.008	92.38
496.225	81.38
496.442	73.38
496.66	82.38
496.877	76.38
497.094	71.38
497.312	75.38
497.529	80.38
497.746	75.38
497.963	81.38
498.181	74.38
498.398	79.38
498.615	81.38
498.832	79.38
499.049	82.38
499.267	85.38
499.484	79.38
499.701	91.38
499.918	89.38
500.135	78.38
500.352	76.38
500.569	69.38
500.786	89.38
501.003	84.38
501.22	92.38
501.437	81.38
501.654	88.38
501.871	69.38
502.088	83.38
502.305	99.38
502.522	78.38
502.739	87.38
502.956	79.38
503.172	85.38
503.389	76.38
503.606	77.38
503.823	77.38
504.04	73.38
504.256	93.38
504.473	83.38
504.69	85.38
504.907	80.38
505.123	69.38
505.34	83.38
505.557	79.38
505.773	84.38
505.99	79.38
506.207	81.38
506.423	79.38
506.64	83.38
506.856	66.38
507.073	76.38
507.289	81.38
507.506	73.38
507.722	82.38
507.939	73.38
508.155	80.38
508.372	82.38
508.588	75.38
508.805	97.38
509.021	75.38
509.238	80.38
509.454	77.38
509.67	77.38
509.887	79.38
510.103	90.38
510.319	82.38
510.536	83.38
510.752	71.38
510.968	75.38
511.184	67.38
511.401	74.38
511.617	78.38
511.833	81.38
512.049	87.38
512.265	91.38
512.481	81.38
512.698	63.38
512.914	88.38
513.13	83.38
513.346	99.38
513.562	76.38
513.778	110.38
513.994	88.38
514.21	85.38
514.426	80.38
514.642	79.38
514.858	59.38
515.074	82.38
515.29	77.38
515.506	69.38
515.721	78.38
515.937	83.38
516.153	70.38
516.369	89.38
516.585	87.38
516.801	76.38
517.016	92.38
517.232	87.38
517.448	93.38
517.664	80.38
517.879	83.38
518.095	78.38
518.311	91.38
518.527	106.38
518.742	97.38
518.958	77.38
519.173	85.38
519.389	101.38
519.605	85.38
519.82	82.38
520.036	81.38
