Data from 1600_3_HRD10591_00048.txt Node
Date: Mon Jan 19 13:55:17 EST 2026
User: Yrep
Spectrometer: HR+D1059
Trigger mode: 1
Integration Time (sec): 1.000000E-1
Scans to average: 1
Electric dark correction enabled: true
Nonlinearity correction enabled: false
Boxcar width: 0
XAxis mode: Wavelengths
Number of Pixels in Spectrum: 2048
>>>>>Begin Spectral Data<<<<<
223.165	-18.19
223.4	-18.19
223.635	-18.19
223.869	-25.19
224.104	-16.19
224.338	-9.19
224.573	-17.19
224.808	-12.19
225.042	2.81
225.277	-0.19
225.511	-3.19
225.746	9.81
225.98	2.81
226.215	8.81
226.449	14.81
226.683	8.81
226.918	22.81
227.152	30.81
227.387	25.81
227.621	12.81
227.856	38.81
228.09	35.81
228.324	51.81
228.559	53.81
228.793	51.81
229.027	74.81
229.262	70.81
229.496	62.81
229.73	66.81
229.964	79.81
230.199	66.81
230.433	61.81
230.667	76.81
230.901	62.81
231.136	76.81
231.37	64.81
231.604	66.81
231.838	69.81
232.072	71.81
232.306	92.81
232.541	77.81
232.775	96.81
233.009	66.81
233.243	65.81
233.477	81.81
233.711	82.81
233.945	80.81
234.179	72.81
234.413	78.81
234.647	79.81
234.881	81.81
235.115	74.81
235.349	82.81
235.583	93.81
235.817	75.81
236.051	66.81
236.285	78.81
236.519	74.81
236.753	61.81
236.987	85.81
237.221	66.81
237.455	66.81
237.689	74.81
237.922	70.81
238.156	80.81
238.39	80.81
238.624	77.81
238.858	85.81
239.091	59.81
239.325	69.81
239.559	67.81
239.793	73.81
240.027	74.81
240.26	81.81
240.494	74.81
240.728	65.81
240.961	70.81
241.195	76.81
241.429	68.81
241.662	65.81
241.896	60.81
242.13	65.81
242.363	58.81
242.597	72.81
242.83	68.81
243.064	59.81
243.298	64.81
243.531	63.81
243.765	60.81
243.998	66.81
244.232	84.81
244.465	82.81
244.699	84.81
244.932	67.81
245.166	72.81
245.399	77.81
245.633	76.81
245.866	62.81
246.099	75.81
246.333	85.81
246.566	54.81
246.8	60.81
247.033	72.81
247.266	64.81
247.5	78.81
247.733	69.81
247.966	56.81
248.2	70.81
248.433	76.81
248.666	69.81
248.899	63.81
249.133	80.81
249.366	84.81
249.599	68.81
249.832	73.81
250.066	91.81
250.299	76.81
250.532	76.81
250.765	78.81
250.998	70.81
251.231	81.81
251.465	79.81
251.698	73.81
251.931	78.81
252.164	81.81
252.397	84.81
252.63	82.81
252.863	82.81
253.096	75.81
253.329	60.81
253.562	72.81
253.795	77.81
254.028	70.81
254.261	78.81
254.494	66.81
254.727	68.81
254.96	72.81
255.193	86.81
255.426	76.81
255.659	68.81
255.892	77.81
256.124	69.81
256.357	64.81
256.59	88.81
256.823	80.81
257.056	87.81
257.289	81.81
257.521	83.81
257.754	72.81
257.987	79.81
258.22	82.81
258.452	74.81
258.685	92.81
258.918	70.81
259.151	88.81
259.383	85.81
259.616	66.81
259.849	81.81
260.081	80.81
260.314	70.81
260.547	88.81
260.779	76.81
261.012	72.81
261.244	84.81
261.477	77.81
261.71	75.81
261.942	85.81
262.175	77.81
262.407	68.81
262.64	58.81
262.872	67.81
263.105	70.81
263.337	68.81
263.57	88.81
263.802	78.81
264.035	83.81
264.267	83.81
264.499	80.81
264.732	88.81
264.964	77.81
265.197	80.81
265.429	78.81
265.661	82.81
265.894	77.81
266.126	81.81
266.358	72.81
266.591	86.81
266.823	88.81
267.055	85.81
267.287	80.81
267.52	69.81
267.752	81.81
267.984	79.81
268.216	78.81
268.448	70.81
268.681	73.81
268.913	71.81
269.145	77.81
269.377	84.81
269.609	74.81
269.841	94.81
270.073	79.81
270.306	83.81
270.538	75.81
270.77	78.81
271.002	72.81
271.234	66.81
271.466	76.81
271.698	70.81
271.93	72.81
272.162	86.81
272.394	82.81
272.626	82.81
272.858	82.81
273.09	70.81
273.322	92.81
273.553	91.81
273.785	101.81
274.017	79.81
274.249	82.81
274.481	86.81
274.713	79.81
274.945	76.81
275.176	84.81
275.408	77.81
275.64	78.81
275.872	84.81
276.104	84.81
276.335	97.81
276.567	77.81
276.799	77.81
277.031	84.81
277.262	70.81
277.494	78.81
277.726	87.81
277.957	99.81
278.189	78.81
278.421	70.81
278.652	70.81
278.884	75.81
279.115	98.81
279.347	79.81
279.579	81.81
279.81	87.81
280.042	82.81
280.273	69.81
280.505	76.81
280.736	72.81
280.968	86.81
281.199	86.81
281.431	94.81
281.662	80.81
281.894	78.81
282.125	70.81
282.356	73.81
282.588	90.81
282.819	82.81
283.051	80.81
283.282	70.81
283.513	85.81
283.745	104.81
283.976	90.81
284.207	89.81
284.439	74.81
284.67	93.81
284.901	76.81
285.132	80.81
285.364	75.81
285.595	62.81
285.826	76.81
286.057	84.81
286.288	78.81
286.52	75.81
286.751	86.81
286.982	79.81
287.213	77.81
287.444	64.81
287.675	74.81
287.906	88.81
288.138	82.81
288.369	88.81
288.6	74.81
288.831	73.81
289.062	83.81
289.293	85.81
289.524	75.81
289.755	81.81
289.986	78.81
290.217	77.81
290.448	82.81
290.679	86.81
290.91	78.81
291.141	78.81
291.371	98.81
291.602	77.81
291.833	89.81
292.064	82.81
292.295	65.81
292.526	72.81
292.757	78.81
292.987	87.81
293.218	78.81
293.449	71.81
293.68	67.81
293.91	76.81
294.141	81.81
294.372	99.81
294.603	83.81
294.833	68.81
295.064	85.81
295.295	81.81
295.525	69.81
295.756	78.81
295.987	81.81
296.217	76.81
296.448	92.81
296.679	81.81
296.909	89.81
297.14	74.81
297.37	66.81
297.601	67.81
297.831	76.81
298.062	85.81
298.292	76.81
298.523	85.81
298.753	82.81
298.984	82.81
299.214	83.81
299.445	86.81
299.675	73.81
299.905	85.81
300.136	72.81
300.366	80.81
300.597	80.81
300.827	91.81
301.057	76.81
301.288	80.81
301.518	74.81
301.748	74.81
301.979	97.81
302.209	82.81
302.439	87.81
302.669	90.81
302.9	73.81
303.13	76.81
303.36	69.81
303.59	68.81
303.82	83.81
304.051	88.81
304.281	72.81
304.511	96.81
304.741	86.81
304.971	89.81
305.201	78.81
305.431	64.81
305.661	91.81
305.891	60.81
306.121	84.81
306.352	71.81
306.582	85.81
306.812	94.81
307.042	75.81
307.272	76.81
307.502	73.81
307.731	85.81
307.961	83.81
308.191	88.81
308.421	85.81
308.651	76.81
308.881	82.81
309.111	86.81
309.341	61.81
309.571	80.81
309.8	69.81
310.03	77.81
310.26	80.81
310.49	80.81
310.72	93.81
310.949	92.81
311.179	83.81
311.409	69.81
311.639	101.81
311.868	83.81
312.098	77.81
312.328	80.81
312.557	76.81
312.787	86.81
313.017	79.81
313.246	71.81
313.476	79.81
313.706	77.81
313.935	79.81
314.165	92.81
314.394	90.81
314.624	91.81
314.853	76.81
315.083	69.81
315.312	83.81
315.542	82.81
315.771	84.81
316.001	90.81
316.23	80.81
316.46	84.81
316.689	83.81
316.919	86.81
317.148	85.81
317.377	86.81
317.607	100.81
317.836	81.81
318.065	69.81
318.295	71.81
318.524	75.81
318.753	83.81
318.983	76.81
319.212	73.81
319.441	80.81
319.67	78.81
319.9	72.81
320.129	79.81
320.358	90.81
320.587	75.81
320.816	76.81
321.046	73.81
321.275	62.81
321.504	76.81
321.733	84.81
321.962	81.81
322.191	76.81
322.42	68.81
322.649	92.81
322.878	83.81
323.108	94.81
323.337	84.81
323.566	78.81
323.795	82.81
324.024	87.81
324.253	86.81
324.482	90.81
324.71	88.81
324.939	84.81
325.168	74.81
325.397	81.81
325.626	92.81
325.855	97.81
326.084	84.81
326.313	71.81
326.542	72.81
326.77	80.81
326.999	70.81
327.228	78.81
327.457	77.81
327.686	64.81
327.914	66.81
328.143	93.81
328.372	77.81
328.6	85.81
328.829	96.81
329.058	75.81
329.287	68.81
329.515	74.81
329.744	89.81
329.972	68.81
330.201	84.81
330.43	83.81
330.658	74.81
330.887	68.81
331.115	62.81
331.344	74.81
331.572	71.81
331.801	82.81
332.03	70.81
332.258	81.81
332.486	79.81
332.715	77.81
332.943	85.81
333.172	85.81
333.4	81.81
333.629	73.81
333.857	92.81
334.085	94.81
334.314	79.81
334.542	74.81
334.771	78.81
334.999	85.81
335.227	71.81
335.455	60.81
335.684	82.81
335.912	65.81
336.14	69.81
336.369	94.81
336.597	78.81
336.825	70.81
337.053	76.81
337.281	80.81
337.51	62.81
337.738	72.81
337.966	100.81
338.194	83.81
338.422	81.81
338.65	81.81
338.878	87.81
339.106	88.81
339.334	79.81
339.562	86.81
339.79	83.81
340.018	76.81
340.246	84.81
340.474	75.81
340.702	86.81
340.93	71.81
341.158	79.81
341.386	69.81
341.614	66.81
341.842	78.81
342.07	66.81
342.298	82.81
342.526	81.81
342.754	85.81
342.981	72.81
343.209	70.81
343.437	82.81
343.665	89.81
343.893	84.81
344.12	74.81
344.348	86.81
344.576	73.81
344.804	69.81
345.031	84.81
345.259	72.81
345.487	78.81
345.714	78.81
345.942	72.81
346.17	82.81
346.397	62.81
346.625	79.81
346.853	77.81
347.08	82.81
347.308	95.81
347.535	75.81
347.763	67.81
347.99	72.81
348.218	78.81
348.445	80.81
348.673	84.81
348.9	84.81
349.128	87.81
349.355	64.81
349.583	58.81
349.81	89.81
350.037	82.81
350.265	84.81
350.492	72.81
350.72	70.81
350.947	88.81
351.174	77.81
351.402	81.81
351.629	90.81
351.856	75.81
352.083	74.81
352.311	73.81
352.538	85.81
352.765	84.81
352.992	84.81
353.22	90.81
353.447	75.81
353.674	94.81
353.901	93.81
354.128	90.81
354.355	77.81
354.583	82.81
354.81	84.81
355.037	82.81
355.264	75.81
355.491	69.81
355.718	74.81
355.945	83.81
356.172	70.81
356.399	84.81
356.626	75.81
356.853	85.81
357.08	75.81
357.307	85.81
357.534	89.81
357.761	93.81
357.988	75.81
358.215	92.81
358.441	81.81
358.668	80.81
358.895	70.81
359.122	77.81
359.349	89.81
359.576	76.81
359.802	66.81
360.029	94.81
360.256	91.81
360.483	67.81
360.709	82.81
360.936	88.81
361.163	89.81
361.39	76.81
361.616	67.81
361.843	76.81
362.07	77.81
362.296	66.81
362.523	79.81
362.749	88.81
362.976	76.81
363.203	89.81
363.429	77.81
363.656	78.81
363.882	83.81
364.109	82.81
364.335	84.81
364.562	88.81
364.788	82.81
365.015	83.81
365.241	85.81
365.468	80.81
365.694	77.81
365.92	76.81
366.147	62.81
366.373	84.81
366.599	82.81
366.826	84.81
367.052	72.81
367.278	85.81
367.505	91.81
367.731	84.81
367.957	82.81
368.184	81.81
368.41	79.81
368.636	83.81
368.862	88.81
369.089	88.81
369.315	80.81
369.541	76.81
369.767	70.81
369.993	78.81
370.219	96.81
370.445	77.81
370.672	76.81
370.898	78.81
371.124	76.81
371.35	76.81
371.576	76.81
371.802	71.81
372.028	73.81
372.254	88.81
372.48	68.81
372.706	57.81
372.932	72.81
373.158	81.81
373.384	90.81
373.61	87.81
373.835	73.81
374.061	78.81
374.287	85.81
374.513	82.81
374.739	82.81
374.965	73.81
375.191	71.81
375.416	85.81
375.642	81.81
375.868	65.81
376.094	80.81
376.319	84.81
376.545	72.81
376.771	76.81
376.997	75.81
377.222	76.81
377.448	71.81
377.674	69.81
377.899	73.81
378.125	82.81
378.35	66.81
378.576	83.81
378.802	77.81
379.027	81.81
379.253	94.81
379.478	76.81
379.704	80.81
379.929	80.81
380.155	84.81
380.38	84.81
380.606	61.81
380.831	84.81
381.057	72.81
381.282	89.81
381.507	74.81
381.733	85.81
381.958	74.81
382.184	96.81
382.409	85.81
382.634	88.81
382.86	69.81
383.085	96.81
383.31	75.81
383.535	83.81
383.761	77.81
383.986	85.81
384.211	75.81
384.436	77.81
384.662	73.81
384.887	85.81
385.112	70.81
385.337	73.81
385.562	81.81
385.787	77.81
386.013	102.81
386.238	76.81
386.463	83.81
386.688	88.81
386.913	80.81
387.138	77.81
387.363	84.81
387.588	99.81
387.813	88.81
388.038	77.81
388.263	62.81
388.488	71.81
388.713	70.81
388.938	72.81
389.163	78.81
389.387	71.81
389.612	86.81
389.837	74.81
390.062	87.81
390.287	82.81
390.512	84.81
390.736	79.81
390.961	84.81
391.186	74.81
391.411	81.81
391.636	76.81
391.86	84.81
392.085	81.81
392.31	85.81
392.534	68.81
392.759	76.81
392.984	88.81
393.208	104.81
393.433	140.81
393.658	129.81
393.882	88.81
394.107	80.81
394.331	80.81
394.556	75.81
394.78	79.81
395.005	84.81
395.229	74.81
395.454	74.81
395.678	83.81
395.903	83.81
396.127	100.81
396.352	101.81
396.576	112.81
396.801	120.81
397.025	121.81
397.249	93.81
397.474	91.81
397.698	70.81
397.922	74.81
398.147	92.81
398.371	80.81
398.595	81.81
398.82	78.81
399.044	74.81
399.268	80.81
399.492	81.81
399.717	85.81
399.941	70.81
400.165	74.81
400.389	69.81
400.613	90.81
400.837	73.81
401.062	77.81
401.286	99.81
401.51	80.81
401.734	76.81
401.958	87.81
402.182	76.81
402.406	79.81
402.63	67.81
402.854	73.81
403.078	82.81
403.302	70.81
403.526	88.81
403.75	88.81
403.974	72.81
404.198	88.81
404.422	76.81
404.645	85.81
404.869	78.81
405.093	59.81
405.317	70.81
405.541	75.81
405.765	76.81
405.988	92.81
406.212	81.81
406.436	64.81
406.66	67.81
406.883	82.81
407.107	77.81
407.331	79.81
407.555	80.81
407.778	80.81
408.002	75.81
408.226	88.81
408.449	85.81
408.673	82.81
408.896	72.81
409.12	66.81
409.344	81.81
409.567	81.81
409.791	83.81
410.014	82.81
410.238	84.81
410.461	90.81
410.685	74.81
410.908	66.81
411.132	83.81
411.355	77.81
411.578	78.81
411.802	83.81
412.025	77.81
412.249	88.81
412.472	82.81
412.695	88.81
412.919	71.81
413.142	78.81
413.365	74.81
413.589	82.81
413.812	77.81
414.035	76.81
414.258	86.81
414.482	84.81
414.705	69.81
414.928	76.81
415.151	82.81
415.374	74.81
415.597	78.81
415.821	89.81
416.044	86.81
416.267	82.81
416.49	77.81
416.713	72.81
416.936	74.81
417.159	89.81
417.382	83.81
417.605	80.81
417.828	71.81
418.051	75.81
418.274	81.81
418.497	89.81
418.72	81.81
418.943	67.81
419.166	68.81
419.389	53.81
419.611	77.81
419.834	82.81
420.057	80.81
420.28	81.81
420.503	79.81
420.726	84.81
420.948	79.81
421.171	56.81
421.394	69.81
421.617	83.81
421.839	88.81
422.062	76.81
422.285	70.81
422.507	79.81
422.73	112.81
422.953	82.81
423.175	80.81
423.398	65.81
423.621	85.81
423.843	83.81
424.066	74.81
424.288	75.81
424.511	79.81
424.733	64.81
424.956	88.81
425.178	74.81
425.401	79.81
425.623	74.81
425.846	81.81
426.068	77.81
426.291	86.81
426.513	69.81
426.735	76.81
426.958	70.81
427.18	62.81
427.402	60.81
427.625	86.81
427.847	83.81
428.069	80.81
428.292	77.81
428.514	86.81
428.736	85.81
428.958	85.81
429.181	69.81
429.403	66.81
429.625	81.81
429.847	68.81
430.069	83.81
430.292	91.81
430.514	68.81
430.736	76.81
430.958	84.81
431.18	78.81
431.402	71.81
431.624	79.81
431.846	67.81
432.068	85.81
432.29	85.81
432.512	84.81
432.734	80.81
432.956	88.81
433.178	79.81
433.4	77.81
433.622	71.81
433.844	78.81
434.066	88.81
434.287	82.81
434.509	77.81
434.731	71.81
434.953	84.81
435.175	74.81
435.397	70.81
435.618	67.81
435.84	82.81
436.062	81.81
436.284	83.81
436.505	86.81
436.727	84.81
436.949	82.81
437.17	64.81
437.392	78.81
437.614	83.81
437.835	68.81
438.057	69.81
438.278	77.81
438.5	82.81
438.721	81.81
438.943	90.81
439.165	88.81
439.386	87.81
439.608	89.81
439.829	65.81
440.05	62.81
440.272	78.81
440.493	69.81
440.715	74.81
440.936	82.81
441.158	87.81
441.379	85.81
441.6	78.81
441.822	74.81
442.043	82.81
442.264	82.81
442.486	79.81
442.707	83.81
442.928	81.81
443.149	76.81
443.371	97.81
443.592	89.81
443.813	76.81
444.034	64.81
444.255	84.81
444.476	80.81
444.698	70.81
444.919	74.81
445.14	157.81
445.361	111.81
445.582	98.81
445.803	78.81
446.024	81.81
446.245	78.81
446.466	84.81
446.687	65.81
446.908	74.81
447.129	98.81
447.35	83.81
447.571	90.81
447.792	76.81
448.013	77.81
448.234	68.81
448.455	73.81
448.675	77.81
448.896	68.81
449.117	78.81
449.338	81.81
449.559	91.81
449.779	75.81
450	81.81
450.221	86.81
450.442	85.81
450.662	76.81
450.883	74.81
451.104	84.81
451.324	70.81
451.545	76.81
451.766	71.81
451.986	69.81
452.207	73.81
452.428	75.81
452.648	76.81
452.869	90.81
453.089	82.81
453.31	79.81
453.53	70.81
453.751	70.81
453.971	62.81
454.192	80.81
454.412	70.81
454.633	87.81
454.853	76.81
455.073	65.81
455.294	71.81
455.514	80.81
455.734	86.81
455.955	92.81
456.175	67.81
456.395	81.81
456.616	70.81
456.836	69.81
457.056	84.81
457.276	66.81
457.497	76.81
457.717	70.81
457.937	81.81
458.157	72.81
458.377	78.81
458.598	78.81
458.818	80.81
459.038	69.81
459.258	86.81
459.478	61.81
459.698	76.81
459.918	84.81
460.138	64.81
460.358	90.81
460.578	71.81
460.798	85.81
461.018	90.81
461.238	73.81
461.458	79.81
461.678	61.81
461.898	90.81
462.118	83.81
462.338	64.81
462.558	81.81
462.777	94.81
462.997	85.81
463.217	65.81
463.437	71.81
463.657	71.81
463.876	82.81
464.096	77.81
464.316	71.81
464.536	63.81
464.755	74.81
464.975	76.81
465.195	70.81
465.414	81.81
465.634	83.81
465.854	92.81
466.073	85.81
466.293	62.81
466.512	73.81
466.732	78.81
466.951	89.81
467.171	77.81
467.391	77.81
467.61	69.81
467.829	75.81
468.049	82.81
468.268	89.81
468.488	86.81
468.707	80.81
468.927	84.81
469.146	74.81
469.365	94.81
469.585	76.81
469.804	86.81
470.023	64.81
470.243	83.81
470.462	66.81
470.681	76.81
470.901	71.81
471.12	80.81
471.339	71.81
471.558	82.81
471.777	78.81
471.997	78.81
472.216	85.81
472.435	81.81
472.654	60.81
472.873	74.81
473.092	92.81
473.311	79.81
473.53	78.81
473.749	75.81
473.968	79.81
474.187	68.81
474.406	84.81
474.625	84.81
474.844	78.81
475.063	81.81
475.282	73.81
475.501	85.81
475.72	79.81
475.939	94.81
476.158	68.81
476.377	71.81
476.596	91.81
476.814	79.81
477.033	73.81
477.252	78.81
477.471	73.81
477.69	85.81
477.908	84.81
478.127	91.81
478.346	62.81
478.564	66.81
478.783	82.81
479.002	76.81
479.22	78.81
479.439	77.81
479.658	83.81
479.876	69.81
480.095	70.81
480.313	89.81
480.532	77.81
480.751	86.81
480.969	77.81
481.188	90.81
481.406	86.81
481.624	75.81
481.843	70.81
482.061	76.81
482.28	85.81
482.498	79.81
482.717	75.81
482.935	81.81
483.153	97.81
483.372	79.81
483.59	91.81
483.808	105.81
484.027	88.81
484.245	72.81
484.463	65.81
484.681	84.81
484.9	80.81
485.118	95.81
485.336	83.81
485.554	76.81
485.772	70.81
485.99	73.81
486.209	84.81
486.427	76.81
486.645	88.81
486.863	72.81
487.081	70.81
487.299	78.81
487.517	69.81
487.735	73.81
487.953	79.81
488.171	76.81
488.389	60.81
488.607	85.81
488.825	78.81
489.043	65.81
489.261	70.81
489.479	79.81
489.696	74.81
489.914	89.81
490.132	81.81
490.35	75.81
490.568	73.81
490.786	81.81
491.003	87.81
491.221	61.81
491.439	63.81
491.657	68.81
491.874	60.81
492.092	88.81
492.31	88.81
492.527	86.81
492.745	92.81
492.963	76.81
493.18	81.81
493.398	87.81
493.615	79.81
493.833	80.81
494.05	79.81
494.268	77.81
494.485	75.81
494.703	81.81
494.92	90.81
495.138	94.81
495.355	76.81
495.573	76.81
495.79	79.81
496.008	75.81
496.225	76.81
496.442	87.81
496.66	94.81
496.877	71.81
497.094	76.81
497.312	70.81
497.529	71.81
497.746	80.81
497.963	103.81
498.181	94.81
498.398	72.81
498.615	81.81
498.832	88.81
499.049	91.81
499.267	82.81
499.484	74.81
499.701	73.81
499.918	80.81
500.135	78.81
500.352	88.81
500.569	84.81
500.786	92.81
501.003	94.81
501.22	81.81
501.437	82.81
501.654	76.81
501.871	80.81
502.088	70.81
502.305	67.81
502.522	78.81
502.739	82.81
502.956	84.81
503.172	92.81
503.389	88.81
503.606	76.81
503.823	86.81
504.04	74.81
504.256	85.81
504.473	79.81
504.69	86.81
504.907	95.81
505.123	79.81
505.34	69.81
505.557	85.81
505.773	80.81
505.99	77.81
506.207	91.81
506.423	88.81
506.64	77.81
506.856	72.81
507.073	86.81
507.289	71.81
507.506	68.81
507.722	70.81
507.939	81.81
508.155	74.81
508.372	79.81
508.588	72.81
508.805	85.81
509.021	71.81
509.238	76.81
509.454	86.81
509.67	79.81
509.887	86.81
510.103	89.81
510.319	84.81
510.536	74.81
510.752	69.81
510.968	106.81
511.184	70.81
511.401	75.81
511.617	91.81
511.833	74.81
512.049	78.81
512.265	86.81
512.481	83.81
512.698	60.81
512.914	76.81
513.13	85.81
513.346	94.81
513.562	84.81
513.778	76.81
513.994	73.81
514.21	86.81
514.426	80.81
514.642	90.81
514.858	67.81
515.074	76.81
515.29	85.81
515.506	76.81
515.721	79.81
515.937	89.81
516.153	84.81
516.369	74.81
516.585	77.81
516.801	88.81
517.016	87.81
517.232	71.81
517.448	78.81
517.664	86.81
517.879	83.81
518.095	81.81
518.311	74.81
518.527	91.81
518.742	81.81
518.958	89.81
519.173	97.81
519.389	84.81
519.605	64.81
519.82	79.81
520.036	78.81
