Data from 1600_3_HRD10591_00042.txt Node
Date: Mon Jan 19 13:55:14 EST 2026
User: Yrep
Spectrometer: HR+D1059
Trigger mode: 1
Integration Time (sec): 1.000000E-1
Scans to average: 1
Electric dark correction enabled: true
Nonlinearity correction enabled: false
Boxcar width: 0
XAxis mode: Wavelengths
Number of Pixels in Spectrum: 2048
>>>>>Begin Spectral Data<<<<<
223.165	-10.5
223.4	-10.5
223.635	-10.5
223.869	-8.5
224.104	-11.5
224.338	-1.5
224.573	-19.5
224.808	-11.5
225.042	-8.5
225.277	-8.5
225.511	-3.5
225.746	6.5
225.98	1.5
226.215	-3.5
226.449	16.5
226.683	17.5
226.918	18.5
227.152	26.5
227.387	35.5
227.621	37.5
227.856	43.5
228.09	39.5
228.324	42.5
228.559	76.5
228.793	50.5
229.027	45.5
229.262	53.5
229.496	74.5
229.73	64.5
229.964	69.5
230.199	66.5
230.433	70.5
230.667	90.5
230.901	82.5
231.136	72.5
231.37	69.5
231.604	81.5
231.838	62.5
232.072	84.5
232.306	91.5
232.541	76.5
232.775	78.5
233.009	78.5
233.243	80.5
233.477	66.5
233.711	71.5
233.945	89.5
234.179	91.5
234.413	85.5
234.647	79.5
234.881	71.5
235.115	87.5
235.349	87.5
235.583	79.5
235.817	70.5
236.051	72.5
236.285	82.5
236.519	76.5
236.753	75.5
236.987	82.5
237.221	81.5
237.455	66.5
237.689	65.5
237.922	65.5
238.156	69.5
238.39	77.5
238.624	78.5
238.858	71.5
239.091	82.5
239.325	72.5
239.559	80.5
239.793	83.5
240.027	70.5
240.26	67.5
240.494	79.5
240.728	80.5
240.961	69.5
241.195	86.5
241.429	80.5
241.662	63.5
241.896	66.5
242.13	84.5
242.363	85.5
242.597	87.5
242.83	92.5
243.064	72.5
243.298	81.5
243.531	87.5
243.765	85.5
243.998	66.5
244.232	64.5
244.465	75.5
244.699	61.5
244.932	83.5
245.166	78.5
245.399	83.5
245.633	67.5
245.866	72.5
246.099	94.5
246.333	69.5
246.566	72.5
246.8	78.5
247.033	83.5
247.266	69.5
247.5	79.5
247.733	73.5
247.966	79.5
248.2	86.5
248.433	74.5
248.666	67.5
248.899	72.5
249.133	92.5
249.366	98.5
249.599	96.5
249.832	80.5
250.066	89.5
250.299	78.5
250.532	88.5
250.765	56.5
250.998	58.5
251.231	81.5
251.465	80.5
251.698	82.5
251.931	76.5
252.164	68.5
252.397	87.5
252.63	70.5
252.863	83.5
253.096	79.5
253.329	82.5
253.562	82.5
253.795	88.5
254.028	77.5
254.261	81.5
254.494	87.5
254.727	77.5
254.96	82.5
255.193	79.5
255.426	70.5
255.659	68.5
255.892	90.5
256.124	94.5
256.357	82.5
256.59	78.5
256.823	80.5
257.056	79.5
257.289	71.5
257.521	77.5
257.754	69.5
257.987	79.5
258.22	82.5
258.452	75.5
258.685	74.5
258.918	77.5
259.151	81.5
259.383	76.5
259.616	81.5
259.849	78.5
260.081	83.5
260.314	85.5
260.547	90.5
260.779	78.5
261.012	88.5
261.244	85.5
261.477	79.5
261.71	76.5
261.942	84.5
262.175	71.5
262.407	70.5
262.64	70.5
262.872	87.5
263.105	86.5
263.337	92.5
263.57	78.5
263.802	73.5
264.035	88.5
264.267	95.5
264.499	78.5
264.732	71.5
264.964	84.5
265.197	73.5
265.429	80.5
265.661	72.5
265.894	98.5
266.126	72.5
266.358	76.5
266.591	69.5
266.823	84.5
267.055	80.5
267.287	80.5
267.52	75.5
267.752	83.5
267.984	82.5
268.216	85.5
268.448	74.5
268.681	85.5
268.913	83.5
269.145	90.5
269.377	96.5
269.609	84.5
269.841	84.5
270.073	84.5
270.306	90.5
270.538	83.5
270.77	73.5
271.002	76.5
271.234	72.5
271.466	79.5
271.698	90.5
271.93	78.5
272.162	78.5
272.394	84.5
272.626	73.5
272.858	79.5
273.09	83.5
273.322	71.5
273.553	86.5
273.785	68.5
274.017	80.5
274.249	82.5
274.481	98.5
274.713	92.5
274.945	91.5
275.176	89.5
275.408	90.5
275.64	77.5
275.872	78.5
276.104	80.5
276.335	86.5
276.567	93.5
276.799	75.5
277.031	83.5
277.262	81.5
277.494	85.5
277.726	91.5
277.957	74.5
278.189	70.5
278.421	82.5
278.652	102.5
278.884	86.5
279.115	76.5
279.347	80.5
279.579	93.5
279.81	86.5
280.042	100.5
280.273	82.5
280.505	83.5
280.736	82.5
280.968	72.5
281.199	78.5
281.431	81.5
281.662	95.5
281.894	75.5
282.125	86.5
282.356	76.5
282.588	73.5
282.819	86.5
283.051	75.5
283.282	88.5
283.513	95.5
283.745	99.5
283.976	87.5
284.207	86.5
284.439	83.5
284.67	83.5
284.901	83.5
285.132	82.5
285.364	91.5
285.595	103.5
285.826	80.5
286.057	73.5
286.288	103.5
286.52	81.5
286.751	88.5
286.982	91.5
287.213	87.5
287.444	76.5
287.675	68.5
287.906	80.5
288.138	93.5
288.369	86.5
288.6	76.5
288.831	80.5
289.062	87.5
289.293	92.5
289.524	80.5
289.755	83.5
289.986	90.5
290.217	86.5
290.448	84.5
290.679	86.5
290.91	82.5
291.141	83.5
291.371	85.5
291.602	82.5
291.833	79.5
292.064	74.5
292.295	90.5
292.526	84.5
292.757	85.5
292.987	83.5
293.218	83.5
293.449	72.5
293.68	87.5
293.91	84.5
294.141	81.5
294.372	67.5
294.603	78.5
294.833	88.5
295.064	90.5
295.295	79.5
295.525	82.5
295.756	93.5
295.987	81.5
296.217	110.5
296.448	76.5
296.679	76.5
296.909	87.5
297.14	96.5
297.37	71.5
297.601	82.5
297.831	99.5
298.062	77.5
298.292	78.5
298.523	84.5
298.753	86.5
298.984	93.5
299.214	83.5
299.445	85.5
299.675	93.5
299.905	89.5
300.136	81.5
300.366	103.5
300.597	84.5
300.827	76.5
301.057	86.5
301.288	82.5
301.518	75.5
301.748	83.5
301.979	99.5
302.209	87.5
302.439	61.5
302.669	79.5
302.9	77.5
303.13	82.5
303.36	73.5
303.59	84.5
303.82	72.5
304.051	84.5
304.281	76.5
304.511	83.5
304.741	94.5
304.971	83.5
305.201	94.5
305.431	97.5
305.661	68.5
305.891	83.5
306.121	92.5
306.352	84.5
306.582	83.5
306.812	83.5
307.042	88.5
307.272	85.5
307.502	78.5
307.731	89.5
307.961	94.5
308.191	98.5
308.421	90.5
308.651	86.5
308.881	74.5
309.111	92.5
309.341	82.5
309.571	82.5
309.8	97.5
310.03	78.5
310.26	90.5
310.49	81.5
310.72	78.5
310.949	95.5
311.179	81.5
311.409	97.5
311.639	90.5
311.868	75.5
312.098	78.5
312.328	101.5
312.557	87.5
312.787	92.5
313.017	96.5
313.246	73.5
313.476	81.5
313.706	79.5
313.935	97.5
314.165	78.5
314.394	91.5
314.624	78.5
314.853	82.5
315.083	82.5
315.312	87.5
315.542	90.5
315.771	94.5
316.001	93.5
316.23	89.5
316.46	68.5
316.689	87.5
316.919	87.5
317.148	84.5
317.377	86.5
317.607	79.5
317.836	73.5
318.065	80.5
318.295	82.5
318.524	92.5
318.753	78.5
318.983	78.5
319.212	88.5
319.441	86.5
319.67	85.5
319.9	84.5
320.129	86.5
320.358	90.5
320.587	86.5
320.816	77.5
321.046	84.5
321.275	91.5
321.504	86.5
321.733	68.5
321.962	80.5
322.191	78.5
322.42	86.5
322.649	78.5
322.878	99.5
323.108	90.5
323.337	89.5
323.566	86.5
323.795	91.5
324.024	97.5
324.253	89.5
324.482	94.5
324.71	83.5
324.939	74.5
325.168	78.5
325.397	82.5
325.626	80.5
325.855	68.5
326.084	86.5
326.313	79.5
326.542	82.5
326.77	71.5
326.999	72.5
327.228	71.5
327.457	89.5
327.686	77.5
327.914	72.5
328.143	101.5
328.372	78.5
328.6	74.5
328.829	72.5
329.058	102.5
329.287	80.5
329.515	79.5
329.744	95.5
329.972	89.5
330.201	71.5
330.43	79.5
330.658	88.5
330.887	94.5
331.115	81.5
331.344	91.5
331.572	92.5
331.801	87.5
332.03	95.5
332.258	87.5
332.486	82.5
332.715	86.5
332.943	88.5
333.172	82.5
333.4	73.5
333.629	90.5
333.857	86.5
334.085	78.5
334.314	85.5
334.542	87.5
334.771	78.5
334.999	66.5
335.227	76.5
335.455	82.5
335.684	92.5
335.912	85.5
336.14	78.5
336.369	82.5
336.597	75.5
336.825	86.5
337.053	86.5
337.281	87.5
337.51	85.5
337.738	91.5
337.966	78.5
338.194	81.5
338.422	76.5
338.65	80.5
338.878	80.5
339.106	91.5
339.334	76.5
339.562	85.5
339.79	96.5
340.018	78.5
340.246	96.5
340.474	92.5
340.702	91.5
340.93	77.5
341.158	70.5
341.386	83.5
341.614	95.5
341.842	78.5
342.07	78.5
342.298	90.5
342.526	86.5
342.754	68.5
342.981	85.5
343.209	85.5
343.437	90.5
343.665	95.5
343.893	93.5
344.12	94.5
344.348	80.5
344.576	76.5
344.804	85.5
345.031	89.5
345.259	75.5
345.487	84.5
345.714	81.5
345.942	78.5
346.17	84.5
346.397	86.5
346.625	86.5
346.853	93.5
347.08	81.5
347.308	80.5
347.535	76.5
347.763	83.5
347.99	74.5
348.218	84.5
348.445	82.5
348.673	69.5
348.9	79.5
349.128	82.5
349.355	84.5
349.583	76.5
349.81	90.5
350.037	88.5
350.265	86.5
350.492	90.5
350.72	84.5
350.947	83.5
351.174	83.5
351.402	86.5
351.629	92.5
351.856	73.5
352.083	74.5
352.311	77.5
352.538	76.5
352.765	91.5
352.992	90.5
353.22	87.5
353.447	75.5
353.674	96.5
353.901	96.5
354.128	76.5
354.355	78.5
354.583	81.5
354.81	74.5
355.037	95.5
355.264	95.5
355.491	71.5
355.718	76.5
355.945	73.5
356.172	102.5
356.399	94.5
356.626	85.5
356.853	80.5
357.08	88.5
357.307	93.5
357.534	78.5
357.761	84.5
357.988	90.5
358.215	87.5
358.441	78.5
358.668	90.5
358.895	87.5
359.122	90.5
359.349	89.5
359.576	84.5
359.802	74.5
360.029	76.5
360.256	98.5
360.483	73.5
360.709	80.5
360.936	88.5
361.163	70.5
361.39	90.5
361.616	82.5
361.843	78.5
362.07	83.5
362.296	81.5
362.523	84.5
362.749	85.5
362.976	87.5
363.203	93.5
363.429	92.5
363.656	83.5
363.882	79.5
364.109	90.5
364.335	99.5
364.562	84.5
364.788	101.5
365.015	83.5
365.241	87.5
365.468	95.5
365.694	79.5
365.92	76.5
366.147	70.5
366.373	85.5
366.599	92.5
366.826	74.5
367.052	76.5
367.278	81.5
367.505	87.5
367.731	87.5
367.957	70.5
368.184	84.5
368.41	76.5
368.636	82.5
368.862	91.5
369.089	80.5
369.315	82.5
369.541	66.5
369.767	92.5
369.993	92.5
370.219	87.5
370.445	73.5
370.672	84.5
370.898	96.5
371.124	86.5
371.35	86.5
371.576	92.5
371.802	78.5
372.028	83.5
372.254	82.5
372.48	91.5
372.706	84.5
372.932	90.5
373.158	96.5
373.384	84.5
373.61	92.5
373.835	87.5
374.061	92.5
374.287	86.5
374.513	85.5
374.739	90.5
374.965	87.5
375.191	86.5
375.416	85.5
375.642	86.5
375.868	91.5
376.094	85.5
376.319	79.5
376.545	87.5
376.771	85.5
376.997	78.5
377.222	79.5
377.448	80.5
377.674	103.5
377.899	73.5
378.125	93.5
378.35	98.5
378.576	80.5
378.802	87.5
379.027	77.5
379.253	91.5
379.478	98.5
379.704	65.5
379.929	79.5
380.155	78.5
380.38	88.5
380.606	79.5
380.831	82.5
381.057	88.5
381.282	88.5
381.507	90.5
381.733	76.5
381.958	69.5
382.184	95.5
382.409	95.5
382.634	83.5
382.86	93.5
383.085	88.5
383.31	88.5
383.535	85.5
383.761	85.5
383.986	85.5
384.211	85.5
384.436	94.5
384.662	88.5
384.887	73.5
385.112	95.5
385.337	89.5
385.562	70.5
385.787	82.5
386.013	78.5
386.238	92.5
386.463	83.5
386.688	87.5
386.913	84.5
387.138	80.5
387.363	85.5
387.588	79.5
387.813	85.5
388.038	78.5
388.263	84.5
388.488	94.5
388.713	90.5
388.938	84.5
389.163	78.5
389.387	74.5
389.612	86.5
389.837	80.5
390.062	86.5
390.287	80.5
390.512	85.5
390.736	87.5
390.961	78.5
391.186	92.5
391.411	75.5
391.636	66.5
391.86	84.5
392.085	80.5
392.31	88.5
392.534	88.5
392.759	95.5
392.984	112.5
393.208	182.5
393.433	258.5
393.658	204.5
393.882	102.5
394.107	81.5
394.331	88.5
394.556	99.5
394.78	80.5
395.005	96.5
395.229	79.5
395.454	91.5
395.678	77.5
395.903	100.5
396.127	108.5
396.352	108.5
396.576	135.5
396.801	182.5
397.025	223.5
397.249	114.5
397.474	90.5
397.698	75.5
397.922	80.5
398.147	74.5
398.371	88.5
398.595	78.5
398.82	84.5
399.044	69.5
399.268	72.5
399.492	82.5
399.717	70.5
399.941	81.5
400.165	82.5
400.389	81.5
400.613	64.5
400.837	78.5
401.062	78.5
401.286	81.5
401.51	90.5
401.734	81.5
401.958	70.5
402.182	77.5
402.406	80.5
402.63	65.5
402.854	80.5
403.078	82.5
403.302	80.5
403.526	82.5
403.75	80.5
403.974	70.5
404.198	85.5
404.422	90.5
404.645	95.5
404.869	95.5
405.093	79.5
405.317	68.5
405.541	90.5
405.765	75.5
405.988	83.5
406.212	86.5
406.436	78.5
406.66	73.5
406.883	76.5
407.107	90.5
407.331	83.5
407.555	77.5
407.778	85.5
408.002	80.5
408.226	91.5
408.449	86.5
408.673	88.5
408.896	82.5
409.12	94.5
409.344	64.5
409.567	90.5
409.791	73.5
410.014	65.5
410.238	86.5
410.461	92.5
410.685	72.5
410.908	86.5
411.132	96.5
411.355	65.5
411.578	87.5
411.802	98.5
412.025	78.5
412.249	73.5
412.472	83.5
412.695	71.5
412.919	89.5
413.142	70.5
413.365	72.5
413.589	89.5
413.812	78.5
414.035	87.5
414.258	78.5
414.482	81.5
414.705	79.5
414.928	84.5
415.151	84.5
415.374	83.5
415.597	80.5
415.821	82.5
416.044	82.5
416.267	81.5
416.49	73.5
416.713	91.5
416.936	83.5
417.159	88.5
417.382	70.5
417.605	85.5
417.828	85.5
418.051	77.5
418.274	85.5
418.497	91.5
418.72	82.5
418.943	85.5
419.166	68.5
419.389	72.5
419.611	88.5
419.834	81.5
420.057	80.5
420.28	87.5
420.503	79.5
420.726	68.5
420.948	76.5
421.171	86.5
421.394	99.5
421.617	86.5
421.839	93.5
422.062	104.5
422.285	110.5
422.507	120.5
422.73	191.5
422.953	186.5
423.175	102.5
423.398	80.5
423.621	92.5
423.843	85.5
424.066	86.5
424.288	78.5
424.511	75.5
424.733	69.5
424.956	80.5
425.178	78.5
425.401	71.5
425.623	86.5
425.846	70.5
426.068	82.5
426.291	79.5
426.513	86.5
426.735	80.5
426.958	84.5
427.18	68.5
427.402	83.5
427.625	70.5
427.847	70.5
428.069	89.5
428.292	90.5
428.514	93.5
428.736	85.5
428.958	82.5
429.181	82.5
429.403	88.5
429.625	73.5
429.847	83.5
430.069	94.5
430.292	102.5
430.514	110.5
430.736	104.5
430.958	76.5
431.18	74.5
431.402	82.5
431.624	61.5
431.846	98.5
432.068	89.5
432.29	85.5
432.512	84.5
432.734	66.5
432.956	72.5
433.178	75.5
433.4	76.5
433.622	79.5
433.844	58.5
434.066	70.5
434.287	83.5
434.509	64.5
434.731	76.5
434.953	75.5
435.175	87.5
435.397	102.5
435.618	84.5
435.84	91.5
436.062	78.5
436.284	78.5
436.505	80.5
436.727	66.5
436.949	72.5
437.17	80.5
437.392	86.5
437.614	80.5
437.835	91.5
438.057	74.5
438.278	73.5
438.5	84.5
438.721	70.5
438.943	72.5
439.165	84.5
439.386	76.5
439.608	80.5
439.829	71.5
440.05	74.5
440.272	85.5
440.493	81.5
440.715	83.5
440.936	79.5
441.158	89.5
441.379	83.5
441.6	78.5
441.822	86.5
442.043	84.5
442.264	85.5
442.486	80.5
442.707	83.5
442.928	74.5
443.149	70.5
443.371	89.5
443.592	110.5
443.813	108.5
444.034	72.5
444.255	78.5
444.476	104.5
444.698	82.5
444.919	71.5
445.14	147.5
445.361	126.5
445.582	112.5
445.803	109.5
446.024	80.5
446.245	82.5
446.466	92.5
446.687	62.5
446.908	84.5
447.129	74.5
447.35	85.5
447.571	90.5
447.792	94.5
448.013	70.5
448.234	58.5
448.455	61.5
448.675	79.5
448.896	82.5
449.117	55.5
449.338	70.5
449.559	70.5
449.779	69.5
450	77.5
450.221	84.5
450.442	79.5
450.662	102.5
450.883	87.5
451.104	80.5
451.324	78.5
451.545	77.5
451.766	74.5
451.986	89.5
452.207	82.5
452.428	88.5
452.648	84.5
452.869	70.5
453.089	92.5
453.31	81.5
453.53	75.5
453.751	74.5
453.971	71.5
454.192	70.5
454.412	86.5
454.633	68.5
454.853	71.5
455.073	82.5
455.294	84.5
455.514	90.5
455.734	85.5
455.955	75.5
456.175	86.5
456.395	90.5
456.616	82.5
456.836	79.5
457.056	83.5
457.276	63.5
457.497	87.5
457.717	79.5
457.937	90.5
458.157	73.5
458.377	82.5
458.598	84.5
458.818	78.5
459.038	78.5
459.258	85.5
459.478	69.5
459.698	83.5
459.918	81.5
460.138	72.5
460.358	73.5
460.578	74.5
460.798	71.5
461.018	90.5
461.238	76.5
461.458	79.5
461.678	81.5
461.898	70.5
462.118	84.5
462.338	96.5
462.558	66.5
462.777	99.5
462.997	91.5
463.217	71.5
463.437	80.5
463.657	82.5
463.876	86.5
464.096	68.5
464.316	81.5
464.536	79.5
464.755	72.5
464.975	76.5
465.195	72.5
465.414	91.5
465.634	87.5
465.854	79.5
466.073	73.5
466.293	78.5
466.512	82.5
466.732	78.5
466.951	75.5
467.171	85.5
467.391	79.5
467.61	84.5
467.829	78.5
468.049	88.5
468.268	76.5
468.488	71.5
468.707	59.5
468.927	67.5
469.146	71.5
469.365	70.5
469.585	85.5
469.804	95.5
470.023	77.5
470.243	86.5
470.462	82.5
470.681	84.5
470.901	87.5
471.12	84.5
471.339	85.5
471.558	71.5
471.777	78.5
471.997	90.5
472.216	80.5
472.435	84.5
472.654	76.5
472.873	82.5
473.092	85.5
473.311	70.5
473.53	78.5
473.749	87.5
473.968	86.5
474.187	83.5
474.406	70.5
474.625	73.5
474.844	70.5
475.063	69.5
475.282	70.5
475.501	80.5
475.72	87.5
475.939	76.5
476.158	91.5
476.377	84.5
476.596	76.5
476.814	78.5
477.033	74.5
477.252	71.5
477.471	84.5
477.69	72.5
477.908	82.5
478.127	87.5
478.346	71.5
478.564	70.5
478.783	76.5
479.002	80.5
479.22	66.5
479.439	85.5
479.658	86.5
479.876	93.5
480.095	76.5
480.313	88.5
480.532	78.5
480.751	77.5
480.969	88.5
481.188	82.5
481.406	78.5
481.624	82.5
481.843	72.5
482.061	84.5
482.28	83.5
482.498	78.5
482.717	61.5
482.935	86.5
483.153	64.5
483.372	68.5
483.59	78.5
483.808	73.5
484.027	81.5
484.245	79.5
484.463	75.5
484.681	85.5
484.9	84.5
485.118	86.5
485.336	82.5
485.554	85.5
485.772	75.5
485.99	71.5
486.209	79.5
486.427	79.5
486.645	89.5
486.863	66.5
487.081	73.5
487.299	92.5
487.517	66.5
487.735	78.5
487.953	78.5
488.171	86.5
488.389	89.5
488.607	82.5
488.825	89.5
489.043	78.5
489.261	84.5
489.479	86.5
489.696	94.5
489.914	94.5
490.132	93.5
490.35	63.5
490.568	89.5
490.786	89.5
491.003	85.5
491.221	80.5
491.439	77.5
491.657	80.5
491.874	85.5
492.092	70.5
492.31	73.5
492.527	73.5
492.745	86.5
492.963	70.5
493.18	76.5
493.398	66.5
493.615	82.5
493.833	75.5
494.05	73.5
494.268	77.5
494.485	85.5
494.703	88.5
494.92	79.5
495.138	82.5
495.355	83.5
495.573	89.5
495.79	68.5
496.008	90.5
496.225	78.5
496.442	74.5
496.66	83.5
496.877	62.5
497.094	94.5
497.312	84.5
497.529	80.5
497.746	90.5
497.963	80.5
498.181	75.5
498.398	79.5
498.615	73.5
498.832	78.5
499.049	75.5
499.267	78.5
499.484	89.5
499.701	90.5
499.918	83.5
500.135	90.5
500.352	91.5
500.569	71.5
500.786	80.5
501.003	94.5
501.22	82.5
501.437	70.5
501.654	97.5
501.871	96.5
502.088	80.5
502.305	79.5
502.522	86.5
502.739	91.5
502.956	88.5
503.172	90.5
503.389	79.5
503.606	68.5
503.823	86.5
504.04	72.5
504.256	94.5
504.473	86.5
504.69	78.5
504.907	90.5
505.123	83.5
505.34	94.5
505.557	85.5
505.773	70.5
505.99	92.5
506.207	86.5
506.423	78.5
506.64	86.5
506.856	85.5
507.073	80.5
507.289	81.5
507.506	74.5
507.722	80.5
507.939	82.5
508.155	75.5
508.372	76.5
508.588	63.5
508.805	79.5
509.021	74.5
509.238	84.5
509.454	74.5
509.67	73.5
509.887	76.5
510.103	81.5
510.319	62.5
510.536	70.5
510.752	92.5
510.968	89.5
511.184	83.5
511.401	65.5
511.617	93.5
511.833	85.5
512.049	84.5
512.265	78.5
512.481	83.5
512.698	77.5
512.914	72.5
513.13	84.5
513.346	80.5
513.562	79.5
513.778	93.5
513.994	74.5
514.21	73.5
514.426	86.5
514.642	81.5
514.858	95.5
515.074	87.5
515.29	93.5
515.506	96.5
515.721	81.5
515.937	89.5
516.153	78.5
516.369	82.5
516.585	76.5
516.801	78.5
517.016	76.5
517.232	98.5
517.448	95.5
517.664	80.5
517.879	83.5
518.095	90.5
518.311	84.5
518.527	87.5
518.742	82.5
518.958	81.5
519.173	82.5
519.389	76.5
519.605	84.5
519.82	94.5
520.036	82.5
520.251	80.5
520.467	86.5
520.682	80.5
520.898	82.5
521.113	82.5
521.329	79.5
521.544	91.5
521.76	82.5
521.975	70.5
522.19	80.5
522.406	82.5
522.621	86.5
522.836	83.5
523.052	86.5
523.267	82.5
523.482	88.5
523.698	88.5
523.913	69.5
524.128	90.5
524.343	84.5
524.559	81.5
524.774	83.5
524.989	66.5
525.204	68.5
525.419	75.5
525.634	83.5
525.849	76.5
526.064	82.5
526.28	99.5
526.495	99.5
526.71	95.5
526.925	87.5
527.14	100.5
527.355	104.5
527.57	85.5
527.785	79.5
527.999	83.5
528.214	84.5
528.429	71.5
528.644	80.5
528.859	72.5
529.074	84.5
529.289	70.5
529.503	87.5
529.718	78.5
529.933	90.5
530.148	78.5
530.363	84.5
530.577	76.5
530.792	76.5
531.007	86.5
531.221	86.5
531.436	87.5
531.651	90.5
531.865	92.5
532.08	76.5
532.295	82.5
532.509	82.5
532.724	75.5
532.938	72.5
533.153	82.5
533.367	88.5
533.582	82.5
533.796	80.5
534.011	88.5
534.225	80.5
534.44	68.5
534.654	95.5
534.868	61.5
535.083	97.5
535.297	83.5
535.511	87.5
535.726	86.5
535.94	79.5
536.154	80.5
536.369	95.5
536.583	82.5
536.797	87.5
537.011	95.5
537.225	89.5
537.44	85.5
537.654	88.5
537.868	90.5
538.082	90.5
538.296	90.5
538.51	80.5
538.724	87.5
538.938	92.5
539.153	82.5
539.367	82.5
539.581	91.5
539.795	83.5
540.009	93.5
