Data from 1600_3_HRD10591_00045.txt Node
Date: Mon Jan 19 13:55:15 EST 2026
User: Yrep
Spectrometer: HR+D1059
Trigger mode: 1
Integration Time (sec): 1.000000E-1
Scans to average: 1
Electric dark correction enabled: true
Nonlinearity correction enabled: false
Boxcar width: 0
XAxis mode: Wavelengths
Number of Pixels in Spectrum: 2048
>>>>>Begin Spectral Data<<<<<
223.165	-33.5
223.4	-33.5
223.635	-33.5
223.869	-11.5
224.104	-11.5
224.338	-9.5
224.573	-17.5
224.808	-22.5
225.042	-9.5
225.277	7.5
225.511	0.5
225.746	-2.5
225.98	6.5
226.215	15.5
226.449	3.5
226.683	17.5
226.918	29.5
227.152	37.5
227.387	23.5
227.621	35.5
227.856	47.5
228.09	42.5
228.324	46.5
228.559	50.5
228.793	57.5
229.027	67.5
229.262	64.5
229.496	86.5
229.73	59.5
229.964	61.5
230.199	70.5
230.433	67.5
230.667	66.5
230.901	76.5
231.136	77.5
231.37	74.5
231.604	74.5
231.838	77.5
232.072	87.5
232.306	80.5
232.541	89.5
232.775	73.5
233.009	80.5
233.243	80.5
233.477	82.5
233.711	82.5
233.945	74.5
234.179	71.5
234.413	71.5
234.647	85.5
234.881	71.5
235.115	59.5
235.349	83.5
235.583	67.5
235.817	80.5
236.051	72.5
236.285	69.5
236.519	85.5
236.753	84.5
236.987	81.5
237.221	65.5
237.455	71.5
237.689	70.5
237.922	72.5
238.156	77.5
238.39	74.5
238.624	79.5
238.858	63.5
239.091	70.5
239.325	78.5
239.559	69.5
239.793	67.5
240.027	79.5
240.26	80.5
240.494	81.5
240.728	61.5
240.961	77.5
241.195	58.5
241.429	76.5
241.662	65.5
241.896	59.5
242.13	80.5
242.363	82.5
242.597	67.5
242.83	79.5
243.064	77.5
243.298	80.5
243.531	74.5
243.765	69.5
243.998	59.5
244.232	69.5
244.465	59.5
244.699	81.5
244.932	67.5
245.166	75.5
245.399	54.5
245.633	61.5
245.866	62.5
246.099	84.5
246.333	73.5
246.566	77.5
246.8	79.5
247.033	67.5
247.266	83.5
247.5	81.5
247.733	76.5
247.966	80.5
248.2	79.5
248.433	73.5
248.666	87.5
248.899	82.5
249.133	78.5
249.366	68.5
249.599	69.5
249.832	61.5
250.066	84.5
250.299	68.5
250.532	74.5
250.765	76.5
250.998	59.5
251.231	67.5
251.465	66.5
251.698	71.5
251.931	76.5
252.164	79.5
252.397	74.5
252.63	68.5
252.863	79.5
253.096	90.5
253.329	66.5
253.562	81.5
253.795	67.5
254.028	93.5
254.261	74.5
254.494	73.5
254.727	83.5
254.96	73.5
255.193	78.5
255.426	73.5
255.659	89.5
255.892	75.5
256.124	63.5
256.357	73.5
256.59	70.5
256.823	84.5
257.056	94.5
257.289	66.5
257.521	88.5
257.754	85.5
257.987	72.5
258.22	82.5
258.452	75.5
258.685	79.5
258.918	82.5
259.151	91.5
259.383	67.5
259.616	82.5
259.849	86.5
260.081	70.5
260.314	72.5
260.547	75.5
260.779	62.5
261.012	80.5
261.244	73.5
261.477	70.5
261.71	87.5
261.942	85.5
262.175	79.5
262.407	72.5
262.64	77.5
262.872	85.5
263.105	64.5
263.337	89.5
263.57	75.5
263.802	61.5
264.035	73.5
264.267	87.5
264.499	79.5
264.732	89.5
264.964	72.5
265.197	89.5
265.429	85.5
265.661	78.5
265.894	82.5
266.126	74.5
266.358	75.5
266.591	77.5
266.823	95.5
267.055	94.5
267.287	90.5
267.52	92.5
267.752	71.5
267.984	90.5
268.216	79.5
268.448	76.5
268.681	75.5
268.913	87.5
269.145	65.5
269.377	84.5
269.609	86.5
269.841	90.5
270.073	82.5
270.306	67.5
270.538	73.5
270.77	75.5
271.002	74.5
271.234	77.5
271.466	77.5
271.698	86.5
271.93	84.5
272.162	78.5
272.394	75.5
272.626	75.5
272.858	75.5
273.09	81.5
273.322	77.5
273.553	89.5
273.785	90.5
274.017	90.5
274.249	72.5
274.481	74.5
274.713	84.5
274.945	81.5
275.176	74.5
275.408	82.5
275.64	88.5
275.872	77.5
276.104	69.5
276.335	74.5
276.567	79.5
276.799	66.5
277.031	83.5
277.262	85.5
277.494	79.5
277.726	89.5
277.957	82.5
278.189	71.5
278.421	91.5
278.652	86.5
278.884	75.5
279.115	80.5
279.347	83.5
279.579	81.5
279.81	95.5
280.042	91.5
280.273	78.5
280.505	81.5
280.736	81.5
280.968	87.5
281.199	90.5
281.431	75.5
281.662	82.5
281.894	82.5
282.125	81.5
282.356	72.5
282.588	91.5
282.819	73.5
283.051	93.5
283.282	91.5
283.513	97.5
283.745	82.5
283.976	78.5
284.207	78.5
284.439	86.5
284.67	92.5
284.901	82.5
285.132	89.5
285.364	81.5
285.595	82.5
285.826	81.5
286.057	80.5
286.288	74.5
286.52	82.5
286.751	75.5
286.982	100.5
287.213	95.5
287.444	84.5
287.675	81.5
287.906	83.5
288.138	93.5
288.369	86.5
288.6	86.5
288.831	66.5
289.062	80.5
289.293	81.5
289.524	77.5
289.755	82.5
289.986	73.5
290.217	75.5
290.448	86.5
290.679	92.5
290.91	73.5
291.141	76.5
291.371	71.5
291.602	74.5
291.833	72.5
292.064	66.5
292.295	81.5
292.526	67.5
292.757	79.5
292.987	77.5
293.218	79.5
293.449	86.5
293.68	92.5
293.91	87.5
294.141	90.5
294.372	90.5
294.603	81.5
294.833	86.5
295.064	84.5
295.295	86.5
295.525	82.5
295.756	94.5
295.987	94.5
296.217	75.5
296.448	83.5
296.679	90.5
296.909	84.5
297.14	85.5
297.37	76.5
297.601	90.5
297.831	73.5
298.062	87.5
298.292	70.5
298.523	72.5
298.753	95.5
298.984	73.5
299.214	82.5
299.445	71.5
299.675	106.5
299.905	92.5
300.136	73.5
300.366	79.5
300.597	79.5
300.827	82.5
301.057	84.5
301.288	82.5
301.518	89.5
301.748	88.5
301.979	93.5
302.209	81.5
302.439	88.5
302.669	79.5
302.9	84.5
303.13	88.5
303.36	88.5
303.59	95.5
303.82	99.5
304.051	87.5
304.281	90.5
304.511	70.5
304.741	87.5
304.971	76.5
305.201	77.5
305.431	83.5
305.661	91.5
305.891	87.5
306.121	91.5
306.352	79.5
306.582	75.5
306.812	81.5
307.042	86.5
307.272	77.5
307.502	97.5
307.731	83.5
307.961	91.5
308.191	90.5
308.421	75.5
308.651	85.5
308.881	90.5
309.111	75.5
309.341	91.5
309.571	94.5
309.8	88.5
310.03	75.5
310.26	90.5
310.49	70.5
310.72	83.5
310.949	77.5
311.179	79.5
311.409	74.5
311.639	84.5
311.868	79.5
312.098	74.5
312.328	84.5
312.557	79.5
312.787	93.5
313.017	80.5
313.246	92.5
313.476	85.5
313.706	86.5
313.935	69.5
314.165	79.5
314.394	85.5
314.624	85.5
314.853	81.5
315.083	84.5
315.312	79.5
315.542	105.5
315.771	84.5
316.001	92.5
316.23	79.5
316.46	86.5
316.689	87.5
316.919	85.5
317.148	67.5
317.377	76.5
317.607	85.5
317.836	98.5
318.065	93.5
318.295	87.5
318.524	84.5
318.753	82.5
318.983	80.5
319.212	92.5
319.441	82.5
319.67	89.5
319.9	85.5
320.129	79.5
320.358	83.5
320.587	83.5
320.816	83.5
321.046	89.5
321.275	90.5
321.504	85.5
321.733	85.5
321.962	89.5
322.191	89.5
322.42	76.5
322.649	83.5
322.878	98.5
323.108	96.5
323.337	76.5
323.566	83.5
323.795	90.5
324.024	75.5
324.253	85.5
324.482	77.5
324.71	78.5
324.939	91.5
325.168	81.5
325.397	89.5
325.626	75.5
325.855	85.5
326.084	78.5
326.313	74.5
326.542	102.5
326.77	94.5
326.999	92.5
327.228	69.5
327.457	80.5
327.686	91.5
327.914	89.5
328.143	73.5
328.372	70.5
328.6	75.5
328.829	57.5
329.058	79.5
329.287	86.5
329.515	74.5
329.744	82.5
329.972	70.5
330.201	70.5
330.43	78.5
330.658	84.5
330.887	86.5
331.115	84.5
331.344	87.5
331.572	93.5
331.801	80.5
332.03	91.5
332.258	84.5
332.486	73.5
332.715	86.5
332.943	71.5
333.172	85.5
333.4	73.5
333.629	81.5
333.857	86.5
334.085	93.5
334.314	79.5
334.542	74.5
334.771	92.5
334.999	72.5
335.227	84.5
335.455	89.5
335.684	79.5
335.912	72.5
336.14	99.5
336.369	80.5
336.597	88.5
336.825	82.5
337.053	84.5
337.281	87.5
337.51	76.5
337.738	77.5
337.966	85.5
338.194	79.5
338.422	85.5
338.65	86.5
338.878	81.5
339.106	81.5
339.334	89.5
339.562	61.5
339.79	73.5
340.018	87.5
340.246	80.5
340.474	80.5
340.702	81.5
340.93	82.5
341.158	82.5
341.386	77.5
341.614	89.5
341.842	75.5
342.07	86.5
342.298	76.5
342.526	93.5
342.754	87.5
342.981	78.5
343.209	66.5
343.437	90.5
343.665	75.5
343.893	90.5
344.12	94.5
344.348	84.5
344.576	86.5
344.804	80.5
345.031	82.5
345.259	84.5
345.487	73.5
345.714	79.5
345.942	78.5
346.17	93.5
346.397	75.5
346.625	82.5
346.853	87.5
347.08	83.5
347.308	79.5
347.535	94.5
347.763	75.5
347.99	98.5
348.218	89.5
348.445	84.5
348.673	78.5
348.9	82.5
349.128	85.5
349.355	67.5
349.583	86.5
349.81	79.5
350.037	71.5
350.265	81.5
350.492	77.5
350.72	75.5
350.947	89.5
351.174	87.5
351.402	75.5
351.629	89.5
351.856	79.5
352.083	90.5
352.311	80.5
352.538	77.5
352.765	83.5
352.992	92.5
353.22	89.5
353.447	68.5
353.674	69.5
353.901	92.5
354.128	82.5
354.355	90.5
354.583	72.5
354.81	81.5
355.037	88.5
355.264	83.5
355.491	79.5
355.718	85.5
355.945	83.5
356.172	85.5
356.399	85.5
356.626	87.5
356.853	91.5
357.08	83.5
357.307	89.5
357.534	93.5
357.761	92.5
357.988	90.5
358.215	107.5
358.441	89.5
358.668	80.5
358.895	76.5
359.122	76.5
359.349	84.5
359.576	80.5
359.802	80.5
360.029	84.5
360.256	85.5
360.483	68.5
360.709	82.5
360.936	81.5
361.163	74.5
361.39	65.5
361.616	87.5
361.843	84.5
362.07	93.5
362.296	86.5
362.523	82.5
362.749	78.5
362.976	84.5
363.203	83.5
363.429	93.5
363.656	89.5
363.882	87.5
364.109	95.5
364.335	106.5
364.562	102.5
364.788	87.5
365.015	105.5
365.241	83.5
365.468	77.5
365.694	83.5
365.92	79.5
366.147	82.5
366.373	75.5
366.599	91.5
366.826	86.5
367.052	84.5
367.278	88.5
367.505	83.5
367.731	91.5
367.957	77.5
368.184	85.5
368.41	83.5
368.636	79.5
368.862	87.5
369.089	82.5
369.315	74.5
369.541	91.5
369.767	89.5
369.993	83.5
370.219	70.5
370.445	84.5
370.672	84.5
370.898	92.5
371.124	89.5
371.35	83.5
371.576	74.5
371.802	80.5
372.028	89.5
372.254	81.5
372.48	91.5
372.706	78.5
372.932	84.5
373.158	83.5
373.384	100.5
373.61	107.5
373.835	113.5
374.061	86.5
374.287	90.5
374.513	93.5
374.739	90.5
374.965	81.5
375.191	88.5
375.416	85.5
375.642	70.5
375.868	101.5
376.094	91.5
376.319	92.5
376.545	77.5
376.771	80.5
376.997	79.5
377.222	72.5
377.448	89.5
377.674	91.5
377.899	71.5
378.125	78.5
378.35	75.5
378.576	84.5
378.802	78.5
379.027	76.5
379.253	90.5
379.478	91.5
379.704	77.5
379.929	89.5
380.155	84.5
380.38	87.5
380.606	72.5
380.831	75.5
381.057	81.5
381.282	85.5
381.507	97.5
381.733	81.5
381.958	92.5
382.184	81.5
382.409	85.5
382.634	99.5
382.86	88.5
383.085	93.5
383.31	92.5
383.535	101.5
383.761	90.5
383.986	93.5
384.211	86.5
384.436	75.5
384.662	83.5
384.887	87.5
385.112	75.5
385.337	85.5
385.562	85.5
385.787	89.5
386.013	97.5
386.238	78.5
386.463	71.5
386.688	97.5
386.913	97.5
387.138	81.5
387.363	82.5
387.588	85.5
387.813	76.5
388.038	79.5
388.263	112.5
388.488	86.5
388.713	93.5
388.938	79.5
389.163	86.5
389.387	71.5
389.612	75.5
389.837	90.5
390.062	97.5
390.287	78.5
390.512	64.5
390.736	95.5
390.961	81.5
391.186	77.5
391.411	76.5
391.636	75.5
391.86	72.5
392.085	69.5
392.31	71.5
392.534	91.5
392.759	95.5
392.984	131.5
393.208	242.5
393.433	336.5
393.658	252.5
393.882	123.5
394.107	105.5
394.331	94.5
394.556	111.5
394.78	98.5
395.005	82.5
395.229	88.5
395.454	84.5
395.678	85.5
395.903	85.5
396.127	101.5
396.352	124.5
396.576	150.5
396.801	224.5
397.025	301.5
397.249	138.5
397.474	87.5
397.698	80.5
397.922	79.5
398.147	73.5
398.371	77.5
398.595	84.5
398.82	84.5
399.044	75.5
399.268	78.5
399.492	84.5
399.717	91.5
399.941	67.5
400.165	89.5
400.389	89.5
400.613	85.5
400.837	88.5
401.062	75.5
401.286	76.5
401.51	97.5
401.734	69.5
401.958	75.5
402.182	81.5
402.406	89.5
402.63	82.5
402.854	79.5
403.078	82.5
403.302	81.5
403.526	70.5
403.75	67.5
403.974	74.5
404.198	80.5
404.422	94.5
404.645	83.5
404.869	74.5
405.093	84.5
405.317	80.5
405.541	90.5
405.765	85.5
405.988	90.5
406.212	79.5
406.436	70.5
406.66	83.5
406.883	71.5
407.107	78.5
407.331	73.5
407.555	82.5
407.778	81.5
408.002	94.5
408.226	78.5
408.449	74.5
408.673	76.5
408.896	77.5
409.12	71.5
409.344	82.5
409.567	68.5
409.791	89.5
410.014	80.5
410.238	81.5
410.461	87.5
410.685	86.5
410.908	77.5
411.132	80.5
411.355	92.5
411.578	91.5
411.802	66.5
412.025	63.5
412.249	71.5
412.472	83.5
412.695	85.5
412.919	78.5
413.142	73.5
413.365	95.5
413.589	77.5
413.812	78.5
414.035	83.5
414.258	77.5
414.482	74.5
414.705	78.5
414.928	81.5
415.151	82.5
415.374	71.5
415.597	78.5
415.821	65.5
416.044	77.5
416.267	85.5
416.49	82.5
416.713	72.5
416.936	82.5
417.159	75.5
417.382	77.5
417.605	83.5
417.828	82.5
418.051	70.5
418.274	86.5
418.497	74.5
418.72	78.5
418.943	90.5
419.166	84.5
419.389	78.5
419.611	71.5
419.834	90.5
420.057	74.5
420.28	71.5
420.503	71.5
420.726	77.5
420.948	69.5
421.171	87.5
421.394	91.5
421.617	80.5
421.839	87.5
422.062	74.5
422.285	102.5
422.507	146.5
422.73	218.5
422.953	202.5
423.175	121.5
423.398	80.5
423.621	81.5
423.843	79.5
424.066	86.5
424.288	66.5
424.511	78.5
424.733	82.5
424.956	76.5
425.178	97.5
425.401	86.5
425.623	89.5
425.846	70.5
426.068	83.5
426.291	75.5
426.513	80.5
426.735	79.5
426.958	82.5
427.18	95.5
427.402	77.5
427.625	77.5
427.847	94.5
428.069	86.5
428.292	96.5
428.514	98.5
428.736	93.5
428.958	99.5
429.181	96.5
429.403	79.5
429.625	88.5
429.847	92.5
430.069	110.5
430.292	117.5
430.514	115.5
430.736	97.5
430.958	100.5
431.18	75.5
431.402	82.5
431.624	85.5
431.846	102.5
432.068	96.5
432.29	89.5
432.512	82.5
432.734	88.5
432.956	72.5
433.178	77.5
433.4	68.5
433.622	76.5
433.844	74.5
434.066	75.5
434.287	60.5
434.509	73.5
434.731	73.5
434.953	71.5
435.175	79.5
435.397	84.5
435.618	89.5
435.84	91.5
436.062	66.5
436.284	69.5
436.505	72.5
436.727	78.5
436.949	84.5
437.17	81.5
437.392	82.5
437.614	84.5
437.835	72.5
438.057	81.5
438.278	65.5
438.5	80.5
438.721	67.5
438.943	74.5
439.165	75.5
439.386	82.5
439.608	81.5
439.829	78.5
440.05	72.5
440.272	74.5
440.493	77.5
440.715	81.5
440.936	70.5
441.158	79.5
441.379	74.5
441.6	88.5
441.822	89.5
442.043	85.5
442.264	71.5
442.486	100.5
442.707	106.5
442.928	75.5
443.149	95.5
443.371	111.5
443.592	136.5
443.813	122.5
444.034	86.5
444.255	89.5
444.476	85.5
444.698	81.5
444.919	75.5
445.14	164.5
445.361	146.5
445.582	176.5
445.803	129.5
446.024	95.5
446.245	79.5
446.466	81.5
446.687	90.5
446.908	70.5
447.129	85.5
447.35	82.5
447.571	80.5
447.792	77.5
448.013	78.5
448.234	77.5
448.455	76.5
448.675	66.5
448.896	71.5
449.117	70.5
449.338	71.5
449.559	75.5
449.779	73.5
450	69.5
450.221	77.5
450.442	77.5
450.662	68.5
450.883	73.5
451.104	75.5
451.324	82.5
451.545	75.5
451.766	70.5
451.986	84.5
452.207	68.5
452.428	77.5
452.648	87.5
452.869	81.5
453.089	72.5
453.31	80.5
453.53	59.5
453.751	89.5
453.971	84.5
454.192	69.5
454.412	87.5
454.633	69.5
454.853	82.5
455.073	76.5
455.294	85.5
455.514	70.5
455.734	79.5
455.955	82.5
456.175	84.5
456.395	89.5
456.616	77.5
456.836	71.5
457.056	77.5
457.276	74.5
457.497	81.5
457.717	75.5
457.937	71.5
458.157	93.5
458.377	72.5
458.598	93.5
458.818	89.5
459.038	90.5
459.258	87.5
459.478	75.5
459.698	85.5
459.918	79.5
460.138	81.5
460.358	78.5
460.578	90.5
460.798	84.5
461.018	87.5
461.238	89.5
461.458	79.5
461.678	89.5
461.898	93.5
462.118	85.5
462.338	62.5
462.558	83.5
462.777	85.5
462.997	68.5
463.217	77.5
463.437	70.5
463.657	74.5
463.876	88.5
464.096	86.5
464.316	84.5
464.536	81.5
464.755	75.5
464.975	91.5
465.195	67.5
465.414	75.5
465.634	71.5
465.854	79.5
466.073	81.5
466.293	74.5
466.512	79.5
466.732	77.5
466.951	82.5
467.171	67.5
467.391	75.5
467.61	78.5
467.829	76.5
468.049	71.5
468.268	79.5
468.488	71.5
468.707	66.5
468.927	87.5
469.146	75.5
469.365	85.5
469.585	78.5
469.804	80.5
470.023	70.5
470.243	67.5
470.462	81.5
470.681	84.5
470.901	79.5
471.12	79.5
471.339	81.5
471.558	80.5
471.777	69.5
471.997	79.5
472.216	78.5
472.435	88.5
472.654	59.5
472.873	86.5
473.092	80.5
473.311	70.5
473.53	67.5
473.749	72.5
473.968	70.5
474.187	75.5
474.406	87.5
474.625	77.5
474.844	89.5
475.063	76.5
475.282	83.5
475.501	65.5
475.72	68.5
475.939	68.5
476.158	90.5
476.377	81.5
476.596	81.5
476.814	81.5
477.033	68.5
477.252	86.5
477.471	67.5
477.69	89.5
477.908	68.5
478.127	80.5
478.346	78.5
478.564	82.5
478.783	71.5
479.002	89.5
479.22	76.5
479.439	81.5
479.658	95.5
479.876	78.5
480.095	85.5
480.313	70.5
480.532	71.5
480.751	89.5
480.969	72.5
481.188	78.5
481.406	92.5
481.624	75.5
481.843	62.5
482.061	82.5
482.28	86.5
482.498	81.5
482.717	70.5
482.935	89.5
483.153	85.5
483.372	87.5
483.59	82.5
483.808	86.5
484.027	75.5
484.245	75.5
484.463	74.5
484.681	91.5
484.9	76.5
485.118	85.5
485.336	81.5
485.554	74.5
485.772	87.5
485.99	80.5
486.209	88.5
486.427	69.5
486.645	81.5
486.863	66.5
487.081	90.5
487.299	94.5
487.517	81.5
487.735	75.5
487.953	87.5
488.171	76.5
488.389	77.5
488.607	71.5
488.825	67.5
489.043	81.5
489.261	86.5
489.479	81.5
489.696	82.5
489.914	71.5
490.132	66.5
490.35	79.5
490.568	85.5
490.786	95.5
491.003	98.5
491.221	69.5
491.439	79.5
491.657	69.5
491.874	79.5
492.092	83.5
492.31	66.5
492.527	76.5
492.745	76.5
492.963	84.5
493.18	83.5
493.398	86.5
493.615	85.5
493.833	80.5
494.05	60.5
494.268	81.5
494.485	80.5
494.703	75.5
494.92	85.5
495.138	83.5
495.355	91.5
495.573	83.5
495.79	90.5
496.008	81.5
496.225	94.5
496.442	77.5
496.66	83.5
496.877	81.5
497.094	93.5
497.312	82.5
497.529	80.5
497.746	79.5
497.963	69.5
498.181	90.5
498.398	86.5
498.615	83.5
498.832	82.5
499.049	75.5
499.267	87.5
499.484	87.5
499.701	65.5
499.918	65.5
500.135	82.5
500.352	70.5
500.569	79.5
500.786	84.5
501.003	81.5
501.22	67.5
501.437	84.5
501.654	73.5
501.871	85.5
502.088	89.5
502.305	83.5
502.522	95.5
502.739	97.5
502.956	77.5
503.172	83.5
503.389	80.5
503.606	77.5
503.823	89.5
504.04	86.5
504.256	90.5
504.473	83.5
504.69	79.5
504.907	79.5
505.123	74.5
505.34	64.5
505.557	70.5
505.773	81.5
505.99	79.5
506.207	82.5
506.423	93.5
506.64	73.5
506.856	89.5
507.073	73.5
507.289	90.5
507.506	79.5
507.722	81.5
507.939	83.5
508.155	82.5
508.372	91.5
508.588	68.5
508.805	93.5
509.021	63.5
509.238	78.5
509.454	68.5
509.67	70.5
509.887	83.5
510.103	75.5
510.319	87.5
510.536	89.5
510.752	95.5
510.968	84.5
511.184	86.5
511.401	79.5
511.617	87.5
511.833	84.5
512.049	75.5
512.265	78.5
512.481	86.5
512.698	82.5
512.914	74.5
513.13	84.5
513.346	76.5
513.562	77.5
513.778	78.5
513.994	63.5
514.21	73.5
514.426	69.5
514.642	84.5
514.858	87.5
515.074	78.5
515.29	85.5
515.506	84.5
515.721	79.5
515.937	79.5
516.153	87.5
516.369	70.5
516.585	82.5
516.801	93.5
517.016	86.5
517.232	91.5
517.448	88.5
517.664	95.5
517.879	72.5
518.095	76.5
518.311	89.5
518.527	100.5
518.742	83.5
518.958	100.5
519.173	91.5
519.389	71.5
519.605	68.5
519.82	80.5
520.036	89.5
520.251	74.5
520.467	82.5
520.682	79.5
520.898	84.5
521.113	79.5
521.329	83.5
521.544	95.5
521.76	79.5
521.975	71.5
522.19	82.5
522.406	87.5
522.621	77.5
522.836	72.5
523.052	60.5
523.267	69.5
523.482	66.5
523.698	77.5
523.913	87.5
524.128	77.5
524.343	91.5
524.559	77.5
524.774	86.5
524.989	80.5
525.204	85.5
525.419	70.5
525.634	73.5
525.849	83.5
526.064	83.5
526.28	124.5
526.495	117.5
526.71	136.5
526.925	119.5
527.14	134.5
527.355	138.5
527.57	77.5
527.785	82.5
527.999	76.5
528.214	75.5
528.429	96.5
528.644	87.5
528.859	90.5
529.074	85.5
529.289	88.5
529.503	83.5
529.718	88.5
529.933	89.5
530.148	73.5
530.363	89.5
530.577	93.5
530.792	68.5
531.007	78.5
531.221	84.5
531.436	79.5
531.651	82.5
531.865	76.5
532.08	77.5
532.295	78.5
532.509	85.5
532.724	85.5
532.938	72.5
533.153	75.5
533.367	75.5
533.582	83.5
533.796	79.5
534.011	76.5
534.225	77.5
534.44	89.5
534.654	85.5
534.868	79.5
535.083	95.5
535.297	117.5
535.511	95.5
535.726	79.5
535.94	76.5
536.154	89.5
536.369	97.5
536.583	79.5
536.797	79.5
537.011	79.5
537.225	89.5
537.44	70.5
537.654	73.5
537.868	75.5
538.082	96.5
538.296	90.5
538.51	78.5
538.724	98.5
538.938	83.5
539.153	84.5
539.367	68.5
539.581	86.5
539.795	80.5
540.009	73.5
