Data from 1600_3_HRD10591_00020.txt Node
Date: Mon Jan 19 13:55:03 EST 2026
User: Yrep
Spectrometer: HR+D1059
Trigger mode: 1
Integration Time (sec): 1.000000E-1
Scans to average: 1
Electric dark correction enabled: true
Nonlinearity correction enabled: false
Boxcar width: 0
XAxis mode: Wavelengths
Number of Pixels in Spectrum: 2048
>>>>>Begin Spectral Data<<<<<
223.165	-1.56
223.4	-1.56
223.635	-1.56
223.869	-25.56
224.104	-20.56
224.338	-16.56
224.573	-8.56
224.808	-7.56
225.042	-6.56
225.277	-14.56
225.511	-2.56
225.746	6.44
225.98	-1.56
226.215	-0.56
226.449	25.44
226.683	19.44
226.918	23.44
227.152	31.44
227.387	47.44
227.621	48.44
227.856	56.44
228.09	49.44
228.324	51.44
228.559	60.44
228.793	59.44
229.027	65.44
229.262	60.44
229.496	57.44
229.73	70.44
229.964	82.44
230.199	64.44
230.433	75.44
230.667	89.44
230.901	83.44
231.136	81.44
231.37	89.44
231.604	81.44
231.838	64.44
232.072	88.44
232.306	70.44
232.541	81.44
232.775	84.44
233.009	99.44
233.243	72.44
233.477	88.44
233.711	95.44
233.945	95.44
234.179	86.44
234.413	83.44
234.647	83.44
234.881	84.44
235.115	77.44
235.349	87.44
235.583	83.44
235.817	89.44
236.051	80.44
236.285	86.44
236.519	77.44
236.753	80.44
236.987	68.44
237.221	80.44
237.455	77.44
237.689	76.44
237.922	81.44
238.156	77.44
238.39	80.44
238.624	60.44
238.858	77.44
239.091	73.44
239.325	74.44
239.559	86.44
239.793	86.44
240.027	71.44
240.26	81.44
240.494	77.44
240.728	82.44
240.961	72.44
241.195	80.44
241.429	81.44
241.662	83.44
241.896	71.44
242.13	71.44
242.363	85.44
242.597	85.44
242.83	78.44
243.064	74.44
243.298	84.44
243.531	61.44
243.765	79.44
243.998	84.44
244.232	88.44
244.465	90.44
244.699	77.44
244.932	82.44
245.166	77.44
245.399	76.44
245.633	91.44
245.866	69.44
246.099	83.44
246.333	89.44
246.566	91.44
246.8	90.44
247.033	76.44
247.266	80.44
247.5	92.44
247.733	63.44
247.966	81.44
248.2	90.44
248.433	75.44
248.666	78.44
248.899	85.44
249.133	84.44
249.366	76.44
249.599	76.44
249.832	77.44
250.066	93.44
250.299	88.44
250.532	78.44
250.765	105.44
250.998	75.44
251.231	73.44
251.465	81.44
251.698	79.44
251.931	93.44
252.164	78.44
252.397	78.44
252.63	91.44
252.863	75.44
253.096	74.44
253.329	83.44
253.562	72.44
253.795	75.44
254.028	89.44
254.261	89.44
254.494	91.44
254.727	88.44
254.96	85.44
255.193	86.44
255.426	79.44
255.659	65.44
255.892	88.44
256.124	85.44
256.357	69.44
256.59	80.44
256.823	93.44
257.056	85.44
257.289	79.44
257.521	80.44
257.754	76.44
257.987	81.44
258.22	64.44
258.452	73.44
258.685	85.44
258.918	74.44
259.151	89.44
259.383	85.44
259.616	81.44
259.849	82.44
260.081	77.44
260.314	86.44
260.547	80.44
260.779	79.44
261.012	99.44
261.244	77.44
261.477	95.44
261.71	83.44
261.942	77.44
262.175	90.44
262.407	70.44
262.64	81.44
262.872	85.44
263.105	89.44
263.337	96.44
263.57	83.44
263.802	76.44
264.035	87.44
264.267	85.44
264.499	75.44
264.732	82.44
264.964	86.44
265.197	88.44
265.429	87.44
265.661	84.44
265.894	97.44
266.126	82.44
266.358	75.44
266.591	80.44
266.823	83.44
267.055	75.44
267.287	81.44
267.52	81.44
267.752	74.44
267.984	85.44
268.216	79.44
268.448	74.44
268.681	87.44
268.913	73.44
269.145	85.44
269.377	77.44
269.609	89.44
269.841	77.44
270.073	70.44
270.306	99.44
270.538	77.44
270.77	87.44
271.002	89.44
271.234	88.44
271.466	91.44
271.698	94.44
271.93	83.44
272.162	71.44
272.394	68.44
272.626	80.44
272.858	93.44
273.09	85.44
273.322	72.44
273.553	76.44
273.785	96.44
274.017	87.44
274.249	83.44
274.481	91.44
274.713	92.44
274.945	81.44
275.176	82.44
275.408	81.44
275.64	79.44
275.872	78.44
276.104	79.44
276.335	89.44
276.567	85.44
276.799	84.44
277.031	82.44
277.262	79.44
277.494	90.44
277.726	84.44
277.957	89.44
278.189	99.44
278.421	86.44
278.652	80.44
278.884	96.44
279.115	101.44
279.347	80.44
279.579	88.44
279.81	90.44
280.042	85.44
280.273	86.44
280.505	82.44
280.736	72.44
280.968	87.44
281.199	91.44
281.431	83.44
281.662	85.44
281.894	89.44
282.125	87.44
282.356	89.44
282.588	91.44
282.819	91.44
283.051	76.44
283.282	74.44
283.513	81.44
283.745	99.44
283.976	91.44
284.207	82.44
284.439	96.44
284.67	73.44
284.901	77.44
285.132	92.44
285.364	81.44
285.595	100.44
285.826	77.44
286.057	79.44
286.288	73.44
286.52	83.44
286.751	84.44
286.982	84.44
287.213	88.44
287.444	76.44
287.675	88.44
287.906	98.44
288.138	89.44
288.369	85.44
288.6	86.44
288.831	83.44
289.062	91.44
289.293	85.44
289.524	87.44
289.755	89.44
289.986	94.44
290.217	86.44
290.448	77.44
290.679	75.44
290.91	96.44
291.141	82.44
291.371	83.44
291.602	96.44
291.833	83.44
292.064	97.44
292.295	85.44
292.526	91.44
292.757	69.44
292.987	92.44
293.218	95.44
293.449	89.44
293.68	77.44
293.91	77.44
294.141	82.44
294.372	91.44
294.603	90.44
294.833	89.44
295.064	87.44
295.295	94.44
295.525	77.44
295.756	100.44
295.987	84.44
296.217	80.44
296.448	80.44
296.679	98.44
296.909	89.44
297.14	93.44
297.37	80.44
297.601	73.44
297.831	76.44
298.062	91.44
298.292	83.44
298.523	84.44
298.753	76.44
298.984	87.44
299.214	90.44
299.445	83.44
299.675	81.44
299.905	77.44
300.136	98.44
300.366	88.44
300.597	93.44
300.827	97.44
301.057	78.44
301.288	80.44
301.518	77.44
301.748	85.44
301.979	97.44
302.209	84.44
302.439	89.44
302.669	99.44
302.9	96.44
303.13	82.44
303.36	93.44
303.59	78.44
303.82	75.44
304.051	71.44
304.281	86.44
304.511	94.44
304.741	73.44
304.971	87.44
305.201	77.44
305.431	91.44
305.661	86.44
305.891	95.44
306.121	91.44
306.352	96.44
306.582	89.44
306.812	89.44
307.042	84.44
307.272	91.44
307.502	90.44
307.731	91.44
307.961	89.44
308.191	86.44
308.421	102.44
308.651	84.44
308.881	87.44
309.111	85.44
309.341	91.44
309.571	78.44
309.8	81.44
310.03	91.44
310.26	85.44
310.49	87.44
310.72	82.44
310.949	88.44
311.179	81.44
311.409	97.44
311.639	97.44
311.868	70.44
312.098	91.44
312.328	98.44
312.557	87.44
312.787	88.44
313.017	87.44
313.246	98.44
313.476	99.44
313.706	92.44
313.935	90.44
314.165	91.44
314.394	103.44
314.624	76.44
314.853	76.44
315.083	84.44
315.312	71.44
315.542	87.44
315.771	85.44
316.001	85.44
316.23	84.44
316.46	80.44
316.689	85.44
316.919	87.44
317.148	95.44
317.377	113.44
317.607	81.44
317.836	81.44
318.065	90.44
318.295	97.44
318.524	93.44
318.753	99.44
318.983	82.44
319.212	108.44
319.441	69.44
319.67	93.44
319.9	92.44
320.129	84.44
320.358	82.44
320.587	84.44
320.816	88.44
321.046	83.44
321.275	81.44
321.504	72.44
321.733	89.44
321.962	82.44
322.191	96.44
322.42	80.44
322.649	91.44
322.878	87.44
323.108	88.44
323.337	76.44
323.566	83.44
323.795	87.44
324.024	87.44
324.253	76.44
324.482	90.44
324.71	85.44
324.939	85.44
325.168	76.44
325.397	84.44
325.626	89.44
325.855	91.44
326.084	92.44
326.313	93.44
326.542	81.44
326.77	87.44
326.999	86.44
327.228	82.44
327.457	84.44
327.686	72.44
327.914	83.44
328.143	96.44
328.372	88.44
328.6	97.44
328.829	93.44
329.058	82.44
329.287	83.44
329.515	75.44
329.744	92.44
329.972	83.44
330.201	81.44
330.43	83.44
330.658	102.44
330.887	89.44
331.115	72.44
331.344	69.44
331.572	82.44
331.801	87.44
332.03	82.44
332.258	84.44
332.486	77.44
332.715	83.44
332.943	91.44
333.172	99.44
333.4	99.44
333.629	80.44
333.857	87.44
334.085	103.44
334.314	92.44
334.542	83.44
334.771	76.44
334.999	83.44
335.227	85.44
335.455	81.44
335.684	76.44
335.912	95.44
336.14	87.44
336.369	68.44
336.597	81.44
336.825	89.44
337.053	86.44
337.281	99.44
337.51	103.44
337.738	83.44
337.966	89.44
338.194	98.44
338.422	83.44
338.65	100.44
338.878	89.44
339.106	84.44
339.334	91.44
339.562	94.44
339.79	93.44
340.018	82.44
340.246	87.44
340.474	87.44
340.702	91.44
340.93	84.44
341.158	76.44
341.386	88.44
341.614	102.44
341.842	97.44
342.07	67.44
342.298	75.44
342.526	87.44
342.754	95.44
342.981	92.44
343.209	105.44
343.437	100.44
343.665	89.44
343.893	88.44
344.12	92.44
344.348	92.44
344.576	66.44
344.804	73.44
345.031	98.44
345.259	91.44
345.487	79.44
345.714	87.44
345.942	87.44
346.17	87.44
346.397	90.44
346.625	95.44
346.853	90.44
347.08	86.44
347.308	84.44
347.535	89.44
347.763	79.44
347.99	92.44
348.218	93.44
348.445	87.44
348.673	81.44
348.9	92.44
349.128	90.44
349.355	91.44
349.583	93.44
349.81	82.44
350.037	77.44
350.265	95.44
350.492	89.44
350.72	85.44
350.947	82.44
351.174	82.44
351.402	85.44
351.629	92.44
351.856	100.44
352.083	87.44
352.311	95.44
352.538	95.44
352.765	84.44
352.992	91.44
353.22	79.44
353.447	103.44
353.674	93.44
353.901	92.44
354.128	85.44
354.355	92.44
354.583	90.44
354.81	78.44
355.037	90.44
355.264	99.44
355.491	75.44
355.718	64.44
355.945	88.44
356.172	88.44
356.399	103.44
356.626	84.44
356.853	84.44
357.08	101.44
357.307	90.44
357.534	81.44
357.761	83.44
357.988	97.44
358.215	77.44
358.441	86.44
358.668	83.44
358.895	68.44
359.122	86.44
359.349	90.44
359.576	83.44
359.802	83.44
360.029	79.44
360.256	89.44
360.483	88.44
360.709	90.44
360.936	89.44
361.163	99.44
361.39	98.44
361.616	85.44
361.843	82.44
362.07	96.44
362.296	93.44
362.523	91.44
362.749	89.44
362.976	90.44
363.203	95.44
363.429	92.44
363.656	79.44
363.882	87.44
364.109	83.44
364.335	100.44
364.562	85.44
364.788	81.44
365.015	90.44
365.241	95.44
365.468	95.44
365.694	89.44
365.92	82.44
366.147	85.44
366.373	87.44
366.599	83.44
366.826	93.44
367.052	102.44
367.278	95.44
367.505	81.44
367.731	100.44
367.957	98.44
368.184	77.44
368.41	97.44
368.636	81.44
368.862	79.44
369.089	89.44
369.315	84.44
369.541	89.44
369.767	87.44
369.993	86.44
370.219	80.44
370.445	98.44
370.672	77.44
370.898	83.44
371.124	90.44
371.35	90.44
371.576	76.44
371.802	85.44
372.028	66.44
372.254	89.44
372.48	90.44
372.706	81.44
372.932	98.44
373.158	83.44
373.384	93.44
373.61	98.44
373.835	83.44
374.061	90.44
374.287	86.44
374.513	88.44
374.739	91.44
374.965	97.44
375.191	75.44
375.416	88.44
375.642	89.44
375.868	99.44
376.094	85.44
376.319	82.44
376.545	81.44
376.771	94.44
376.997	85.44
377.222	82.44
377.448	92.44
377.674	75.44
377.899	85.44
378.125	89.44
378.35	89.44
378.576	82.44
378.802	90.44
379.027	90.44
379.253	93.44
379.478	104.44
379.704	91.44
379.929	81.44
380.155	78.44
380.38	77.44
380.606	97.44
380.831	83.44
381.057	83.44
381.282	84.44
381.507	77.44
381.733	96.44
381.958	92.44
382.184	85.44
382.409	91.44
382.634	89.44
382.86	90.44
383.085	95.44
383.31	100.44
383.535	98.44
383.761	107.44
383.986	84.44
384.211	76.44
384.436	88.44
384.662	89.44
384.887	96.44
385.112	77.44
385.337	71.44
385.562	92.44
385.787	78.44
386.013	87.44
386.238	89.44
386.463	79.44
386.688	93.44
386.913	87.44
387.138	83.44
387.363	89.44
387.588	77.44
387.813	84.44
388.038	85.44
388.263	97.44
388.488	84.44
388.713	87.44
388.938	91.44
389.163	76.44
389.387	88.44
389.612	77.44
389.837	84.44
390.062	84.44
390.287	90.44
390.512	87.44
390.736	81.44
390.961	92.44
391.186	91.44
391.411	85.44
391.636	79.44
391.86	81.44
392.085	92.44
392.31	85.44
392.534	88.44
392.759	79.44
392.984	93.44
393.208	123.44
393.433	151.44
393.658	133.44
393.882	95.44
394.107	85.44
394.331	99.44
394.556	86.44
394.78	92.44
395.005	85.44
395.229	83.44
395.454	71.44
395.678	88.44
395.903	98.44
396.127	104.44
396.352	108.44
396.576	106.44
396.801	129.44
397.025	140.44
397.249	115.44
397.474	81.44
397.698	93.44
397.922	101.44
398.147	100.44
398.371	87.44
398.595	91.44
398.82	85.44
399.044	89.44
399.268	92.44
399.492	89.44
399.717	86.44
399.941	88.44
400.165	87.44
400.389	107.44
400.613	80.44
400.837	86.44
401.062	92.44
401.286	71.44
401.51	82.44
401.734	89.44
401.958	87.44
402.182	88.44
402.406	94.44
402.63	78.44
402.854	102.44
403.078	86.44
403.302	93.44
403.526	69.44
403.75	88.44
403.974	77.44
404.198	74.44
404.422	81.44
404.645	71.44
404.869	91.44
405.093	85.44
405.317	97.44
405.541	88.44
405.765	78.44
405.988	96.44
406.212	79.44
406.436	83.44
406.66	98.44
406.883	93.44
407.107	86.44
407.331	81.44
407.555	61.44
407.778	77.44
408.002	83.44
408.226	77.44
408.449	87.44
408.673	92.44
408.896	104.44
409.12	97.44
409.344	98.44
409.567	82.44
409.791	87.44
410.014	86.44
410.238	87.44
410.461	90.44
410.685	81.44
410.908	103.44
411.132	93.44
411.355	80.44
411.578	86.44
411.802	85.44
412.025	88.44
412.249	81.44
412.472	73.44
412.695	81.44
412.919	77.44
413.142	89.44
413.365	72.44
413.589	81.44
413.812	103.44
414.035	78.44
414.258	84.44
414.482	99.44
414.705	81.44
414.928	96.44
415.151	93.44
415.374	78.44
415.597	85.44
415.821	88.44
416.044	67.44
416.267	96.44
416.49	99.44
416.713	83.44
416.936	87.44
417.159	82.44
417.382	80.44
417.605	98.44
417.828	80.44
418.051	90.44
418.274	84.44
418.497	76.44
418.72	83.44
418.943	77.44
419.166	88.44
419.389	91.44
419.611	92.44
419.834	85.44
420.057	88.44
420.28	85.44
420.503	71.44
420.726	91.44
420.948	85.44
421.171	101.44
421.394	87.44
421.617	89.44
421.839	88.44
422.062	96.44
422.285	95.44
422.507	102.44
422.73	150.44
422.953	140.44
423.175	93.44
423.398	85.44
423.621	95.44
423.843	88.44
424.066	80.44
424.288	92.44
424.511	99.44
424.733	91.44
424.956	86.44
425.178	81.44
425.401	68.44
425.623	77.44
425.846	75.44
426.068	72.44
426.291	79.44
426.513	83.44
426.735	85.44
426.958	99.44
427.18	93.44
427.402	87.44
427.625	99.44
427.847	86.44
428.069	70.44
428.292	101.44
428.514	91.44
428.736	86.44
428.958	106.44
429.181	91.44
429.403	77.44
429.625	84.44
429.847	77.44
430.069	91.44
430.292	98.44
430.514	88.44
430.736	85.44
430.958	87.44
431.18	83.44
431.402	88.44
431.624	65.44
431.846	82.44
432.068	76.44
432.29	85.44
432.512	87.44
432.734	81.44
432.956	72.44
433.178	87.44
433.4	85.44
433.622	81.44
433.844	88.44
434.066	74.44
434.287	88.44
434.509	78.44
434.731	90.44
434.953	76.44
435.175	90.44
435.397	94.44
435.618	84.44
435.84	80.44
436.062	77.44
436.284	87.44
436.505	93.44
436.727	85.44
436.949	83.44
437.17	83.44
437.392	75.44
437.614	86.44
437.835	77.44
438.057	77.44
438.278	77.44
438.5	83.44
438.721	92.44
438.943	78.44
439.165	81.44
439.386	79.44
439.608	93.44
439.829	72.44
440.05	81.44
440.272	88.44
440.493	91.44
440.715	90.44
440.936	87.44
441.158	80.44
441.379	87.44
441.6	101.44
441.822	85.44
442.043	81.44
442.264	88.44
442.486	78.44
442.707	101.44
442.928	97.44
443.149	83.44
443.371	95.44
443.592	98.44
443.813	93.44
444.034	78.44
444.255	78.44
444.476	93.44
444.698	81.44
444.919	83.44
445.14	145.44
445.361	121.44
445.582	113.44
445.803	107.44
446.024	83.44
446.245	83.44
446.466	73.44
446.687	79.44
446.908	78.44
447.129	85.44
447.35	74.44
447.571	102.44
447.792	78.44
448.013	80.44
448.234	80.44
448.455	78.44
448.675	85.44
448.896	97.44
449.117	84.44
449.338	88.44
449.559	90.44
449.779	96.44
450	94.44
450.221	83.44
450.442	84.44
450.662	85.44
450.883	79.44
451.104	91.44
451.324	83.44
451.545	84.44
451.766	83.44
451.986	86.44
452.207	77.44
452.428	92.44
452.648	87.44
452.869	84.44
453.089	91.44
453.31	79.44
453.53	83.44
453.751	86.44
453.971	81.44
454.192	104.44
454.412	80.44
454.633	72.44
454.853	72.44
455.073	80.44
455.294	83.44
455.514	95.44
455.734	90.44
455.955	87.44
456.175	91.44
456.395	78.44
456.616	98.44
456.836	82.44
457.056	65.44
457.276	86.44
457.497	81.44
457.717	89.44
457.937	75.44
458.157	88.44
458.377	69.44
458.598	92.44
458.818	94.44
459.038	81.44
459.258	87.44
459.478	81.44
459.698	75.44
459.918	99.44
460.138	74.44
460.358	88.44
460.578	85.44
460.798	91.44
461.018	91.44
461.238	78.44
461.458	85.44
461.678	72.44
461.898	93.44
462.118	85.44
462.338	79.44
462.558	85.44
462.777	76.44
462.997	74.44
463.217	97.44
463.437	86.44
463.657	77.44
463.876	81.44
464.096	75.44
464.316	66.44
464.536	88.44
464.755	90.44
464.975	77.44
465.195	106.44
465.414	75.44
465.634	95.44
465.854	85.44
466.073	88.44
466.293	76.44
466.512	84.44
466.732	85.44
466.951	77.44
467.171	81.44
467.391	71.44
467.61	83.44
467.829	96.44
468.049	88.44
468.268	89.44
468.488	100.44
468.707	77.44
468.927	76.44
469.146	82.44
469.365	76.44
469.585	78.44
469.804	81.44
470.023	82.44
470.243	89.44
470.462	81.44
470.681	89.44
470.901	78.44
471.12	78.44
471.339	89.44
471.558	86.44
471.777	79.44
471.997	82.44
472.216	81.44
472.435	89.44
472.654	82.44
472.873	88.44
473.092	76.44
473.311	83.44
473.53	84.44
473.749	76.44
473.968	79.44
474.187	76.44
474.406	89.44
474.625	70.44
474.844	87.44
475.063	82.44
475.282	83.44
475.501	91.44
475.72	91.44
475.939	98.44
476.158	79.44
476.377	67.44
476.596	87.44
476.814	82.44
477.033	77.44
477.252	93.44
477.471	87.44
477.69	77.44
477.908	77.44
478.127	88.44
478.346	89.44
478.564	74.44
478.783	89.44
479.002	89.44
479.22	91.44
479.439	92.44
479.658	93.44
479.876	97.44
480.095	73.44
480.313	78.44
480.532	95.44
480.751	87.44
480.969	91.44
481.188	88.44
481.406	81.44
481.624	70.44
481.843	84.44
482.061	84.44
482.28	98.44
482.498	84.44
482.717	67.44
482.935	84.44
483.153	80.44
483.372	84.44
483.59	90.44
483.808	83.44
484.027	82.44
484.245	92.44
484.463	81.44
484.681	73.44
484.9	72.44
485.118	94.44
485.336	99.44
485.554	105.44
485.772	92.44
485.99	86.44
486.209	97.44
486.427	93.44
486.645	82.44
486.863	89.44
487.081	74.44
487.299	70.44
487.517	80.44
487.735	77.44
487.953	81.44
488.171	88.44
488.389	82.44
488.607	93.44
488.825	67.44
489.043	88.44
489.261	87.44
489.479	73.44
489.696	83.44
489.914	89.44
490.132	75.44
490.35	103.44
490.568	82.44
490.786	84.44
491.003	78.44
491.221	76.44
491.439	80.44
491.657	83.44
491.874	93.44
492.092	67.44
492.31	81.44
492.527	87.44
492.745	86.44
492.963	95.44
493.18	88.44
493.398	97.44
493.615	85.44
493.833	84.44
494.05	85.44
494.268	80.44
494.485	77.44
494.703	79.44
494.92	104.44
495.138	85.44
495.355	76.44
495.573	88.44
495.79	90.44
496.008	96.44
496.225	90.44
496.442	76.44
496.66	83.44
496.877	79.44
497.094	67.44
497.312	82.44
497.529	85.44
497.746	87.44
497.963	85.44
498.181	72.44
498.398	84.44
498.615	84.44
498.832	76.44
499.049	87.44
499.267	75.44
499.484	89.44
499.701	91.44
499.918	77.44
500.135	84.44
500.352	81.44
500.569	80.44
500.786	84.44
501.003	98.44
501.22	82.44
501.437	78.44
501.654	94.44
501.871	85.44
502.088	84.44
502.305	81.44
502.522	79.44
502.739	80.44
502.956	88.44
503.172	94.44
503.389	94.44
503.606	74.44
503.823	85.44
504.04	88.44
504.256	96.44
504.473	86.44
504.69	88.44
504.907	90.44
505.123	85.44
505.34	90.44
505.557	81.44
505.773	89.44
505.99	97.44
506.207	93.44
506.423	85.44
506.64	95.44
506.856	106.44
507.073	93.44
507.289	82.44
507.506	91.44
507.722	71.44
507.939	76.44
508.155	99.44
508.372	80.44
508.588	101.44
508.805	82.44
509.021	90.44
509.238	97.44
509.454	103.44
509.67	92.44
509.887	85.44
510.103	85.44
510.319	87.44
510.536	87.44
510.752	78.44
510.968	92.44
511.184	84.44
511.401	81.44
511.617	80.44
511.833	81.44
512.049	88.44
512.265	87.44
512.481	75.44
512.698	101.44
512.914	79.44
513.13	77.44
513.346	73.44
513.562	93.44
513.778	83.44
513.994	97.44
514.21	89.44
514.426	87.44
514.642	78.44
514.858	82.44
515.074	90.44
515.29	86.44
515.506	81.44
515.721	79.44
515.937	85.44
516.153	73.44
516.369	88.44
516.585	83.44
516.801	94.44
517.016	83.44
517.232	84.44
517.448	88.44
517.664	82.44
517.879	78.44
518.095	78.44
518.311	88.44
518.527	84.44
518.742	93.44
518.958	97.44
519.173	84.44
519.389	89.44
