Data from 1600_3_HRD10591_00003.txt Node
Date: Mon Jan 19 13:54:54 EST 2026
User: Yrep
Spectrometer: HR+D1059
Trigger mode: 1
Integration Time (sec): 1.000000E-1
Scans to average: 1
Electric dark correction enabled: true
Nonlinearity correction enabled: false
Boxcar width: 0
XAxis mode: Wavelengths
Number of Pixels in Spectrum: 2048
>>>>>Begin Spectral Data<<<<<
223.165	-16.81
223.4	-16.81
223.635	-16.81
223.869	-20.81
224.104	-13.81
224.338	-28.81
224.573	-17.81
224.808	-16.81
225.042	11.19
225.277	-11.81
225.511	-2.81
225.746	-3.81
225.98	11.19
226.215	29.19
226.449	20.19
226.683	6.19
226.918	28.19
227.152	27.19
227.387	44.19
227.621	47.19
227.856	61.19
228.09	63.19
228.324	47.19
228.559	40.19
228.793	60.19
229.027	57.19
229.262	51.19
229.496	73.19
229.73	67.19
229.964	75.19
230.199	70.19
230.433	69.19
230.667	81.19
230.901	71.19
231.136	70.19
231.37	84.19
231.604	68.19
231.838	74.19
232.072	84.19
232.306	80.19
232.541	87.19
232.775	91.19
233.009	85.19
233.243	70.19
233.477	79.19
233.711	81.19
233.945	89.19
234.179	73.19
234.413	81.19
234.647	91.19
234.881	73.19
235.115	79.19
235.349	73.19
235.583	82.19
235.817	77.19
236.051	87.19
236.285	68.19
236.519	71.19
236.753	92.19
236.987	83.19
237.221	80.19
237.455	78.19
237.689	71.19
237.922	72.19
238.156	81.19
238.39	75.19
238.624	67.19
238.858	93.19
239.091	98.19
239.325	85.19
239.559	91.19
239.793	75.19
240.027	78.19
240.26	78.19
240.494	84.19
240.728	83.19
240.961	77.19
241.195	85.19
241.429	77.19
241.662	83.19
241.896	84.19
242.13	76.19
242.363	77.19
242.597	69.19
242.83	84.19
243.064	78.19
243.298	95.19
243.531	77.19
243.765	77.19
243.998	65.19
244.232	65.19
244.465	71.19
244.699	68.19
244.932	88.19
245.166	62.19
245.399	87.19
245.633	87.19
245.866	84.19
246.099	79.19
246.333	80.19
246.566	71.19
246.8	79.19
247.033	77.19
247.266	68.19
247.5	71.19
247.733	77.19
247.966	78.19
248.2	67.19
248.433	65.19
248.666	67.19
248.899	82.19
249.133	85.19
249.366	73.19
249.599	87.19
249.832	71.19
250.066	87.19
250.299	83.19
250.532	97.19
250.765	84.19
250.998	63.19
251.231	75.19
251.465	80.19
251.698	85.19
251.931	75.19
252.164	79.19
252.397	73.19
252.63	83.19
252.863	89.19
253.096	88.19
253.329	81.19
253.562	66.19
253.795	83.19
254.028	89.19
254.261	77.19
254.494	87.19
254.727	83.19
254.96	92.19
255.193	75.19
255.426	88.19
255.659	77.19
255.892	77.19
256.124	65.19
256.357	96.19
256.59	100.19
256.823	81.19
257.056	71.19
257.289	67.19
257.521	92.19
257.754	65.19
257.987	74.19
258.22	83.19
258.452	66.19
258.685	89.19
258.918	75.19
259.151	73.19
259.383	71.19
259.616	78.19
259.849	79.19
260.081	90.19
260.314	77.19
260.547	74.19
260.779	85.19
261.012	91.19
261.244	76.19
261.477	89.19
261.71	73.19
261.942	87.19
262.175	97.19
262.407	75.19
262.64	91.19
262.872	80.19
263.105	72.19
263.337	74.19
263.57	68.19
263.802	94.19
264.035	81.19
264.267	70.19
264.499	79.19
264.732	61.19
264.964	65.19
265.197	82.19
265.429	79.19
265.661	84.19
265.894	74.19
266.126	68.19
266.358	74.19
266.591	85.19
266.823	87.19
267.055	81.19
267.287	73.19
267.52	79.19
267.752	82.19
267.984	66.19
268.216	75.19
268.448	82.19
268.681	79.19
268.913	79.19
269.145	96.19
269.377	79.19
269.609	71.19
269.841	77.19
270.073	77.19
270.306	88.19
270.538	89.19
270.77	72.19
271.002	76.19
271.234	77.19
271.466	84.19
271.698	87.19
271.93	75.19
272.162	82.19
272.394	76.19
272.626	92.19
272.858	83.19
273.09	93.19
273.322	78.19
273.553	83.19
273.785	88.19
274.017	103.19
274.249	73.19
274.481	93.19
274.713	86.19
274.945	83.19
275.176	92.19
275.408	89.19
275.64	68.19
275.872	78.19
276.104	85.19
276.335	83.19
276.567	94.19
276.799	75.19
277.031	81.19
277.262	92.19
277.494	77.19
277.726	82.19
277.957	76.19
278.189	79.19
278.421	81.19
278.652	94.19
278.884	87.19
279.115	83.19
279.347	87.19
279.579	85.19
279.81	74.19
280.042	86.19
280.273	64.19
280.505	79.19
280.736	81.19
280.968	106.19
281.199	89.19
281.431	89.19
281.662	81.19
281.894	94.19
282.125	80.19
282.356	74.19
282.588	73.19
282.819	82.19
283.051	91.19
283.282	78.19
283.513	94.19
283.745	84.19
283.976	81.19
284.207	83.19
284.439	76.19
284.67	92.19
284.901	69.19
285.132	82.19
285.364	81.19
285.595	69.19
285.826	86.19
286.057	87.19
286.288	91.19
286.52	88.19
286.751	87.19
286.982	78.19
287.213	74.19
287.444	93.19
287.675	92.19
287.906	103.19
288.138	91.19
288.369	94.19
288.6	84.19
288.831	80.19
289.062	86.19
289.293	71.19
289.524	77.19
289.755	86.19
289.986	86.19
290.217	80.19
290.448	81.19
290.679	79.19
290.91	75.19
291.141	92.19
291.371	91.19
291.602	83.19
291.833	84.19
292.064	104.19
292.295	83.19
292.526	72.19
292.757	73.19
292.987	91.19
293.218	71.19
293.449	77.19
293.68	86.19
293.91	81.19
294.141	88.19
294.372	85.19
294.603	80.19
294.833	86.19
295.064	72.19
295.295	77.19
295.525	85.19
295.756	86.19
295.987	78.19
296.217	75.19
296.448	84.19
296.679	85.19
296.909	80.19
297.14	80.19
297.37	87.19
297.601	78.19
297.831	72.19
298.062	85.19
298.292	77.19
298.523	88.19
298.753	85.19
298.984	93.19
299.214	78.19
299.445	85.19
299.675	99.19
299.905	83.19
300.136	83.19
300.366	87.19
300.597	83.19
300.827	76.19
301.057	84.19
301.288	85.19
301.518	72.19
301.748	97.19
301.979	87.19
302.209	88.19
302.439	96.19
302.669	88.19
302.9	78.19
303.13	87.19
303.36	84.19
303.59	84.19
303.82	80.19
304.051	83.19
304.281	88.19
304.511	87.19
304.741	82.19
304.971	64.19
305.201	79.19
305.431	88.19
305.661	95.19
305.891	86.19
306.121	97.19
306.352	85.19
306.582	76.19
306.812	69.19
307.042	84.19
307.272	70.19
307.502	77.19
307.731	87.19
307.961	85.19
308.191	96.19
308.421	79.19
308.651	94.19
308.881	87.19
309.111	78.19
309.341	81.19
309.571	79.19
309.8	89.19
310.03	89.19
310.26	93.19
310.49	95.19
310.72	88.19
310.949	86.19
311.179	73.19
311.409	57.19
311.639	85.19
311.868	79.19
312.098	81.19
312.328	83.19
312.557	86.19
312.787	72.19
313.017	85.19
313.246	93.19
313.476	78.19
313.706	86.19
313.935	83.19
314.165	85.19
314.394	88.19
314.624	87.19
314.853	96.19
315.083	100.19
315.312	93.19
315.542	76.19
315.771	73.19
316.001	72.19
316.23	81.19
316.46	86.19
316.689	79.19
316.919	67.19
317.148	87.19
317.377	89.19
317.607	57.19
317.836	97.19
318.065	99.19
318.295	104.19
318.524	96.19
318.753	89.19
318.983	92.19
319.212	92.19
319.441	81.19
319.67	95.19
319.9	79.19
320.129	76.19
320.358	88.19
320.587	87.19
320.816	86.19
321.046	68.19
321.275	73.19
321.504	74.19
321.733	83.19
321.962	83.19
322.191	71.19
322.42	77.19
322.649	85.19
322.878	102.19
323.108	89.19
323.337	95.19
323.566	75.19
323.795	76.19
324.024	95.19
324.253	80.19
324.482	85.19
324.71	92.19
324.939	79.19
325.168	76.19
325.397	92.19
325.626	88.19
325.855	71.19
326.084	80.19
326.313	72.19
326.542	81.19
326.77	96.19
326.999	80.19
327.228	93.19
327.457	92.19
327.686	74.19
327.914	89.19
328.143	97.19
328.372	78.19
328.6	80.19
328.829	79.19
329.058	80.19
329.287	84.19
329.515	86.19
329.744	69.19
329.972	87.19
330.201	88.19
330.43	93.19
330.658	73.19
330.887	81.19
331.115	70.19
331.344	84.19
331.572	92.19
331.801	77.19
332.03	92.19
332.258	77.19
332.486	84.19
332.715	88.19
332.943	92.19
333.172	81.19
333.4	99.19
333.629	82.19
333.857	91.19
334.085	85.19
334.314	89.19
334.542	80.19
334.771	89.19
334.999	83.19
335.227	98.19
335.455	79.19
335.684	99.19
335.912	92.19
336.14	75.19
336.369	92.19
336.597	91.19
336.825	71.19
337.053	100.19
337.281	87.19
337.51	78.19
337.738	89.19
337.966	71.19
338.194	73.19
338.422	84.19
338.65	82.19
338.878	93.19
339.106	85.19
339.334	93.19
339.562	88.19
339.79	77.19
340.018	73.19
340.246	100.19
340.474	85.19
340.702	81.19
340.93	96.19
341.158	86.19
341.386	73.19
341.614	92.19
341.842	73.19
342.07	86.19
342.298	74.19
342.526	87.19
342.754	77.19
342.981	74.19
343.209	89.19
343.437	85.19
343.665	80.19
343.893	98.19
344.12	79.19
344.348	87.19
344.576	74.19
344.804	80.19
345.031	78.19
345.259	79.19
345.487	64.19
345.714	80.19
345.942	86.19
346.17	91.19
346.397	92.19
346.625	76.19
346.853	82.19
347.08	84.19
347.308	91.19
347.535	88.19
347.763	97.19
347.99	101.19
348.218	86.19
348.445	78.19
348.673	91.19
348.9	94.19
349.128	103.19
349.355	102.19
349.583	86.19
349.81	79.19
350.037	72.19
350.265	84.19
350.492	77.19
350.72	81.19
350.947	74.19
351.174	82.19
351.402	91.19
351.629	73.19
351.856	92.19
352.083	91.19
352.311	90.19
352.538	76.19
352.765	90.19
352.992	94.19
353.22	94.19
353.447	76.19
353.674	91.19
353.901	93.19
354.128	84.19
354.355	90.19
354.583	90.19
354.81	96.19
355.037	74.19
355.264	81.19
355.491	86.19
355.718	83.19
355.945	86.19
356.172	79.19
356.399	78.19
356.626	88.19
356.853	82.19
357.08	87.19
357.307	88.19
357.534	86.19
357.761	101.19
357.988	85.19
358.215	80.19
358.441	89.19
358.668	85.19
358.895	94.19
359.122	80.19
359.349	86.19
359.576	75.19
359.802	87.19
360.029	81.19
360.256	82.19
360.483	70.19
360.709	82.19
360.936	89.19
361.163	81.19
361.39	92.19
361.616	83.19
361.843	88.19
362.07	95.19
362.296	86.19
362.523	87.19
362.749	94.19
362.976	83.19
363.203	89.19
363.429	95.19
363.656	87.19
363.882	71.19
364.109	104.19
364.335	94.19
364.562	81.19
364.788	107.19
365.015	87.19
365.241	84.19
365.468	82.19
365.694	88.19
365.92	89.19
366.147	88.19
366.373	92.19
366.599	79.19
366.826	85.19
367.052	83.19
367.278	73.19
367.505	92.19
367.731	94.19
367.957	71.19
368.184	87.19
368.41	87.19
368.636	76.19
368.862	91.19
369.089	65.19
369.315	78.19
369.541	89.19
369.767	77.19
369.993	78.19
370.219	73.19
370.445	85.19
370.672	102.19
370.898	98.19
371.124	89.19
371.35	83.19
371.576	93.19
371.802	87.19
372.028	97.19
372.254	85.19
372.48	86.19
372.706	82.19
372.932	102.19
373.158	91.19
373.384	94.19
373.61	97.19
373.835	107.19
374.061	97.19
374.287	89.19
374.513	92.19
374.739	78.19
374.965	85.19
375.191	86.19
375.416	93.19
375.642	98.19
375.868	91.19
376.094	94.19
376.319	79.19
376.545	73.19
376.771	83.19
376.997	80.19
377.222	83.19
377.448	86.19
377.674	87.19
377.899	68.19
378.125	67.19
378.35	71.19
378.576	85.19
378.802	83.19
379.027	78.19
379.253	88.19
379.478	79.19
379.704	81.19
379.929	89.19
380.155	93.19
380.38	99.19
380.606	94.19
380.831	78.19
381.057	98.19
381.282	76.19
381.507	79.19
381.733	97.19
381.958	88.19
382.184	86.19
382.409	80.19
382.634	90.19
382.86	91.19
383.085	90.19
383.31	78.19
383.535	81.19
383.761	91.19
383.986	93.19
384.211	87.19
384.436	97.19
384.662	85.19
384.887	75.19
385.112	81.19
385.337	84.19
385.562	83.19
385.787	74.19
386.013	87.19
386.238	95.19
386.463	94.19
386.688	87.19
386.913	82.19
387.138	85.19
387.363	83.19
387.588	80.19
387.813	116.19
388.038	86.19
388.263	82.19
388.488	83.19
388.713	82.19
388.938	85.19
389.163	91.19
389.387	97.19
389.612	81.19
389.837	86.19
390.062	86.19
390.287	88.19
390.512	81.19
390.736	70.19
390.961	76.19
391.186	91.19
391.411	89.19
391.636	86.19
391.86	90.19
392.085	79.19
392.31	91.19
392.534	77.19
392.759	78.19
392.984	96.19
393.208	112.19
393.433	132.19
393.658	122.19
393.882	80.19
394.107	88.19
394.331	99.19
394.556	93.19
394.78	87.19
395.005	89.19
395.229	84.19
395.454	78.19
395.678	79.19
395.903	96.19
396.127	88.19
396.352	115.19
396.576	110.19
396.801	124.19
397.025	113.19
397.249	103.19
397.474	75.19
397.698	89.19
397.922	89.19
398.147	74.19
398.371	73.19
398.595	77.19
398.82	83.19
399.044	87.19
399.268	80.19
399.492	79.19
399.717	95.19
399.941	86.19
400.165	89.19
400.389	83.19
400.613	73.19
400.837	90.19
401.062	94.19
401.286	87.19
401.51	92.19
401.734	69.19
401.958	71.19
402.182	67.19
402.406	88.19
402.63	88.19
402.854	84.19
403.078	94.19
403.302	96.19
403.526	101.19
403.75	89.19
403.974	89.19
404.198	76.19
404.422	101.19
404.645	90.19
404.869	88.19
405.093	79.19
405.317	72.19
405.541	71.19
405.765	88.19
405.988	77.19
406.212	70.19
406.436	64.19
406.66	88.19
406.883	88.19
407.107	95.19
407.331	68.19
407.555	69.19
407.778	77.19
408.002	94.19
408.226	86.19
408.449	85.19
408.673	63.19
408.896	90.19
409.12	91.19
409.344	88.19
409.567	93.19
409.791	69.19
410.014	78.19
410.238	82.19
410.461	91.19
410.685	69.19
410.908	81.19
411.132	94.19
411.355	81.19
411.578	81.19
411.802	88.19
412.025	97.19
412.249	70.19
412.472	72.19
412.695	83.19
412.919	89.19
413.142	83.19
413.365	93.19
413.589	83.19
413.812	80.19
414.035	67.19
414.258	87.19
414.482	67.19
414.705	85.19
414.928	81.19
415.151	94.19
415.374	94.19
415.597	66.19
415.821	83.19
416.044	85.19
416.267	88.19
416.49	59.19
416.713	75.19
416.936	83.19
417.159	81.19
417.382	84.19
417.605	73.19
417.828	80.19
418.051	79.19
418.274	87.19
418.497	70.19
418.72	84.19
418.943	78.19
419.166	88.19
419.389	75.19
419.611	95.19
419.834	76.19
420.057	60.19
420.28	69.19
420.503	78.19
420.726	68.19
420.948	67.19
421.171	79.19
421.394	81.19
421.617	102.19
421.839	80.19
422.062	78.19
422.285	109.19
422.507	131.19
422.73	174.19
422.953	151.19
423.175	117.19
423.398	89.19
423.621	77.19
423.843	83.19
424.066	87.19
424.288	88.19
424.511	95.19
424.733	85.19
424.956	100.19
425.178	87.19
425.401	75.19
425.623	70.19
425.846	84.19
426.068	81.19
426.291	86.19
426.513	85.19
426.735	91.19
426.958	85.19
427.18	96.19
427.402	79.19
427.625	73.19
427.847	79.19
428.069	83.19
428.292	99.19
428.514	93.19
428.736	84.19
428.958	105.19
429.181	91.19
429.403	91.19
429.625	82.19
429.847	82.19
430.069	86.19
430.292	107.19
430.514	108.19
430.736	91.19
430.958	87.19
431.18	77.19
431.402	100.19
431.624	85.19
431.846	91.19
432.068	105.19
432.29	85.19
432.512	79.19
432.734	63.19
432.956	81.19
433.178	83.19
433.4	80.19
433.622	93.19
433.844	79.19
434.066	80.19
434.287	76.19
434.509	85.19
434.731	81.19
434.953	91.19
435.175	93.19
435.397	86.19
435.618	89.19
435.84	83.19
436.062	82.19
436.284	79.19
436.505	84.19
436.727	61.19
436.949	76.19
437.17	88.19
437.392	79.19
437.614	96.19
437.835	83.19
438.057	77.19
438.278	71.19
438.5	85.19
438.721	78.19
438.943	91.19
439.165	79.19
439.386	89.19
439.608	84.19
439.829	81.19
440.05	82.19
440.272	80.19
440.493	86.19
440.715	64.19
440.936	80.19
441.158	90.19
441.379	78.19
441.6	84.19
441.822	93.19
442.043	77.19
442.264	95.19
442.486	108.19
442.707	103.19
442.928	90.19
443.149	78.19
443.371	98.19
443.592	131.19
443.813	119.19
444.034	95.19
444.255	82.19
444.476	86.19
444.698	77.19
444.919	81.19
445.14	146.19
445.361	111.19
445.582	123.19
445.803	105.19
446.024	79.19
446.245	92.19
446.466	82.19
446.687	83.19
446.908	79.19
447.129	96.19
447.35	81.19
447.571	72.19
447.792	69.19
448.013	81.19
448.234	85.19
448.455	74.19
448.675	81.19
448.896	82.19
449.117	87.19
449.338	83.19
449.559	84.19
449.779	94.19
450	85.19
450.221	88.19
450.442	82.19
450.662	80.19
450.883	63.19
451.104	81.19
451.324	88.19
451.545	81.19
451.766	91.19
451.986	86.19
452.207	76.19
452.428	83.19
452.648	85.19
452.869	88.19
453.089	70.19
453.31	82.19
453.53	90.19
453.751	73.19
453.971	80.19
454.192	81.19
454.412	79.19
454.633	82.19
454.853	100.19
455.073	77.19
455.294	82.19
455.514	87.19
455.734	91.19
455.955	79.19
456.175	77.19
456.395	87.19
456.616	88.19
456.836	89.19
457.056	81.19
457.276	83.19
457.497	79.19
457.717	80.19
457.937	79.19
458.157	81.19
458.377	87.19
458.598	98.19
458.818	77.19
459.038	87.19
459.258	77.19
459.478	88.19
459.698	73.19
459.918	83.19
460.138	83.19
460.358	83.19
460.578	91.19
460.798	74.19
461.018	104.19
461.238	93.19
461.458	87.19
461.678	87.19
461.898	80.19
462.118	89.19
462.338	85.19
462.558	102.19
462.777	72.19
462.997	84.19
463.217	64.19
463.437	72.19
463.657	71.19
463.876	87.19
464.096	87.19
464.316	82.19
464.536	73.19
464.755	81.19
464.975	80.19
465.195	101.19
465.414	87.19
465.634	68.19
465.854	78.19
466.073	86.19
466.293	82.19
466.512	80.19
466.732	79.19
466.951	62.19
467.171	78.19
467.391	83.19
467.61	91.19
467.829	89.19
468.049	82.19
468.268	94.19
468.488	85.19
468.707	96.19
468.927	87.19
469.146	63.19
469.365	100.19
469.585	81.19
469.804	75.19
470.023	77.19
470.243	79.19
470.462	84.19
470.681	80.19
470.901	63.19
471.12	73.19
471.339	89.19
471.558	81.19
471.777	80.19
471.997	89.19
472.216	79.19
472.435	81.19
472.654	77.19
472.873	68.19
473.092	90.19
473.311	94.19
473.53	80.19
473.749	87.19
473.968	81.19
474.187	74.19
474.406	84.19
474.625	83.19
474.844	83.19
475.063	80.19
475.282	86.19
475.501	84.19
475.72	91.19
475.939	83.19
476.158	80.19
476.377	85.19
476.596	92.19
476.814	90.19
477.033	80.19
477.252	87.19
477.471	88.19
477.69	83.19
477.908	94.19
478.127	88.19
478.346	100.19
478.564	77.19
478.783	85.19
479.002	81.19
479.22	77.19
479.439	91.19
479.658	77.19
479.876	79.19
480.095	95.19
480.313	79.19
480.532	94.19
480.751	80.19
480.969	88.19
481.188	73.19
481.406	77.19
481.624	86.19
481.843	79.19
482.061	84.19
482.28	82.19
482.498	94.19
482.717	79.19
482.935	82.19
483.153	81.19
483.372	97.19
483.59	89.19
483.808	72.19
484.027	89.19
484.245	83.19
484.463	73.19
484.681	89.19
484.9	94.19
485.118	90.19
485.336	86.19
485.554	75.19
485.772	83.19
485.99	100.19
486.209	94.19
486.427	83.19
486.645	67.19
486.863	88.19
487.081	92.19
487.299	79.19
487.517	89.19
487.735	86.19
487.953	107.19
488.171	103.19
488.389	93.19
488.607	83.19
488.825	79.19
489.043	66.19
489.261	92.19
489.479	85.19
489.696	88.19
489.914	83.19
490.132	80.19
490.35	83.19
490.568	73.19
490.786	97.19
491.003	93.19
491.221	86.19
491.439	87.19
491.657	77.19
491.874	86.19
492.092	88.19
492.31	88.19
492.527	79.19
492.745	71.19
492.963	71.19
493.18	95.19
493.398	88.19
493.615	92.19
493.833	94.19
494.05	83.19
494.268	83.19
494.485	93.19
494.703	91.19
494.92	80.19
495.138	79.19
495.355	77.19
495.573	95.19
495.79	93.19
496.008	85.19
496.225	101.19
496.442	80.19
496.66	83.19
496.877	75.19
497.094	94.19
497.312	81.19
497.529	90.19
497.746	83.19
497.963	82.19
498.181	82.19
498.398	81.19
498.615	79.19
498.832	77.19
499.049	84.19
499.267	73.19
499.484	87.19
499.701	93.19
499.918	76.19
500.135	97.19
500.352	103.19
500.569	93.19
500.786	87.19
501.003	95.19
501.22	67.19
501.437	96.19
501.654	98.19
501.871	93.19
502.088	96.19
502.305	97.19
502.522	91.19
502.739	82.19
502.956	99.19
503.172	91.19
503.389	90.19
503.606	86.19
503.823	88.19
504.04	97.19
504.256	110.19
504.473	101.19
504.69	89.19
504.907	91.19
505.123	79.19
505.34	79.19
505.557	85.19
505.773	97.19
505.99	83.19
506.207	85.19
506.423	87.19
506.64	82.19
506.856	89.19
507.073	79.19
507.289	81.19
507.506	79.19
507.722	81.19
507.939	86.19
508.155	95.19
508.372	87.19
508.588	83.19
508.805	81.19
509.021	85.19
509.238	75.19
509.454	83.19
509.67	73.19
509.887	89.19
510.103	86.19
510.319	72.19
510.536	97.19
510.752	90.19
510.968	77.19
511.184	89.19
511.401	92.19
511.617	87.19
511.833	85.19
512.049	73.19
512.265	70.19
512.481	94.19
512.698	80.19
512.914	92.19
513.13	73.19
513.346	105.19
513.562	94.19
513.778	85.19
513.994	85.19
514.21	67.19
514.426	91.19
514.642	86.19
514.858	83.19
515.074	85.19
515.29	101.19
515.506	92.19
515.721	89.19
515.937	91.19
516.153	77.19
516.369	77.19
516.585	84.19
516.801	99.19
517.016	71.19
517.232	88.19
517.448	110.19
517.664	101.19
517.879	97.19
518.095	83.19
518.311	81.19
518.527	87.19
518.742	96.19
518.958	81.19
519.173	95.19
519.389	92.19
