Data from 1600_3_HRD10591_00022.txt Node
Date: Mon Jan 19 13:55:04 EST 2026
User: Yrep
Spectrometer: HR+D1059
Trigger mode: 1
Integration Time (sec): 1.000000E-1
Scans to average: 1
Electric dark correction enabled: true
Nonlinearity correction enabled: false
Boxcar width: 0
XAxis mode: Wavelengths
Number of Pixels in Spectrum: 2048
>>>>>Begin Spectral Data<<<<<
223.165	-14.44
223.4	-14.44
223.635	-14.44
223.869	-14.44
224.104	-15.44
224.338	-26.44
224.573	-14.44
224.808	-11.44
225.042	-13.44
225.277	8.56
225.511	0.56
225.746	6.56
225.98	2.56
226.215	-4.44
226.449	10.56
226.683	23.56
226.918	35.56
227.152	26.56
227.387	33.56
227.621	33.56
227.856	57.56
228.09	53.56
228.324	46.56
228.559	56.56
228.793	65.56
229.027	57.56
229.262	61.56
229.496	60.56
229.73	76.56
229.964	80.56
230.199	74.56
230.433	75.56
230.667	76.56
230.901	88.56
231.136	76.56
231.37	78.56
231.604	82.56
231.838	82.56
232.072	86.56
232.306	85.56
232.541	76.56
232.775	85.56
233.009	69.56
233.243	74.56
233.477	79.56
233.711	89.56
233.945	77.56
234.179	77.56
234.413	79.56
234.647	84.56
234.881	70.56
235.115	74.56
235.349	82.56
235.583	73.56
235.817	79.56
236.051	73.56
236.285	90.56
236.519	94.56
236.753	71.56
236.987	72.56
237.221	82.56
237.455	79.56
237.689	81.56
237.922	71.56
238.156	70.56
238.39	74.56
238.624	81.56
238.858	77.56
239.091	77.56
239.325	82.56
239.559	78.56
239.793	66.56
240.027	77.56
240.26	81.56
240.494	68.56
240.728	95.56
240.961	71.56
241.195	83.56
241.429	87.56
241.662	67.56
241.896	88.56
242.13	74.56
242.363	63.56
242.597	91.56
242.83	80.56
243.064	83.56
243.298	91.56
243.531	89.56
243.765	85.56
243.998	73.56
244.232	80.56
244.465	81.56
244.699	72.56
244.932	81.56
245.166	77.56
245.399	71.56
245.633	81.56
245.866	74.56
246.099	79.56
246.333	68.56
246.566	76.56
246.8	66.56
247.033	76.56
247.266	81.56
247.5	80.56
247.733	81.56
247.966	62.56
248.2	87.56
248.433	84.56
248.666	82.56
248.899	72.56
249.133	87.56
249.366	79.56
249.599	83.56
249.832	75.56
250.066	75.56
250.299	87.56
250.532	74.56
250.765	85.56
250.998	92.56
251.231	80.56
251.465	89.56
251.698	87.56
251.931	83.56
252.164	71.56
252.397	76.56
252.63	70.56
252.863	73.56
253.096	84.56
253.329	77.56
253.562	74.56
253.795	83.56
254.028	93.56
254.261	90.56
254.494	80.56
254.727	81.56
254.96	88.56
255.193	75.56
255.426	81.56
255.659	85.56
255.892	96.56
256.124	69.56
256.357	89.56
256.59	77.56
256.823	81.56
257.056	95.56
257.289	90.56
257.521	82.56
257.754	71.56
257.987	83.56
258.22	87.56
258.452	89.56
258.685	86.56
258.918	83.56
259.151	78.56
259.383	76.56
259.616	83.56
259.849	92.56
260.081	88.56
260.314	63.56
260.547	72.56
260.779	78.56
261.012	76.56
261.244	95.56
261.477	81.56
261.71	102.56
261.942	77.56
262.175	83.56
262.407	80.56
262.64	65.56
262.872	71.56
263.105	79.56
263.337	71.56
263.57	89.56
263.802	95.56
264.035	78.56
264.267	68.56
264.499	75.56
264.732	68.56
264.964	91.56
265.197	82.56
265.429	81.56
265.661	87.56
265.894	80.56
266.126	91.56
266.358	87.56
266.591	68.56
266.823	89.56
267.055	73.56
267.287	71.56
267.52	76.56
267.752	78.56
267.984	83.56
268.216	96.56
268.448	99.56
268.681	64.56
268.913	75.56
269.145	88.56
269.377	72.56
269.609	77.56
269.841	87.56
270.073	78.56
270.306	89.56
270.538	99.56
270.77	79.56
271.002	78.56
271.234	80.56
271.466	89.56
271.698	83.56
271.93	96.56
272.162	79.56
272.394	87.56
272.626	79.56
272.858	91.56
273.09	89.56
273.322	77.56
273.553	82.56
273.785	99.56
274.017	94.56
274.249	75.56
274.481	84.56
274.713	82.56
274.945	85.56
275.176	73.56
275.408	80.56
275.64	88.56
275.872	82.56
276.104	87.56
276.335	88.56
276.567	91.56
276.799	89.56
277.031	73.56
277.262	96.56
277.494	85.56
277.726	81.56
277.957	75.56
278.189	81.56
278.421	85.56
278.652	89.56
278.884	95.56
279.115	95.56
279.347	97.56
279.579	78.56
279.81	76.56
280.042	90.56
280.273	88.56
280.505	104.56
280.736	80.56
280.968	74.56
281.199	77.56
281.431	75.56
281.662	85.56
281.894	89.56
282.125	86.56
282.356	80.56
282.588	87.56
282.819	94.56
283.051	79.56
283.282	88.56
283.513	81.56
283.745	85.56
283.976	93.56
284.207	80.56
284.439	85.56
284.67	89.56
284.901	84.56
285.132	89.56
285.364	77.56
285.595	89.56
285.826	75.56
286.057	86.56
286.288	77.56
286.52	87.56
286.751	88.56
286.982	86.56
287.213	85.56
287.444	90.56
287.675	83.56
287.906	86.56
288.138	90.56
288.369	79.56
288.6	82.56
288.831	80.56
289.062	90.56
289.293	90.56
289.524	96.56
289.755	87.56
289.986	77.56
290.217	85.56
290.448	94.56
290.679	89.56
290.91	73.56
291.141	81.56
291.371	74.56
291.602	77.56
291.833	87.56
292.064	94.56
292.295	84.56
292.526	86.56
292.757	95.56
292.987	94.56
293.218	96.56
293.449	89.56
293.68	73.56
293.91	75.56
294.141	79.56
294.372	79.56
294.603	85.56
294.833	77.56
295.064	84.56
295.295	79.56
295.525	81.56
295.756	85.56
295.987	94.56
296.217	87.56
296.448	73.56
296.679	97.56
296.909	86.56
297.14	86.56
297.37	91.56
297.601	89.56
297.831	93.56
298.062	86.56
298.292	90.56
298.523	76.56
298.753	81.56
298.984	75.56
299.214	105.56
299.445	74.56
299.675	73.56
299.905	98.56
300.136	75.56
300.366	85.56
300.597	67.56
300.827	82.56
301.057	80.56
301.288	86.56
301.518	75.56
301.748	83.56
301.979	89.56
302.209	71.56
302.439	94.56
302.669	91.56
302.9	89.56
303.13	89.56
303.36	90.56
303.59	75.56
303.82	81.56
304.051	94.56
304.281	85.56
304.511	79.56
304.741	70.56
304.971	88.56
305.201	93.56
305.431	82.56
305.661	81.56
305.891	82.56
306.121	82.56
306.352	85.56
306.582	87.56
306.812	87.56
307.042	95.56
307.272	80.56
307.502	69.56
307.731	81.56
307.961	85.56
308.191	90.56
308.421	85.56
308.651	83.56
308.881	85.56
309.111	85.56
309.341	80.56
309.571	85.56
309.8	76.56
310.03	81.56
310.26	77.56
310.49	95.56
310.72	88.56
310.949	83.56
311.179	87.56
311.409	94.56
311.639	71.56
311.868	74.56
312.098	85.56
312.328	77.56
312.557	82.56
312.787	79.56
313.017	85.56
313.246	87.56
313.476	89.56
313.706	89.56
313.935	94.56
314.165	87.56
314.394	84.56
314.624	83.56
314.853	75.56
315.083	86.56
315.312	90.56
315.542	92.56
315.771	85.56
316.001	91.56
316.23	78.56
316.46	91.56
316.689	87.56
316.919	77.56
317.148	86.56
317.377	87.56
317.607	82.56
317.836	78.56
318.065	79.56
318.295	79.56
318.524	86.56
318.753	106.56
318.983	78.56
319.212	81.56
319.441	82.56
319.67	74.56
319.9	68.56
320.129	90.56
320.358	87.56
320.587	97.56
320.816	65.56
321.046	79.56
321.275	95.56
321.504	87.56
321.733	73.56
321.962	74.56
322.191	75.56
322.42	76.56
322.649	88.56
322.878	88.56
323.108	80.56
323.337	91.56
323.566	85.56
323.795	65.56
324.024	85.56
324.253	79.56
324.482	84.56
324.71	83.56
324.939	103.56
325.168	89.56
325.397	84.56
325.626	89.56
325.855	72.56
326.084	71.56
326.313	91.56
326.542	91.56
326.77	75.56
326.999	85.56
327.228	85.56
327.457	94.56
327.686	75.56
327.914	90.56
328.143	84.56
328.372	98.56
328.6	63.56
328.829	73.56
329.058	87.56
329.287	84.56
329.515	85.56
329.744	77.56
329.972	87.56
330.201	81.56
330.43	83.56
330.658	87.56
330.887	83.56
331.115	88.56
331.344	92.56
331.572	91.56
331.801	78.56
332.03	84.56
332.258	84.56
332.486	90.56
332.715	93.56
332.943	87.56
333.172	92.56
333.4	93.56
333.629	90.56
333.857	82.56
334.085	89.56
334.314	96.56
334.542	86.56
334.771	71.56
334.999	84.56
335.227	105.56
335.455	87.56
335.684	90.56
335.912	78.56
336.14	85.56
336.369	71.56
336.597	96.56
336.825	83.56
337.053	79.56
337.281	91.56
337.51	90.56
337.738	80.56
337.966	78.56
338.194	82.56
338.422	88.56
338.65	91.56
338.878	90.56
339.106	89.56
339.334	96.56
339.562	84.56
339.79	80.56
340.018	75.56
340.246	73.56
340.474	91.56
340.702	89.56
340.93	102.56
341.158	92.56
341.386	89.56
341.614	81.56
341.842	78.56
342.07	93.56
342.298	74.56
342.526	79.56
342.754	75.56
342.981	79.56
343.209	81.56
343.437	95.56
343.665	89.56
343.893	83.56
344.12	74.56
344.348	67.56
344.576	73.56
344.804	82.56
345.031	95.56
345.259	85.56
345.487	84.56
345.714	77.56
345.942	78.56
346.17	93.56
346.397	83.56
346.625	91.56
346.853	82.56
347.08	83.56
347.308	103.56
347.535	79.56
347.763	85.56
347.99	80.56
348.218	96.56
348.445	79.56
348.673	78.56
348.9	57.56
349.128	92.56
349.355	91.56
349.583	81.56
349.81	87.56
350.037	86.56
350.265	88.56
350.492	83.56
350.72	82.56
350.947	107.56
351.174	95.56
351.402	96.56
351.629	85.56
351.856	91.56
352.083	72.56
352.311	75.56
352.538	94.56
352.765	71.56
352.992	78.56
353.22	98.56
353.447	86.56
353.674	74.56
353.901	87.56
354.128	99.56
354.355	82.56
354.583	86.56
354.81	87.56
355.037	78.56
355.264	97.56
355.491	97.56
355.718	90.56
355.945	72.56
356.172	74.56
356.399	83.56
356.626	77.56
356.853	64.56
357.08	82.56
357.307	72.56
357.534	75.56
357.761	86.56
357.988	89.56
358.215	91.56
358.441	79.56
358.668	68.56
358.895	76.56
359.122	80.56
359.349	96.56
359.576	88.56
359.802	90.56
360.029	83.56
360.256	89.56
360.483	90.56
360.709	76.56
360.936	81.56
361.163	95.56
361.39	84.56
361.616	89.56
361.843	84.56
362.07	78.56
362.296	84.56
362.523	83.56
362.749	86.56
362.976	82.56
363.203	92.56
363.429	86.56
363.656	78.56
363.882	70.56
364.109	92.56
364.335	83.56
364.562	85.56
364.788	76.56
365.015	88.56
365.241	79.56
365.468	89.56
365.694	87.56
365.92	86.56
366.147	86.56
366.373	95.56
366.599	85.56
366.826	78.56
367.052	83.56
367.278	82.56
367.505	74.56
367.731	86.56
367.957	88.56
368.184	80.56
368.41	83.56
368.636	71.56
368.862	80.56
369.089	89.56
369.315	69.56
369.541	87.56
369.767	75.56
369.993	90.56
370.219	98.56
370.445	90.56
370.672	75.56
370.898	93.56
371.124	76.56
371.35	74.56
371.576	69.56
371.802	85.56
372.028	82.56
372.254	81.56
372.48	79.56
372.706	91.56
372.932	80.56
373.158	75.56
373.384	75.56
373.61	90.56
373.835	90.56
374.061	79.56
374.287	85.56
374.513	96.56
374.739	95.56
374.965	85.56
375.191	87.56
375.416	79.56
375.642	87.56
375.868	95.56
376.094	95.56
376.319	89.56
376.545	98.56
376.771	79.56
376.997	78.56
377.222	89.56
377.448	92.56
377.674	91.56
377.899	90.56
378.125	83.56
378.35	79.56
378.576	88.56
378.802	76.56
379.027	78.56
379.253	83.56
379.478	86.56
379.704	102.56
379.929	86.56
380.155	81.56
380.38	64.56
380.606	75.56
380.831	76.56
381.057	93.56
381.282	81.56
381.507	70.56
381.733	90.56
381.958	79.56
382.184	77.56
382.409	82.56
382.634	94.56
382.86	86.56
383.085	99.56
383.31	81.56
383.535	79.56
383.761	78.56
383.986	95.56
384.211	86.56
384.436	90.56
384.662	94.56
384.887	81.56
385.112	86.56
385.337	83.56
385.562	83.56
385.787	71.56
386.013	94.56
386.238	81.56
386.463	74.56
386.688	85.56
386.913	95.56
387.138	90.56
387.363	82.56
387.588	72.56
387.813	82.56
388.038	87.56
388.263	85.56
388.488	90.56
388.713	88.56
388.938	89.56
389.163	109.56
389.387	77.56
389.612	89.56
389.837	78.56
390.062	74.56
390.287	75.56
390.512	81.56
390.736	81.56
390.961	96.56
391.186	73.56
391.411	77.56
391.636	83.56
391.86	82.56
392.085	86.56
392.31	87.56
392.534	85.56
392.759	91.56
392.984	84.56
393.208	95.56
393.433	100.56
393.658	89.56
393.882	90.56
394.107	102.56
394.331	89.56
394.556	91.56
394.78	78.56
395.005	80.56
395.229	90.56
395.454	86.56
395.678	62.56
395.903	81.56
396.127	88.56
396.352	93.56
396.576	76.56
396.801	94.56
397.025	98.56
397.249	84.56
397.474	72.56
397.698	86.56
397.922	93.56
398.147	73.56
398.371	76.56
398.595	69.56
398.82	74.56
399.044	85.56
399.268	86.56
399.492	74.56
399.717	84.56
399.941	78.56
400.165	68.56
400.389	75.56
400.613	86.56
400.837	80.56
401.062	93.56
401.286	89.56
401.51	79.56
401.734	81.56
401.958	82.56
402.182	82.56
402.406	79.56
402.63	75.56
402.854	93.56
403.078	76.56
403.302	75.56
403.526	85.56
403.75	74.56
403.974	76.56
404.198	69.56
404.422	84.56
404.645	86.56
404.869	84.56
405.093	73.56
405.317	78.56
405.541	71.56
405.765	86.56
405.988	71.56
406.212	87.56
406.436	83.56
406.66	98.56
406.883	75.56
407.107	78.56
407.331	76.56
407.555	83.56
407.778	79.56
408.002	87.56
408.226	80.56
408.449	75.56
408.673	91.56
408.896	93.56
409.12	69.56
409.344	83.56
409.567	89.56
409.791	82.56
410.014	95.56
410.238	85.56
410.461	80.56
410.685	87.56
410.908	77.56
411.132	82.56
411.355	91.56
411.578	66.56
411.802	87.56
412.025	85.56
412.249	84.56
412.472	81.56
412.695	91.56
412.919	72.56
413.142	92.56
413.365	85.56
413.589	87.56
413.812	81.56
414.035	85.56
414.258	90.56
414.482	75.56
414.705	72.56
414.928	87.56
415.151	71.56
415.374	73.56
415.597	89.56
415.821	70.56
416.044	86.56
416.267	79.56
416.49	78.56
416.713	88.56
416.936	91.56
417.159	78.56
417.382	82.56
417.605	95.56
417.828	71.56
418.051	78.56
418.274	80.56
418.497	87.56
418.72	91.56
418.943	81.56
419.166	82.56
419.389	83.56
419.611	85.56
419.834	81.56
420.057	93.56
420.28	81.56
420.503	85.56
420.726	88.56
420.948	73.56
421.171	78.56
421.394	87.56
421.617	79.56
421.839	94.56
422.062	88.56
422.285	71.56
422.507	85.56
422.73	99.56
422.953	87.56
423.175	81.56
423.398	95.56
423.621	78.56
423.843	71.56
424.066	81.56
424.288	68.56
424.511	93.56
424.733	86.56
424.956	93.56
425.178	78.56
425.401	82.56
425.623	87.56
425.846	83.56
426.068	77.56
426.291	76.56
426.513	86.56
426.735	89.56
426.958	61.56
427.18	95.56
427.402	90.56
427.625	84.56
427.847	80.56
428.069	81.56
428.292	70.56
428.514	99.56
428.736	76.56
428.958	71.56
429.181	89.56
429.403	74.56
429.625	70.56
429.847	97.56
430.069	85.56
430.292	82.56
430.514	73.56
430.736	80.56
430.958	81.56
431.18	90.56
431.402	85.56
431.624	73.56
431.846	83.56
432.068	85.56
432.29	81.56
432.512	80.56
432.734	86.56
432.956	80.56
433.178	86.56
433.4	88.56
433.622	82.56
433.844	88.56
434.066	86.56
434.287	75.56
434.509	81.56
434.731	76.56
434.953	79.56
435.175	75.56
435.397	85.56
435.618	70.56
435.84	72.56
436.062	94.56
436.284	91.56
436.505	84.56
436.727	82.56
436.949	97.56
437.17	97.56
437.392	72.56
437.614	86.56
437.835	88.56
438.057	78.56
438.278	78.56
438.5	88.56
438.721	65.56
438.943	90.56
439.165	83.56
439.386	89.56
439.608	87.56
439.829	86.56
440.05	94.56
440.272	84.56
440.493	71.56
440.715	81.56
440.936	85.56
441.158	97.56
441.379	97.56
441.6	79.56
441.822	74.56
442.043	85.56
442.264	80.56
442.486	90.56
442.707	75.56
442.928	89.56
443.149	80.56
443.371	91.56
443.592	82.56
443.813	82.56
444.034	82.56
444.255	83.56
444.476	75.56
444.698	91.56
444.919	90.56
445.14	136.56
445.361	123.56
445.582	81.56
445.803	95.56
446.024	83.56
446.245	86.56
446.466	91.56
446.687	78.56
446.908	86.56
447.129	71.56
447.35	99.56
447.571	83.56
447.792	71.56
448.013	71.56
448.234	89.56
448.455	66.56
448.675	88.56
448.896	71.56
449.117	71.56
449.338	87.56
449.559	89.56
449.779	82.56
450	80.56
450.221	80.56
450.442	71.56
450.662	86.56
450.883	84.56
451.104	77.56
451.324	90.56
451.545	85.56
451.766	98.56
451.986	94.56
452.207	88.56
452.428	83.56
452.648	83.56
452.869	80.56
453.089	91.56
453.31	88.56
453.53	106.56
453.751	92.56
453.971	75.56
454.192	70.56
454.412	85.56
454.633	89.56
454.853	85.56
455.073	84.56
455.294	68.56
455.514	78.56
455.734	87.56
455.955	84.56
456.175	74.56
456.395	74.56
456.616	85.56
456.836	90.56
457.056	87.56
457.276	86.56
457.497	81.56
457.717	71.56
457.937	87.56
458.157	74.56
458.377	96.56
458.598	83.56
458.818	79.56
459.038	68.56
459.258	70.56
459.478	73.56
459.698	84.56
459.918	99.56
460.138	82.56
460.358	71.56
460.578	74.56
460.798	63.56
461.018	89.56
461.238	79.56
461.458	85.56
461.678	84.56
461.898	84.56
462.118	84.56
462.338	80.56
462.558	72.56
462.777	86.56
462.997	83.56
463.217	72.56
463.437	89.56
463.657	87.56
463.876	71.56
464.096	95.56
464.316	76.56
464.536	84.56
464.755	86.56
464.975	74.56
465.195	83.56
465.414	89.56
465.634	79.56
465.854	76.56
466.073	86.56
466.293	81.56
466.512	89.56
466.732	92.56
466.951	73.56
467.171	83.56
467.391	87.56
467.61	83.56
467.829	89.56
468.049	91.56
468.268	81.56
468.488	81.56
468.707	76.56
468.927	75.56
469.146	86.56
469.365	82.56
469.585	97.56
469.804	86.56
470.023	82.56
470.243	89.56
470.462	92.56
470.681	86.56
470.901	82.56
471.12	82.56
471.339	87.56
471.558	84.56
471.777	90.56
471.997	88.56
472.216	79.56
472.435	82.56
472.654	86.56
472.873	88.56
473.092	81.56
473.311	85.56
473.53	88.56
473.749	85.56
473.968	83.56
474.187	80.56
474.406	84.56
474.625	81.56
474.844	81.56
475.063	72.56
475.282	79.56
475.501	79.56
475.72	86.56
475.939	96.56
476.158	80.56
476.377	89.56
476.596	87.56
476.814	83.56
477.033	86.56
477.252	84.56
477.471	93.56
477.69	71.56
477.908	96.56
478.127	87.56
478.346	71.56
478.564	82.56
478.783	81.56
479.002	62.56
479.22	73.56
479.439	84.56
479.658	97.56
479.876	73.56
480.095	88.56
480.313	105.56
480.532	79.56
480.751	83.56
480.969	74.56
481.188	92.56
481.406	100.56
481.624	75.56
481.843	90.56
482.061	82.56
482.28	78.56
482.498	83.56
482.717	89.56
482.935	95.56
483.153	83.56
483.372	93.56
483.59	95.56
483.808	81.56
484.027	86.56
484.245	87.56
484.463	87.56
484.681	88.56
484.9	87.56
485.118	82.56
485.336	83.56
485.554	95.56
485.772	89.56
485.99	87.56
486.209	75.56
486.427	86.56
486.645	76.56
486.863	85.56
487.081	91.56
487.299	82.56
487.517	78.56
487.735	89.56
487.953	74.56
488.171	87.56
488.389	96.56
488.607	81.56
488.825	84.56
489.043	90.56
489.261	91.56
489.479	88.56
489.696	76.56
489.914	76.56
490.132	87.56
490.35	76.56
490.568	72.56
490.786	87.56
491.003	76.56
491.221	91.56
491.439	80.56
491.657	78.56
491.874	75.56
492.092	73.56
492.31	91.56
492.527	80.56
492.745	89.56
492.963	86.56
493.18	80.56
493.398	87.56
493.615	79.56
493.833	88.56
494.05	85.56
494.268	89.56
494.485	84.56
494.703	62.56
494.92	89.56
495.138	82.56
495.355	85.56
495.573	85.56
495.79	91.56
496.008	93.56
496.225	85.56
496.442	72.56
496.66	96.56
496.877	71.56
497.094	89.56
497.312	79.56
497.529	82.56
497.746	97.56
497.963	85.56
498.181	74.56
498.398	67.56
498.615	101.56
498.832	77.56
499.049	90.56
499.267	85.56
499.484	77.56
499.701	72.56
499.918	79.56
500.135	94.56
500.352	77.56
500.569	67.56
500.786	75.56
501.003	83.56
501.22	90.56
501.437	78.56
501.654	76.56
501.871	94.56
502.088	86.56
502.305	81.56
502.522	89.56
502.739	64.56
502.956	74.56
503.172	82.56
503.389	74.56
503.606	85.56
503.823	84.56
504.04	87.56
504.256	81.56
504.473	81.56
504.69	82.56
504.907	75.56
505.123	81.56
505.34	90.56
505.557	92.56
505.773	92.56
505.99	82.56
506.207	75.56
506.423	97.56
506.64	86.56
506.856	85.56
507.073	97.56
507.289	101.56
507.506	87.56
507.722	91.56
507.939	91.56
508.155	99.56
508.372	79.56
508.588	87.56
508.805	83.56
509.021	70.56
509.238	79.56
509.454	88.56
509.67	88.56
509.887	88.56
510.103	84.56
510.319	90.56
510.536	80.56
510.752	88.56
510.968	68.56
511.184	69.56
511.401	91.56
511.617	101.56
511.833	81.56
512.049	96.56
512.265	85.56
512.481	83.56
512.698	86.56
512.914	79.56
513.13	91.56
513.346	89.56
513.562	83.56
513.778	93.56
513.994	72.56
514.21	80.56
514.426	82.56
514.642	96.56
514.858	86.56
515.074	74.56
515.29	89.56
515.506	82.56
515.721	88.56
515.937	90.56
516.153	84.56
516.369	76.56
516.585	86.56
516.801	85.56
517.016	102.56
517.232	103.56
517.448	80.56
517.664	89.56
517.879	87.56
518.095	86.56
518.311	79.56
518.527	84.56
518.742	86.56
518.958	88.56
519.173	85.56
519.389	86.56
519.605	82.56
519.82	85.56
520.036	77.56
