Data from 1600_3_HRD10591_00006.txt Node
Date: Mon Jan 19 13:54:56 EST 2026
User: Yrep
Spectrometer: HR+D1059
Trigger mode: 1
Integration Time (sec): 1.000000E-1
Scans to average: 1
Electric dark correction enabled: true
Nonlinearity correction enabled: false
Boxcar width: 0
XAxis mode: Wavelengths
Number of Pixels in Spectrum: 2048
>>>>>Begin Spectral Data<<<<<
223.165	-12.31
223.4	-12.31
223.635	-12.31
223.869	-23.31
224.104	-22.31
224.338	-25.31
224.573	-10.31
224.808	-9.31
225.042	-4.31
225.277	10.69
225.511	-0.31
225.746	-13.31
225.98	12.69
226.215	5.69
226.449	22.69
226.683	13.69
226.918	14.69
227.152	40.69
227.387	44.69
227.621	33.69
227.856	55.69
228.09	46.69
228.324	51.69
228.559	54.69
228.793	55.69
229.027	52.69
229.262	70.69
229.496	67.69
229.73	57.69
229.964	66.69
230.199	69.69
230.433	79.69
230.667	76.69
230.901	70.69
231.136	72.69
231.37	67.69
231.604	63.69
231.838	82.69
232.072	87.69
232.306	74.69
232.541	73.69
232.775	74.69
233.009	80.69
233.243	75.69
233.477	74.69
233.711	84.69
233.945	74.69
234.179	91.69
234.413	92.69
234.647	75.69
234.881	80.69
235.115	78.69
235.349	76.69
235.583	80.69
235.817	74.69
236.051	85.69
236.285	74.69
236.519	72.69
236.753	72.69
236.987	66.69
237.221	61.69
237.455	64.69
237.689	76.69
237.922	72.69
238.156	89.69
238.39	69.69
238.624	69.69
238.858	80.69
239.091	74.69
239.325	80.69
239.559	72.69
239.793	72.69
240.027	77.69
240.26	83.69
240.494	83.69
240.728	71.69
240.961	71.69
241.195	55.69
241.429	71.69
241.662	85.69
241.896	89.69
242.13	74.69
242.363	79.69
242.597	70.69
242.83	74.69
243.064	70.69
243.298	60.69
243.531	67.69
243.765	83.69
243.998	67.69
244.232	68.69
244.465	75.69
244.699	81.69
244.932	73.69
245.166	75.69
245.399	80.69
245.633	78.69
245.866	75.69
246.099	78.69
246.333	80.69
246.566	66.69
246.8	81.69
247.033	86.69
247.266	85.69
247.5	72.69
247.733	77.69
247.966	75.69
248.2	77.69
248.433	78.69
248.666	84.69
248.899	72.69
249.133	102.69
249.366	80.69
249.599	81.69
249.832	62.69
250.066	85.69
250.299	76.69
250.532	91.69
250.765	93.69
250.998	74.69
251.231	70.69
251.465	76.69
251.698	74.69
251.931	89.69
252.164	84.69
252.397	65.69
252.63	81.69
252.863	77.69
253.096	75.69
253.329	82.69
253.562	67.69
253.795	73.69
254.028	78.69
254.261	80.69
254.494	79.69
254.727	73.69
254.96	85.69
255.193	79.69
255.426	60.69
255.659	73.69
255.892	92.69
256.124	71.69
256.357	88.69
256.59	73.69
256.823	77.69
257.056	82.69
257.289	80.69
257.521	97.69
257.754	82.69
257.987	76.69
258.22	87.69
258.452	79.69
258.685	78.69
258.918	70.69
259.151	79.69
259.383	90.69
259.616	82.69
259.849	74.69
260.081	78.69
260.314	78.69
260.547	84.69
260.779	68.69
261.012	85.69
261.244	80.69
261.477	76.69
261.71	95.69
261.942	83.69
262.175	84.69
262.407	73.69
262.64	84.69
262.872	81.69
263.105	69.69
263.337	83.69
263.57	83.69
263.802	86.69
264.035	85.69
264.267	82.69
264.499	80.69
264.732	73.69
264.964	89.69
265.197	82.69
265.429	80.69
265.661	77.69
265.894	73.69
266.126	81.69
266.358	73.69
266.591	77.69
266.823	87.69
267.055	86.69
267.287	81.69
267.52	76.69
267.752	99.69
267.984	98.69
268.216	82.69
268.448	83.69
268.681	93.69
268.913	83.69
269.145	81.69
269.377	82.69
269.609	84.69
269.841	82.69
270.073	94.69
270.306	78.69
270.538	82.69
270.77	92.69
271.002	80.69
271.234	95.69
271.466	72.69
271.698	81.69
271.93	86.69
272.162	82.69
272.394	80.69
272.626	78.69
272.858	76.69
273.09	89.69
273.322	82.69
273.553	74.69
273.785	81.69
274.017	71.69
274.249	72.69
274.481	85.69
274.713	78.69
274.945	74.69
275.176	75.69
275.408	78.69
275.64	74.69
275.872	79.69
276.104	87.69
276.335	84.69
276.567	87.69
276.799	69.69
277.031	75.69
277.262	77.69
277.494	80.69
277.726	78.69
277.957	78.69
278.189	79.69
278.421	78.69
278.652	70.69
278.884	80.69
279.115	73.69
279.347	88.69
279.579	90.69
279.81	88.69
280.042	77.69
280.273	73.69
280.505	80.69
280.736	81.69
280.968	76.69
281.199	77.69
281.431	76.69
281.662	100.69
281.894	79.69
282.125	83.69
282.356	81.69
282.588	81.69
282.819	76.69
283.051	87.69
283.282	88.69
283.513	94.69
283.745	76.69
283.976	89.69
284.207	68.69
284.439	90.69
284.67	80.69
284.901	76.69
285.132	85.69
285.364	84.69
285.595	77.69
285.826	78.69
286.057	80.69
286.288	90.69
286.52	80.69
286.751	86.69
286.982	88.69
287.213	95.69
287.444	78.69
287.675	76.69
287.906	89.69
288.138	84.69
288.369	84.69
288.6	81.69
288.831	92.69
289.062	82.69
289.293	80.69
289.524	86.69
289.755	83.69
289.986	85.69
290.217	79.69
290.448	78.69
290.679	84.69
290.91	77.69
291.141	85.69
291.371	79.69
291.602	100.69
291.833	82.69
292.064	78.69
292.295	80.69
292.526	78.69
292.757	86.69
292.987	65.69
293.218	84.69
293.449	82.69
293.68	79.69
293.91	97.69
294.141	96.69
294.372	88.69
294.603	79.69
294.833	79.69
295.064	90.69
295.295	87.69
295.525	92.69
295.756	62.69
295.987	86.69
296.217	74.69
296.448	84.69
296.679	82.69
296.909	103.69
297.14	84.69
297.37	78.69
297.601	84.69
297.831	80.69
298.062	85.69
298.292	80.69
298.523	88.69
298.753	93.69
298.984	92.69
299.214	87.69
299.445	79.69
299.675	80.69
299.905	70.69
300.136	74.69
300.366	82.69
300.597	84.69
300.827	84.69
301.057	81.69
301.288	74.69
301.518	93.69
301.748	90.69
301.979	96.69
302.209	98.69
302.439	90.69
302.669	98.69
302.9	85.69
303.13	89.69
303.36	84.69
303.59	78.69
303.82	90.69
304.051	96.69
304.281	97.69
304.511	97.69
304.741	97.69
304.971	79.69
305.201	85.69
305.431	82.69
305.661	91.69
305.891	95.69
306.121	85.69
306.352	78.69
306.582	66.69
306.812	74.69
307.042	78.69
307.272	89.69
307.502	97.69
307.731	88.69
307.961	88.69
308.191	86.69
308.421	86.69
308.651	87.69
308.881	78.69
309.111	84.69
309.341	82.69
309.571	81.69
309.8	86.69
310.03	88.69
310.26	82.69
310.49	79.69
310.72	78.69
310.949	80.69
311.179	82.69
311.409	78.69
311.639	98.69
311.868	92.69
312.098	97.69
312.328	81.69
312.557	65.69
312.787	80.69
313.017	87.69
313.246	80.69
313.476	80.69
313.706	73.69
313.935	80.69
314.165	94.69
314.394	94.69
314.624	91.69
314.853	80.69
315.083	76.69
315.312	79.69
315.542	86.69
315.771	75.69
316.001	88.69
316.23	93.69
316.46	80.69
316.689	84.69
316.919	89.69
317.148	77.69
317.377	86.69
317.607	89.69
317.836	82.69
318.065	82.69
318.295	87.69
318.524	99.69
318.753	93.69
318.983	69.69
319.212	85.69
319.441	68.69
319.67	83.69
319.9	86.69
320.129	96.69
320.358	96.69
320.587	80.69
320.816	79.69
321.046	87.69
321.275	89.69
321.504	89.69
321.733	103.69
321.962	84.69
322.191	81.69
322.42	89.69
322.649	85.69
322.878	84.69
323.108	79.69
323.337	93.69
323.566	85.69
323.795	81.69
324.024	91.69
324.253	108.69
324.482	74.69
324.71	91.69
324.939	92.69
325.168	103.69
325.397	90.69
325.626	80.69
325.855	81.69
326.084	88.69
326.313	72.69
326.542	84.69
326.77	85.69
326.999	80.69
327.228	96.69
327.457	95.69
327.686	95.69
327.914	91.69
328.143	88.69
328.372	84.69
328.6	90.69
328.829	97.69
329.058	87.69
329.287	92.69
329.515	95.69
329.744	81.69
329.972	90.69
330.201	86.69
330.43	86.69
330.658	91.69
330.887	86.69
331.115	87.69
331.344	88.69
331.572	87.69
331.801	77.69
332.03	91.69
332.258	88.69
332.486	89.69
332.715	76.69
332.943	80.69
333.172	77.69
333.4	78.69
333.629	74.69
333.857	75.69
334.085	79.69
334.314	93.69
334.542	96.69
334.771	73.69
334.999	98.69
335.227	92.69
335.455	92.69
335.684	77.69
335.912	88.69
336.14	95.69
336.369	82.69
336.597	86.69
336.825	82.69
337.053	84.69
337.281	85.69
337.51	86.69
337.738	86.69
337.966	78.69
338.194	90.69
338.422	90.69
338.65	86.69
338.878	81.69
339.106	71.69
339.334	76.69
339.562	86.69
339.79	82.69
340.018	97.69
340.246	73.69
340.474	87.69
340.702	82.69
340.93	87.69
341.158	92.69
341.386	82.69
341.614	78.69
341.842	88.69
342.07	85.69
342.298	83.69
342.526	90.69
342.754	84.69
342.981	82.69
343.209	85.69
343.437	85.69
343.665	80.69
343.893	74.69
344.12	90.69
344.348	86.69
344.576	87.69
344.804	78.69
345.031	97.69
345.259	72.69
345.487	89.69
345.714	88.69
345.942	89.69
346.17	95.69
346.397	83.69
346.625	75.69
346.853	89.69
347.08	76.69
347.308	72.69
347.535	85.69
347.763	94.69
347.99	91.69
348.218	82.69
348.445	81.69
348.673	91.69
348.9	76.69
349.128	82.69
349.355	86.69
349.583	84.69
349.81	89.69
350.037	84.69
350.265	74.69
350.492	67.69
350.72	83.69
350.947	83.69
351.174	95.69
351.402	82.69
351.629	77.69
351.856	81.69
352.083	84.69
352.311	82.69
352.538	83.69
352.765	87.69
352.992	90.69
353.22	89.69
353.447	82.69
353.674	89.69
353.901	86.69
354.128	86.69
354.355	64.69
354.583	84.69
354.81	94.69
355.037	80.69
355.264	95.69
355.491	89.69
355.718	95.69
355.945	73.69
356.172	81.69
356.399	92.69
356.626	93.69
356.853	80.69
357.08	86.69
357.307	87.69
357.534	86.69
357.761	75.69
357.988	97.69
358.215	99.69
358.441	84.69
358.668	81.69
358.895	88.69
359.122	96.69
359.349	72.69
359.576	61.69
359.802	84.69
360.029	84.69
360.256	87.69
360.483	90.69
360.709	92.69
360.936	81.69
361.163	82.69
361.39	99.69
361.616	88.69
361.843	85.69
362.07	98.69
362.296	102.69
362.523	71.69
362.749	90.69
362.976	93.69
363.203	102.69
363.429	89.69
363.656	87.69
363.882	89.69
364.109	90.69
364.335	86.69
364.562	74.69
364.788	94.69
365.015	93.69
365.241	62.69
365.468	93.69
365.694	86.69
365.92	90.69
366.147	78.69
366.373	82.69
366.599	79.69
366.826	84.69
367.052	82.69
367.278	93.69
367.505	88.69
367.731	103.69
367.957	94.69
368.184	84.69
368.41	93.69
368.636	93.69
368.862	81.69
369.089	86.69
369.315	76.69
369.541	96.69
369.767	88.69
369.993	85.69
370.219	79.69
370.445	72.69
370.672	86.69
370.898	82.69
371.124	81.69
371.35	88.69
371.576	87.69
371.802	73.69
372.028	92.69
372.254	80.69
372.48	90.69
372.706	86.69
372.932	90.69
373.158	78.69
373.384	83.69
373.61	86.69
373.835	96.69
374.061	80.69
374.287	75.69
374.513	89.69
374.739	75.69
374.965	89.69
375.191	98.69
375.416	82.69
375.642	77.69
375.868	75.69
376.094	95.69
376.319	101.69
376.545	89.69
376.771	82.69
376.997	92.69
377.222	74.69
377.448	78.69
377.674	92.69
377.899	76.69
378.125	82.69
378.35	82.69
378.576	88.69
378.802	101.69
379.027	82.69
379.253	80.69
379.478	78.69
379.704	70.69
379.929	84.69
380.155	85.69
380.38	85.69
380.606	70.69
380.831	75.69
381.057	78.69
381.282	86.69
381.507	84.69
381.733	75.69
381.958	86.69
382.184	84.69
382.409	83.69
382.634	96.69
382.86	89.69
383.085	82.69
383.31	87.69
383.535	93.69
383.761	81.69
383.986	92.69
384.211	89.69
384.436	91.69
384.662	75.69
384.887	80.69
385.112	86.69
385.337	80.69
385.562	96.69
385.787	88.69
386.013	81.69
386.238	72.69
386.463	80.69
386.688	99.69
386.913	91.69
387.138	92.69
387.363	79.69
387.588	86.69
387.813	81.69
388.038	83.69
388.263	92.69
388.488	91.69
388.713	87.69
388.938	94.69
389.163	73.69
389.387	76.69
389.612	82.69
389.837	86.69
390.062	89.69
390.287	88.69
390.512	87.69
390.736	75.69
390.961	85.69
391.186	92.69
391.411	90.69
391.636	80.69
391.86	85.69
392.085	82.69
392.31	83.69
392.534	78.69
392.759	92.69
392.984	95.69
393.208	98.69
393.433	130.69
393.658	110.69
393.882	90.69
394.107	81.69
394.331	89.69
394.556	83.69
394.78	100.69
395.005	94.69
395.229	96.69
395.454	91.69
395.678	92.69
395.903	92.69
396.127	91.69
396.352	94.69
396.576	93.69
396.801	92.69
397.025	109.69
397.249	90.69
397.474	84.69
397.698	101.69
397.922	92.69
398.147	83.69
398.371	90.69
398.595	83.69
398.82	61.69
399.044	78.69
399.268	89.69
399.492	86.69
399.717	66.69
399.941	77.69
400.165	88.69
400.389	81.69
400.613	96.69
400.837	86.69
401.062	84.69
401.286	77.69
401.51	81.69
401.734	58.69
401.958	87.69
402.182	89.69
402.406	104.69
402.63	85.69
402.854	72.69
403.078	79.69
403.302	84.69
403.526	86.69
403.75	66.69
403.974	72.69
404.198	73.69
404.422	92.69
404.645	100.69
404.869	87.69
405.093	89.69
405.317	82.69
405.541	97.69
405.765	82.69
405.988	89.69
406.212	92.69
406.436	82.69
406.66	82.69
406.883	78.69
407.107	84.69
407.331	71.69
407.555	72.69
407.778	83.69
408.002	89.69
408.226	87.69
408.449	80.69
408.673	79.69
408.896	83.69
409.12	94.69
409.344	90.69
409.567	75.69
409.791	73.69
410.014	75.69
410.238	83.69
410.461	74.69
410.685	80.69
410.908	78.69
411.132	98.69
411.355	81.69
411.578	68.69
411.802	72.69
412.025	78.69
412.249	79.69
412.472	91.69
412.695	79.69
412.919	84.69
413.142	79.69
413.365	84.69
413.589	86.69
413.812	78.69
414.035	72.69
414.258	82.69
414.482	79.69
414.705	93.69
414.928	90.69
415.151	70.69
415.374	78.69
415.597	68.69
415.821	86.69
416.044	75.69
416.267	88.69
416.49	76.69
416.713	67.69
416.936	75.69
417.159	82.69
417.382	80.69
417.605	70.69
417.828	84.69
418.051	88.69
418.274	89.69
418.497	89.69
418.72	83.69
418.943	80.69
419.166	77.69
419.389	63.69
419.611	68.69
419.834	62.69
420.057	89.69
420.28	71.69
420.503	85.69
420.726	83.69
420.948	93.69
421.171	89.69
421.394	95.69
421.617	90.69
421.839	96.69
422.062	87.69
422.285	115.69
422.507	130.69
422.73	157.69
422.953	167.69
423.175	100.69
423.398	94.69
423.621	86.69
423.843	72.69
424.066	81.69
424.288	94.69
424.511	87.69
424.733	80.69
424.956	87.69
425.178	74.69
425.401	77.69
425.623	82.69
425.846	83.69
426.068	88.69
426.291	74.69
426.513	88.69
426.735	70.69
426.958	81.69
427.18	92.69
427.402	85.69
427.625	90.69
427.847	84.69
428.069	79.69
428.292	85.69
428.514	102.69
428.736	78.69
428.958	79.69
429.181	82.69
429.403	87.69
429.625	90.69
429.847	89.69
430.069	89.69
430.292	101.69
430.514	80.69
430.736	85.69
430.958	106.69
431.18	77.69
431.402	88.69
431.624	80.69
431.846	85.69
432.068	90.69
432.29	89.69
432.512	94.69
432.734	80.69
432.956	72.69
433.178	90.69
433.4	83.69
433.622	81.69
433.844	86.69
434.066	66.69
434.287	72.69
434.509	66.69
434.731	77.69
434.953	75.69
435.175	70.69
435.397	80.69
435.618	76.69
435.84	75.69
436.062	80.69
436.284	80.69
436.505	79.69
436.727	94.69
436.949	75.69
437.17	94.69
437.392	72.69
437.614	94.69
437.835	81.69
438.057	62.69
438.278	84.69
438.5	84.69
438.721	89.69
438.943	86.69
439.165	79.69
439.386	80.69
439.608	70.69
439.829	88.69
440.05	86.69
440.272	77.69
440.493	79.69
440.715	77.69
440.936	83.69
441.158	71.69
441.379	74.69
441.6	109.69
441.822	83.69
442.043	90.69
442.264	100.69
442.486	96.69
442.707	101.69
442.928	80.69
443.149	92.69
443.371	112.69
443.592	109.69
443.813	101.69
444.034	86.69
444.255	78.69
444.476	85.69
444.698	78.69
444.919	80.69
445.14	161.69
445.361	136.69
445.582	128.69
445.803	114.69
446.024	92.69
446.245	86.69
446.466	83.69
446.687	84.69
446.908	89.69
447.129	90.69
447.35	79.69
447.571	74.69
447.792	87.69
448.013	83.69
448.234	77.69
448.455	73.69
448.675	82.69
448.896	82.69
449.117	88.69
449.338	72.69
449.559	82.69
449.779	82.69
450	95.69
450.221	65.69
450.442	81.69
450.662	82.69
450.883	105.69
451.104	83.69
451.324	84.69
451.545	80.69
451.766	82.69
451.986	98.69
452.207	91.69
452.428	99.69
452.648	80.69
452.869	92.69
453.089	74.69
453.31	71.69
453.53	90.69
453.751	90.69
453.971	80.69
454.192	79.69
454.412	86.69
454.633	68.69
454.853	78.69
455.073	97.69
455.294	85.69
455.514	84.69
455.734	80.69
455.955	96.69
456.175	84.69
456.395	93.69
456.616	85.69
456.836	76.69
457.056	96.69
457.276	80.69
457.497	69.69
457.717	76.69
457.937	79.69
458.157	90.69
458.377	71.69
458.598	78.69
458.818	80.69
459.038	82.69
459.258	82.69
459.478	78.69
459.698	90.69
459.918	85.69
460.138	80.69
460.358	78.69
460.578	84.69
460.798	77.69
461.018	92.69
461.238	88.69
461.458	85.69
461.678	90.69
461.898	81.69
462.118	72.69
462.338	76.69
462.558	84.69
462.777	78.69
462.997	94.69
463.217	84.69
463.437	65.69
463.657	83.69
463.876	67.69
464.096	77.69
464.316	83.69
464.536	94.69
464.755	82.69
464.975	88.69
465.195	88.69
465.414	73.69
465.634	84.69
465.854	72.69
466.073	90.69
466.293	89.69
466.512	91.69
466.732	93.69
466.951	94.69
467.171	77.69
467.391	86.69
467.61	88.69
467.829	78.69
468.049	77.69
468.268	82.69
468.488	85.69
468.707	92.69
468.927	86.69
469.146	81.69
469.365	80.69
469.585	77.69
469.804	98.69
470.023	80.69
470.243	76.69
470.462	72.69
470.681	90.69
470.901	79.69
471.12	86.69
471.339	93.69
471.558	74.69
471.777	87.69
471.997	71.69
472.216	83.69
472.435	74.69
472.654	92.69
472.873	92.69
473.092	79.69
473.311	83.69
473.53	84.69
473.749	81.69
473.968	93.69
474.187	87.69
474.406	84.69
474.625	87.69
474.844	73.69
475.063	79.69
475.282	77.69
475.501	82.69
475.72	93.69
475.939	81.69
476.158	75.69
476.377	68.69
476.596	90.69
476.814	80.69
477.033	90.69
477.252	87.69
477.471	93.69
477.69	86.69
477.908	79.69
478.127	92.69
478.346	78.69
478.564	87.69
478.783	85.69
479.002	93.69
479.22	80.69
479.439	80.69
479.658	75.69
479.876	68.69
480.095	75.69
480.313	81.69
480.532	74.69
480.751	84.69
480.969	74.69
481.188	80.69
481.406	94.69
481.624	103.69
481.843	96.69
482.061	84.69
482.28	97.69
482.498	91.69
482.717	82.69
482.935	79.69
483.153	80.69
483.372	91.69
483.59	88.69
483.808	92.69
484.027	72.69
484.245	78.69
484.463	82.69
484.681	83.69
484.9	79.69
485.118	87.69
485.336	85.69
485.554	92.69
485.772	87.69
485.99	81.69
486.209	83.69
486.427	87.69
486.645	79.69
486.863	89.69
487.081	85.69
487.299	86.69
487.517	99.69
487.735	90.69
487.953	87.69
488.171	66.69
488.389	88.69
488.607	88.69
488.825	98.69
489.043	77.69
489.261	95.69
489.479	73.69
489.696	82.69
489.914	81.69
490.132	72.69
490.35	90.69
490.568	96.69
490.786	82.69
491.003	82.69
491.221	89.69
491.439	81.69
491.657	63.69
491.874	90.69
492.092	84.69
492.31	84.69
492.527	75.69
492.745	88.69
492.963	82.69
493.18	86.69
493.398	92.69
493.615	87.69
493.833	87.69
494.05	82.69
494.268	83.69
494.485	82.69
494.703	82.69
494.92	75.69
495.138	87.69
495.355	93.69
495.573	88.69
495.79	86.69
496.008	94.69
496.225	85.69
496.442	86.69
496.66	79.69
496.877	75.69
497.094	93.69
497.312	87.69
497.529	80.69
497.746	81.69
497.963	64.69
498.181	77.69
498.398	68.69
498.615	84.69
498.832	82.69
499.049	78.69
499.267	82.69
499.484	92.69
499.701	90.69
499.918	87.69
500.135	88.69
500.352	88.69
500.569	88.69
500.786	84.69
501.003	83.69
501.22	88.69
501.437	102.69
501.654	81.69
501.871	88.69
502.088	77.69
502.305	90.69
502.522	86.69
502.739	79.69
502.956	79.69
503.172	95.69
503.389	90.69
503.606	87.69
503.823	73.69
504.04	84.69
504.256	89.69
504.473	91.69
504.69	85.69
504.907	86.69
505.123	89.69
505.34	86.69
505.557	92.69
505.773	76.69
505.99	87.69
506.207	78.69
506.423	77.69
506.64	87.69
506.856	106.69
507.073	91.69
507.289	84.69
507.506	85.69
507.722	81.69
507.939	91.69
508.155	94.69
508.372	91.69
508.588	88.69
508.805	80.69
509.021	86.69
509.238	77.69
509.454	96.69
509.67	86.69
509.887	82.69
510.103	98.69
510.319	74.69
510.536	87.69
510.752	79.69
510.968	85.69
511.184	101.69
511.401	79.69
511.617	101.69
511.833	80.69
512.049	92.69
512.265	83.69
512.481	95.69
512.698	83.69
512.914	94.69
513.13	85.69
513.346	90.69
513.562	83.69
513.778	93.69
513.994	75.69
514.21	87.69
514.426	73.69
514.642	86.69
514.858	79.69
515.074	84.69
515.29	82.69
515.506	86.69
515.721	91.69
515.937	88.69
516.153	83.69
516.369	86.69
516.585	80.69
516.801	92.69
517.016	89.69
517.232	89.69
517.448	106.69
517.664	72.69
517.879	57.69
518.095	69.69
518.311	82.69
518.527	89.69
518.742	83.69
518.958	98.69
519.173	100.69
519.389	94.69
519.605	89.69
