Data from 1600_3_HRD10591_00032.txt Node
Date: Mon Jan 19 13:55:09 EST 2026
User: Yrep
Spectrometer: HR+D1059
Trigger mode: 1
Integration Time (sec): 1.000000E-1
Scans to average: 1
Electric dark correction enabled: true
Nonlinearity correction enabled: false
Boxcar width: 0
XAxis mode: Wavelengths
Number of Pixels in Spectrum: 2048
>>>>>Begin Spectral Data<<<<<
223.165	-24.56
223.4	-24.56
223.635	-24.56
223.869	-17.56
224.104	-13.56
224.338	-9.56
224.573	-18.56
224.808	-4.56
225.042	-4.56
225.277	-8.56
225.511	5.44
225.746	-1.56
225.98	-6.56
226.215	16.44
226.449	20.44
226.683	12.44
226.918	29.44
227.152	25.44
227.387	37.44
227.621	44.44
227.856	53.44
228.09	37.44
228.324	60.44
228.559	61.44
228.793	60.44
229.027	61.44
229.262	67.44
229.496	51.44
229.73	71.44
229.964	62.44
230.199	77.44
230.433	82.44
230.667	78.44
230.901	84.44
231.136	66.44
231.37	84.44
231.604	63.44
231.838	75.44
232.072	75.44
232.306	89.44
232.541	85.44
232.775	72.44
233.009	71.44
233.243	70.44
233.477	73.44
233.711	68.44
233.945	71.44
234.179	84.44
234.413	76.44
234.647	66.44
234.881	67.44
235.115	85.44
235.349	65.44
235.583	67.44
235.817	61.44
236.051	85.44
236.285	78.44
236.519	75.44
236.753	76.44
236.987	75.44
237.221	69.44
237.455	80.44
237.689	77.44
237.922	67.44
238.156	63.44
238.39	71.44
238.624	68.44
238.858	68.44
239.091	78.44
239.325	74.44
239.559	76.44
239.793	81.44
240.027	82.44
240.26	78.44
240.494	75.44
240.728	77.44
240.961	87.44
241.195	86.44
241.429	75.44
241.662	80.44
241.896	73.44
242.13	78.44
242.363	78.44
242.597	70.44
242.83	66.44
243.064	65.44
243.298	71.44
243.531	61.44
243.765	69.44
243.998	77.44
244.232	91.44
244.465	81.44
244.699	82.44
244.932	71.44
245.166	81.44
245.399	69.44
245.633	70.44
245.866	70.44
246.099	77.44
246.333	65.44
246.566	62.44
246.8	72.44
247.033	83.44
247.266	69.44
247.5	79.44
247.733	93.44
247.966	83.44
248.2	77.44
248.433	77.44
248.666	67.44
248.899	76.44
249.133	81.44
249.366	78.44
249.599	73.44
249.832	75.44
250.066	97.44
250.299	71.44
250.532	82.44
250.765	81.44
250.998	69.44
251.231	72.44
251.465	87.44
251.698	85.44
251.931	73.44
252.164	81.44
252.397	74.44
252.63	70.44
252.863	92.44
253.096	78.44
253.329	80.44
253.562	70.44
253.795	78.44
254.028	76.44
254.261	75.44
254.494	82.44
254.727	87.44
254.96	71.44
255.193	69.44
255.426	71.44
255.659	74.44
255.892	75.44
256.124	75.44
256.357	89.44
256.59	78.44
256.823	83.44
257.056	70.44
257.289	73.44
257.521	69.44
257.754	70.44
257.987	80.44
258.22	75.44
258.452	84.44
258.685	91.44
258.918	84.44
259.151	83.44
259.383	86.44
259.616	68.44
259.849	73.44
260.081	87.44
260.314	71.44
260.547	79.44
260.779	96.44
261.012	82.44
261.244	85.44
261.477	92.44
261.71	84.44
261.942	75.44
262.175	80.44
262.407	90.44
262.64	80.44
262.872	70.44
263.105	68.44
263.337	69.44
263.57	79.44
263.802	92.44
264.035	84.44
264.267	71.44
264.499	89.44
264.732	71.44
264.964	90.44
265.197	81.44
265.429	84.44
265.661	78.44
265.894	75.44
266.126	81.44
266.358	79.44
266.591	72.44
266.823	62.44
267.055	90.44
267.287	77.44
267.52	94.44
267.752	73.44
267.984	84.44
268.216	78.44
268.448	72.44
268.681	70.44
268.913	73.44
269.145	88.44
269.377	77.44
269.609	82.44
269.841	63.44
270.073	78.44
270.306	77.44
270.538	89.44
270.77	70.44
271.002	93.44
271.234	79.44
271.466	90.44
271.698	69.44
271.93	86.44
272.162	84.44
272.394	82.44
272.626	82.44
272.858	78.44
273.09	78.44
273.322	82.44
273.553	78.44
273.785	83.44
274.017	76.44
274.249	75.44
274.481	86.44
274.713	84.44
274.945	84.44
275.176	78.44
275.408	70.44
275.64	69.44
275.872	83.44
276.104	74.44
276.335	77.44
276.567	79.44
276.799	85.44
277.031	78.44
277.262	84.44
277.494	77.44
277.726	92.44
277.957	73.44
278.189	83.44
278.421	66.44
278.652	92.44
278.884	85.44
279.115	79.44
279.347	86.44
279.579	77.44
279.81	70.44
280.042	75.44
280.273	76.44
280.505	82.44
280.736	71.44
280.968	79.44
281.199	81.44
281.431	68.44
281.662	67.44
281.894	78.44
282.125	88.44
282.356	85.44
282.588	71.44
282.819	79.44
283.051	83.44
283.282	89.44
283.513	77.44
283.745	74.44
283.976	92.44
284.207	86.44
284.439	80.44
284.67	89.44
284.901	85.44
285.132	75.44
285.364	82.44
285.595	83.44
285.826	79.44
286.057	89.44
286.288	92.44
286.52	75.44
286.751	91.44
286.982	84.44
287.213	85.44
287.444	82.44
287.675	77.44
287.906	66.44
288.138	85.44
288.369	87.44
288.6	83.44
288.831	79.44
289.062	87.44
289.293	81.44
289.524	74.44
289.755	84.44
289.986	81.44
290.217	88.44
290.448	82.44
290.679	69.44
290.91	81.44
291.141	66.44
291.371	90.44
291.602	78.44
291.833	79.44
292.064	80.44
292.295	73.44
292.526	84.44
292.757	68.44
292.987	80.44
293.218	87.44
293.449	84.44
293.68	76.44
293.91	82.44
294.141	81.44
294.372	69.44
294.603	80.44
294.833	71.44
295.064	81.44
295.295	81.44
295.525	95.44
295.756	86.44
295.987	92.44
296.217	86.44
296.448	81.44
296.679	84.44
296.909	85.44
297.14	81.44
297.37	85.44
297.601	76.44
297.831	71.44
298.062	77.44
298.292	94.44
298.523	91.44
298.753	80.44
298.984	81.44
299.214	85.44
299.445	81.44
299.675	94.44
299.905	89.44
300.136	79.44
300.366	88.44
300.597	81.44
300.827	83.44
301.057	74.44
301.288	70.44
301.518	78.44
301.748	86.44
301.979	86.44
302.209	84.44
302.439	82.44
302.669	84.44
302.9	84.44
303.13	86.44
303.36	84.44
303.59	77.44
303.82	90.44
304.051	94.44
304.281	75.44
304.511	79.44
304.741	85.44
304.971	85.44
305.201	75.44
305.431	79.44
305.661	75.44
305.891	76.44
306.121	93.44
306.352	99.44
306.582	88.44
306.812	74.44
307.042	84.44
307.272	68.44
307.502	81.44
307.731	83.44
307.961	90.44
308.191	75.44
308.421	81.44
308.651	87.44
308.881	76.44
309.111	101.44
309.341	80.44
309.571	100.44
309.8	78.44
310.03	83.44
310.26	81.44
310.49	85.44
310.72	70.44
310.949	91.44
311.179	79.44
311.409	84.44
311.639	76.44
311.868	79.44
312.098	97.44
312.328	65.44
312.557	64.44
312.787	62.44
313.017	87.44
313.246	83.44
313.476	64.44
313.706	80.44
313.935	66.44
314.165	72.44
314.394	67.44
314.624	91.44
314.853	87.44
315.083	69.44
315.312	72.44
315.542	91.44
315.771	80.44
316.001	81.44
316.23	90.44
316.46	80.44
316.689	91.44
316.919	94.44
317.148	83.44
317.377	86.44
317.607	74.44
317.836	89.44
318.065	59.44
318.295	84.44
318.524	78.44
318.753	79.44
318.983	75.44
319.212	76.44
319.441	84.44
319.67	80.44
319.9	79.44
320.129	77.44
320.358	93.44
320.587	87.44
320.816	75.44
321.046	99.44
321.275	81.44
321.504	101.44
321.733	80.44
321.962	81.44
322.191	85.44
322.42	81.44
322.649	75.44
322.878	88.44
323.108	87.44
323.337	81.44
323.566	77.44
323.795	79.44
324.024	78.44
324.253	84.44
324.482	77.44
324.71	91.44
324.939	83.44
325.168	95.44
325.397	68.44
325.626	71.44
325.855	79.44
326.084	65.44
326.313	83.44
326.542	92.44
326.77	85.44
326.999	69.44
327.228	80.44
327.457	82.44
327.686	70.44
327.914	77.44
328.143	95.44
328.372	78.44
328.6	92.44
328.829	83.44
329.058	71.44
329.287	79.44
329.515	96.44
329.744	86.44
329.972	84.44
330.201	84.44
330.43	74.44
330.658	89.44
330.887	71.44
331.115	82.44
331.344	81.44
331.572	68.44
331.801	87.44
332.03	81.44
332.258	83.44
332.486	75.44
332.715	70.44
332.943	77.44
333.172	80.44
333.4	67.44
333.629	69.44
333.857	77.44
334.085	97.44
334.314	89.44
334.542	85.44
334.771	79.44
334.999	78.44
335.227	85.44
335.455	84.44
335.684	89.44
335.912	83.44
336.14	84.44
336.369	87.44
336.597	82.44
336.825	70.44
337.053	77.44
337.281	92.44
337.51	75.44
337.738	75.44
337.966	79.44
338.194	97.44
338.422	74.44
338.65	81.44
338.878	77.44
339.106	78.44
339.334	66.44
339.562	81.44
339.79	71.44
340.018	69.44
340.246	74.44
340.474	77.44
340.702	85.44
340.93	77.44
341.158	71.44
341.386	74.44
341.614	77.44
341.842	74.44
342.07	75.44
342.298	84.44
342.526	78.44
342.754	80.44
342.981	82.44
343.209	85.44
343.437	93.44
343.665	97.44
343.893	81.44
344.12	75.44
344.348	89.44
344.576	72.44
344.804	81.44
345.031	78.44
345.259	88.44
345.487	91.44
345.714	81.44
345.942	84.44
346.17	72.44
346.397	95.44
346.625	76.44
346.853	72.44
347.08	79.44
347.308	85.44
347.535	90.44
347.763	79.44
347.99	78.44
348.218	75.44
348.445	79.44
348.673	74.44
348.9	87.44
349.128	83.44
349.355	77.44
349.583	75.44
349.81	80.44
350.037	80.44
350.265	86.44
350.492	90.44
350.72	82.44
350.947	86.44
351.174	79.44
351.402	81.44
351.629	74.44
351.856	81.44
352.083	77.44
352.311	81.44
352.538	78.44
352.765	77.44
352.992	80.44
353.22	71.44
353.447	77.44
353.674	92.44
353.901	57.44
354.128	83.44
354.355	83.44
354.583	80.44
354.81	65.44
355.037	72.44
355.264	87.44
355.491	69.44
355.718	79.44
355.945	91.44
356.172	93.44
356.399	74.44
356.626	93.44
356.853	83.44
357.08	85.44
357.307	75.44
357.534	94.44
357.761	81.44
357.988	101.44
358.215	93.44
358.441	95.44
358.668	86.44
358.895	83.44
359.122	82.44
359.349	89.44
359.576	80.44
359.802	85.44
360.029	78.44
360.256	86.44
360.483	84.44
360.709	76.44
360.936	74.44
361.163	91.44
361.39	67.44
361.616	71.44
361.843	84.44
362.07	75.44
362.296	82.44
362.523	84.44
362.749	81.44
362.976	79.44
363.203	98.44
363.429	73.44
363.656	87.44
363.882	84.44
364.109	84.44
364.335	76.44
364.562	81.44
364.788	93.44
365.015	92.44
365.241	89.44
365.468	83.44
365.694	80.44
365.92	80.44
366.147	76.44
366.373	79.44
366.599	72.44
366.826	83.44
367.052	84.44
367.278	70.44
367.505	79.44
367.731	84.44
367.957	90.44
368.184	77.44
368.41	77.44
368.636	66.44
368.862	79.44
369.089	77.44
369.315	81.44
369.541	81.44
369.767	71.44
369.993	85.44
370.219	87.44
370.445	78.44
370.672	78.44
370.898	74.44
371.124	74.44
371.35	74.44
371.576	93.44
371.802	80.44
372.028	83.44
372.254	77.44
372.48	81.44
372.706	71.44
372.932	74.44
373.158	81.44
373.384	95.44
373.61	91.44
373.835	83.44
374.061	83.44
374.287	77.44
374.513	74.44
374.739	74.44
374.965	83.44
375.191	86.44
375.416	75.44
375.642	78.44
375.868	82.44
376.094	79.44
376.319	67.44
376.545	75.44
376.771	84.44
376.997	77.44
377.222	76.44
377.448	83.44
377.674	84.44
377.899	75.44
378.125	91.44
378.35	83.44
378.576	89.44
378.802	81.44
379.027	82.44
379.253	83.44
379.478	75.44
379.704	82.44
379.929	79.44
380.155	94.44
380.38	69.44
380.606	81.44
380.831	80.44
381.057	80.44
381.282	76.44
381.507	92.44
381.733	84.44
381.958	69.44
382.184	74.44
382.409	96.44
382.634	79.44
382.86	88.44
383.085	72.44
383.31	79.44
383.535	79.44
383.761	93.44
383.986	71.44
384.211	77.44
384.436	80.44
384.662	74.44
384.887	81.44
385.112	82.44
385.337	80.44
385.562	76.44
385.787	72.44
386.013	81.44
386.238	71.44
386.463	83.44
386.688	90.44
386.913	77.44
387.138	69.44
387.363	69.44
387.588	66.44
387.813	89.44
388.038	77.44
388.263	76.44
388.488	78.44
388.713	74.44
388.938	71.44
389.163	85.44
389.387	81.44
389.612	77.44
389.837	80.44
390.062	83.44
390.287	75.44
390.512	77.44
390.736	85.44
390.961	74.44
391.186	85.44
391.411	78.44
391.636	77.44
391.86	96.44
392.085	61.44
392.31	84.44
392.534	69.44
392.759	88.44
392.984	81.44
393.208	116.44
393.433	126.44
393.658	116.44
393.882	80.44
394.107	77.44
394.331	77.44
394.556	83.44
394.78	74.44
395.005	70.44
395.229	82.44
395.454	81.44
395.678	77.44
395.903	80.44
396.127	78.44
396.352	103.44
396.576	88.44
396.801	113.44
397.025	113.44
397.249	92.44
397.474	83.44
397.698	99.44
397.922	79.44
398.147	63.44
398.371	65.44
398.595	80.44
398.82	78.44
399.044	67.44
399.268	83.44
399.492	78.44
399.717	83.44
399.941	90.44
400.165	72.44
400.389	83.44
400.613	79.44
400.837	69.44
401.062	81.44
401.286	72.44
401.51	89.44
401.734	79.44
401.958	94.44
402.182	71.44
402.406	90.44
402.63	71.44
402.854	82.44
403.078	77.44
403.302	70.44
403.526	74.44
403.75	71.44
403.974	66.44
404.198	80.44
404.422	78.44
404.645	90.44
404.869	82.44
405.093	66.44
405.317	91.44
405.541	79.44
405.765	80.44
405.988	76.44
406.212	80.44
406.436	65.44
406.66	71.44
406.883	79.44
407.107	61.44
407.331	77.44
407.555	84.44
407.778	84.44
408.002	81.44
408.226	74.44
408.449	77.44
408.673	72.44
408.896	75.44
409.12	84.44
409.344	70.44
409.567	76.44
409.791	71.44
410.014	79.44
410.238	63.44
410.461	80.44
410.685	68.44
410.908	90.44
411.132	83.44
411.355	78.44
411.578	78.44
411.802	66.44
412.025	77.44
412.249	86.44
412.472	81.44
412.695	82.44
412.919	68.44
413.142	55.44
413.365	85.44
413.589	78.44
413.812	81.44
414.035	82.44
414.258	71.44
414.482	72.44
414.705	86.44
414.928	85.44
415.151	80.44
415.374	78.44
415.597	72.44
415.821	76.44
416.044	76.44
416.267	86.44
416.49	72.44
416.713	77.44
416.936	77.44
417.159	82.44
417.382	72.44
417.605	77.44
417.828	76.44
418.051	89.44
418.274	82.44
418.497	84.44
418.72	75.44
418.943	73.44
419.166	84.44
419.389	67.44
419.611	72.44
419.834	65.44
420.057	65.44
420.28	64.44
420.503	62.44
420.726	77.44
420.948	75.44
421.171	82.44
421.394	91.44
421.617	70.44
421.839	84.44
422.062	76.44
422.285	78.44
422.507	83.44
422.73	97.44
422.953	97.44
423.175	68.44
423.398	74.44
423.621	69.44
423.843	81.44
424.066	69.44
424.288	90.44
424.511	77.44
424.733	71.44
424.956	65.44
425.178	72.44
425.401	83.44
425.623	81.44
425.846	66.44
426.068	65.44
426.291	81.44
426.513	73.44
426.735	79.44
426.958	87.44
427.18	62.44
427.402	67.44
427.625	79.44
427.847	71.44
428.069	78.44
428.292	85.44
428.514	89.44
428.736	72.44
428.958	76.44
429.181	93.44
429.403	83.44
429.625	77.44
429.847	85.44
430.069	78.44
430.292	89.44
430.514	91.44
430.736	62.44
430.958	80.44
431.18	69.44
431.402	87.44
431.624	72.44
431.846	78.44
432.068	90.44
432.29	79.44
432.512	79.44
432.734	71.44
432.956	76.44
433.178	66.44
433.4	75.44
433.622	76.44
433.844	79.44
434.066	82.44
434.287	87.44
434.509	83.44
434.731	80.44
434.953	91.44
435.175	83.44
435.397	86.44
435.618	75.44
435.84	71.44
436.062	67.44
436.284	66.44
436.505	89.44
436.727	83.44
436.949	82.44
437.17	72.44
437.392	92.44
437.614	76.44
437.835	76.44
438.057	86.44
438.278	87.44
438.5	85.44
438.721	77.44
438.943	68.44
439.165	60.44
439.386	79.44
439.608	75.44
439.829	64.44
440.05	82.44
440.272	75.44
440.493	72.44
440.715	80.44
440.936	69.44
441.158	80.44
441.379	89.44
441.6	83.44
441.822	75.44
442.043	98.44
442.264	87.44
442.486	73.44
442.707	79.44
442.928	78.44
443.149	78.44
443.371	79.44
443.592	90.44
443.813	72.44
444.034	75.44
444.255	70.44
444.476	81.44
444.698	89.44
444.919	69.44
445.14	134.44
445.361	107.44
445.582	99.44
445.803	87.44
446.024	92.44
446.245	85.44
446.466	83.44
446.687	65.44
446.908	77.44
447.129	69.44
447.35	88.44
447.571	70.44
447.792	82.44
448.013	81.44
448.234	91.44
448.455	64.44
448.675	81.44
448.896	68.44
449.117	77.44
449.338	74.44
449.559	70.44
449.779	82.44
450	84.44
450.221	84.44
450.442	85.44
450.662	79.44
450.883	81.44
451.104	64.44
451.324	65.44
451.545	66.44
451.766	73.44
451.986	80.44
452.207	81.44
452.428	67.44
452.648	74.44
452.869	97.44
453.089	86.44
453.31	75.44
453.53	76.44
453.751	75.44
453.971	85.44
454.192	78.44
454.412	82.44
454.633	78.44
454.853	86.44
455.073	75.44
455.294	75.44
455.514	90.44
455.734	82.44
455.955	81.44
456.175	76.44
456.395	78.44
456.616	75.44
456.836	80.44
457.056	69.44
457.276	90.44
457.497	75.44
457.717	63.44
457.937	62.44
458.157	84.44
458.377	85.44
458.598	63.44
458.818	75.44
459.038	75.44
459.258	74.44
459.478	65.44
459.698	79.44
459.918	85.44
460.138	66.44
460.358	78.44
460.578	88.44
460.798	79.44
461.018	84.44
461.238	80.44
461.458	83.44
461.678	86.44
461.898	77.44
462.118	79.44
462.338	95.44
462.558	82.44
462.777	78.44
462.997	81.44
463.217	79.44
463.437	73.44
463.657	85.44
463.876	91.44
464.096	78.44
464.316	78.44
464.536	78.44
464.755	60.44
464.975	83.44
465.195	79.44
465.414	76.44
465.634	72.44
465.854	75.44
466.073	102.44
466.293	79.44
466.512	75.44
466.732	71.44
466.951	80.44
467.171	84.44
467.391	75.44
467.61	77.44
467.829	77.44
468.049	66.44
468.268	76.44
468.488	75.44
468.707	73.44
468.927	72.44
469.146	77.44
469.365	69.44
469.585	80.44
469.804	77.44
470.023	84.44
470.243	70.44
470.462	74.44
470.681	71.44
470.901	75.44
471.12	77.44
471.339	82.44
471.558	78.44
471.777	90.44
471.997	73.44
472.216	70.44
472.435	76.44
472.654	73.44
472.873	77.44
473.092	89.44
473.311	62.44
473.53	69.44
473.749	68.44
473.968	89.44
474.187	98.44
474.406	75.44
474.625	72.44
474.844	63.44
475.063	83.44
475.282	92.44
475.501	84.44
475.72	95.44
475.939	88.44
476.158	79.44
476.377	93.44
476.596	81.44
476.814	67.44
477.033	89.44
477.252	84.44
477.471	79.44
477.69	77.44
477.908	80.44
478.127	88.44
478.346	87.44
478.564	68.44
478.783	84.44
479.002	81.44
479.22	68.44
479.439	79.44
479.658	81.44
479.876	85.44
480.095	76.44
480.313	75.44
480.532	65.44
480.751	83.44
480.969	86.44
481.188	79.44
481.406	91.44
481.624	67.44
481.843	77.44
482.061	67.44
482.28	97.44
482.498	77.44
482.717	81.44
482.935	81.44
483.153	63.44
483.372	74.44
483.59	75.44
483.808	86.44
484.027	81.44
484.245	78.44
484.463	86.44
484.681	97.44
484.9	79.44
485.118	60.44
485.336	76.44
485.554	81.44
485.772	80.44
485.99	80.44
486.209	89.44
486.427	75.44
486.645	86.44
486.863	79.44
487.081	75.44
487.299	80.44
487.517	85.44
487.735	80.44
487.953	74.44
488.171	94.44
488.389	80.44
488.607	89.44
488.825	81.44
489.043	62.44
489.261	87.44
489.479	80.44
489.696	76.44
489.914	76.44
490.132	79.44
490.35	73.44
490.568	77.44
490.786	77.44
491.003	76.44
491.221	84.44
491.439	73.44
491.657	83.44
491.874	85.44
492.092	89.44
492.31	89.44
492.527	72.44
492.745	74.44
492.963	74.44
493.18	82.44
493.398	75.44
493.615	79.44
493.833	86.44
494.05	76.44
494.268	69.44
494.485	77.44
494.703	76.44
494.92	79.44
495.138	69.44
495.355	79.44
495.573	80.44
495.79	100.44
496.008	76.44
496.225	69.44
496.442	70.44
496.66	74.44
496.877	75.44
497.094	67.44
497.312	69.44
497.529	70.44
497.746	80.44
497.963	63.44
498.181	75.44
498.398	82.44
498.615	75.44
498.832	81.44
499.049	91.44
499.267	68.44
499.484	88.44
499.701	89.44
499.918	83.44
500.135	86.44
500.352	77.44
500.569	77.44
500.786	86.44
501.003	82.44
501.22	70.44
501.437	73.44
501.654	79.44
501.871	81.44
502.088	92.44
502.305	89.44
502.522	78.44
502.739	69.44
502.956	86.44
503.172	76.44
503.389	84.44
503.606	78.44
503.823	93.44
504.04	85.44
504.256	81.44
504.473	85.44
504.69	74.44
504.907	82.44
505.123	85.44
505.34	75.44
505.557	64.44
505.773	77.44
505.99	89.44
506.207	87.44
506.423	87.44
506.64	86.44
506.856	82.44
507.073	84.44
507.289	73.44
507.506	59.44
507.722	83.44
507.939	78.44
508.155	82.44
508.372	87.44
508.588	76.44
508.805	80.44
509.021	83.44
509.238	82.44
509.454	99.44
509.67	74.44
509.887	79.44
510.103	77.44
510.319	83.44
510.536	72.44
510.752	83.44
510.968	79.44
511.184	80.44
511.401	90.44
511.617	86.44
511.833	79.44
512.049	96.44
512.265	78.44
512.481	71.44
512.698	86.44
512.914	89.44
513.13	84.44
513.346	84.44
513.562	94.44
513.778	73.44
513.994	77.44
514.21	80.44
514.426	78.44
514.642	95.44
514.858	73.44
515.074	71.44
515.29	75.44
515.506	75.44
515.721	91.44
515.937	89.44
516.153	78.44
516.369	76.44
516.585	70.44
516.801	77.44
517.016	86.44
517.232	73.44
517.448	78.44
517.664	73.44
517.879	88.44
518.095	67.44
518.311	73.44
518.527	85.44
518.742	76.44
518.958	78.44
519.173	97.44
519.389	80.44
519.605	71.44
519.82	82.44
520.036	75.44
