Data from 1600_3_HRD10591_00047.txt Node
Date: Mon Jan 19 13:55:16 EST 2026
User: Yrep
Spectrometer: HR+D1059
Trigger mode: 1
Integration Time (sec): 1.000000E-1
Scans to average: 1
Electric dark correction enabled: true
Nonlinearity correction enabled: false
Boxcar width: 0
XAxis mode: Wavelengths
Number of Pixels in Spectrum: 2048
>>>>>Begin Spectral Data<<<<<
223.165	-17.44
223.4	-17.44
223.635	-17.44
223.869	-15.44
224.104	-18.44
224.338	-15.44
224.573	-10.44
224.808	-12.44
225.042	-13.44
225.277	2.56
225.511	-6.44
225.746	4.56
225.98	8.56
226.215	6.56
226.449	9.56
226.683	24.56
226.918	16.56
227.152	36.56
227.387	26.56
227.621	39.56
227.856	36.56
228.09	53.56
228.324	40.56
228.559	58.56
228.793	61.56
229.027	58.56
229.262	65.56
229.496	69.56
229.73	71.56
229.964	83.56
230.199	68.56
230.433	68.56
230.667	83.56
230.901	60.56
231.136	67.56
231.37	76.56
231.604	80.56
231.838	82.56
232.072	80.56
232.306	86.56
232.541	76.56
232.775	76.56
233.009	67.56
233.243	75.56
233.477	92.56
233.711	80.56
233.945	76.56
234.179	83.56
234.413	90.56
234.647	75.56
234.881	90.56
235.115	77.56
235.349	66.56
235.583	72.56
235.817	57.56
236.051	79.56
236.285	72.56
236.519	76.56
236.753	66.56
236.987	68.56
237.221	75.56
237.455	77.56
237.689	72.56
237.922	82.56
238.156	56.56
238.39	69.56
238.624	74.56
238.858	77.56
239.091	75.56
239.325	69.56
239.559	82.56
239.793	68.56
240.027	78.56
240.26	80.56
240.494	84.56
240.728	78.56
240.961	72.56
241.195	78.56
241.429	67.56
241.662	58.56
241.896	70.56
242.13	79.56
242.363	74.56
242.597	73.56
242.83	73.56
243.064	85.56
243.298	74.56
243.531	86.56
243.765	76.56
243.998	80.56
244.232	62.56
244.465	72.56
244.699	75.56
244.932	87.56
245.166	82.56
245.399	86.56
245.633	75.56
245.866	80.56
246.099	68.56
246.333	72.56
246.566	87.56
246.8	63.56
247.033	67.56
247.266	75.56
247.5	79.56
247.733	77.56
247.966	72.56
248.2	78.56
248.433	94.56
248.666	82.56
248.899	83.56
249.133	69.56
249.366	81.56
249.599	77.56
249.832	71.56
250.066	76.56
250.299	72.56
250.532	67.56
250.765	84.56
250.998	86.56
251.231	64.56
251.465	87.56
251.698	78.56
251.931	71.56
252.164	80.56
252.397	82.56
252.63	78.56
252.863	74.56
253.096	82.56
253.329	74.56
253.562	82.56
253.795	80.56
254.028	70.56
254.261	77.56
254.494	78.56
254.727	87.56
254.96	74.56
255.193	72.56
255.426	71.56
255.659	76.56
255.892	84.56
256.124	90.56
256.357	79.56
256.59	63.56
256.823	59.56
257.056	75.56
257.289	76.56
257.521	72.56
257.754	82.56
257.987	79.56
258.22	85.56
258.452	78.56
258.685	79.56
258.918	80.56
259.151	76.56
259.383	80.56
259.616	90.56
259.849	74.56
260.081	94.56
260.314	78.56
260.547	86.56
260.779	83.56
261.012	58.56
261.244	73.56
261.477	86.56
261.71	70.56
261.942	80.56
262.175	87.56
262.407	65.56
262.64	70.56
262.872	80.56
263.105	82.56
263.337	93.56
263.57	70.56
263.802	78.56
264.035	80.56
264.267	83.56
264.499	80.56
264.732	80.56
264.964	81.56
265.197	68.56
265.429	91.56
265.661	80.56
265.894	80.56
266.126	82.56
266.358	74.56
266.591	81.56
266.823	72.56
267.055	53.56
267.287	82.56
267.52	77.56
267.752	82.56
267.984	90.56
268.216	78.56
268.448	87.56
268.681	89.56
268.913	91.56
269.145	79.56
269.377	78.56
269.609	85.56
269.841	81.56
270.073	90.56
270.306	80.56
270.538	75.56
270.77	58.56
271.002	70.56
271.234	79.56
271.466	94.56
271.698	80.56
271.93	83.56
272.162	87.56
272.394	70.56
272.626	78.56
272.858	81.56
273.09	82.56
273.322	92.56
273.553	82.56
273.785	85.56
274.017	81.56
274.249	80.56
274.481	86.56
274.713	70.56
274.945	78.56
275.176	93.56
275.408	86.56
275.64	82.56
275.872	82.56
276.104	87.56
276.335	74.56
276.567	78.56
276.799	84.56
277.031	80.56
277.262	83.56
277.494	81.56
277.726	83.56
277.957	77.56
278.189	90.56
278.421	86.56
278.652	75.56
278.884	85.56
279.115	91.56
279.347	82.56
279.579	78.56
279.81	86.56
280.042	96.56
280.273	94.56
280.505	78.56
280.736	90.56
280.968	95.56
281.199	75.56
281.431	87.56
281.662	88.56
281.894	81.56
282.125	76.56
282.356	93.56
282.588	66.56
282.819	82.56
283.051	73.56
283.282	70.56
283.513	80.56
283.745	82.56
283.976	78.56
284.207	78.56
284.439	80.56
284.67	86.56
284.901	91.56
285.132	93.56
285.364	88.56
285.595	99.56
285.826	77.56
286.057	83.56
286.288	83.56
286.52	80.56
286.751	74.56
286.982	96.56
287.213	72.56
287.444	79.56
287.675	87.56
287.906	75.56
288.138	87.56
288.369	98.56
288.6	78.56
288.831	72.56
289.062	86.56
289.293	87.56
289.524	66.56
289.755	79.56
289.986	82.56
290.217	77.56
290.448	78.56
290.679	83.56
290.91	88.56
291.141	97.56
291.371	87.56
291.602	77.56
291.833	70.56
292.064	90.56
292.295	78.56
292.526	82.56
292.757	80.56
292.987	78.56
293.218	84.56
293.449	89.56
293.68	74.56
293.91	71.56
294.141	79.56
294.372	79.56
294.603	81.56
294.833	87.56
295.064	79.56
295.295	75.56
295.525	78.56
295.756	76.56
295.987	87.56
296.217	69.56
296.448	82.56
296.679	78.56
296.909	96.56
297.14	72.56
297.37	84.56
297.601	77.56
297.831	76.56
298.062	72.56
298.292	81.56
298.523	80.56
298.753	91.56
298.984	82.56
299.214	82.56
299.445	81.56
299.675	85.56
299.905	85.56
300.136	83.56
300.366	95.56
300.597	101.56
300.827	86.56
301.057	75.56
301.288	82.56
301.518	84.56
301.748	81.56
301.979	99.56
302.209	94.56
302.439	77.56
302.669	81.56
302.9	83.56
303.13	91.56
303.36	70.56
303.59	88.56
303.82	78.56
304.051	96.56
304.281	94.56
304.511	71.56
304.741	88.56
304.971	87.56
305.201	93.56
305.431	87.56
305.661	92.56
305.891	89.56
306.121	83.56
306.352	92.56
306.582	78.56
306.812	86.56
307.042	90.56
307.272	92.56
307.502	91.56
307.731	94.56
307.961	76.56
308.191	89.56
308.421	89.56
308.651	84.56
308.881	74.56
309.111	86.56
309.341	104.56
309.571	94.56
309.8	90.56
310.03	89.56
310.26	90.56
310.49	78.56
310.72	64.56
310.949	68.56
311.179	81.56
311.409	93.56
311.639	93.56
311.868	88.56
312.098	73.56
312.328	77.56
312.557	73.56
312.787	76.56
313.017	84.56
313.246	87.56
313.476	72.56
313.706	86.56
313.935	72.56
314.165	79.56
314.394	94.56
314.624	70.56
314.853	74.56
315.083	75.56
315.312	75.56
315.542	80.56
315.771	94.56
316.001	99.56
316.23	94.56
316.46	97.56
316.689	72.56
316.919	92.56
317.148	89.56
317.377	85.56
317.607	95.56
317.836	99.56
318.065	88.56
318.295	104.56
318.524	84.56
318.753	80.56
318.983	62.56
319.212	82.56
319.441	96.56
319.67	84.56
319.9	82.56
320.129	92.56
320.358	82.56
320.587	84.56
320.816	76.56
321.046	87.56
321.275	81.56
321.504	85.56
321.733	92.56
321.962	88.56
322.191	74.56
322.42	97.56
322.649	70.56
322.878	95.56
323.108	83.56
323.337	80.56
323.566	86.56
323.795	85.56
324.024	87.56
324.253	71.56
324.482	73.56
324.71	88.56
324.939	67.56
325.168	75.56
325.397	78.56
325.626	74.56
325.855	102.56
326.084	86.56
326.313	81.56
326.542	87.56
326.77	86.56
326.999	78.56
327.228	92.56
327.457	78.56
327.686	87.56
327.914	80.56
328.143	92.56
328.372	85.56
328.6	83.56
328.829	86.56
329.058	77.56
329.287	81.56
329.515	76.56
329.744	80.56
329.972	92.56
330.201	89.56
330.43	84.56
330.658	95.56
330.887	83.56
331.115	81.56
331.344	75.56
331.572	94.56
331.801	87.56
332.03	84.56
332.258	90.56
332.486	83.56
332.715	77.56
332.943	93.56
333.172	82.56
333.4	85.56
333.629	84.56
333.857	85.56
334.085	95.56
334.314	68.56
334.542	80.56
334.771	78.56
334.999	90.56
335.227	87.56
335.455	85.56
335.684	98.56
335.912	80.56
336.14	93.56
336.369	83.56
336.597	90.56
336.825	103.56
337.053	82.56
337.281	91.56
337.51	71.56
337.738	86.56
337.966	79.56
338.194	82.56
338.422	74.56
338.65	85.56
338.878	74.56
339.106	74.56
339.334	71.56
339.562	69.56
339.79	81.56
340.018	83.56
340.246	78.56
340.474	72.56
340.702	82.56
340.93	76.56
341.158	72.56
341.386	69.56
341.614	94.56
341.842	79.56
342.07	67.56
342.298	92.56
342.526	72.56
342.754	83.56
342.981	93.56
343.209	89.56
343.437	94.56
343.665	80.56
343.893	92.56
344.12	88.56
344.348	85.56
344.576	88.56
344.804	88.56
345.031	76.56
345.259	102.56
345.487	86.56
345.714	77.56
345.942	82.56
346.17	75.56
346.397	79.56
346.625	86.56
346.853	85.56
347.08	95.56
347.308	83.56
347.535	82.56
347.763	84.56
347.99	80.56
348.218	91.56
348.445	72.56
348.673	77.56
348.9	77.56
349.128	95.56
349.355	88.56
349.583	88.56
349.81	70.56
350.037	75.56
350.265	68.56
350.492	82.56
350.72	80.56
350.947	75.56
351.174	83.56
351.402	72.56
351.629	83.56
351.856	78.56
352.083	83.56
352.311	80.56
352.538	69.56
352.765	78.56
352.992	91.56
353.22	80.56
353.447	86.56
353.674	77.56
353.901	88.56
354.128	77.56
354.355	79.56
354.583	85.56
354.81	95.56
355.037	85.56
355.264	82.56
355.491	90.56
355.718	74.56
355.945	75.56
356.172	101.56
356.399	78.56
356.626	96.56
356.853	93.56
357.08	83.56
357.307	92.56
357.534	94.56
357.761	97.56
357.988	93.56
358.215	99.56
358.441	90.56
358.668	82.56
358.895	80.56
359.122	81.56
359.349	90.56
359.576	81.56
359.802	90.56
360.029	91.56
360.256	70.56
360.483	78.56
360.709	96.56
360.936	100.56
361.163	88.56
361.39	87.56
361.616	81.56
361.843	85.56
362.07	87.56
362.296	79.56
362.523	81.56
362.749	90.56
362.976	108.56
363.203	98.56
363.429	82.56
363.656	64.56
363.882	67.56
364.109	89.56
364.335	94.56
364.562	97.56
364.788	101.56
365.015	93.56
365.241	94.56
365.468	83.56
365.694	78.56
365.92	86.56
366.147	77.56
366.373	90.56
366.599	90.56
366.826	81.56
367.052	71.56
367.278	79.56
367.505	79.56
367.731	87.56
367.957	80.56
368.184	95.56
368.41	92.56
368.636	72.56
368.862	84.56
369.089	70.56
369.315	75.56
369.541	78.56
369.767	92.56
369.993	82.56
370.219	75.56
370.445	79.56
370.672	88.56
370.898	96.56
371.124	84.56
371.35	87.56
371.576	87.56
371.802	80.56
372.028	90.56
372.254	94.56
372.48	83.56
372.706	91.56
372.932	102.56
373.158	96.56
373.384	107.56
373.61	126.56
373.835	112.56
374.061	105.56
374.287	94.56
374.513	99.56
374.739	99.56
374.965	106.56
375.191	94.56
375.416	87.56
375.642	82.56
375.868	93.56
376.094	87.56
376.319	85.56
376.545	94.56
376.771	80.56
376.997	88.56
377.222	83.56
377.448	92.56
377.674	85.56
377.899	81.56
378.125	85.56
378.35	72.56
378.576	82.56
378.802	74.56
379.027	90.56
379.253	81.56
379.478	78.56
379.704	90.56
379.929	93.56
380.155	76.56
380.38	90.56
380.606	80.56
380.831	86.56
381.057	97.56
381.282	68.56
381.507	92.56
381.733	95.56
381.958	103.56
382.184	102.56
382.409	98.56
382.634	106.56
382.86	94.56
383.085	99.56
383.31	96.56
383.535	119.56
383.761	106.56
383.986	103.56
384.211	102.56
384.436	88.56
384.662	90.56
384.887	78.56
385.112	94.56
385.337	101.56
385.562	87.56
385.787	86.56
386.013	96.56
386.238	87.56
386.463	94.56
386.688	99.56
386.913	72.56
387.138	92.56
387.363	92.56
387.588	97.56
387.813	96.56
388.038	87.56
388.263	74.56
388.488	100.56
388.713	98.56
388.938	97.56
389.163	77.56
389.387	82.56
389.612	96.56
389.837	84.56
390.062	82.56
390.287	80.56
390.512	94.56
390.736	87.56
390.961	89.56
391.186	83.56
391.411	82.56
391.636	78.56
391.86	86.56
392.085	92.56
392.31	82.56
392.534	92.56
392.759	112.56
392.984	182.56
393.208	342.56
393.433	534.56
393.658	411.56
393.882	147.56
394.107	101.56
394.331	116.56
394.556	111.56
394.78	94.56
395.005	78.56
395.229	94.56
395.454	77.56
395.678	87.56
395.903	107.56
396.127	154.56
396.352	155.56
396.576	201.56
396.801	352.56
397.025	421.56
397.249	200.56
397.474	116.56
397.698	87.56
397.922	78.56
398.147	80.56
398.371	86.56
398.595	83.56
398.82	104.56
399.044	77.56
399.268	81.56
399.492	82.56
399.717	81.56
399.941	77.56
400.165	75.56
400.389	83.56
400.613	82.56
400.837	90.56
401.062	80.56
401.286	82.56
401.51	62.56
401.734	79.56
401.958	79.56
402.182	83.56
402.406	84.56
402.63	87.56
402.854	80.56
403.078	87.56
403.302	91.56
403.526	93.56
403.75	71.56
403.974	88.56
404.198	89.56
404.422	90.56
404.645	99.56
404.869	92.56
405.093	91.56
405.317	79.56
405.541	90.56
405.765	80.56
405.988	75.56
406.212	81.56
406.436	93.56
406.66	77.56
406.883	95.56
407.107	92.56
407.331	81.56
407.555	84.56
407.778	106.56
408.002	101.56
408.226	98.56
408.449	97.56
408.673	80.56
408.896	91.56
409.12	60.56
409.344	80.56
409.567	104.56
409.791	82.56
410.014	82.56
410.238	82.56
410.461	91.56
410.685	89.56
410.908	76.56
411.132	79.56
411.355	97.56
411.578	76.56
411.802	90.56
412.025	72.56
412.249	85.56
412.472	82.56
412.695	73.56
412.919	82.56
413.142	78.56
413.365	83.56
413.589	78.56
413.812	68.56
414.035	79.56
414.258	87.56
414.482	80.56
414.705	84.56
414.928	78.56
415.151	87.56
415.374	77.56
415.597	74.56
415.821	79.56
416.044	74.56
416.267	79.56
416.49	84.56
416.713	80.56
416.936	83.56
417.159	91.56
417.382	71.56
417.605	73.56
417.828	74.56
418.051	65.56
418.274	80.56
418.497	93.56
418.72	63.56
418.943	90.56
419.166	88.56
419.389	67.56
419.611	101.56
419.834	80.56
420.057	88.56
420.28	87.56
420.503	94.56
420.726	79.56
420.948	75.56
421.171	83.56
421.394	81.56
421.617	97.56
421.839	88.56
422.062	99.56
422.285	121.56
422.507	199.56
422.73	337.56
422.953	314.56
423.175	136.56
423.398	79.56
423.621	84.56
423.843	66.56
424.066	72.56
424.288	84.56
424.511	94.56
424.733	81.56
424.956	74.56
425.178	78.56
425.401	87.56
425.623	85.56
425.846	73.56
426.068	89.56
426.291	74.56
426.513	83.56
426.735	79.56
426.958	78.56
427.18	71.56
427.402	86.56
427.625	100.56
427.847	91.56
428.069	95.56
428.292	111.56
428.514	127.56
428.736	95.56
428.958	99.56
429.181	111.56
429.403	91.56
429.625	87.56
429.847	90.56
430.069	119.56
430.292	133.56
430.514	151.56
430.736	111.56
430.958	118.56
431.18	90.56
431.402	88.56
431.624	98.56
431.846	109.56
432.068	94.56
432.29	95.56
432.512	90.56
432.734	86.56
432.956	90.56
433.178	92.56
433.4	80.56
433.622	82.56
433.844	87.56
434.066	95.56
434.287	98.56
434.509	60.56
434.731	93.56
434.953	86.56
435.175	76.56
435.397	83.56
435.618	78.56
435.84	88.56
436.062	98.56
436.284	82.56
436.505	76.56
436.727	88.56
436.949	79.56
437.17	92.56
437.392	76.56
437.614	94.56
437.835	88.56
438.057	65.56
438.278	70.56
438.5	91.56
438.721	92.56
438.943	82.56
439.165	82.56
439.386	83.56
439.608	82.56
439.829	67.56
440.05	73.56
440.272	92.56
440.493	78.56
440.715	85.56
440.936	90.56
441.158	93.56
441.379	82.56
441.6	85.56
441.822	81.56
442.043	80.56
442.264	91.56
442.486	80.56
442.707	126.56
442.928	87.56
443.149	87.56
443.371	115.56
443.592	155.56
443.813	135.56
444.034	83.56
444.255	106.56
444.476	88.56
444.698	71.56
444.919	76.56
445.14	164.56
445.361	145.56
445.582	191.56
445.803	158.56
446.024	95.56
446.245	81.56
446.466	79.56
446.687	80.56
446.908	79.56
447.129	92.56
447.35	82.56
447.571	84.56
447.792	86.56
448.013	83.56
448.234	85.56
448.455	73.56
448.675	82.56
448.896	79.56
449.117	78.56
449.338	71.56
449.559	82.56
449.779	71.56
450	77.56
450.221	81.56
450.442	74.56
450.662	77.56
450.883	72.56
451.104	79.56
451.324	104.56
451.545	87.56
451.766	72.56
451.986	73.56
452.207	87.56
452.428	68.56
452.648	83.56
452.869	75.56
453.089	82.56
453.31	75.56
453.53	82.56
453.751	87.56
453.971	76.56
454.192	86.56
454.412	70.56
454.633	79.56
454.853	76.56
455.073	92.56
455.294	86.56
455.514	81.56
455.734	80.56
455.955	75.56
456.175	84.56
456.395	80.56
456.616	76.56
456.836	74.56
457.056	87.56
457.276	84.56
457.497	78.56
457.717	83.56
457.937	81.56
458.157	82.56
458.377	72.56
458.598	98.56
458.818	91.56
459.038	94.56
459.258	72.56
459.478	86.56
459.698	78.56
459.918	63.56
460.138	73.56
460.358	79.56
460.578	90.56
460.798	80.56
461.018	92.56
461.238	75.56
461.458	75.56
461.678	85.56
461.898	98.56
462.118	83.56
462.338	90.56
462.558	75.56
462.777	84.56
462.997	72.56
463.217	78.56
463.437	76.56
463.657	76.56
463.876	76.56
464.096	88.56
464.316	76.56
464.536	78.56
464.755	71.56
464.975	66.56
465.195	79.56
465.414	79.56
465.634	77.56
465.854	83.56
466.073	80.56
466.293	75.56
466.512	67.56
466.732	78.56
466.951	90.56
467.171	86.56
467.391	89.56
467.61	91.56
467.829	92.56
468.049	84.56
468.268	76.56
468.488	83.56
468.707	83.56
468.927	91.56
469.146	77.56
469.365	87.56
469.585	85.56
469.804	81.56
470.023	84.56
470.243	80.56
470.462	90.56
470.681	78.56
470.901	85.56
471.12	79.56
471.339	82.56
471.558	72.56
471.777	66.56
471.997	71.56
472.216	85.56
472.435	81.56
472.654	85.56
472.873	82.56
473.092	79.56
473.311	77.56
473.53	84.56
473.749	80.56
473.968	94.56
474.187	80.56
474.406	83.56
474.625	91.56
474.844	77.56
475.063	77.56
475.282	77.56
475.501	77.56
475.72	85.56
475.939	79.56
476.158	82.56
476.377	67.56
476.596	87.56
476.814	86.56
477.033	80.56
477.252	87.56
477.471	91.56
477.69	83.56
477.908	71.56
478.127	94.56
478.346	81.56
478.564	84.56
478.783	81.56
479.002	86.56
479.22	85.56
479.439	73.56
479.658	78.56
479.876	90.56
480.095	78.56
480.313	89.56
480.532	60.56
480.751	90.56
480.969	72.56
481.188	61.56
481.406	92.56
481.624	82.56
481.843	78.56
482.061	79.56
482.28	74.56
482.498	64.56
482.717	62.56
482.935	78.56
483.153	71.56
483.372	70.56
483.59	77.56
483.808	84.56
484.027	77.56
484.245	85.56
484.463	80.56
484.681	86.56
484.9	67.56
485.118	98.56
485.336	85.56
485.554	86.56
485.772	90.56
485.99	90.56
486.209	72.56
486.427	70.56
486.645	68.56
486.863	105.56
487.081	80.56
487.299	100.56
487.517	94.56
487.735	97.56
487.953	102.56
488.171	88.56
488.389	58.56
488.607	70.56
488.825	62.56
489.043	75.56
489.261	94.56
489.479	95.56
489.696	85.56
489.914	76.56
490.132	86.56
490.35	84.56
490.568	75.56
490.786	85.56
491.003	79.56
491.221	80.56
491.439	81.56
491.657	86.56
491.874	75.56
492.092	77.56
492.31	84.56
492.527	81.56
492.745	79.56
492.963	70.56
493.18	88.56
493.398	84.56
493.615	72.56
493.833	86.56
494.05	77.56
494.268	76.56
494.485	82.56
494.703	87.56
494.92	96.56
495.138	88.56
495.355	79.56
495.573	90.56
495.79	89.56
496.008	99.56
496.225	68.56
496.442	81.56
496.66	78.56
496.877	85.56
497.094	94.56
497.312	76.56
497.529	72.56
497.746	88.56
497.963	80.56
498.181	98.56
498.398	83.56
498.615	64.56
498.832	64.56
499.049	82.56
499.267	97.56
499.484	80.56
499.701	84.56
499.918	86.56
500.135	80.56
500.352	82.56
500.569	91.56
500.786	93.56
501.003	83.56
501.22	74.56
501.437	69.56
501.654	100.56
501.871	99.56
502.088	84.56
502.305	80.56
502.522	78.56
502.739	70.56
502.956	76.56
503.172	81.56
503.389	77.56
503.606	91.56
503.823	87.56
504.04	85.56
504.256	105.56
504.473	77.56
504.69	84.56
504.907	95.56
505.123	81.56
505.34	83.56
505.557	76.56
505.773	103.56
505.99	73.56
506.207	87.56
506.423	76.56
506.64	67.56
506.856	70.56
507.073	80.56
507.289	97.56
507.506	82.56
507.722	83.56
507.939	86.56
508.155	94.56
508.372	73.56
508.588	72.56
508.805	84.56
509.021	81.56
509.238	81.56
509.454	82.56
509.67	85.56
509.887	81.56
510.103	83.56
510.319	86.56
510.536	73.56
510.752	73.56
510.968	82.56
511.184	91.56
511.401	71.56
511.617	80.56
511.833	89.56
512.049	84.56
512.265	92.56
512.481	68.56
512.698	90.56
512.914	83.56
513.13	79.56
513.346	86.56
513.562	80.56
513.778	72.56
513.994	79.56
514.21	88.56
514.426	78.56
514.642	86.56
514.858	90.56
515.074	94.56
515.29	86.56
515.506	79.56
515.721	82.56
515.937	84.56
516.153	91.56
516.369	82.56
516.585	95.56
516.801	99.56
517.016	96.56
517.232	95.56
517.448	106.56
517.664	87.56
517.879	78.56
518.095	76.56
518.311	97.56
518.527	104.56
518.742	99.56
518.958	110.56
519.173	110.56
