Data from 1600_3_HRD10591_00036.txt Node
Date: Mon Jan 19 13:55:11 EST 2026
User: Yrep
Spectrometer: HR+D1059
Trigger mode: 1
Integration Time (sec): 1.000000E-1
Scans to average: 1
Electric dark correction enabled: true
Nonlinearity correction enabled: false
Boxcar width: 0
XAxis mode: Wavelengths
Number of Pixels in Spectrum: 2048
>>>>>Begin Spectral Data<<<<<
223.165	-8.25
223.4	-8.25
223.635	-8.25
223.869	-17.25
224.104	-21.25
224.338	-15.25
224.573	-8.25
224.808	-17.25
225.042	-4.25
225.277	-7.25
225.511	-11.25
225.746	4.75
225.98	4.75
226.215	5.75
226.449	18.75
226.683	17.75
226.918	18.75
227.152	39.75
227.387	28.75
227.621	44.75
227.856	49.75
228.09	46.75
228.324	48.75
228.559	65.75
228.793	62.75
229.027	51.75
229.262	66.75
229.496	73.75
229.73	61.75
229.964	69.75
230.199	67.75
230.433	69.75
230.667	72.75
230.901	83.75
231.136	72.75
231.37	69.75
231.604	83.75
231.838	77.75
232.072	87.75
232.306	72.75
232.541	71.75
232.775	79.75
233.009	71.75
233.243	74.75
233.477	83.75
233.711	83.75
233.945	79.75
234.179	79.75
234.413	92.75
234.647	76.75
234.881	77.75
235.115	76.75
235.349	74.75
235.583	75.75
235.817	79.75
236.051	70.75
236.285	68.75
236.519	76.75
236.753	80.75
236.987	76.75
237.221	72.75
237.455	77.75
237.689	61.75
237.922	68.75
238.156	63.75
238.39	80.75
238.624	61.75
238.858	68.75
239.091	85.75
239.325	79.75
239.559	72.75
239.793	70.75
240.027	54.75
240.26	75.75
240.494	81.75
240.728	83.75
240.961	58.75
241.195	66.75
241.429	72.75
241.662	64.75
241.896	84.75
242.13	78.75
242.363	72.75
242.597	90.75
242.83	69.75
243.064	75.75
243.298	67.75
243.531	78.75
243.765	71.75
243.998	66.75
244.232	74.75
244.465	74.75
244.699	72.75
244.932	73.75
245.166	64.75
245.399	72.75
245.633	74.75
245.866	84.75
246.099	84.75
246.333	68.75
246.566	78.75
246.8	65.75
247.033	72.75
247.266	90.75
247.5	76.75
247.733	72.75
247.966	80.75
248.2	70.75
248.433	66.75
248.666	81.75
248.899	79.75
249.133	72.75
249.366	68.75
249.599	96.75
249.832	69.75
250.066	87.75
250.299	89.75
250.532	83.75
250.765	70.75
250.998	75.75
251.231	76.75
251.465	79.75
251.698	86.75
251.931	69.75
252.164	73.75
252.397	68.75
252.63	66.75
252.863	74.75
253.096	79.75
253.329	71.75
253.562	77.75
253.795	66.75
254.028	83.75
254.261	80.75
254.494	84.75
254.727	72.75
254.96	88.75
255.193	83.75
255.426	62.75
255.659	78.75
255.892	77.75
256.124	83.75
256.357	82.75
256.59	85.75
256.823	80.75
257.056	71.75
257.289	82.75
257.521	83.75
257.754	79.75
257.987	77.75
258.22	73.75
258.452	64.75
258.685	83.75
258.918	78.75
259.151	84.75
259.383	87.75
259.616	97.75
259.849	61.75
260.081	92.75
260.314	76.75
260.547	86.75
260.779	75.75
261.012	74.75
261.244	82.75
261.477	88.75
261.71	86.75
261.942	65.75
262.175	85.75
262.407	69.75
262.64	64.75
262.872	81.75
263.105	67.75
263.337	95.75
263.57	74.75
263.802	89.75
264.035	71.75
264.267	85.75
264.499	76.75
264.732	77.75
264.964	68.75
265.197	70.75
265.429	72.75
265.661	85.75
265.894	80.75
266.126	83.75
266.358	80.75
266.591	52.75
266.823	66.75
267.055	80.75
267.287	85.75
267.52	78.75
267.752	94.75
267.984	88.75
268.216	70.75
268.448	77.75
268.681	76.75
268.913	78.75
269.145	81.75
269.377	93.75
269.609	75.75
269.841	77.75
270.073	77.75
270.306	88.75
270.538	85.75
270.77	68.75
271.002	98.75
271.234	90.75
271.466	92.75
271.698	85.75
271.93	63.75
272.162	89.75
272.394	80.75
272.626	83.75
272.858	57.75
273.09	79.75
273.322	83.75
273.553	89.75
273.785	77.75
274.017	87.75
274.249	84.75
274.481	87.75
274.713	77.75
274.945	70.75
275.176	74.75
275.408	92.75
275.64	83.75
275.872	81.75
276.104	83.75
276.335	86.75
276.567	67.75
276.799	78.75
277.031	73.75
277.262	71.75
277.494	91.75
277.726	80.75
277.957	91.75
278.189	72.75
278.421	77.75
278.652	82.75
278.884	79.75
279.115	80.75
279.347	85.75
279.579	79.75
279.81	76.75
280.042	88.75
280.273	91.75
280.505	88.75
280.736	77.75
280.968	74.75
281.199	92.75
281.431	78.75
281.662	72.75
281.894	77.75
282.125	79.75
282.356	77.75
282.588	66.75
282.819	83.75
283.051	69.75
283.282	84.75
283.513	82.75
283.745	94.75
283.976	73.75
284.207	81.75
284.439	70.75
284.67	72.75
284.901	87.75
285.132	82.75
285.364	72.75
285.595	90.75
285.826	81.75
286.057	74.75
286.288	86.75
286.52	89.75
286.751	82.75
286.982	83.75
287.213	78.75
287.444	80.75
287.675	83.75
287.906	81.75
288.138	70.75
288.369	75.75
288.6	75.75
288.831	82.75
289.062	85.75
289.293	92.75
289.524	61.75
289.755	92.75
289.986	68.75
290.217	89.75
290.448	94.75
290.679	86.75
290.91	78.75
291.141	87.75
291.371	84.75
291.602	93.75
291.833	83.75
292.064	77.75
292.295	84.75
292.526	68.75
292.757	74.75
292.987	97.75
293.218	83.75
293.449	86.75
293.68	95.75
293.91	82.75
294.141	75.75
294.372	81.75
294.603	100.75
294.833	90.75
295.064	78.75
295.295	81.75
295.525	83.75
295.756	87.75
295.987	86.75
296.217	82.75
296.448	77.75
296.679	83.75
296.909	86.75
297.14	101.75
297.37	87.75
297.601	79.75
297.831	81.75
298.062	89.75
298.292	75.75
298.523	83.75
298.753	71.75
298.984	86.75
299.214	81.75
299.445	94.75
299.675	96.75
299.905	94.75
300.136	85.75
300.366	79.75
300.597	76.75
300.827	86.75
301.057	102.75
301.288	83.75
301.518	79.75
301.748	70.75
301.979	102.75
302.209	74.75
302.439	76.75
302.669	81.75
302.9	89.75
303.13	82.75
303.36	82.75
303.59	80.75
303.82	78.75
304.051	66.75
304.281	87.75
304.511	75.75
304.741	74.75
304.971	83.75
305.201	86.75
305.431	88.75
305.661	87.75
305.891	78.75
306.121	79.75
306.352	65.75
306.582	81.75
306.812	61.75
307.042	89.75
307.272	86.75
307.502	78.75
307.731	76.75
307.961	87.75
308.191	89.75
308.421	80.75
308.651	69.75
308.881	86.75
309.111	71.75
309.341	75.75
309.571	80.75
309.8	91.75
310.03	68.75
310.26	78.75
310.49	79.75
310.72	90.75
310.949	84.75
311.179	83.75
311.409	78.75
311.639	83.75
311.868	84.75
312.098	89.75
312.328	84.75
312.557	81.75
312.787	85.75
313.017	92.75
313.246	67.75
313.476	92.75
313.706	82.75
313.935	89.75
314.165	81.75
314.394	91.75
314.624	85.75
314.853	85.75
315.083	82.75
315.312	76.75
315.542	94.75
315.771	77.75
316.001	72.75
316.23	89.75
316.46	76.75
316.689	70.75
316.919	70.75
317.148	78.75
317.377	85.75
317.607	86.75
317.836	81.75
318.065	83.75
318.295	82.75
318.524	81.75
318.753	76.75
318.983	85.75
319.212	84.75
319.441	88.75
319.67	73.75
319.9	80.75
320.129	76.75
320.358	80.75
320.587	92.75
320.816	85.75
321.046	85.75
321.275	69.75
321.504	66.75
321.733	80.75
321.962	75.75
322.191	79.75
322.42	67.75
322.649	98.75
322.878	77.75
323.108	79.75
323.337	69.75
323.566	87.75
323.795	69.75
324.024	87.75
324.253	79.75
324.482	82.75
324.71	98.75
324.939	70.75
325.168	89.75
325.397	79.75
325.626	92.75
325.855	65.75
326.084	85.75
326.313	76.75
326.542	97.75
326.77	78.75
326.999	89.75
327.228	81.75
327.457	81.75
327.686	80.75
327.914	85.75
328.143	82.75
328.372	86.75
328.6	79.75
328.829	97.75
329.058	83.75
329.287	83.75
329.515	96.75
329.744	94.75
329.972	85.75
330.201	85.75
330.43	78.75
330.658	83.75
330.887	88.75
331.115	79.75
331.344	72.75
331.572	73.75
331.801	71.75
332.03	65.75
332.258	84.75
332.486	85.75
332.715	89.75
332.943	75.75
333.172	81.75
333.4	78.75
333.629	74.75
333.857	83.75
334.085	81.75
334.314	82.75
334.542	78.75
334.771	91.75
334.999	70.75
335.227	74.75
335.455	67.75
335.684	82.75
335.912	79.75
336.14	76.75
336.369	82.75
336.597	95.75
336.825	69.75
337.053	89.75
337.281	89.75
337.51	62.75
337.738	80.75
337.966	75.75
338.194	79.75
338.422	81.75
338.65	81.75
338.878	75.75
339.106	83.75
339.334	90.75
339.562	80.75
339.79	91.75
340.018	80.75
340.246	98.75
340.474	78.75
340.702	82.75
340.93	81.75
341.158	77.75
341.386	70.75
341.614	93.75
341.842	92.75
342.07	89.75
342.298	89.75
342.526	88.75
342.754	82.75
342.981	83.75
343.209	90.75
343.437	80.75
343.665	79.75
343.893	77.75
344.12	75.75
344.348	92.75
344.576	87.75
344.804	89.75
345.031	77.75
345.259	82.75
345.487	88.75
345.714	83.75
345.942	76.75
346.17	71.75
346.397	76.75
346.625	81.75
346.853	82.75
347.08	84.75
347.308	78.75
347.535	77.75
347.763	86.75
347.99	78.75
348.218	70.75
348.445	70.75
348.673	77.75
348.9	84.75
349.128	78.75
349.355	80.75
349.583	79.75
349.81	76.75
350.037	75.75
350.265	72.75
350.492	84.75
350.72	82.75
350.947	76.75
351.174	88.75
351.402	94.75
351.629	76.75
351.856	72.75
352.083	80.75
352.311	79.75
352.538	71.75
352.765	74.75
352.992	76.75
353.22	78.75
353.447	84.75
353.674	95.75
353.901	85.75
354.128	78.75
354.355	81.75
354.583	84.75
354.81	76.75
355.037	87.75
355.264	83.75
355.491	72.75
355.718	85.75
355.945	81.75
356.172	74.75
356.399	69.75
356.626	64.75
356.853	80.75
357.08	86.75
357.307	90.75
357.534	78.75
357.761	75.75
357.988	68.75
358.215	91.75
358.441	88.75
358.668	75.75
358.895	84.75
359.122	58.75
359.349	89.75
359.576	75.75
359.802	72.75
360.029	67.75
360.256	67.75
360.483	79.75
360.709	82.75
360.936	77.75
361.163	83.75
361.39	81.75
361.616	66.75
361.843	78.75
362.07	73.75
362.296	81.75
362.523	77.75
362.749	85.75
362.976	75.75
363.203	81.75
363.429	79.75
363.656	74.75
363.882	78.75
364.109	80.75
364.335	73.75
364.562	66.75
364.788	79.75
365.015	76.75
365.241	78.75
365.468	83.75
365.694	73.75
365.92	88.75
366.147	77.75
366.373	87.75
366.599	87.75
366.826	93.75
367.052	87.75
367.278	95.75
367.505	74.75
367.731	91.75
367.957	82.75
368.184	79.75
368.41	71.75
368.636	78.75
368.862	86.75
369.089	80.75
369.315	84.75
369.541	76.75
369.767	89.75
369.993	84.75
370.219	71.75
370.445	71.75
370.672	71.75
370.898	86.75
371.124	89.75
371.35	71.75
371.576	69.75
371.802	86.75
372.028	79.75
372.254	71.75
372.48	76.75
372.706	71.75
372.932	61.75
373.158	63.75
373.384	80.75
373.61	81.75
373.835	90.75
374.061	85.75
374.287	74.75
374.513	82.75
374.739	84.75
374.965	75.75
375.191	93.75
375.416	77.75
375.642	88.75
375.868	83.75
376.094	86.75
376.319	89.75
376.545	96.75
376.771	64.75
376.997	82.75
377.222	83.75
377.448	84.75
377.674	69.75
377.899	82.75
378.125	75.75
378.35	91.75
378.576	87.75
378.802	85.75
379.027	97.75
379.253	78.75
379.478	82.75
379.704	77.75
379.929	81.75
380.155	77.75
380.38	67.75
380.606	73.75
380.831	75.75
381.057	90.75
381.282	74.75
381.507	87.75
381.733	72.75
381.958	87.75
382.184	89.75
382.409	91.75
382.634	74.75
382.86	77.75
383.085	87.75
383.31	70.75
383.535	87.75
383.761	106.75
383.986	83.75
384.211	72.75
384.436	91.75
384.662	65.75
384.887	75.75
385.112	74.75
385.337	97.75
385.562	84.75
385.787	78.75
386.013	80.75
386.238	70.75
386.463	89.75
386.688	87.75
386.913	75.75
387.138	78.75
387.363	76.75
387.588	81.75
387.813	75.75
388.038	74.75
388.263	89.75
388.488	80.75
388.713	70.75
388.938	79.75
389.163	74.75
389.387	89.75
389.612	77.75
389.837	77.75
390.062	63.75
390.287	79.75
390.512	71.75
390.736	78.75
390.961	72.75
391.186	79.75
391.411	65.75
391.636	71.75
391.86	75.75
392.085	81.75
392.31	73.75
392.534	67.75
392.759	77.75
392.984	77.75
393.208	101.75
393.433	114.75
393.658	101.75
393.882	89.75
394.107	81.75
394.331	89.75
394.556	106.75
394.78	81.75
395.005	74.75
395.229	71.75
395.454	86.75
395.678	75.75
395.903	83.75
396.127	87.75
396.352	82.75
396.576	88.75
396.801	95.75
397.025	110.75
397.249	93.75
397.474	97.75
397.698	77.75
397.922	81.75
398.147	84.75
398.371	97.75
398.595	82.75
398.82	83.75
399.044	81.75
399.268	72.75
399.492	85.75
399.717	65.75
399.941	87.75
400.165	76.75
400.389	87.75
400.613	78.75
400.837	77.75
401.062	85.75
401.286	86.75
401.51	63.75
401.734	67.75
401.958	72.75
402.182	81.75
402.406	74.75
402.63	71.75
402.854	75.75
403.078	78.75
403.302	78.75
403.526	71.75
403.75	71.75
403.974	78.75
404.198	75.75
404.422	80.75
404.645	72.75
404.869	77.75
405.093	77.75
405.317	69.75
405.541	82.75
405.765	88.75
405.988	70.75
406.212	86.75
406.436	79.75
406.66	99.75
406.883	77.75
407.107	67.75
407.331	78.75
407.555	82.75
407.778	78.75
408.002	66.75
408.226	72.75
408.449	86.75
408.673	87.75
408.896	86.75
409.12	70.75
409.344	70.75
409.567	85.75
409.791	77.75
410.014	75.75
410.238	72.75
410.461	73.75
410.685	78.75
410.908	90.75
411.132	91.75
411.355	69.75
411.578	77.75
411.802	83.75
412.025	78.75
412.249	75.75
412.472	79.75
412.695	65.75
412.919	68.75
413.142	77.75
413.365	81.75
413.589	75.75
413.812	73.75
414.035	78.75
414.258	89.75
414.482	73.75
414.705	78.75
414.928	70.75
415.151	83.75
415.374	65.75
415.597	73.75
415.821	75.75
416.044	81.75
416.267	78.75
416.49	78.75
416.713	79.75
416.936	64.75
417.159	87.75
417.382	78.75
417.605	82.75
417.828	81.75
418.051	77.75
418.274	87.75
418.497	75.75
418.72	83.75
418.943	90.75
419.166	75.75
419.389	66.75
419.611	71.75
419.834	97.75
420.057	81.75
420.28	74.75
420.503	85.75
420.726	76.75
420.948	78.75
421.171	85.75
421.394	85.75
421.617	74.75
421.839	67.75
422.062	63.75
422.285	86.75
422.507	102.75
422.73	134.75
422.953	117.75
423.175	85.75
423.398	67.75
423.621	63.75
423.843	79.75
424.066	70.75
424.288	71.75
424.511	86.75
424.733	87.75
424.956	89.75
425.178	81.75
425.401	93.75
425.623	74.75
425.846	67.75
426.068	69.75
426.291	76.75
426.513	73.75
426.735	78.75
426.958	71.75
427.18	72.75
427.402	73.75
427.625	81.75
427.847	91.75
428.069	61.75
428.292	65.75
428.514	105.75
428.736	88.75
428.958	85.75
429.181	90.75
429.403	75.75
429.625	95.75
429.847	63.75
430.069	88.75
430.292	94.75
430.514	85.75
430.736	73.75
430.958	80.75
431.18	62.75
431.402	78.75
431.624	81.75
431.846	79.75
432.068	82.75
432.29	76.75
432.512	86.75
432.734	68.75
432.956	82.75
433.178	78.75
433.4	78.75
433.622	83.75
433.844	78.75
434.066	74.75
434.287	81.75
434.509	66.75
434.731	78.75
434.953	81.75
435.175	57.75
435.397	71.75
435.618	80.75
435.84	64.75
436.062	65.75
436.284	75.75
436.505	65.75
436.727	75.75
436.949	76.75
437.17	76.75
437.392	81.75
437.614	70.75
437.835	57.75
438.057	89.75
438.278	90.75
438.5	81.75
438.721	85.75
438.943	80.75
439.165	89.75
439.386	83.75
439.608	84.75
439.829	84.75
440.05	86.75
440.272	82.75
440.493	89.75
440.715	79.75
440.936	79.75
441.158	72.75
441.379	61.75
441.6	73.75
441.822	72.75
442.043	75.75
442.264	63.75
442.486	67.75
442.707	80.75
442.928	100.75
443.149	72.75
443.371	81.75
443.592	83.75
443.813	89.75
444.034	76.75
444.255	83.75
444.476	81.75
444.698	60.75
444.919	74.75
445.14	148.75
445.361	135.75
445.582	111.75
445.803	84.75
446.024	66.75
446.245	84.75
446.466	71.75
446.687	87.75
446.908	82.75
447.129	81.75
447.35	67.75
447.571	83.75
447.792	79.75
448.013	71.75
448.234	74.75
448.455	71.75
448.675	77.75
448.896	72.75
449.117	72.75
449.338	62.75
449.559	76.75
449.779	83.75
450	86.75
450.221	81.75
450.442	70.75
450.662	76.75
450.883	73.75
451.104	57.75
451.324	76.75
451.545	69.75
451.766	75.75
451.986	74.75
452.207	89.75
452.428	80.75
452.648	71.75
452.869	91.75
453.089	81.75
453.31	69.75
453.53	81.75
453.751	79.75
453.971	86.75
454.192	61.75
454.412	79.75
454.633	78.75
454.853	80.75
455.073	76.75
455.294	71.75
455.514	74.75
455.734	96.75
455.955	83.75
456.175	80.75
456.395	73.75
456.616	76.75
456.836	85.75
457.056	69.75
457.276	69.75
457.497	74.75
457.717	71.75
457.937	74.75
458.157	81.75
458.377	79.75
458.598	78.75
458.818	82.75
459.038	74.75
459.258	70.75
459.478	77.75
459.698	83.75
459.918	82.75
460.138	85.75
460.358	70.75
460.578	85.75
460.798	91.75
461.018	101.75
461.238	70.75
461.458	87.75
461.678	61.75
461.898	66.75
462.118	83.75
462.338	71.75
462.558	85.75
462.777	76.75
462.997	80.75
463.217	76.75
463.437	70.75
463.657	66.75
463.876	70.75
464.096	81.75
464.316	68.75
464.536	79.75
464.755	67.75
464.975	72.75
465.195	76.75
465.414	77.75
465.634	77.75
465.854	70.75
466.073	90.75
466.293	67.75
466.512	66.75
466.732	77.75
466.951	77.75
467.171	68.75
467.391	81.75
467.61	90.75
467.829	76.75
468.049	83.75
468.268	91.75
468.488	81.75
468.707	84.75
468.927	80.75
469.146	81.75
469.365	65.75
469.585	73.75
469.804	85.75
470.023	68.75
470.243	74.75
470.462	69.75
470.681	80.75
470.901	83.75
471.12	77.75
471.339	83.75
471.558	84.75
471.777	93.75
471.997	66.75
472.216	71.75
472.435	77.75
472.654	69.75
472.873	74.75
473.092	89.75
473.311	96.75
473.53	84.75
473.749	83.75
473.968	87.75
474.187	89.75
474.406	85.75
474.625	70.75
474.844	73.75
475.063	77.75
475.282	78.75
475.501	61.75
475.72	87.75
475.939	75.75
476.158	68.75
476.377	64.75
476.596	67.75
476.814	59.75
477.033	69.75
477.252	67.75
477.471	67.75
477.69	75.75
477.908	82.75
478.127	92.75
478.346	68.75
478.564	69.75
478.783	68.75
479.002	71.75
479.22	70.75
479.439	82.75
479.658	87.75
479.876	90.75
480.095	77.75
480.313	78.75
480.532	80.75
480.751	74.75
480.969	86.75
481.188	81.75
481.406	84.75
481.624	87.75
481.843	73.75
482.061	73.75
482.28	87.75
482.498	70.75
482.717	75.75
482.935	98.75
483.153	78.75
483.372	66.75
483.59	80.75
483.808	83.75
484.027	69.75
484.245	79.75
484.463	81.75
484.681	87.75
484.9	71.75
485.118	75.75
485.336	76.75
485.554	90.75
485.772	83.75
485.99	79.75
486.209	92.75
486.427	73.75
486.645	75.75
486.863	69.75
487.081	84.75
487.299	78.75
487.517	66.75
487.735	82.75
487.953	62.75
488.171	86.75
488.389	79.75
488.607	73.75
488.825	72.75
489.043	77.75
489.261	86.75
489.479	89.75
489.696	73.75
489.914	69.75
490.132	78.75
490.35	72.75
490.568	83.75
490.786	74.75
491.003	80.75
491.221	93.75
491.439	79.75
491.657	86.75
491.874	89.75
492.092	85.75
492.31	79.75
492.527	66.75
492.745	94.75
492.963	73.75
493.18	74.75
493.398	82.75
493.615	81.75
493.833	80.75
494.05	74.75
494.268	68.75
494.485	77.75
494.703	85.75
494.92	89.75
495.138	75.75
495.355	73.75
495.573	86.75
495.79	81.75
496.008	90.75
496.225	95.75
496.442	80.75
496.66	81.75
496.877	93.75
497.094	91.75
497.312	83.75
497.529	96.75
497.746	76.75
497.963	79.75
498.181	72.75
498.398	87.75
498.615	85.75
498.832	78.75
499.049	94.75
499.267	94.75
499.484	70.75
499.701	82.75
499.918	85.75
500.135	79.75
500.352	81.75
500.569	87.75
500.786	89.75
501.003	87.75
501.22	93.75
501.437	79.75
501.654	90.75
501.871	91.75
502.088	79.75
502.305	79.75
502.522	99.75
502.739	85.75
502.956	89.75
503.172	95.75
503.389	95.75
503.606	86.75
503.823	82.75
504.04	86.75
504.256	85.75
504.473	87.75
504.69	75.75
504.907	73.75
505.123	84.75
505.34	104.75
505.557	81.75
505.773	85.75
505.99	70.75
506.207	82.75
506.423	85.75
506.64	87.75
506.856	84.75
507.073	71.75
507.289	71.75
507.506	97.75
507.722	94.75
507.939	84.75
508.155	81.75
508.372	88.75
508.588	76.75
508.805	82.75
509.021	85.75
509.238	81.75
509.454	96.75
509.67	62.75
509.887	84.75
510.103	71.75
510.319	76.75
510.536	88.75
510.752	85.75
510.968	70.75
511.184	83.75
511.401	90.75
511.617	86.75
511.833	71.75
512.049	72.75
512.265	69.75
512.481	89.75
512.698	89.75
512.914	81.75
513.13	81.75
513.346	80.75
513.562	90.75
513.778	74.75
513.994	76.75
514.21	81.75
514.426	77.75
514.642	93.75
514.858	74.75
515.074	81.75
515.29	79.75
515.506	54.75
515.721	74.75
515.937	98.75
516.153	85.75
516.369	88.75
516.585	75.75
516.801	81.75
517.016	83.75
517.232	90.75
517.448	76.75
517.664	79.75
517.879	77.75
518.095	85.75
518.311	87.75
518.527	85.75
518.742	89.75
518.958	92.75
519.173	87.75
519.389	92.75
519.605	74.75
519.82	81.75
520.036	76.75
