Data from 1600_3_HRD10591_00005.txt Node
Date: Mon Jan 19 13:54:55 EST 2026
User: Yrep
Spectrometer: HR+D1059
Trigger mode: 1
Integration Time (sec): 1.000000E-1
Scans to average: 1
Electric dark correction enabled: true
Nonlinearity correction enabled: false
Boxcar width: 0
XAxis mode: Wavelengths
Number of Pixels in Spectrum: 2048
>>>>>Begin Spectral Data<<<<<
223.165	-14.94
223.4	-14.94
223.635	-14.94
223.869	-31.94
224.104	-21.94
224.338	-30.94
224.573	-11.94
224.808	-19.94
225.042	5.06
225.277	9.06
225.511	1.06
225.746	4.06
225.98	6.06
226.215	13.06
226.449	7.06
226.683	30.06
226.918	22.06
227.152	34.06
227.387	45.06
227.621	40.06
227.856	50.06
228.09	44.06
228.324	49.06
228.559	64.06
228.793	62.06
229.027	61.06
229.262	77.06
229.496	69.06
229.73	74.06
229.964	82.06
230.199	77.06
230.433	73.06
230.667	62.06
230.901	64.06
231.136	88.06
231.37	75.06
231.604	80.06
231.838	70.06
232.072	88.06
232.306	78.06
232.541	78.06
232.775	91.06
233.009	75.06
233.243	84.06
233.477	85.06
233.711	101.06
233.945	82.06
234.179	92.06
234.413	92.06
234.647	90.06
234.881	88.06
235.115	84.06
235.349	83.06
235.583	88.06
235.817	76.06
236.051	82.06
236.285	89.06
236.519	70.06
236.753	90.06
236.987	75.06
237.221	64.06
237.455	77.06
237.689	72.06
237.922	68.06
238.156	79.06
238.39	87.06
238.624	77.06
238.858	72.06
239.091	76.06
239.325	52.06
239.559	77.06
239.793	80.06
240.027	75.06
240.26	72.06
240.494	79.06
240.728	70.06
240.961	67.06
241.195	84.06
241.429	72.06
241.662	68.06
241.896	90.06
242.13	68.06
242.363	86.06
242.597	66.06
242.83	68.06
243.064	87.06
243.298	79.06
243.531	71.06
243.765	78.06
243.998	74.06
244.232	75.06
244.465	88.06
244.699	80.06
244.932	72.06
245.166	73.06
245.399	76.06
245.633	74.06
245.866	76.06
246.099	82.06
246.333	84.06
246.566	77.06
246.8	88.06
247.033	86.06
247.266	82.06
247.5	74.06
247.733	86.06
247.966	70.06
248.2	70.06
248.433	77.06
248.666	70.06
248.899	90.06
249.133	73.06
249.366	84.06
249.599	82.06
249.832	82.06
250.066	82.06
250.299	77.06
250.532	80.06
250.765	73.06
250.998	83.06
251.231	80.06
251.465	70.06
251.698	84.06
251.931	76.06
252.164	82.06
252.397	84.06
252.63	94.06
252.863	90.06
253.096	87.06
253.329	75.06
253.562	97.06
253.795	81.06
254.028	90.06
254.261	89.06
254.494	74.06
254.727	84.06
254.96	77.06
255.193	91.06
255.426	84.06
255.659	82.06
255.892	70.06
256.124	95.06
256.357	70.06
256.59	92.06
256.823	83.06
257.056	87.06
257.289	89.06
257.521	86.06
257.754	83.06
257.987	83.06
258.22	84.06
258.452	85.06
258.685	80.06
258.918	78.06
259.151	85.06
259.383	69.06
259.616	78.06
259.849	77.06
260.081	79.06
260.314	89.06
260.547	94.06
260.779	80.06
261.012	70.06
261.244	80.06
261.477	82.06
261.71	92.06
261.942	86.06
262.175	81.06
262.407	74.06
262.64	85.06
262.872	65.06
263.105	96.06
263.337	84.06
263.57	85.06
263.802	75.06
264.035	79.06
264.267	67.06
264.499	79.06
264.732	96.06
264.964	78.06
265.197	82.06
265.429	95.06
265.661	80.06
265.894	82.06
266.126	65.06
266.358	86.06
266.591	71.06
266.823	92.06
267.055	82.06
267.287	90.06
267.52	82.06
267.752	90.06
267.984	98.06
268.216	87.06
268.448	98.06
268.681	80.06
268.913	91.06
269.145	90.06
269.377	93.06
269.609	84.06
269.841	88.06
270.073	86.06
270.306	88.06
270.538	77.06
270.77	77.06
271.002	88.06
271.234	66.06
271.466	83.06
271.698	85.06
271.93	84.06
272.162	79.06
272.394	90.06
272.626	82.06
272.858	93.06
273.09	92.06
273.322	81.06
273.553	84.06
273.785	78.06
274.017	80.06
274.249	90.06
274.481	93.06
274.713	81.06
274.945	92.06
275.176	82.06
275.408	76.06
275.64	89.06
275.872	85.06
276.104	86.06
276.335	74.06
276.567	87.06
276.799	81.06
277.031	86.06
277.262	80.06
277.494	80.06
277.726	88.06
277.957	87.06
278.189	88.06
278.421	97.06
278.652	91.06
278.884	83.06
279.115	71.06
279.347	85.06
279.579	96.06
279.81	104.06
280.042	84.06
280.273	90.06
280.505	94.06
280.736	105.06
280.968	76.06
281.199	76.06
281.431	96.06
281.662	82.06
281.894	85.06
282.125	98.06
282.356	100.06
282.588	70.06
282.819	104.06
283.051	88.06
283.282	96.06
283.513	81.06
283.745	81.06
283.976	69.06
284.207	80.06
284.439	86.06
284.67	85.06
284.901	95.06
285.132	90.06
285.364	100.06
285.595	88.06
285.826	102.06
286.057	101.06
286.288	78.06
286.52	93.06
286.751	84.06
286.982	85.06
287.213	84.06
287.444	82.06
287.675	79.06
287.906	74.06
288.138	89.06
288.369	93.06
288.6	89.06
288.831	80.06
289.062	96.06
289.293	92.06
289.524	83.06
289.755	87.06
289.986	83.06
290.217	96.06
290.448	93.06
290.679	112.06
290.91	102.06
291.141	75.06
291.371	90.06
291.602	88.06
291.833	76.06
292.064	83.06
292.295	85.06
292.526	81.06
292.757	87.06
292.987	97.06
293.218	92.06
293.449	78.06
293.68	82.06
293.91	95.06
294.141	89.06
294.372	80.06
294.603	81.06
294.833	86.06
295.064	105.06
295.295	86.06
295.525	97.06
295.756	87.06
295.987	69.06
296.217	84.06
296.448	86.06
296.679	88.06
296.909	102.06
297.14	98.06
297.37	86.06
297.601	101.06
297.831	68.06
298.062	95.06
298.292	82.06
298.523	89.06
298.753	82.06
298.984	85.06
299.214	85.06
299.445	80.06
299.675	90.06
299.905	81.06
300.136	102.06
300.366	89.06
300.597	81.06
300.827	98.06
301.057	83.06
301.288	84.06
301.518	94.06
301.748	76.06
301.979	104.06
302.209	95.06
302.439	95.06
302.669	101.06
302.9	78.06
303.13	73.06
303.36	86.06
303.59	95.06
303.82	92.06
304.051	80.06
304.281	84.06
304.511	112.06
304.741	78.06
304.971	91.06
305.201	92.06
305.431	94.06
305.661	80.06
305.891	84.06
306.121	87.06
306.352	92.06
306.582	96.06
306.812	102.06
307.042	74.06
307.272	95.06
307.502	98.06
307.731	89.06
307.961	111.06
308.191	94.06
308.421	109.06
308.651	86.06
308.881	88.06
309.111	96.06
309.341	97.06
309.571	96.06
309.8	97.06
310.03	86.06
310.26	87.06
310.49	86.06
310.72	99.06
310.949	86.06
311.179	84.06
311.409	88.06
311.639	90.06
311.868	91.06
312.098	90.06
312.328	88.06
312.557	88.06
312.787	79.06
313.017	77.06
313.246	85.06
313.476	90.06
313.706	84.06
313.935	75.06
314.165	82.06
314.394	85.06
314.624	89.06
314.853	88.06
315.083	84.06
315.312	82.06
315.542	89.06
315.771	94.06
316.001	87.06
316.23	73.06
316.46	82.06
316.689	88.06
316.919	85.06
317.148	91.06
317.377	92.06
317.607	83.06
317.836	95.06
318.065	95.06
318.295	98.06
318.524	98.06
318.753	97.06
318.983	89.06
319.212	94.06
319.441	97.06
319.67	69.06
319.9	86.06
320.129	74.06
320.358	99.06
320.587	82.06
320.816	92.06
321.046	78.06
321.275	108.06
321.504	85.06
321.733	98.06
321.962	92.06
322.191	97.06
322.42	95.06
322.649	98.06
322.878	103.06
323.108	105.06
323.337	78.06
323.566	84.06
323.795	97.06
324.024	88.06
324.253	73.06
324.482	86.06
324.71	92.06
324.939	82.06
325.168	80.06
325.397	89.06
325.626	101.06
325.855	96.06
326.084	96.06
326.313	78.06
326.542	84.06
326.77	82.06
326.999	79.06
327.228	89.06
327.457	95.06
327.686	62.06
327.914	90.06
328.143	95.06
328.372	103.06
328.6	89.06
328.829	87.06
329.058	86.06
329.287	89.06
329.515	85.06
329.744	89.06
329.972	85.06
330.201	84.06
330.43	86.06
330.658	92.06
330.887	79.06
331.115	90.06
331.344	98.06
331.572	73.06
331.801	93.06
332.03	90.06
332.258	90.06
332.486	102.06
332.715	78.06
332.943	84.06
333.172	93.06
333.4	86.06
333.629	73.06
333.857	88.06
334.085	84.06
334.314	89.06
334.542	74.06
334.771	99.06
334.999	96.06
335.227	87.06
335.455	84.06
335.684	109.06
335.912	74.06
336.14	95.06
336.369	88.06
336.597	93.06
336.825	93.06
337.053	87.06
337.281	87.06
337.51	88.06
337.738	88.06
337.966	81.06
338.194	78.06
338.422	77.06
338.65	84.06
338.878	102.06
339.106	98.06
339.334	103.06
339.562	82.06
339.79	93.06
340.018	72.06
340.246	73.06
340.474	81.06
340.702	80.06
340.93	91.06
341.158	79.06
341.386	91.06
341.614	94.06
341.842	94.06
342.07	97.06
342.298	84.06
342.526	78.06
342.754	86.06
342.981	87.06
343.209	78.06
343.437	96.06
343.665	98.06
343.893	86.06
344.12	99.06
344.348	98.06
344.576	94.06
344.804	102.06
345.031	93.06
345.259	85.06
345.487	90.06
345.714	85.06
345.942	78.06
346.17	70.06
346.397	96.06
346.625	94.06
346.853	97.06
347.08	90.06
347.308	92.06
347.535	102.06
347.763	81.06
347.99	80.06
348.218	71.06
348.445	70.06
348.673	88.06
348.9	95.06
349.128	80.06
349.355	97.06
349.583	102.06
349.81	95.06
350.037	103.06
350.265	83.06
350.492	92.06
350.72	89.06
350.947	99.06
351.174	75.06
351.402	84.06
351.629	88.06
351.856	85.06
352.083	85.06
352.311	85.06
352.538	79.06
352.765	80.06
352.992	85.06
353.22	94.06
353.447	86.06
353.674	79.06
353.901	85.06
354.128	76.06
354.355	90.06
354.583	93.06
354.81	98.06
355.037	80.06
355.264	78.06
355.491	86.06
355.718	97.06
355.945	89.06
356.172	87.06
356.399	100.06
356.626	82.06
356.853	95.06
357.08	91.06
357.307	94.06
357.534	90.06
357.761	89.06
357.988	108.06
358.215	103.06
358.441	90.06
358.668	98.06
358.895	88.06
359.122	80.06
359.349	89.06
359.576	71.06
359.802	101.06
360.029	75.06
360.256	88.06
360.483	98.06
360.709	87.06
360.936	86.06
361.163	97.06
361.39	87.06
361.616	94.06
361.843	85.06
362.07	103.06
362.296	89.06
362.523	96.06
362.749	94.06
362.976	107.06
363.203	129.06
363.429	94.06
363.656	84.06
363.882	87.06
364.109	104.06
364.335	90.06
364.562	108.06
364.788	98.06
365.015	102.06
365.241	95.06
365.468	91.06
365.694	80.06
365.92	82.06
366.147	59.06
366.373	82.06
366.599	104.06
366.826	90.06
367.052	65.06
367.278	82.06
367.505	85.06
367.731	94.06
367.957	83.06
368.184	80.06
368.41	77.06
368.636	95.06
368.862	83.06
369.089	85.06
369.315	84.06
369.541	71.06
369.767	88.06
369.993	90.06
370.219	92.06
370.445	82.06
370.672	85.06
370.898	97.06
371.124	85.06
371.35	93.06
371.576	81.06
371.802	108.06
372.028	87.06
372.254	100.06
372.48	98.06
372.706	82.06
372.932	92.06
373.158	100.06
373.384	87.06
373.61	104.06
373.835	104.06
374.061	95.06
374.287	104.06
374.513	108.06
374.739	103.06
374.965	110.06
375.191	90.06
375.416	104.06
375.642	87.06
375.868	106.06
376.094	96.06
376.319	100.06
376.545	103.06
376.771	95.06
376.997	86.06
377.222	76.06
377.448	93.06
377.674	93.06
377.899	95.06
378.125	87.06
378.35	94.06
378.576	77.06
378.802	96.06
379.027	98.06
379.253	81.06
379.478	78.06
379.704	84.06
379.929	92.06
380.155	97.06
380.38	94.06
380.606	68.06
380.831	90.06
381.057	80.06
381.282	92.06
381.507	89.06
381.733	104.06
381.958	98.06
382.184	110.06
382.409	106.06
382.634	120.06
382.86	127.06
383.085	110.06
383.31	109.06
383.535	118.06
383.761	127.06
383.986	120.06
384.211	113.06
384.436	84.06
384.662	87.06
384.887	95.06
385.112	78.06
385.337	113.06
385.562	92.06
385.787	88.06
386.013	100.06
386.238	107.06
386.463	82.06
386.688	99.06
386.913	98.06
387.138	83.06
387.363	88.06
387.588	98.06
387.813	84.06
388.038	92.06
388.263	98.06
388.488	92.06
388.713	100.06
388.938	96.06
389.163	96.06
389.387	97.06
389.612	88.06
389.837	86.06
390.062	78.06
390.287	89.06
390.512	82.06
390.736	101.06
390.961	92.06
391.186	87.06
391.411	91.06
391.636	92.06
391.86	88.06
392.085	103.06
392.31	94.06
392.534	89.06
392.759	113.06
392.984	156.06
393.208	221.06
393.433	290.06
393.658	228.06
393.882	121.06
394.107	110.06
394.331	128.06
394.556	135.06
394.78	107.06
395.005	104.06
395.229	87.06
395.454	82.06
395.678	108.06
395.903	102.06
396.127	133.06
396.352	158.06
396.576	137.06
396.801	212.06
397.025	236.06
397.249	147.06
397.474	102.06
397.698	93.06
397.922	81.06
398.147	91.06
398.371	90.06
398.595	91.06
398.82	82.06
399.044	92.06
399.268	80.06
399.492	89.06
399.717	80.06
399.941	86.06
400.165	89.06
400.389	76.06
400.613	73.06
400.837	86.06
401.062	81.06
401.286	82.06
401.51	77.06
401.734	80.06
401.958	81.06
402.182	74.06
402.406	98.06
402.63	90.06
402.854	86.06
403.078	79.06
403.302	80.06
403.526	93.06
403.75	103.06
403.974	80.06
404.198	84.06
404.422	109.06
404.645	117.06
404.869	102.06
405.093	85.06
405.317	97.06
405.541	90.06
405.765	72.06
405.988	74.06
406.212	70.06
406.436	90.06
406.66	99.06
406.883	92.06
407.107	78.06
407.331	85.06
407.555	85.06
407.778	93.06
408.002	107.06
408.226	85.06
408.449	96.06
408.673	84.06
408.896	93.06
409.12	87.06
409.344	94.06
409.567	87.06
409.791	98.06
410.014	77.06
410.238	82.06
410.461	96.06
410.685	84.06
410.908	84.06
411.132	73.06
411.355	84.06
411.578	79.06
411.802	93.06
412.025	97.06
412.249	83.06
412.472	82.06
412.695	74.06
412.919	95.06
413.142	106.06
413.365	84.06
413.589	68.06
413.812	80.06
414.035	94.06
414.258	97.06
414.482	85.06
414.705	72.06
414.928	90.06
415.151	80.06
415.374	82.06
415.597	98.06
415.821	93.06
416.044	94.06
416.267	70.06
416.49	78.06
416.713	92.06
416.936	84.06
417.159	92.06
417.382	87.06
417.605	82.06
417.828	84.06
418.051	85.06
418.274	85.06
418.497	89.06
418.72	84.06
418.943	81.06
419.166	73.06
419.389	84.06
419.611	97.06
419.834	84.06
420.057	73.06
420.28	89.06
420.503	88.06
420.726	73.06
420.948	83.06
421.171	86.06
421.394	103.06
421.617	109.06
421.839	92.06
422.062	88.06
422.285	118.06
422.507	204.06
422.73	288.06
422.953	257.06
423.175	147.06
423.398	106.06
423.621	94.06
423.843	79.06
424.066	89.06
424.288	102.06
424.511	96.06
424.733	94.06
424.956	88.06
425.178	100.06
425.401	87.06
425.623	96.06
425.846	74.06
426.068	92.06
426.291	94.06
426.513	72.06
426.735	92.06
426.958	89.06
427.18	92.06
427.402	93.06
427.625	98.06
427.847	85.06
428.069	92.06
428.292	104.06
428.514	116.06
428.736	94.06
428.958	108.06
429.181	113.06
429.403	86.06
429.625	86.06
429.847	112.06
430.069	133.06
430.292	137.06
430.514	141.06
430.736	125.06
430.958	111.06
431.18	91.06
431.402	95.06
431.624	101.06
431.846	109.06
432.068	132.06
432.29	82.06
432.512	92.06
432.734	81.06
432.956	82.06
433.178	67.06
433.4	84.06
433.622	99.06
433.844	89.06
434.066	77.06
434.287	87.06
434.509	78.06
434.731	86.06
434.953	81.06
435.175	75.06
435.397	89.06
435.618	97.06
435.84	88.06
436.062	101.06
436.284	76.06
436.505	80.06
436.727	80.06
436.949	78.06
437.17	68.06
437.392	85.06
437.614	84.06
437.835	82.06
438.057	90.06
438.278	84.06
438.5	100.06
438.721	81.06
438.943	85.06
439.165	97.06
439.386	74.06
439.608	77.06
439.829	88.06
440.05	83.06
440.272	85.06
440.493	89.06
440.715	89.06
440.936	81.06
441.158	95.06
441.379	85.06
441.6	95.06
441.822	89.06
442.043	99.06
442.264	88.06
442.486	97.06
442.707	133.06
442.928	113.06
443.149	96.06
443.371	116.06
443.592	189.06
443.813	160.06
444.034	90.06
444.255	90.06
444.476	75.06
444.698	88.06
444.919	95.06
445.14	172.06
445.361	155.06
445.582	202.06
445.803	179.06
446.024	111.06
446.245	84.06
446.466	78.06
446.687	73.06
446.908	73.06
447.129	94.06
447.35	92.06
447.571	81.06
447.792	82.06
448.013	80.06
448.234	90.06
448.455	62.06
448.675	74.06
448.896	82.06
449.117	74.06
449.338	80.06
449.559	77.06
449.779	84.06
450	80.06
450.221	87.06
450.442	93.06
450.662	88.06
450.883	72.06
451.104	73.06
451.324	84.06
451.545	81.06
451.766	74.06
451.986	98.06
452.207	85.06
452.428	82.06
452.648	89.06
452.869	96.06
453.089	87.06
453.31	94.06
453.53	96.06
453.751	83.06
453.971	92.06
454.192	81.06
454.412	69.06
454.633	82.06
454.853	89.06
455.073	92.06
455.294	92.06
455.514	96.06
455.734	95.06
455.955	100.06
456.175	88.06
456.395	94.06
456.616	72.06
456.836	72.06
457.056	74.06
457.276	84.06
457.497	84.06
457.717	80.06
457.937	100.06
458.157	99.06
458.377	86.06
458.598	93.06
458.818	96.06
459.038	104.06
459.258	86.06
459.478	84.06
459.698	79.06
459.918	80.06
460.138	72.06
460.358	83.06
460.578	84.06
460.798	111.06
461.018	96.06
461.238	92.06
461.458	78.06
461.678	85.06
461.898	86.06
462.118	79.06
462.338	78.06
462.558	93.06
462.777	86.06
462.997	82.06
463.217	92.06
463.437	87.06
463.657	84.06
463.876	69.06
464.096	86.06
464.316	80.06
464.536	76.06
464.755	70.06
464.975	81.06
465.195	87.06
465.414	74.06
465.634	83.06
465.854	87.06
466.073	88.06
466.293	74.06
466.512	89.06
466.732	85.06
466.951	82.06
467.171	78.06
467.391	84.06
467.61	74.06
467.829	90.06
468.049	64.06
468.268	68.06
468.488	81.06
468.707	82.06
468.927	94.06
469.146	80.06
469.365	87.06
469.585	91.06
469.804	84.06
470.023	95.06
470.243	76.06
470.462	87.06
470.681	90.06
470.901	81.06
471.12	82.06
471.339	76.06
471.558	87.06
471.777	79.06
471.997	79.06
472.216	92.06
472.435	80.06
472.654	89.06
472.873	94.06
473.092	84.06
473.311	81.06
473.53	79.06
473.749	96.06
473.968	97.06
474.187	91.06
474.406	79.06
474.625	79.06
474.844	86.06
475.063	92.06
475.282	96.06
475.501	90.06
475.72	96.06
475.939	82.06
476.158	84.06
476.377	84.06
476.596	77.06
476.814	89.06
477.033	78.06
477.252	91.06
477.471	73.06
477.69	90.06
477.908	96.06
478.127	86.06
478.346	86.06
478.564	85.06
478.783	84.06
479.002	87.06
479.22	72.06
479.439	83.06
479.658	92.06
479.876	88.06
480.095	80.06
480.313	79.06
480.532	101.06
480.751	92.06
480.969	88.06
481.188	84.06
481.406	86.06
481.624	73.06
481.843	89.06
482.061	90.06
482.28	91.06
482.498	68.06
482.717	86.06
482.935	82.06
483.153	91.06
483.372	83.06
483.59	94.06
483.808	81.06
484.027	88.06
484.245	92.06
484.463	94.06
484.681	86.06
484.9	82.06
485.118	100.06
485.336	90.06
485.554	75.06
485.772	85.06
485.99	94.06
486.209	92.06
486.427	82.06
486.645	87.06
486.863	93.06
487.081	80.06
487.299	94.06
487.517	103.06
487.735	102.06
487.953	128.06
488.171	126.06
488.389	78.06
488.607	94.06
488.825	87.06
489.043	71.06
489.261	105.06
489.479	104.06
489.696	102.06
489.914	81.06
490.132	96.06
490.35	87.06
490.568	88.06
490.786	97.06
491.003	81.06
491.221	86.06
491.439	84.06
491.657	82.06
491.874	83.06
492.092	99.06
492.31	94.06
492.527	83.06
492.745	78.06
492.963	86.06
493.18	90.06
493.398	86.06
493.615	103.06
493.833	82.06
494.05	84.06
494.268	84.06
494.485	86.06
494.703	91.06
494.92	90.06
495.138	98.06
495.355	82.06
495.573	90.06
495.79	89.06
496.008	84.06
496.225	73.06
496.442	84.06
496.66	76.06
496.877	81.06
497.094	91.06
497.312	94.06
497.529	93.06
497.746	97.06
497.963	100.06
498.181	102.06
498.398	112.06
498.615	98.06
498.832	85.06
499.049	84.06
499.267	97.06
499.484	82.06
499.701	81.06
499.918	89.06
500.135	76.06
500.352	89.06
500.569	89.06
500.786	100.06
501.003	92.06
501.22	86.06
501.437	90.06
501.654	113.06
501.871	86.06
502.088	76.06
502.305	84.06
502.522	82.06
502.739	80.06
502.956	85.06
503.172	92.06
503.389	96.06
503.606	94.06
503.823	96.06
504.04	109.06
504.256	118.06
504.473	114.06
504.69	105.06
504.907	86.06
505.123	82.06
505.34	105.06
505.557	92.06
505.773	89.06
505.99	101.06
506.207	68.06
506.423	89.06
506.64	89.06
506.856	98.06
507.073	96.06
507.289	86.06
507.506	88.06
507.722	82.06
507.939	78.06
508.155	92.06
508.372	81.06
508.588	85.06
508.805	94.06
509.021	87.06
509.238	94.06
509.454	89.06
509.67	88.06
509.887	90.06
510.103	89.06
510.319	89.06
510.536	89.06
510.752	98.06
510.968	100.06
511.184	72.06
511.401	86.06
511.617	92.06
511.833	93.06
512.049	85.06
512.265	85.06
512.481	80.06
512.698	78.06
512.914	81.06
513.13	88.06
513.346	88.06
513.562	85.06
513.778	87.06
513.994	93.06
514.21	74.06
514.426	98.06
514.642	100.06
514.858	83.06
515.074	84.06
515.29	98.06
515.506	88.06
515.721	98.06
515.937	99.06
516.153	94.06
516.369	79.06
516.585	80.06
516.801	105.06
517.016	118.06
517.232	101.06
517.448	128.06
517.664	95.06
517.879	92.06
