Data from 1600_3_HRD10591_00034.txt Node
Date: Mon Jan 19 13:55:10 EST 2026
User: Yrep
Spectrometer: HR+D1059
Trigger mode: 1
Integration Time (sec): 1.000000E-1
Scans to average: 1
Electric dark correction enabled: true
Nonlinearity correction enabled: false
Boxcar width: 0
XAxis mode: Wavelengths
Number of Pixels in Spectrum: 2048
>>>>>Begin Spectral Data<<<<<
223.165	-35.5
223.4	-35.5
223.635	-35.5
223.869	-24.5
224.104	-21.5
224.338	-5.5
224.573	-10.5
224.808	-12.5
225.042	-4.5
225.277	-8.5
225.511	-19.5
225.746	24.5
225.98	17.5
226.215	3.5
226.449	20.5
226.683	24.5
226.918	22.5
227.152	29.5
227.387	36.5
227.621	51.5
227.856	20.5
228.09	60.5
228.324	56.5
228.559	56.5
228.793	63.5
229.027	71.5
229.262	56.5
229.496	76.5
229.73	64.5
229.964	61.5
230.199	68.5
230.433	70.5
230.667	72.5
230.901	71.5
231.136	88.5
231.37	71.5
231.604	84.5
231.838	75.5
232.072	84.5
232.306	74.5
232.541	76.5
232.775	78.5
233.009	84.5
233.243	66.5
233.477	87.5
233.711	82.5
233.945	82.5
234.179	83.5
234.413	85.5
234.647	80.5
234.881	76.5
235.115	78.5
235.349	79.5
235.583	92.5
235.817	84.5
236.051	77.5
236.285	76.5
236.519	74.5
236.753	78.5
236.987	90.5
237.221	71.5
237.455	82.5
237.689	72.5
237.922	85.5
238.156	74.5
238.39	82.5
238.624	71.5
238.858	82.5
239.091	71.5
239.325	81.5
239.559	60.5
239.793	69.5
240.027	81.5
240.26	78.5
240.494	78.5
240.728	68.5
240.961	79.5
241.195	88.5
241.429	74.5
241.662	73.5
241.896	85.5
242.13	76.5
242.363	78.5
242.597	79.5
242.83	69.5
243.064	76.5
243.298	81.5
243.531	66.5
243.765	75.5
243.998	86.5
244.232	72.5
244.465	70.5
244.699	71.5
244.932	69.5
245.166	95.5
245.399	72.5
245.633	79.5
245.866	75.5
246.099	81.5
246.333	74.5
246.566	70.5
246.8	70.5
247.033	78.5
247.266	71.5
247.5	86.5
247.733	92.5
247.966	82.5
248.2	70.5
248.433	77.5
248.666	85.5
248.899	77.5
249.133	77.5
249.366	87.5
249.599	78.5
249.832	75.5
250.066	84.5
250.299	77.5
250.532	84.5
250.765	82.5
250.998	83.5
251.231	78.5
251.465	70.5
251.698	82.5
251.931	79.5
252.164	94.5
252.397	62.5
252.63	84.5
252.863	82.5
253.096	83.5
253.329	71.5
253.562	69.5
253.795	83.5
254.028	90.5
254.261	74.5
254.494	73.5
254.727	71.5
254.96	75.5
255.193	92.5
255.426	76.5
255.659	84.5
255.892	81.5
256.124	85.5
256.357	80.5
256.59	84.5
256.823	72.5
257.056	85.5
257.289	82.5
257.521	82.5
257.754	91.5
257.987	86.5
258.22	93.5
258.452	90.5
258.685	80.5
258.918	82.5
259.151	78.5
259.383	84.5
259.616	78.5
259.849	70.5
260.081	89.5
260.314	70.5
260.547	76.5
260.779	93.5
261.012	87.5
261.244	77.5
261.477	95.5
261.71	74.5
261.942	78.5
262.175	77.5
262.407	79.5
262.64	93.5
262.872	75.5
263.105	76.5
263.337	87.5
263.57	82.5
263.802	99.5
264.035	78.5
264.267	87.5
264.499	86.5
264.732	72.5
264.964	79.5
265.197	66.5
265.429	87.5
265.661	92.5
265.894	94.5
266.126	77.5
266.358	81.5
266.591	90.5
266.823	74.5
267.055	89.5
267.287	69.5
267.52	72.5
267.752	83.5
267.984	79.5
268.216	86.5
268.448	72.5
268.681	82.5
268.913	81.5
269.145	80.5
269.377	87.5
269.609	80.5
269.841	87.5
270.073	82.5
270.306	76.5
270.538	86.5
270.77	68.5
271.002	73.5
271.234	82.5
271.466	71.5
271.698	72.5
271.93	73.5
272.162	69.5
272.394	75.5
272.626	78.5
272.858	83.5
273.09	88.5
273.322	77.5
273.553	76.5
273.785	100.5
274.017	88.5
274.249	80.5
274.481	80.5
274.713	73.5
274.945	87.5
275.176	79.5
275.408	87.5
275.64	85.5
275.872	79.5
276.104	80.5
276.335	78.5
276.567	85.5
276.799	87.5
277.031	90.5
277.262	74.5
277.494	90.5
277.726	80.5
277.957	68.5
278.189	88.5
278.421	85.5
278.652	83.5
278.884	88.5
279.115	76.5
279.347	76.5
279.579	81.5
279.81	87.5
280.042	76.5
280.273	91.5
280.505	85.5
280.736	84.5
280.968	79.5
281.199	71.5
281.431	83.5
281.662	73.5
281.894	83.5
282.125	72.5
282.356	77.5
282.588	88.5
282.819	96.5
283.051	76.5
283.282	80.5
283.513	90.5
283.745	86.5
283.976	72.5
284.207	81.5
284.439	88.5
284.67	73.5
284.901	83.5
285.132	90.5
285.364	83.5
285.595	90.5
285.826	81.5
286.057	73.5
286.288	83.5
286.52	82.5
286.751	89.5
286.982	80.5
287.213	78.5
287.444	83.5
287.675	86.5
287.906	85.5
288.138	89.5
288.369	107.5
288.6	82.5
288.831	82.5
289.062	92.5
289.293	79.5
289.524	79.5
289.755	81.5
289.986	92.5
290.217	86.5
290.448	82.5
290.679	87.5
290.91	61.5
291.141	86.5
291.371	92.5
291.602	86.5
291.833	82.5
292.064	70.5
292.295	91.5
292.526	92.5
292.757	80.5
292.987	72.5
293.218	86.5
293.449	86.5
293.68	88.5
293.91	79.5
294.141	91.5
294.372	86.5
294.603	89.5
294.833	84.5
295.064	81.5
295.295	71.5
295.525	72.5
295.756	88.5
295.987	94.5
296.217	80.5
296.448	82.5
296.679	90.5
296.909	76.5
297.14	71.5
297.37	82.5
297.601	84.5
297.831	77.5
298.062	79.5
298.292	78.5
298.523	67.5
298.753	85.5
298.984	79.5
299.214	71.5
299.445	92.5
299.675	86.5
299.905	90.5
300.136	95.5
300.366	91.5
300.597	86.5
300.827	82.5
301.057	76.5
301.288	94.5
301.518	78.5
301.748	79.5
301.979	102.5
302.209	90.5
302.439	86.5
302.669	85.5
302.9	74.5
303.13	82.5
303.36	76.5
303.59	82.5
303.82	83.5
304.051	71.5
304.281	95.5
304.511	82.5
304.741	60.5
304.971	79.5
305.201	86.5
305.431	86.5
305.661	89.5
305.891	77.5
306.121	90.5
306.352	91.5
306.582	87.5
306.812	82.5
307.042	98.5
307.272	79.5
307.502	84.5
307.731	89.5
307.961	76.5
308.191	77.5
308.421	85.5
308.651	90.5
308.881	80.5
309.111	98.5
309.341	91.5
309.571	86.5
309.8	84.5
310.03	89.5
310.26	90.5
310.49	80.5
310.72	80.5
310.949	84.5
311.179	85.5
311.409	86.5
311.639	90.5
311.868	83.5
312.098	70.5
312.328	86.5
312.557	81.5
312.787	66.5
313.017	90.5
313.246	81.5
313.476	85.5
313.706	76.5
313.935	86.5
314.165	76.5
314.394	82.5
314.624	80.5
314.853	86.5
315.083	93.5
315.312	72.5
315.542	90.5
315.771	81.5
316.001	80.5
316.23	75.5
316.46	85.5
316.689	74.5
316.919	75.5
317.148	87.5
317.377	90.5
317.607	90.5
317.836	94.5
318.065	94.5
318.295	81.5
318.524	78.5
318.753	80.5
318.983	89.5
319.212	80.5
319.441	78.5
319.67	76.5
319.9	71.5
320.129	83.5
320.358	82.5
320.587	100.5
320.816	84.5
321.046	86.5
321.275	80.5
321.504	84.5
321.733	84.5
321.962	83.5
322.191	78.5
322.42	91.5
322.649	92.5
322.878	84.5
323.108	78.5
323.337	106.5
323.566	72.5
323.795	79.5
324.024	80.5
324.253	93.5
324.482	86.5
324.71	90.5
324.939	78.5
325.168	94.5
325.397	86.5
325.626	86.5
325.855	81.5
326.084	67.5
326.313	79.5
326.542	88.5
326.77	82.5
326.999	88.5
327.228	89.5
327.457	74.5
327.686	75.5
327.914	95.5
328.143	85.5
328.372	86.5
328.6	71.5
328.829	68.5
329.058	75.5
329.287	79.5
329.515	80.5
329.744	78.5
329.972	83.5
330.201	87.5
330.43	85.5
330.658	82.5
330.887	89.5
331.115	83.5
331.344	84.5
331.572	72.5
331.801	64.5
332.03	83.5
332.258	85.5
332.486	69.5
332.715	69.5
332.943	95.5
333.172	75.5
333.4	82.5
333.629	78.5
333.857	82.5
334.085	96.5
334.314	77.5
334.542	79.5
334.771	91.5
334.999	91.5
335.227	83.5
335.455	70.5
335.684	90.5
335.912	78.5
336.14	84.5
336.369	84.5
336.597	88.5
336.825	73.5
337.053	74.5
337.281	88.5
337.51	85.5
337.738	92.5
337.966	92.5
338.194	72.5
338.422	83.5
338.65	91.5
338.878	80.5
339.106	82.5
339.334	88.5
339.562	85.5
339.79	89.5
340.018	83.5
340.246	73.5
340.474	78.5
340.702	88.5
340.93	78.5
341.158	81.5
341.386	84.5
341.614	91.5
341.842	82.5
342.07	85.5
342.298	84.5
342.526	82.5
342.754	81.5
342.981	81.5
343.209	73.5
343.437	100.5
343.665	80.5
343.893	82.5
344.12	91.5
344.348	80.5
344.576	92.5
344.804	71.5
345.031	75.5
345.259	76.5
345.487	84.5
345.714	79.5
345.942	93.5
346.17	85.5
346.397	80.5
346.625	87.5
346.853	82.5
347.08	86.5
347.308	88.5
347.535	70.5
347.763	87.5
347.99	92.5
348.218	74.5
348.445	75.5
348.673	81.5
348.9	76.5
349.128	76.5
349.355	89.5
349.583	99.5
349.81	92.5
350.037	95.5
350.265	91.5
350.492	69.5
350.72	78.5
350.947	86.5
351.174	72.5
351.402	81.5
351.629	81.5
351.856	75.5
352.083	70.5
352.311	80.5
352.538	91.5
352.765	93.5
352.992	78.5
353.22	67.5
353.447	87.5
353.674	96.5
353.901	82.5
354.128	71.5
354.355	70.5
354.583	82.5
354.81	70.5
355.037	79.5
355.264	87.5
355.491	81.5
355.718	85.5
355.945	91.5
356.172	87.5
356.399	89.5
356.626	83.5
356.853	90.5
357.08	81.5
357.307	78.5
357.534	88.5
357.761	82.5
357.988	89.5
358.215	90.5
358.441	74.5
358.668	75.5
358.895	86.5
359.122	77.5
359.349	90.5
359.576	84.5
359.802	71.5
360.029	77.5
360.256	79.5
360.483	66.5
360.709	65.5
360.936	82.5
361.163	77.5
361.39	69.5
361.616	78.5
361.843	72.5
362.07	74.5
362.296	90.5
362.523	78.5
362.749	75.5
362.976	72.5
363.203	87.5
363.429	81.5
363.656	82.5
363.882	85.5
364.109	74.5
364.335	75.5
364.562	93.5
364.788	83.5
365.015	82.5
365.241	80.5
365.468	84.5
365.694	94.5
365.92	84.5
366.147	82.5
366.373	95.5
366.599	69.5
366.826	79.5
367.052	66.5
367.278	79.5
367.505	76.5
367.731	90.5
367.957	85.5
368.184	106.5
368.41	82.5
368.636	73.5
368.862	69.5
369.089	83.5
369.315	89.5
369.541	87.5
369.767	85.5
369.993	83.5
370.219	92.5
370.445	73.5
370.672	88.5
370.898	88.5
371.124	86.5
371.35	78.5
371.576	85.5
371.802	84.5
372.028	65.5
372.254	84.5
372.48	94.5
372.706	75.5
372.932	78.5
373.158	86.5
373.384	80.5
373.61	101.5
373.835	77.5
374.061	70.5
374.287	94.5
374.513	95.5
374.739	69.5
374.965	88.5
375.191	91.5
375.416	82.5
375.642	68.5
375.868	94.5
376.094	108.5
376.319	79.5
376.545	83.5
376.771	79.5
376.997	98.5
377.222	83.5
377.448	82.5
377.674	85.5
377.899	86.5
378.125	82.5
378.35	64.5
378.576	85.5
378.802	82.5
379.027	78.5
379.253	90.5
379.478	79.5
379.704	86.5
379.929	68.5
380.155	68.5
380.38	74.5
380.606	83.5
380.831	91.5
381.057	90.5
381.282	74.5
381.507	85.5
381.733	92.5
381.958	77.5
382.184	93.5
382.409	90.5
382.634	96.5
382.86	95.5
383.085	96.5
383.31	78.5
383.535	94.5
383.761	106.5
383.986	80.5
384.211	83.5
384.436	81.5
384.662	63.5
384.887	67.5
385.112	78.5
385.337	75.5
385.562	97.5
385.787	83.5
386.013	77.5
386.238	92.5
386.463	88.5
386.688	81.5
386.913	78.5
387.138	89.5
387.363	78.5
387.588	91.5
387.813	91.5
388.038	86.5
388.263	84.5
388.488	78.5
388.713	92.5
388.938	73.5
389.163	81.5
389.387	60.5
389.612	71.5
389.837	82.5
390.062	84.5
390.287	79.5
390.512	83.5
390.736	84.5
390.961	73.5
391.186	66.5
391.411	90.5
391.636	82.5
391.86	94.5
392.085	77.5
392.31	72.5
392.534	84.5
392.759	92.5
392.984	103.5
393.208	170.5
393.433	218.5
393.658	178.5
393.882	90.5
394.107	89.5
394.331	116.5
394.556	99.5
394.78	80.5
395.005	84.5
395.229	86.5
395.454	89.5
395.678	78.5
395.903	87.5
396.127	106.5
396.352	122.5
396.576	113.5
396.801	162.5
397.025	191.5
397.249	99.5
397.474	86.5
397.698	79.5
397.922	76.5
398.147	72.5
398.371	78.5
398.595	88.5
398.82	79.5
399.044	77.5
399.268	73.5
399.492	80.5
399.717	84.5
399.941	80.5
400.165	79.5
400.389	83.5
400.613	63.5
400.837	70.5
401.062	72.5
401.286	84.5
401.51	87.5
401.734	86.5
401.958	92.5
402.182	69.5
402.406	76.5
402.63	72.5
402.854	68.5
403.078	74.5
403.302	88.5
403.526	90.5
403.75	89.5
403.974	83.5
404.198	86.5
404.422	94.5
404.645	102.5
404.869	77.5
405.093	76.5
405.317	88.5
405.541	67.5
405.765	70.5
405.988	80.5
406.212	90.5
406.436	77.5
406.66	70.5
406.883	88.5
407.107	103.5
407.331	79.5
407.555	88.5
407.778	96.5
408.002	86.5
408.226	80.5
408.449	77.5
408.673	61.5
408.896	90.5
409.12	88.5
409.344	87.5
409.567	66.5
409.791	85.5
410.014	88.5
410.238	85.5
410.461	71.5
410.685	78.5
410.908	78.5
411.132	88.5
411.355	76.5
411.578	94.5
411.802	98.5
412.025	80.5
412.249	73.5
412.472	81.5
412.695	81.5
412.919	83.5
413.142	92.5
413.365	81.5
413.589	58.5
413.812	82.5
414.035	85.5
414.258	72.5
414.482	78.5
414.705	80.5
414.928	86.5
415.151	97.5
415.374	84.5
415.597	93.5
415.821	96.5
416.044	76.5
416.267	92.5
416.49	81.5
416.713	77.5
416.936	74.5
417.159	74.5
417.382	75.5
417.605	81.5
417.828	82.5
418.051	72.5
418.274	81.5
418.497	76.5
418.72	86.5
418.943	78.5
419.166	84.5
419.389	76.5
419.611	74.5
419.834	85.5
420.057	69.5
420.28	82.5
420.503	89.5
420.726	79.5
420.948	68.5
421.171	86.5
421.394	89.5
421.617	77.5
421.839	80.5
422.062	78.5
422.285	80.5
422.507	111.5
422.73	189.5
422.953	161.5
423.175	106.5
423.398	72.5
423.621	86.5
423.843	65.5
424.066	84.5
424.288	67.5
424.511	69.5
424.733	85.5
424.956	70.5
425.178	86.5
425.401	91.5
425.623	81.5
425.846	78.5
426.068	86.5
426.291	76.5
426.513	83.5
426.735	85.5
426.958	74.5
427.18	82.5
427.402	84.5
427.625	75.5
427.847	72.5
428.069	87.5
428.292	90.5
428.514	111.5
428.736	78.5
428.958	84.5
429.181	78.5
429.403	86.5
429.625	79.5
429.847	90.5
430.069	98.5
430.292	100.5
430.514	98.5
430.736	93.5
430.958	96.5
431.18	94.5
431.402	78.5
431.624	73.5
431.846	79.5
432.068	98.5
432.29	85.5
432.512	97.5
432.734	82.5
432.956	78.5
433.178	66.5
433.4	78.5
433.622	63.5
433.844	58.5
434.066	84.5
434.287	68.5
434.509	84.5
434.731	79.5
434.953	79.5
435.175	87.5
435.397	67.5
435.618	83.5
435.84	82.5
436.062	78.5
436.284	72.5
436.505	69.5
436.727	78.5
436.949	68.5
437.17	68.5
437.392	71.5
437.614	74.5
437.835	92.5
438.057	79.5
438.278	73.5
438.5	90.5
438.721	80.5
438.943	72.5
439.165	87.5
439.386	93.5
439.608	78.5
439.829	86.5
440.05	81.5
440.272	67.5
440.493	73.5
440.715	79.5
440.936	83.5
441.158	92.5
441.379	79.5
441.6	83.5
441.822	91.5
442.043	78.5
442.264	81.5
442.486	83.5
442.707	82.5
442.928	70.5
443.149	73.5
443.371	82.5
443.592	108.5
443.813	108.5
444.034	80.5
444.255	75.5
444.476	79.5
444.698	90.5
444.919	77.5
445.14	147.5
445.361	104.5
445.582	127.5
445.803	92.5
446.024	103.5
446.245	86.5
446.466	81.5
446.687	72.5
446.908	85.5
447.129	90.5
447.35	86.5
447.571	65.5
447.792	70.5
448.013	82.5
448.234	72.5
448.455	76.5
448.675	85.5
448.896	82.5
449.117	76.5
449.338	65.5
449.559	76.5
449.779	73.5
450	85.5
450.221	67.5
450.442	76.5
450.662	79.5
450.883	75.5
451.104	86.5
451.324	84.5
451.545	84.5
451.766	86.5
451.986	71.5
452.207	70.5
452.428	83.5
452.648	76.5
452.869	96.5
453.089	81.5
453.31	79.5
453.53	77.5
453.751	73.5
453.971	77.5
454.192	93.5
454.412	84.5
454.633	76.5
454.853	88.5
455.073	89.5
455.294	85.5
455.514	87.5
455.734	81.5
455.955	71.5
456.175	85.5
456.395	78.5
456.616	83.5
456.836	76.5
457.056	84.5
457.276	73.5
457.497	91.5
457.717	84.5
457.937	77.5
458.157	83.5
458.377	80.5
458.598	79.5
458.818	80.5
459.038	60.5
459.258	72.5
459.478	92.5
459.698	83.5
459.918	81.5
460.138	68.5
460.358	70.5
460.578	91.5
460.798	82.5
461.018	86.5
461.238	75.5
461.458	79.5
461.678	72.5
461.898	85.5
462.118	82.5
462.338	80.5
462.558	71.5
462.777	69.5
462.997	94.5
463.217	67.5
463.437	90.5
463.657	72.5
463.876	90.5
464.096	78.5
464.316	75.5
464.536	87.5
464.755	80.5
464.975	74.5
465.195	76.5
465.414	66.5
465.634	71.5
465.854	78.5
466.073	80.5
466.293	82.5
466.512	74.5
466.732	82.5
466.951	65.5
467.171	71.5
467.391	91.5
467.61	82.5
467.829	72.5
468.049	85.5
468.268	75.5
468.488	75.5
468.707	69.5
468.927	84.5
469.146	77.5
469.365	70.5
469.585	72.5
469.804	79.5
470.023	80.5
470.243	85.5
470.462	74.5
470.681	84.5
470.901	92.5
471.12	69.5
471.339	93.5
471.558	74.5
471.777	73.5
471.997	66.5
472.216	74.5
472.435	80.5
472.654	90.5
472.873	82.5
473.092	75.5
473.311	76.5
473.53	67.5
473.749	82.5
473.968	72.5
474.187	76.5
474.406	76.5
474.625	77.5
474.844	89.5
475.063	76.5
475.282	82.5
475.501	80.5
475.72	74.5
475.939	78.5
476.158	82.5
476.377	80.5
476.596	83.5
476.814	78.5
477.033	73.5
477.252	72.5
477.471	82.5
477.69	74.5
477.908	74.5
478.127	82.5
478.346	78.5
478.564	82.5
478.783	68.5
479.002	96.5
479.22	69.5
479.439	69.5
479.658	81.5
479.876	77.5
480.095	76.5
480.313	79.5
480.532	94.5
480.751	70.5
480.969	88.5
481.188	87.5
481.406	73.5
481.624	83.5
481.843	74.5
482.061	66.5
482.28	84.5
482.498	67.5
482.717	71.5
482.935	73.5
483.153	98.5
483.372	55.5
483.59	82.5
483.808	76.5
484.027	78.5
484.245	86.5
484.463	76.5
484.681	93.5
484.9	74.5
485.118	92.5
485.336	81.5
485.554	85.5
485.772	76.5
485.99	71.5
486.209	88.5
486.427	84.5
486.645	82.5
486.863	88.5
487.081	76.5
487.299	70.5
487.517	71.5
487.735	64.5
487.953	90.5
488.171	94.5
488.389	85.5
488.607	82.5
488.825	84.5
489.043	75.5
489.261	82.5
489.479	73.5
489.696	78.5
489.914	84.5
490.132	84.5
490.35	84.5
490.568	74.5
490.786	85.5
491.003	90.5
491.221	78.5
491.439	84.5
491.657	83.5
491.874	88.5
492.092	100.5
492.31	90.5
492.527	91.5
492.745	69.5
492.963	84.5
493.18	86.5
493.398	88.5
493.615	85.5
493.833	72.5
494.05	85.5
494.268	84.5
494.485	85.5
494.703	82.5
494.92	80.5
495.138	88.5
495.355	85.5
495.573	92.5
495.79	70.5
496.008	78.5
496.225	72.5
496.442	92.5
496.66	90.5
496.877	75.5
497.094	72.5
497.312	96.5
497.529	85.5
497.746	73.5
497.963	72.5
498.181	74.5
498.398	82.5
498.615	88.5
498.832	81.5
499.049	68.5
499.267	91.5
499.484	82.5
499.701	98.5
499.918	87.5
500.135	90.5
500.352	75.5
500.569	71.5
500.786	92.5
501.003	95.5
501.22	76.5
501.437	86.5
501.654	98.5
501.871	85.5
502.088	79.5
502.305	74.5
502.522	90.5
502.739	76.5
502.956	79.5
503.172	83.5
503.389	83.5
503.606	83.5
503.823	76.5
504.04	79.5
504.256	75.5
504.473	76.5
504.69	94.5
504.907	86.5
505.123	84.5
505.34	85.5
505.557	75.5
505.773	93.5
505.99	86.5
506.207	73.5
506.423	84.5
506.64	86.5
506.856	76.5
507.073	81.5
507.289	71.5
507.506	92.5
507.722	82.5
507.939	80.5
508.155	88.5
508.372	94.5
508.588	82.5
508.805	92.5
509.021	77.5
509.238	79.5
509.454	81.5
509.67	84.5
509.887	69.5
510.103	78.5
510.319	94.5
510.536	75.5
510.752	84.5
510.968	78.5
511.184	69.5
511.401	70.5
511.617	90.5
511.833	65.5
512.049	77.5
512.265	79.5
512.481	87.5
512.698	78.5
512.914	92.5
513.13	74.5
513.346	77.5
513.562	77.5
513.778	77.5
513.994	88.5
514.21	81.5
514.426	82.5
514.642	91.5
514.858	78.5
515.074	70.5
515.29	86.5
515.506	92.5
515.721	83.5
515.937	93.5
516.153	85.5
516.369	81.5
516.585	78.5
516.801	83.5
517.016	80.5
517.232	78.5
517.448	98.5
517.664	67.5
517.879	82.5
518.095	76.5
518.311	87.5
518.527	103.5
518.742	88.5
518.958	98.5
519.173	93.5
519.389	80.5
519.605	78.5
519.82	85.5
520.036	84.5
520.251	87.5
520.467	80.5
520.682	87.5
520.898	81.5
521.113	79.5
521.329	77.5
521.544	74.5
521.76	84.5
521.975	89.5
522.19	82.5
522.406	90.5
522.621	89.5
522.836	78.5
523.052	80.5
523.267	91.5
523.482	87.5
523.698	88.5
523.913	87.5
524.128	85.5
524.343	95.5
524.559	85.5
524.774	73.5
524.989	87.5
525.204	89.5
525.419	80.5
525.634	87.5
525.849	93.5
526.064	94.5
526.28	100.5
526.495	106.5
526.71	125.5
526.925	109.5
527.14	106.5
527.355	108.5
527.57	78.5
527.785	94.5
527.999	94.5
528.214	82.5
528.429	71.5
528.644	68.5
528.859	72.5
529.074	81.5
529.289	80.5
529.503	79.5
529.718	93.5
529.933	82.5
530.148	83.5
530.363	88.5
530.577	87.5
530.792	72.5
531.007	96.5
531.221	84.5
531.436	82.5
531.651	71.5
531.865	92.5
532.08	86.5
532.295	82.5
532.509	67.5
532.724	86.5
532.938	71.5
533.153	85.5
533.367	98.5
533.582	86.5
533.796	82.5
534.011	81.5
534.225	83.5
534.44	100.5
534.654	90.5
534.868	106.5
535.083	96.5
535.297	96.5
535.511	75.5
535.726	89.5
535.94	86.5
536.154	82.5
536.369	85.5
536.583	74.5
536.797	70.5
537.011	86.5
537.225	78.5
537.44	82.5
537.654	77.5
537.868	91.5
538.082	76.5
538.296	75.5
538.51	87.5
538.724	95.5
538.938	95.5
539.153	93.5
539.367	73.5
539.581	93.5
539.795	97.5
540.009	94.5
