Data from 1600_3_HRD10591_00007.txt Node
Date: Mon Jan 19 13:54:56 EST 2026
User: Yrep
Spectrometer: HR+D1059
Trigger mode: 1
Integration Time (sec): 1.000000E-1
Scans to average: 1
Electric dark correction enabled: true
Nonlinearity correction enabled: false
Boxcar width: 0
XAxis mode: Wavelengths
Number of Pixels in Spectrum: 2048
>>>>>Begin Spectral Data<<<<<
223.165	-16.06
223.4	-16.06
223.635	-16.06
223.869	-21.06
224.104	-13.06
224.338	-15.06
224.573	-27.06
224.808	-15.06
225.042	-13.06
225.277	-14.06
225.511	14.94
225.746	9.94
225.98	14.94
226.215	5.94
226.449	11.94
226.683	23.94
226.918	8.94
227.152	43.94
227.387	33.94
227.621	20.94
227.856	49.94
228.09	48.94
228.324	62.94
228.559	60.94
228.793	64.94
229.027	61.94
229.262	60.94
229.496	51.94
229.73	66.94
229.964	72.94
230.199	70.94
230.433	68.94
230.667	76.94
230.901	75.94
231.136	77.94
231.37	93.94
231.604	67.94
231.838	75.94
232.072	85.94
232.306	89.94
232.541	89.94
232.775	70.94
233.009	91.94
233.243	69.94
233.477	84.94
233.711	88.94
233.945	86.94
234.179	68.94
234.413	69.94
234.647	63.94
234.881	70.94
235.115	70.94
235.349	77.94
235.583	75.94
235.817	76.94
236.051	60.94
236.285	70.94
236.519	61.94
236.753	60.94
236.987	62.94
237.221	75.94
237.455	72.94
237.689	74.94
237.922	66.94
238.156	85.94
238.39	75.94
238.624	73.94
238.858	71.94
239.091	70.94
239.325	83.94
239.559	70.94
239.793	66.94
240.027	69.94
240.26	77.94
240.494	74.94
240.728	74.94
240.961	61.94
241.195	76.94
241.429	71.94
241.662	58.94
241.896	70.94
242.13	69.94
242.363	72.94
242.597	69.94
242.83	77.94
243.064	68.94
243.298	74.94
243.531	78.94
243.765	77.94
243.998	86.94
244.232	80.94
244.465	79.94
244.699	82.94
244.932	84.94
245.166	66.94
245.399	70.94
245.633	66.94
245.866	76.94
246.099	78.94
246.333	75.94
246.566	90.94
246.8	71.94
247.033	62.94
247.266	75.94
247.5	73.94
247.733	96.94
247.966	84.94
248.2	79.94
248.433	83.94
248.666	82.94
248.899	70.94
249.133	61.94
249.366	85.94
249.599	84.94
249.832	70.94
250.066	88.94
250.299	72.94
250.532	79.94
250.765	79.94
250.998	69.94
251.231	70.94
251.465	77.94
251.698	84.94
251.931	71.94
252.164	73.94
252.397	78.94
252.63	79.94
252.863	66.94
253.096	90.94
253.329	76.94
253.562	73.94
253.795	76.94
254.028	71.94
254.261	80.94
254.494	78.94
254.727	71.94
254.96	70.94
255.193	75.94
255.426	89.94
255.659	73.94
255.892	76.94
256.124	94.94
256.357	85.94
256.59	59.94
256.823	85.94
257.056	90.94
257.289	91.94
257.521	81.94
257.754	62.94
257.987	78.94
258.22	72.94
258.452	93.94
258.685	66.94
258.918	82.94
259.151	76.94
259.383	71.94
259.616	75.94
259.849	64.94
260.081	83.94
260.314	82.94
260.547	74.94
260.779	85.94
261.012	74.94
261.244	81.94
261.477	83.94
261.71	76.94
261.942	86.94
262.175	79.94
262.407	80.94
262.64	77.94
262.872	82.94
263.105	84.94
263.337	88.94
263.57	79.94
263.802	97.94
264.035	77.94
264.267	82.94
264.499	80.94
264.732	76.94
264.964	82.94
265.197	77.94
265.429	90.94
265.661	71.94
265.894	78.94
266.126	88.94
266.358	85.94
266.591	69.94
266.823	78.94
267.055	66.94
267.287	76.94
267.52	75.94
267.752	88.94
267.984	81.94
268.216	77.94
268.448	76.94
268.681	86.94
268.913	78.94
269.145	88.94
269.377	82.94
269.609	80.94
269.841	82.94
270.073	74.94
270.306	90.94
270.538	93.94
270.77	83.94
271.002	63.94
271.234	81.94
271.466	85.94
271.698	77.94
271.93	80.94
272.162	72.94
272.394	70.94
272.626	80.94
272.858	75.94
273.09	83.94
273.322	86.94
273.553	84.94
273.785	95.94
274.017	70.94
274.249	86.94
274.481	71.94
274.713	92.94
274.945	81.94
275.176	90.94
275.408	86.94
275.64	83.94
275.872	72.94
276.104	92.94
276.335	70.94
276.567	86.94
276.799	71.94
277.031	79.94
277.262	72.94
277.494	90.94
277.726	79.94
277.957	80.94
278.189	88.94
278.421	78.94
278.652	83.94
278.884	78.94
279.115	86.94
279.347	101.94
279.579	86.94
279.81	72.94
280.042	86.94
280.273	79.94
280.505	84.94
280.736	81.94
280.968	92.94
281.199	83.94
281.431	97.94
281.662	64.94
281.894	80.94
282.125	94.94
282.356	91.94
282.588	80.94
282.819	77.94
283.051	96.94
283.282	84.94
283.513	81.94
283.745	71.94
283.976	78.94
284.207	83.94
284.439	97.94
284.67	87.94
284.901	85.94
285.132	88.94
285.364	84.94
285.595	90.94
285.826	82.94
286.057	82.94
286.288	68.94
286.52	90.94
286.751	85.94
286.982	64.94
287.213	74.94
287.444	77.94
287.675	86.94
287.906	78.94
288.138	87.94
288.369	81.94
288.6	90.94
288.831	86.94
289.062	86.94
289.293	81.94
289.524	71.94
289.755	73.94
289.986	95.94
290.217	81.94
290.448	85.94
290.679	83.94
290.91	82.94
291.141	68.94
291.371	87.94
291.602	63.94
291.833	79.94
292.064	82.94
292.295	78.94
292.526	70.94
292.757	88.94
292.987	83.94
293.218	81.94
293.449	83.94
293.68	87.94
293.91	81.94
294.141	73.94
294.372	89.94
294.603	80.94
294.833	99.94
295.064	85.94
295.295	93.94
295.525	86.94
295.756	80.94
295.987	93.94
296.217	80.94
296.448	91.94
296.679	80.94
296.909	72.94
297.14	83.94
297.37	91.94
297.601	73.94
297.831	75.94
298.062	76.94
298.292	87.94
298.523	82.94
298.753	90.94
298.984	85.94
299.214	74.94
299.445	90.94
299.675	85.94
299.905	70.94
300.136	88.94
300.366	88.94
300.597	91.94
300.827	81.94
301.057	81.94
301.288	86.94
301.518	71.94
301.748	91.94
301.979	78.94
302.209	71.94
302.439	84.94
302.669	76.94
302.9	82.94
303.13	82.94
303.36	84.94
303.59	79.94
303.82	88.94
304.051	81.94
304.281	69.94
304.511	75.94
304.741	80.94
304.971	94.94
305.201	82.94
305.431	80.94
305.661	91.94
305.891	71.94
306.121	84.94
306.352	70.94
306.582	71.94
306.812	78.94
307.042	86.94
307.272	84.94
307.502	79.94
307.731	90.94
307.961	81.94
308.191	92.94
308.421	92.94
308.651	94.94
308.881	70.94
309.111	75.94
309.341	78.94
309.571	85.94
309.8	86.94
310.03	87.94
310.26	78.94
310.49	78.94
310.72	93.94
310.949	96.94
311.179	67.94
311.409	67.94
311.639	79.94
311.868	88.94
312.098	84.94
312.328	74.94
312.557	79.94
312.787	92.94
313.017	101.94
313.246	79.94
313.476	67.94
313.706	91.94
313.935	86.94
314.165	75.94
314.394	80.94
314.624	82.94
314.853	87.94
315.083	82.94
315.312	69.94
315.542	83.94
315.771	87.94
316.001	87.94
316.23	76.94
316.46	71.94
316.689	80.94
316.919	84.94
317.148	75.94
317.377	85.94
317.607	67.94
317.836	82.94
318.065	87.94
318.295	80.94
318.524	91.94
318.753	76.94
318.983	89.94
319.212	87.94
319.441	82.94
319.67	85.94
319.9	83.94
320.129	91.94
320.358	87.94
320.587	83.94
320.816	66.94
321.046	87.94
321.275	87.94
321.504	95.94
321.733	72.94
321.962	73.94
322.191	82.94
322.42	70.94
322.649	92.94
322.878	90.94
323.108	86.94
323.337	90.94
323.566	74.94
323.795	83.94
324.024	82.94
324.253	78.94
324.482	68.94
324.71	91.94
324.939	84.94
325.168	70.94
325.397	84.94
325.626	87.94
325.855	83.94
326.084	89.94
326.313	82.94
326.542	72.94
326.77	70.94
326.999	93.94
327.228	87.94
327.457	84.94
327.686	77.94
327.914	76.94
328.143	101.94
328.372	78.94
328.6	89.94
328.829	76.94
329.058	93.94
329.287	88.94
329.515	95.94
329.744	78.94
329.972	88.94
330.201	81.94
330.43	87.94
330.658	86.94
330.887	90.94
331.115	68.94
331.344	77.94
331.572	76.94
331.801	86.94
332.03	87.94
332.258	80.94
332.486	89.94
332.715	77.94
332.943	78.94
333.172	90.94
333.4	63.94
333.629	85.94
333.857	84.94
334.085	78.94
334.314	80.94
334.542	89.94
334.771	99.94
334.999	83.94
335.227	72.94
335.455	89.94
335.684	86.94
335.912	113.94
336.14	94.94
336.369	98.94
336.597	79.94
336.825	76.94
337.053	93.94
337.281	83.94
337.51	83.94
337.738	98.94
337.966	83.94
338.194	66.94
338.422	87.94
338.65	81.94
338.878	85.94
339.106	86.94
339.334	78.94
339.562	87.94
339.79	79.94
340.018	82.94
340.246	82.94
340.474	85.94
340.702	83.94
340.93	83.94
341.158	95.94
341.386	90.94
341.614	70.94
341.842	74.94
342.07	86.94
342.298	82.94
342.526	71.94
342.754	79.94
342.981	66.94
343.209	72.94
343.437	87.94
343.665	82.94
343.893	87.94
344.12	97.94
344.348	79.94
344.576	77.94
344.804	82.94
345.031	86.94
345.259	85.94
345.487	85.94
345.714	81.94
345.942	89.94
346.17	81.94
346.397	75.94
346.625	80.94
346.853	75.94
347.08	90.94
347.308	77.94
347.535	72.94
347.763	70.94
347.99	76.94
348.218	84.94
348.445	69.94
348.673	90.94
348.9	82.94
349.128	82.94
349.355	73.94
349.583	81.94
349.81	98.94
350.037	87.94
350.265	84.94
350.492	83.94
350.72	87.94
350.947	75.94
351.174	72.94
351.402	72.94
351.629	83.94
351.856	73.94
352.083	92.94
352.311	81.94
352.538	84.94
352.765	90.94
352.992	76.94
353.22	70.94
353.447	74.94
353.674	91.94
353.901	77.94
354.128	90.94
354.355	89.94
354.583	86.94
354.81	82.94
355.037	91.94
355.264	88.94
355.491	70.94
355.718	76.94
355.945	76.94
356.172	87.94
356.399	84.94
356.626	90.94
356.853	79.94
357.08	79.94
357.307	86.94
357.534	73.94
357.761	97.94
357.988	87.94
358.215	96.94
358.441	85.94
358.668	90.94
358.895	84.94
359.122	72.94
359.349	92.94
359.576	81.94
359.802	77.94
360.029	92.94
360.256	72.94
360.483	88.94
360.709	86.94
360.936	104.94
361.163	84.94
361.39	73.94
361.616	94.94
361.843	82.94
362.07	83.94
362.296	72.94
362.523	86.94
362.749	67.94
362.976	80.94
363.203	100.94
363.429	94.94
363.656	83.94
363.882	77.94
364.109	88.94
364.335	96.94
364.562	95.94
364.788	97.94
365.015	87.94
365.241	95.94
365.468	76.94
365.694	77.94
365.92	68.94
366.147	76.94
366.373	79.94
366.599	91.94
366.826	87.94
367.052	89.94
367.278	68.94
367.505	87.94
367.731	85.94
367.957	81.94
368.184	72.94
368.41	84.94
368.636	79.94
368.862	86.94
369.089	86.94
369.315	74.94
369.541	77.94
369.767	78.94
369.993	79.94
370.219	90.94
370.445	71.94
370.672	83.94
370.898	81.94
371.124	79.94
371.35	82.94
371.576	88.94
371.802	72.94
372.028	72.94
372.254	102.94
372.48	75.94
372.706	69.94
372.932	88.94
373.158	82.94
373.384	87.94
373.61	92.94
373.835	80.94
374.061	80.94
374.287	74.94
374.513	80.94
374.739	108.94
374.965	93.94
375.191	98.94
375.416	81.94
375.642	79.94
375.868	84.94
376.094	84.94
376.319	67.94
376.545	86.94
376.771	96.94
376.997	88.94
377.222	72.94
377.448	79.94
377.674	76.94
377.899	75.94
378.125	90.94
378.35	80.94
378.576	81.94
378.802	77.94
379.027	79.94
379.253	77.94
379.478	87.94
379.704	86.94
379.929	66.94
380.155	87.94
380.38	91.94
380.606	83.94
380.831	78.94
381.057	72.94
381.282	83.94
381.507	82.94
381.733	94.94
381.958	87.94
382.184	93.94
382.409	78.94
382.634	77.94
382.86	95.94
383.085	89.94
383.31	66.94
383.535	92.94
383.761	95.94
383.986	91.94
384.211	95.94
384.436	96.94
384.662	87.94
384.887	74.94
385.112	73.94
385.337	90.94
385.562	78.94
385.787	86.94
386.013	80.94
386.238	94.94
386.463	86.94
386.688	91.94
386.913	82.94
387.138	92.94
387.363	83.94
387.588	86.94
387.813	91.94
388.038	74.94
388.263	71.94
388.488	97.94
388.713	83.94
388.938	79.94
389.163	84.94
389.387	88.94
389.612	82.94
389.837	77.94
390.062	85.94
390.287	79.94
390.512	87.94
390.736	98.94
390.961	88.94
391.186	79.94
391.411	78.94
391.636	83.94
391.86	91.94
392.085	93.94
392.31	83.94
392.534	88.94
392.759	91.94
392.984	117.94
393.208	133.94
393.433	180.94
393.658	147.94
393.882	103.94
394.107	104.94
394.331	96.94
394.556	94.94
394.78	94.94
395.005	81.94
395.229	78.94
395.454	82.94
395.678	91.94
395.903	90.94
396.127	98.94
396.352	100.94
396.576	107.94
396.801	125.94
397.025	134.94
397.249	103.94
397.474	98.94
397.698	80.94
397.922	80.94
398.147	82.94
398.371	69.94
398.595	88.94
398.82	67.94
399.044	78.94
399.268	76.94
399.492	86.94
399.717	95.94
399.941	71.94
400.165	94.94
400.389	99.94
400.613	84.94
400.837	87.94
401.062	81.94
401.286	71.94
401.51	80.94
401.734	78.94
401.958	90.94
402.182	91.94
402.406	88.94
402.63	83.94
402.854	84.94
403.078	81.94
403.302	87.94
403.526	79.94
403.75	98.94
403.974	78.94
404.198	79.94
404.422	85.94
404.645	94.94
404.869	102.94
405.093	88.94
405.317	94.94
405.541	85.94
405.765	83.94
405.988	83.94
406.212	73.94
406.436	88.94
406.66	78.94
406.883	99.94
407.107	76.94
407.331	79.94
407.555	80.94
407.778	90.94
408.002	76.94
408.226	72.94
408.449	81.94
408.673	63.94
408.896	90.94
409.12	90.94
409.344	86.94
409.567	73.94
409.791	95.94
410.014	78.94
410.238	85.94
410.461	95.94
410.685	64.94
410.908	82.94
411.132	79.94
411.355	82.94
411.578	66.94
411.802	81.94
412.025	80.94
412.249	82.94
412.472	64.94
412.695	74.94
412.919	71.94
413.142	93.94
413.365	77.94
413.589	72.94
413.812	82.94
414.035	91.94
414.258	74.94
414.482	94.94
414.705	90.94
414.928	82.94
415.151	77.94
415.374	74.94
415.597	68.94
415.821	89.94
416.044	76.94
416.267	78.94
416.49	85.94
416.713	85.94
416.936	83.94
417.159	83.94
417.382	81.94
417.605	86.94
417.828	74.94
418.051	75.94
418.274	78.94
418.497	81.94
418.72	74.94
418.943	88.94
419.166	84.94
419.389	79.94
419.611	93.94
419.834	84.94
420.057	94.94
420.28	88.94
420.503	85.94
420.726	87.94
420.948	83.94
421.171	79.94
421.394	70.94
421.617	83.94
421.839	86.94
422.062	92.94
422.285	96.94
422.507	145.94
422.73	195.94
422.953	164.94
423.175	106.94
423.398	85.94
423.621	80.94
423.843	97.94
424.066	86.94
424.288	80.94
424.511	84.94
424.733	86.94
424.956	78.94
425.178	91.94
425.401	79.94
425.623	71.94
425.846	80.94
426.068	92.94
426.291	82.94
426.513	83.94
426.735	71.94
426.958	82.94
427.18	95.94
427.402	96.94
427.625	63.94
427.847	76.94
428.069	94.94
428.292	108.94
428.514	86.94
428.736	88.94
428.958	88.94
429.181	98.94
429.403	69.94
429.625	84.94
429.847	78.94
430.069	99.94
430.292	100.94
430.514	111.94
430.736	90.94
430.958	115.94
431.18	76.94
431.402	76.94
431.624	81.94
431.846	96.94
432.068	101.94
432.29	87.94
432.512	92.94
432.734	90.94
432.956	87.94
433.178	83.94
433.4	64.94
433.622	68.94
433.844	85.94
434.066	76.94
434.287	87.94
434.509	86.94
434.731	78.94
434.953	84.94
435.175	77.94
435.397	82.94
435.618	88.94
435.84	91.94
436.062	82.94
436.284	67.94
436.505	78.94
436.727	70.94
436.949	64.94
437.17	90.94
437.392	83.94
437.614	87.94
437.835	87.94
438.057	78.94
438.278	78.94
438.5	81.94
438.721	90.94
438.943	84.94
439.165	83.94
439.386	74.94
439.608	79.94
439.829	86.94
440.05	88.94
440.272	80.94
440.493	90.94
440.715	79.94
440.936	87.94
441.158	81.94
441.379	84.94
441.6	94.94
441.822	84.94
442.043	73.94
442.264	86.94
442.486	98.94
442.707	103.94
442.928	104.94
443.149	94.94
443.371	88.94
443.592	130.94
443.813	95.94
444.034	79.94
444.255	86.94
444.476	83.94
444.698	83.94
444.919	93.94
445.14	151.94
445.361	124.94
445.582	118.94
445.803	122.94
446.024	100.94
446.245	92.94
446.466	91.94
446.687	77.94
446.908	92.94
447.129	80.94
447.35	90.94
447.571	99.94
447.792	76.94
448.013	78.94
448.234	84.94
448.455	79.94
448.675	86.94
448.896	85.94
449.117	84.94
449.338	83.94
449.559	74.94
449.779	94.94
450	66.94
450.221	81.94
450.442	84.94
450.662	79.94
450.883	76.94
451.104	74.94
451.324	78.94
451.545	82.94
451.766	88.94
451.986	71.94
452.207	75.94
452.428	67.94
452.648	72.94
452.869	80.94
453.089	83.94
453.31	87.94
453.53	88.94
453.751	93.94
453.971	84.94
454.192	73.94
454.412	89.94
454.633	87.94
454.853	93.94
455.073	79.94
455.294	75.94
455.514	86.94
455.734	92.94
455.955	91.94
456.175	73.94
456.395	80.94
456.616	92.94
456.836	89.94
457.056	77.94
457.276	84.94
457.497	91.94
457.717	78.94
457.937	76.94
458.157	82.94
458.377	81.94
458.598	96.94
458.818	102.94
459.038	81.94
459.258	89.94
459.478	88.94
459.698	76.94
459.918	76.94
460.138	91.94
460.358	80.94
460.578	89.94
460.798	90.94
461.018	89.94
461.238	85.94
461.458	87.94
461.678	80.94
461.898	91.94
462.118	90.94
462.338	77.94
462.558	86.94
462.777	75.94
462.997	87.94
463.217	84.94
463.437	69.94
463.657	87.94
463.876	90.94
464.096	69.94
464.316	99.94
464.536	105.94
464.755	78.94
464.975	102.94
465.195	97.94
465.414	69.94
465.634	87.94
465.854	80.94
466.073	85.94
466.293	82.94
466.512	97.94
466.732	72.94
466.951	90.94
467.171	84.94
467.391	82.94
467.61	87.94
467.829	95.94
468.049	98.94
468.268	76.94
468.488	73.94
468.707	94.94
468.927	83.94
469.146	90.94
469.365	82.94
469.585	70.94
469.804	78.94
470.023	75.94
470.243	94.94
470.462	77.94
470.681	95.94
470.901	87.94
471.12	90.94
471.339	101.94
471.558	83.94
471.777	78.94
471.997	70.94
472.216	76.94
472.435	84.94
472.654	90.94
472.873	86.94
473.092	84.94
473.311	69.94
473.53	84.94
473.749	81.94
473.968	78.94
474.187	88.94
474.406	92.94
474.625	72.94
474.844	82.94
475.063	86.94
475.282	95.94
475.501	68.94
475.72	89.94
475.939	70.94
476.158	84.94
476.377	73.94
476.596	80.94
476.814	83.94
477.033	81.94
477.252	80.94
477.471	90.94
477.69	91.94
477.908	78.94
478.127	83.94
478.346	69.94
478.564	87.94
478.783	90.94
479.002	91.94
479.22	86.94
479.439	87.94
479.658	84.94
479.876	89.94
480.095	92.94
480.313	83.94
480.532	91.94
480.751	88.94
480.969	95.94
481.188	84.94
481.406	87.94
481.624	71.94
481.843	87.94
482.061	96.94
482.28	86.94
482.498	77.94
482.717	87.94
482.935	64.94
483.153	79.94
483.372	96.94
483.59	75.94
483.808	88.94
484.027	84.94
484.245	92.94
484.463	86.94
484.681	90.94
484.9	88.94
485.118	82.94
485.336	72.94
485.554	82.94
485.772	91.94
485.99	96.94
486.209	83.94
486.427	84.94
486.645	93.94
486.863	80.94
487.081	80.94
487.299	85.94
487.517	86.94
487.735	100.94
487.953	97.94
488.171	93.94
488.389	84.94
488.607	90.94
488.825	84.94
489.043	86.94
489.261	87.94
489.479	91.94
489.696	74.94
489.914	81.94
490.132	93.94
490.35	84.94
490.568	84.94
490.786	83.94
491.003	73.94
491.221	69.94
491.439	85.94
491.657	85.94
491.874	91.94
492.092	91.94
492.31	92.94
492.527	90.94
492.745	78.94
492.963	80.94
493.18	88.94
493.398	76.94
493.615	88.94
493.833	99.94
494.05	86.94
494.268	78.94
494.485	94.94
494.703	90.94
494.92	90.94
495.138	88.94
495.355	84.94
495.573	96.94
495.79	70.94
496.008	91.94
496.225	92.94
496.442	82.94
496.66	87.94
496.877	82.94
497.094	77.94
497.312	74.94
497.529	78.94
497.746	90.94
497.963	84.94
498.181	74.94
498.398	91.94
498.615	88.94
498.832	78.94
499.049	96.94
499.267	82.94
499.484	110.94
499.701	83.94
499.918	102.94
500.135	85.94
500.352	83.94
500.569	83.94
500.786	79.94
501.003	92.94
501.22	86.94
501.437	85.94
501.654	110.94
501.871	78.94
502.088	94.94
502.305	90.94
502.522	93.94
502.739	86.94
502.956	93.94
503.172	92.94
503.389	80.94
503.606	84.94
503.823	97.94
504.04	94.94
504.256	104.94
504.473	89.94
504.69	98.94
504.907	88.94
505.123	88.94
505.34	97.94
505.557	94.94
505.773	79.94
505.99	91.94
506.207	112.94
506.423	86.94
506.64	77.94
506.856	88.94
507.073	88.94
507.289	86.94
507.506	86.94
507.722	79.94
507.939	72.94
508.155	87.94
508.372	85.94
508.588	90.94
508.805	84.94
509.021	80.94
509.238	89.94
509.454	83.94
509.67	73.94
509.887	83.94
510.103	77.94
510.319	85.94
510.536	68.94
510.752	91.94
510.968	92.94
511.184	86.94
511.401	99.94
511.617	80.94
511.833	96.94
512.049	88.94
512.265	83.94
512.481	92.94
512.698	84.94
512.914	84.94
513.13	80.94
513.346	84.94
513.562	85.94
513.778	95.94
513.994	90.94
514.21	71.94
514.426	86.94
514.642	87.94
514.858	95.94
515.074	80.94
515.29	83.94
515.506	73.94
515.721	91.94
515.937	81.94
516.153	87.94
516.369	90.94
516.585	81.94
516.801	84.94
517.016	98.94
517.232	94.94
517.448	100.94
517.664	96.94
517.879	99.94
518.095	93.94
518.311	95.94
518.527	100.94
518.742	111.94
518.958	83.94
519.173	98.94
519.389	78.94
519.605	73.94
