Data from 1600_3_HRD10591_00011.txt Node
Date: Mon Jan 19 13:54:58 EST 2026
User: Yrep
Spectrometer: HR+D1059
Trigger mode: 1
Integration Time (sec): 1.000000E-1
Scans to average: 1
Electric dark correction enabled: true
Nonlinearity correction enabled: false
Boxcar width: 0
XAxis mode: Wavelengths
Number of Pixels in Spectrum: 2048
>>>>>Begin Spectral Data<<<<<
223.165	-20.38
223.4	-20.38
223.635	-20.38
223.869	-25.38
224.104	-33.38
224.338	-27.38
224.573	-10.38
224.808	-12.38
225.042	-15.38
225.277	-6.38
225.511	3.62
225.746	10.62
225.98	10.62
226.215	12.62
226.449	24.62
226.683	22.62
226.918	25.62
227.152	40.62
227.387	41.62
227.621	31.62
227.856	36.62
228.09	52.62
228.324	50.62
228.559	71.62
228.793	61.62
229.027	52.62
229.262	59.62
229.496	62.62
229.73	66.62
229.964	78.62
230.199	73.62
230.433	80.62
230.667	88.62
230.901	76.62
231.136	74.62
231.37	92.62
231.604	95.62
231.838	85.62
232.072	82.62
232.306	76.62
232.541	78.62
232.775	73.62
233.009	82.62
233.243	89.62
233.477	95.62
233.711	91.62
233.945	78.62
234.179	83.62
234.413	77.62
234.647	80.62
234.881	78.62
235.115	78.62
235.349	78.62
235.583	86.62
235.817	79.62
236.051	74.62
236.285	70.62
236.519	88.62
236.753	81.62
236.987	80.62
237.221	72.62
237.455	76.62
237.689	81.62
237.922	66.62
238.156	68.62
238.39	69.62
238.624	72.62
238.858	85.62
239.091	85.62
239.325	77.62
239.559	75.62
239.793	89.62
240.027	87.62
240.26	65.62
240.494	81.62
240.728	87.62
240.961	80.62
241.195	86.62
241.429	75.62
241.662	81.62
241.896	75.62
242.13	83.62
242.363	85.62
242.597	62.62
242.83	84.62
243.064	80.62
243.298	79.62
243.531	82.62
243.765	90.62
243.998	82.62
244.232	72.62
244.465	77.62
244.699	70.62
244.932	68.62
245.166	73.62
245.399	90.62
245.633	71.62
245.866	76.62
246.099	87.62
246.333	82.62
246.566	71.62
246.8	70.62
247.033	96.62
247.266	68.62
247.5	98.62
247.733	84.62
247.966	79.62
248.2	77.62
248.433	67.62
248.666	93.62
248.899	86.62
249.133	85.62
249.366	96.62
249.599	84.62
249.832	87.62
250.066	79.62
250.299	82.62
250.532	80.62
250.765	89.62
250.998	68.62
251.231	66.62
251.465	74.62
251.698	67.62
251.931	70.62
252.164	80.62
252.397	72.62
252.63	81.62
252.863	78.62
253.096	90.62
253.329	74.62
253.562	88.62
253.795	80.62
254.028	90.62
254.261	77.62
254.494	82.62
254.727	82.62
254.96	81.62
255.193	84.62
255.426	82.62
255.659	86.62
255.892	81.62
256.124	79.62
256.357	79.62
256.59	83.62
256.823	83.62
257.056	81.62
257.289	95.62
257.521	94.62
257.754	77.62
257.987	90.62
258.22	66.62
258.452	86.62
258.685	82.62
258.918	81.62
259.151	78.62
259.383	85.62
259.616	80.62
259.849	85.62
260.081	83.62
260.314	76.62
260.547	80.62
260.779	80.62
261.012	67.62
261.244	76.62
261.477	87.62
261.71	96.62
261.942	80.62
262.175	109.62
262.407	84.62
262.64	73.62
262.872	83.62
263.105	68.62
263.337	80.62
263.57	76.62
263.802	82.62
264.035	94.62
264.267	80.62
264.499	87.62
264.732	88.62
264.964	85.62
265.197	89.62
265.429	85.62
265.661	83.62
265.894	91.62
266.126	76.62
266.358	70.62
266.591	82.62
266.823	82.62
267.055	72.62
267.287	89.62
267.52	82.62
267.752	93.62
267.984	71.62
268.216	80.62
268.448	99.62
268.681	86.62
268.913	90.62
269.145	103.62
269.377	80.62
269.609	77.62
269.841	75.62
270.073	92.62
270.306	74.62
270.538	88.62
270.77	71.62
271.002	94.62
271.234	78.62
271.466	90.62
271.698	71.62
271.93	84.62
272.162	86.62
272.394	75.62
272.626	82.62
272.858	86.62
273.09	69.62
273.322	93.62
273.553	74.62
273.785	70.62
274.017	75.62
274.249	78.62
274.481	88.62
274.713	86.62
274.945	89.62
275.176	88.62
275.408	91.62
275.64	74.62
275.872	102.62
276.104	66.62
276.335	84.62
276.567	74.62
276.799	76.62
277.031	81.62
277.262	87.62
277.494	90.62
277.726	80.62
277.957	78.62
278.189	80.62
278.421	80.62
278.652	83.62
278.884	85.62
279.115	83.62
279.347	79.62
279.579	76.62
279.81	84.62
280.042	59.62
280.273	76.62
280.505	90.62
280.736	96.62
280.968	83.62
281.199	79.62
281.431	86.62
281.662	75.62
281.894	89.62
282.125	88.62
282.356	80.62
282.588	79.62
282.819	79.62
283.051	95.62
283.282	91.62
283.513	85.62
283.745	87.62
283.976	88.62
284.207	89.62
284.439	85.62
284.67	90.62
284.901	86.62
285.132	89.62
285.364	79.62
285.595	93.62
285.826	92.62
286.057	70.62
286.288	86.62
286.52	89.62
286.751	74.62
286.982	85.62
287.213	90.62
287.444	86.62
287.675	79.62
287.906	80.62
288.138	87.62
288.369	96.62
288.6	89.62
288.831	84.62
289.062	84.62
289.293	83.62
289.524	85.62
289.755	87.62
289.986	89.62
290.217	81.62
290.448	78.62
290.679	82.62
290.91	88.62
291.141	91.62
291.371	82.62
291.602	84.62
291.833	79.62
292.064	90.62
292.295	81.62
292.526	80.62
292.757	78.62
292.987	84.62
293.218	87.62
293.449	93.62
293.68	83.62
293.91	80.62
294.141	76.62
294.372	66.62
294.603	73.62
294.833	92.62
295.064	80.62
295.295	89.62
295.525	90.62
295.756	86.62
295.987	79.62
296.217	91.62
296.448	95.62
296.679	92.62
296.909	80.62
297.14	76.62
297.37	110.62
297.601	84.62
297.831	70.62
298.062	83.62
298.292	81.62
298.523	69.62
298.753	84.62
298.984	86.62
299.214	86.62
299.445	80.62
299.675	73.62
299.905	88.62
300.136	78.62
300.366	82.62
300.597	76.62
300.827	94.62
301.057	93.62
301.288	81.62
301.518	86.62
301.748	82.62
301.979	94.62
302.209	77.62
302.439	92.62
302.669	80.62
302.9	100.62
303.13	85.62
303.36	98.62
303.59	70.62
303.82	78.62
304.051	84.62
304.281	91.62
304.511	90.62
304.741	79.62
304.971	76.62
305.201	88.62
305.431	89.62
305.661	86.62
305.891	92.62
306.121	84.62
306.352	90.62
306.582	79.62
306.812	88.62
307.042	103.62
307.272	83.62
307.502	83.62
307.731	74.62
307.961	89.62
308.191	105.62
308.421	94.62
308.651	83.62
308.881	99.62
309.111	84.62
309.341	91.62
309.571	86.62
309.8	69.62
310.03	77.62
310.26	86.62
310.49	86.62
310.72	87.62
310.949	93.62
311.179	94.62
311.409	88.62
311.639	86.62
311.868	88.62
312.098	98.62
312.328	95.62
312.557	84.62
312.787	86.62
313.017	103.62
313.246	97.62
313.476	84.62
313.706	92.62
313.935	88.62
314.165	90.62
314.394	76.62
314.624	85.62
314.853	82.62
315.083	90.62
315.312	98.62
315.542	92.62
315.771	79.62
316.001	88.62
316.23	101.62
316.46	94.62
316.689	95.62
316.919	78.62
317.148	81.62
317.377	97.62
317.607	90.62
317.836	86.62
318.065	80.62
318.295	70.62
318.524	88.62
318.753	80.62
318.983	96.62
319.212	89.62
319.441	84.62
319.67	92.62
319.9	98.62
320.129	96.62
320.358	94.62
320.587	76.62
320.816	85.62
321.046	88.62
321.275	99.62
321.504	85.62
321.733	84.62
321.962	98.62
322.191	69.62
322.42	102.62
322.649	94.62
322.878	77.62
323.108	88.62
323.337	100.62
323.566	92.62
323.795	80.62
324.024	85.62
324.253	71.62
324.482	94.62
324.71	82.62
324.939	90.62
325.168	95.62
325.397	67.62
325.626	83.62
325.855	76.62
326.084	88.62
326.313	87.62
326.542	84.62
326.77	95.62
326.999	87.62
327.228	76.62
327.457	94.62
327.686	98.62
327.914	71.62
328.143	92.62
328.372	82.62
328.6	75.62
328.829	77.62
329.058	86.62
329.287	76.62
329.515	94.62
329.744	84.62
329.972	84.62
330.201	87.62
330.43	83.62
330.658	85.62
330.887	87.62
331.115	94.62
331.344	82.62
331.572	81.62
331.801	77.62
332.03	98.62
332.258	79.62
332.486	84.62
332.715	76.62
332.943	74.62
333.172	94.62
333.4	86.62
333.629	81.62
333.857	79.62
334.085	71.62
334.314	84.62
334.542	80.62
334.771	82.62
334.999	88.62
335.227	86.62
335.455	87.62
335.684	95.62
335.912	86.62
336.14	82.62
336.369	86.62
336.597	85.62
336.825	88.62
337.053	90.62
337.281	80.62
337.51	74.62
337.738	88.62
337.966	92.62
338.194	67.62
338.422	87.62
338.65	88.62
338.878	98.62
339.106	75.62
339.334	83.62
339.562	81.62
339.79	89.62
340.018	91.62
340.246	85.62
340.474	82.62
340.702	89.62
340.93	95.62
341.158	97.62
341.386	99.62
341.614	81.62
341.842	90.62
342.07	89.62
342.298	83.62
342.526	76.62
342.754	80.62
342.981	77.62
343.209	97.62
343.437	95.62
343.665	86.62
343.893	93.62
344.12	94.62
344.348	90.62
344.576	89.62
344.804	90.62
345.031	81.62
345.259	95.62
345.487	82.62
345.714	86.62
345.942	86.62
346.17	83.62
346.397	98.62
346.625	87.62
346.853	78.62
347.08	92.62
347.308	92.62
347.535	82.62
347.763	89.62
347.99	83.62
348.218	85.62
348.445	85.62
348.673	82.62
348.9	85.62
349.128	85.62
349.355	85.62
349.583	86.62
349.81	88.62
350.037	81.62
350.265	78.62
350.492	80.62
350.72	83.62
350.947	76.62
351.174	90.62
351.402	76.62
351.629	76.62
351.856	75.62
352.083	91.62
352.311	90.62
352.538	71.62
352.765	84.62
352.992	89.62
353.22	76.62
353.447	72.62
353.674	88.62
353.901	82.62
354.128	82.62
354.355	83.62
354.583	83.62
354.81	87.62
355.037	82.62
355.264	92.62
355.491	81.62
355.718	84.62
355.945	75.62
356.172	82.62
356.399	86.62
356.626	95.62
356.853	93.62
357.08	90.62
357.307	86.62
357.534	85.62
357.761	91.62
357.988	90.62
358.215	110.62
358.441	97.62
358.668	100.62
358.895	94.62
359.122	79.62
359.349	86.62
359.576	74.62
359.802	76.62
360.029	75.62
360.256	84.62
360.483	84.62
360.709	68.62
360.936	88.62
361.163	82.62
361.39	94.62
361.616	74.62
361.843	76.62
362.07	85.62
362.296	81.62
362.523	87.62
362.749	90.62
362.976	81.62
363.203	92.62
363.429	78.62
363.656	82.62
363.882	85.62
364.109	82.62
364.335	89.62
364.562	82.62
364.788	82.62
365.015	71.62
365.241	90.62
365.468	93.62
365.694	84.62
365.92	67.62
366.147	82.62
366.373	91.62
366.599	86.62
366.826	87.62
367.052	95.62
367.278	91.62
367.505	84.62
367.731	108.62
367.957	78.62
368.184	84.62
368.41	82.62
368.636	78.62
368.862	82.62
369.089	80.62
369.315	73.62
369.541	94.62
369.767	97.62
369.993	84.62
370.219	81.62
370.445	87.62
370.672	68.62
370.898	80.62
371.124	77.62
371.35	92.62
371.576	88.62
371.802	86.62
372.028	73.62
372.254	83.62
372.48	95.62
372.706	82.62
372.932	77.62
373.158	87.62
373.384	86.62
373.61	91.62
373.835	82.62
374.061	76.62
374.287	84.62
374.513	82.62
374.739	100.62
374.965	80.62
375.191	75.62
375.416	77.62
375.642	82.62
375.868	100.62
376.094	82.62
376.319	106.62
376.545	86.62
376.771	102.62
376.997	97.62
377.222	82.62
377.448	77.62
377.674	90.62
377.899	84.62
378.125	89.62
378.35	88.62
378.576	89.62
378.802	71.62
379.027	83.62
379.253	87.62
379.478	85.62
379.704	76.62
379.929	88.62
380.155	61.62
380.38	89.62
380.606	79.62
380.831	71.62
381.057	89.62
381.282	88.62
381.507	93.62
381.733	95.62
381.958	99.62
382.184	88.62
382.409	91.62
382.634	106.62
382.86	94.62
383.085	83.62
383.31	84.62
383.535	93.62
383.761	98.62
383.986	98.62
384.211	89.62
384.436	88.62
384.662	87.62
384.887	83.62
385.112	85.62
385.337	92.62
385.562	90.62
385.787	77.62
386.013	82.62
386.238	90.62
386.463	83.62
386.688	97.62
386.913	83.62
387.138	91.62
387.363	99.62
387.588	88.62
387.813	86.62
388.038	83.62
388.263	94.62
388.488	89.62
388.713	90.62
388.938	86.62
389.163	89.62
389.387	80.62
389.612	76.62
389.837	90.62
390.062	94.62
390.287	93.62
390.512	99.62
390.736	93.62
390.961	82.62
391.186	84.62
391.411	79.62
391.636	68.62
391.86	91.62
392.085	93.62
392.31	78.62
392.534	96.62
392.759	91.62
392.984	90.62
393.208	128.62
393.433	125.62
393.658	113.62
393.882	96.62
394.107	92.62
394.331	82.62
394.556	98.62
394.78	84.62
395.005	89.62
395.229	91.62
395.454	92.62
395.678	92.62
395.903	95.62
396.127	84.62
396.352	108.62
396.576	106.62
396.801	98.62
397.025	117.62
397.249	105.62
397.474	100.62
397.698	77.62
397.922	91.62
398.147	94.62
398.371	91.62
398.595	86.62
398.82	83.62
399.044	78.62
399.268	91.62
399.492	85.62
399.717	98.62
399.941	90.62
400.165	93.62
400.389	83.62
400.613	82.62
400.837	84.62
401.062	90.62
401.286	82.62
401.51	78.62
401.734	70.62
401.958	84.62
402.182	84.62
402.406	84.62
402.63	75.62
402.854	93.62
403.078	91.62
403.302	90.62
403.526	99.62
403.75	91.62
403.974	92.62
404.198	86.62
404.422	79.62
404.645	82.62
404.869	85.62
405.093	89.62
405.317	77.62
405.541	86.62
405.765	67.62
405.988	90.62
406.212	88.62
406.436	84.62
406.66	93.62
406.883	80.62
407.107	74.62
407.331	86.62
407.555	74.62
407.778	92.62
408.002	76.62
408.226	66.62
408.449	81.62
408.673	100.62
408.896	81.62
409.12	73.62
409.344	83.62
409.567	102.62
409.791	82.62
410.014	98.62
410.238	75.62
410.461	87.62
410.685	83.62
410.908	74.62
411.132	70.62
411.355	79.62
411.578	91.62
411.802	95.62
412.025	77.62
412.249	78.62
412.472	88.62
412.695	80.62
412.919	92.62
413.142	74.62
413.365	107.62
413.589	84.62
413.812	61.62
414.035	81.62
414.258	101.62
414.482	73.62
414.705	81.62
414.928	88.62
415.151	80.62
415.374	83.62
415.597	89.62
415.821	78.62
416.044	84.62
416.267	64.62
416.49	71.62
416.713	80.62
416.936	81.62
417.159	76.62
417.382	80.62
417.605	87.62
417.828	79.62
418.051	81.62
418.274	84.62
418.497	72.62
418.72	74.62
418.943	100.62
419.166	90.62
419.389	88.62
419.611	85.62
419.834	82.62
420.057	87.62
420.28	69.62
420.503	90.62
420.726	84.62
420.948	93.62
421.171	78.62
421.394	73.62
421.617	74.62
421.839	84.62
422.062	82.62
422.285	91.62
422.507	112.62
422.73	149.62
422.953	132.62
423.175	106.62
423.398	102.62
423.621	84.62
423.843	93.62
424.066	76.62
424.288	90.62
424.511	84.62
424.733	75.62
424.956	88.62
425.178	87.62
425.401	83.62
425.623	84.62
425.846	93.62
426.068	89.62
426.291	88.62
426.513	70.62
426.735	85.62
426.958	92.62
427.18	86.62
427.402	90.62
427.625	75.62
427.847	87.62
428.069	77.62
428.292	87.62
428.514	90.62
428.736	102.62
428.958	106.62
429.181	91.62
429.403	86.62
429.625	90.62
429.847	81.62
430.069	98.62
430.292	96.62
430.514	105.62
430.736	92.62
430.958	97.62
431.18	79.62
431.402	83.62
431.624	77.62
431.846	78.62
432.068	98.62
432.29	87.62
432.512	84.62
432.734	95.62
432.956	89.62
433.178	79.62
433.4	94.62
433.622	86.62
433.844	86.62
434.066	90.62
434.287	98.62
434.509	72.62
434.731	80.62
434.953	77.62
435.175	83.62
435.397	88.62
435.618	95.62
435.84	92.62
436.062	90.62
436.284	87.62
436.505	80.62
436.727	92.62
436.949	90.62
437.17	90.62
437.392	74.62
437.614	74.62
437.835	83.62
438.057	94.62
438.278	82.62
438.5	88.62
438.721	99.62
438.943	83.62
439.165	86.62
439.386	77.62
439.608	90.62
439.829	73.62
440.05	81.62
440.272	87.62
440.493	82.62
440.715	89.62
440.936	73.62
441.158	94.62
441.379	83.62
441.6	84.62
441.822	89.62
442.043	80.62
442.264	86.62
442.486	92.62
442.707	104.62
442.928	88.62
443.149	72.62
443.371	102.62
443.592	111.62
443.813	105.62
444.034	90.62
444.255	69.62
444.476	80.62
444.698	82.62
444.919	82.62
445.14	154.62
445.361	117.62
445.582	113.62
445.803	108.62
446.024	83.62
446.245	75.62
446.466	85.62
446.687	74.62
446.908	76.62
447.129	91.62
447.35	89.62
447.571	82.62
447.792	80.62
448.013	89.62
448.234	85.62
448.455	93.62
448.675	75.62
448.896	81.62
449.117	87.62
449.338	82.62
449.559	99.62
449.779	84.62
450	89.62
450.221	64.62
450.442	80.62
450.662	69.62
450.883	91.62
451.104	88.62
451.324	87.62
451.545	73.62
451.766	80.62
451.986	88.62
452.207	74.62
452.428	90.62
452.648	82.62
452.869	87.62
453.089	82.62
453.31	61.62
453.53	88.62
453.751	83.62
453.971	102.62
454.192	86.62
454.412	80.62
454.633	88.62
454.853	91.62
455.073	89.62
455.294	85.62
455.514	87.62
455.734	85.62
455.955	77.62
456.175	80.62
456.395	85.62
456.616	90.62
456.836	73.62
457.056	86.62
457.276	83.62
457.497	87.62
457.717	89.62
457.937	83.62
458.157	90.62
458.377	84.62
458.598	88.62
458.818	95.62
459.038	91.62
459.258	70.62
459.478	70.62
459.698	87.62
459.918	85.62
460.138	86.62
460.358	83.62
460.578	86.62
460.798	76.62
461.018	94.62
461.238	93.62
461.458	85.62
461.678	85.62
461.898	95.62
462.118	97.62
462.338	70.62
462.558	91.62
462.777	77.62
462.997	83.62
463.217	74.62
463.437	90.62
463.657	85.62
463.876	75.62
464.096	91.62
464.316	84.62
464.536	90.62
464.755	91.62
464.975	88.62
465.195	83.62
465.414	78.62
465.634	83.62
465.854	92.62
466.073	97.62
466.293	72.62
466.512	73.62
466.732	94.62
466.951	90.62
467.171	79.62
467.391	76.62
467.61	87.62
467.829	77.62
468.049	90.62
468.268	90.62
468.488	90.62
468.707	81.62
468.927	78.62
469.146	92.62
469.365	89.62
469.585	94.62
469.804	85.62
470.023	79.62
470.243	94.62
470.462	82.62
470.681	92.62
470.901	85.62
471.12	87.62
471.339	99.62
471.558	78.62
471.777	81.62
471.997	88.62
472.216	76.62
472.435	81.62
472.654	96.62
472.873	87.62
473.092	98.62
473.311	84.62
473.53	79.62
473.749	91.62
473.968	90.62
474.187	71.62
474.406	83.62
474.625	103.62
474.844	88.62
475.063	87.62
475.282	84.62
475.501	84.62
475.72	93.62
475.939	82.62
476.158	73.62
476.377	83.62
476.596	68.62
476.814	96.62
477.033	104.62
477.252	74.62
477.471	73.62
477.69	87.62
477.908	85.62
478.127	82.62
478.346	71.62
478.564	83.62
478.783	86.62
479.002	86.62
479.22	74.62
479.439	95.62
479.658	96.62
479.876	90.62
480.095	79.62
480.313	85.62
480.532	89.62
480.751	99.62
480.969	90.62
481.188	83.62
481.406	92.62
481.624	90.62
481.843	76.62
482.061	94.62
482.28	80.62
482.498	75.62
482.717	88.62
482.935	96.62
483.153	99.62
483.372	69.62
483.59	88.62
483.808	85.62
484.027	64.62
484.245	90.62
484.463	81.62
484.681	83.62
484.9	73.62
485.118	86.62
485.336	93.62
485.554	90.62
485.772	91.62
485.99	90.62
486.209	86.62
486.427	85.62
486.645	89.62
486.863	83.62
487.081	96.62
487.299	76.62
487.517	93.62
487.735	71.62
487.953	81.62
488.171	84.62
488.389	81.62
488.607	84.62
488.825	83.62
489.043	81.62
489.261	76.62
489.479	84.62
489.696	85.62
489.914	78.62
490.132	76.62
490.35	82.62
490.568	86.62
490.786	93.62
491.003	91.62
491.221	72.62
491.439	89.62
491.657	80.62
491.874	84.62
492.092	79.62
492.31	98.62
492.527	84.62
492.745	92.62
492.963	85.62
493.18	94.62
493.398	85.62
493.615	81.62
493.833	74.62
494.05	92.62
494.268	83.62
494.485	87.62
494.703	87.62
494.92	92.62
495.138	86.62
495.355	100.62
495.573	91.62
495.79	91.62
496.008	77.62
496.225	86.62
496.442	74.62
496.66	91.62
496.877	84.62
497.094	94.62
497.312	95.62
497.529	92.62
497.746	69.62
497.963	70.62
498.181	93.62
498.398	89.62
498.615	86.62
498.832	91.62
499.049	97.62
499.267	91.62
499.484	98.62
499.701	71.62
499.918	94.62
500.135	97.62
500.352	90.62
500.569	88.62
500.786	81.62
501.003	80.62
501.22	89.62
501.437	96.62
501.654	87.62
501.871	89.62
502.088	81.62
502.305	77.62
502.522	90.62
502.739	86.62
502.956	90.62
503.172	75.62
503.389	82.62
503.606	98.62
503.823	85.62
504.04	94.62
504.256	95.62
504.473	86.62
504.69	87.62
504.907	83.62
505.123	99.62
505.34	88.62
505.557	86.62
505.773	90.62
505.99	85.62
506.207	81.62
506.423	83.62
506.64	85.62
506.856	80.62
507.073	94.62
507.289	99.62
507.506	86.62
507.722	82.62
507.939	80.62
508.155	73.62
508.372	96.62
508.588	84.62
508.805	103.62
509.021	88.62
509.238	72.62
509.454	74.62
509.67	87.62
509.887	91.62
510.103	77.62
510.319	90.62
510.536	87.62
510.752	94.62
510.968	81.62
511.184	95.62
511.401	84.62
511.617	75.62
511.833	85.62
512.049	78.62
512.265	89.62
512.481	90.62
512.698	68.62
512.914	92.62
513.13	86.62
513.346	85.62
513.562	81.62
513.778	93.62
513.994	77.62
514.21	88.62
514.426	88.62
514.642	92.62
514.858	87.62
515.074	85.62
515.29	98.62
515.506	88.62
515.721	78.62
515.937	75.62
516.153	82.62
516.369	89.62
516.585	73.62
516.801	92.62
517.016	98.62
517.232	86.62
517.448	112.62
517.664	83.62
517.879	84.62
518.095	89.62
518.311	82.62
518.527	89.62
518.742	88.62
518.958	86.62
519.173	86.62
519.389	82.62
519.605	90.62
