Data from 1600_3_HRD10591_00027.txt Node
Date: Mon Jan 19 13:55:06 EST 2026
User: Yrep
Spectrometer: HR+D1059
Trigger mode: 1
Integration Time (sec): 1.000000E-1
Scans to average: 1
Electric dark correction enabled: true
Nonlinearity correction enabled: false
Boxcar width: 0
XAxis mode: Wavelengths
Number of Pixels in Spectrum: 2048
>>>>>Begin Spectral Data<<<<<
223.165	-14.31
223.4	-14.31
223.635	-14.31
223.869	-19.31
224.104	-24.31
224.338	-13.31
224.573	-13.31
224.808	-10.31
225.042	-12.31
225.277	-2.31
225.511	-15.31
225.746	-7.31
225.98	17.69
226.215	12.69
226.449	28.69
226.683	16.69
226.918	21.69
227.152	34.69
227.387	29.69
227.621	36.69
227.856	40.69
228.09	50.69
228.324	53.69
228.559	58.69
228.793	61.69
229.027	61.69
229.262	59.69
229.496	51.69
229.73	79.69
229.964	84.69
230.199	55.69
230.433	63.69
230.667	65.69
230.901	72.69
231.136	73.69
231.37	74.69
231.604	77.69
231.838	71.69
232.072	75.69
232.306	80.69
232.541	79.69
232.775	76.69
233.009	79.69
233.243	86.69
233.477	71.69
233.711	83.69
233.945	66.69
234.179	66.69
234.413	79.69
234.647	74.69
234.881	78.69
235.115	72.69
235.349	68.69
235.583	77.69
235.817	77.69
236.051	81.69
236.285	69.69
236.519	73.69
236.753	74.69
236.987	90.69
237.221	80.69
237.455	74.69
237.689	72.69
237.922	66.69
238.156	74.69
238.39	67.69
238.624	68.69
238.858	60.69
239.091	79.69
239.325	86.69
239.559	85.69
239.793	80.69
240.027	80.69
240.26	76.69
240.494	73.69
240.728	73.69
240.961	75.69
241.195	80.69
241.429	73.69
241.662	70.69
241.896	66.69
242.13	71.69
242.363	69.69
242.597	73.69
242.83	78.69
243.064	68.69
243.298	61.69
243.531	62.69
243.765	63.69
243.998	69.69
244.232	90.69
244.465	71.69
244.699	83.69
244.932	62.69
245.166	49.69
245.399	82.69
245.633	76.69
245.866	62.69
246.099	84.69
246.333	74.69
246.566	69.69
246.8	84.69
247.033	86.69
247.266	78.69
247.5	61.69
247.733	61.69
247.966	72.69
248.2	59.69
248.433	71.69
248.666	72.69
248.899	92.69
249.133	71.69
249.366	86.69
249.599	71.69
249.832	72.69
250.066	87.69
250.299	85.69
250.532	79.69
250.765	63.69
250.998	77.69
251.231	81.69
251.465	80.69
251.698	85.69
251.931	72.69
252.164	78.69
252.397	75.69
252.63	72.69
252.863	78.69
253.096	82.69
253.329	68.69
253.562	73.69
253.795	79.69
254.028	81.69
254.261	72.69
254.494	79.69
254.727	79.69
254.96	76.69
255.193	74.69
255.426	77.69
255.659	76.69
255.892	91.69
256.124	71.69
256.357	70.69
256.59	65.69
256.823	60.69
257.056	72.69
257.289	79.69
257.521	70.69
257.754	70.69
257.987	83.69
258.22	78.69
258.452	66.69
258.685	75.69
258.918	70.69
259.151	83.69
259.383	73.69
259.616	79.69
259.849	84.69
260.081	69.69
260.314	76.69
260.547	61.69
260.779	82.69
261.012	76.69
261.244	87.69
261.477	80.69
261.71	68.69
261.942	76.69
262.175	86.69
262.407	84.69
262.64	78.69
262.872	84.69
263.105	85.69
263.337	85.69
263.57	74.69
263.802	80.69
264.035	79.69
264.267	81.69
264.499	68.69
264.732	81.69
264.964	80.69
265.197	82.69
265.429	70.69
265.661	69.69
265.894	84.69
266.126	91.69
266.358	73.69
266.591	67.69
266.823	81.69
267.055	67.69
267.287	69.69
267.52	84.69
267.752	79.69
267.984	66.69
268.216	91.69
268.448	70.69
268.681	94.69
268.913	82.69
269.145	77.69
269.377	84.69
269.609	80.69
269.841	87.69
270.073	84.69
270.306	79.69
270.538	80.69
270.77	69.69
271.002	76.69
271.234	87.69
271.466	74.69
271.698	94.69
271.93	88.69
272.162	85.69
272.394	84.69
272.626	71.69
272.858	83.69
273.09	70.69
273.322	66.69
273.553	88.69
273.785	76.69
274.017	75.69
274.249	63.69
274.481	76.69
274.713	100.69
274.945	75.69
275.176	70.69
275.408	91.69
275.64	76.69
275.872	81.69
276.104	79.69
276.335	76.69
276.567	83.69
276.799	85.69
277.031	70.69
277.262	67.69
277.494	80.69
277.726	74.69
277.957	77.69
278.189	85.69
278.421	93.69
278.652	80.69
278.884	75.69
279.115	68.69
279.347	84.69
279.579	91.69
279.81	82.69
280.042	87.69
280.273	81.69
280.505	79.69
280.736	90.69
280.968	73.69
281.199	85.69
281.431	79.69
281.662	83.69
281.894	75.69
282.125	78.69
282.356	90.69
282.588	82.69
282.819	87.69
283.051	70.69
283.282	78.69
283.513	81.69
283.745	70.69
283.976	71.69
284.207	84.69
284.439	82.69
284.67	78.69
284.901	79.69
285.132	78.69
285.364	79.69
285.595	83.69
285.826	84.69
286.057	84.69
286.288	85.69
286.52	86.69
286.751	81.69
286.982	75.69
287.213	84.69
287.444	91.69
287.675	81.69
287.906	83.69
288.138	67.69
288.369	84.69
288.6	91.69
288.831	85.69
289.062	70.69
289.293	82.69
289.524	77.69
289.755	86.69
289.986	87.69
290.217	83.69
290.448	90.69
290.679	84.69
290.91	79.69
291.141	79.69
291.371	73.69
291.602	73.69
291.833	76.69
292.064	71.69
292.295	82.69
292.526	86.69
292.757	79.69
292.987	72.69
293.218	73.69
293.449	87.69
293.68	70.69
293.91	85.69
294.141	70.69
294.372	85.69
294.603	101.69
294.833	70.69
295.064	86.69
295.295	79.69
295.525	92.69
295.756	78.69
295.987	70.69
296.217	82.69
296.448	81.69
296.679	75.69
296.909	81.69
297.14	89.69
297.37	81.69
297.601	79.69
297.831	90.69
298.062	91.69
298.292	73.69
298.523	76.69
298.753	81.69
298.984	79.69
299.214	79.69
299.445	87.69
299.675	89.69
299.905	86.69
300.136	94.69
300.366	85.69
300.597	79.69
300.827	92.69
301.057	80.69
301.288	70.69
301.518	88.69
301.748	84.69
301.979	94.69
302.209	82.69
302.439	67.69
302.669	90.69
302.9	78.69
303.13	87.69
303.36	69.69
303.59	81.69
303.82	88.69
304.051	80.69
304.281	84.69
304.511	77.69
304.741	94.69
304.971	93.69
305.201	79.69
305.431	79.69
305.661	88.69
305.891	80.69
306.121	86.69
306.352	81.69
306.582	90.69
306.812	77.69
307.042	82.69
307.272	86.69
307.502	82.69
307.731	85.69
307.961	83.69
308.191	75.69
308.421	82.69
308.651	87.69
308.881	79.69
309.111	85.69
309.341	79.69
309.571	87.69
309.8	76.69
310.03	85.69
310.26	73.69
310.49	77.69
310.72	75.69
310.949	91.69
311.179	84.69
311.409	86.69
311.639	80.69
311.868	94.69
312.098	72.69
312.328	90.69
312.557	83.69
312.787	76.69
313.017	81.69
313.246	85.69
313.476	73.69
313.706	89.69
313.935	75.69
314.165	76.69
314.394	89.69
314.624	69.69
314.853	76.69
315.083	88.69
315.312	78.69
315.542	77.69
315.771	95.69
316.001	77.69
316.23	85.69
316.46	81.69
316.689	63.69
316.919	85.69
317.148	86.69
317.377	74.69
317.607	88.69
317.836	84.69
318.065	88.69
318.295	79.69
318.524	94.69
318.753	62.69
318.983	87.69
319.212	77.69
319.441	70.69
319.67	84.69
319.9	89.69
320.129	77.69
320.358	83.69
320.587	89.69
320.816	78.69
321.046	72.69
321.275	77.69
321.504	81.69
321.733	81.69
321.962	74.69
322.191	85.69
322.42	76.69
322.649	84.69
322.878	71.69
323.108	84.69
323.337	79.69
323.566	80.69
323.795	88.69
324.024	77.69
324.253	86.69
324.482	83.69
324.71	86.69
324.939	89.69
325.168	69.69
325.397	83.69
325.626	82.69
325.855	91.69
326.084	81.69
326.313	82.69
326.542	73.69
326.77	70.69
326.999	77.69
327.228	90.69
327.457	71.69
327.686	75.69
327.914	88.69
328.143	71.69
328.372	93.69
328.6	87.69
328.829	96.69
329.058	94.69
329.287	70.69
329.515	79.69
329.744	93.69
329.972	81.69
330.201	80.69
330.43	87.69
330.658	78.69
330.887	65.69
331.115	74.69
331.344	84.69
331.572	86.69
331.801	86.69
332.03	72.69
332.258	92.69
332.486	86.69
332.715	80.69
332.943	86.69
333.172	92.69
333.4	79.69
333.629	66.69
333.857	86.69
334.085	69.69
334.314	86.69
334.542	92.69
334.771	96.69
334.999	83.69
335.227	92.69
335.455	84.69
335.684	90.69
335.912	91.69
336.14	90.69
336.369	85.69
336.597	84.69
336.825	92.69
337.053	85.69
337.281	79.69
337.51	76.69
337.738	85.69
337.966	79.69
338.194	78.69
338.422	92.69
338.65	77.69
338.878	66.69
339.106	83.69
339.334	80.69
339.562	86.69
339.79	85.69
340.018	75.69
340.246	92.69
340.474	82.69
340.702	87.69
340.93	85.69
341.158	86.69
341.386	81.69
341.614	76.69
341.842	80.69
342.07	90.69
342.298	75.69
342.526	92.69
342.754	83.69
342.981	82.69
343.209	80.69
343.437	90.69
343.665	84.69
343.893	84.69
344.12	69.69
344.348	82.69
344.576	80.69
344.804	84.69
345.031	71.69
345.259	87.69
345.487	73.69
345.714	83.69
345.942	90.69
346.17	74.69
346.397	88.69
346.625	86.69
346.853	76.69
347.08	71.69
347.308	80.69
347.535	81.69
347.763	77.69
347.99	80.69
348.218	82.69
348.445	78.69
348.673	84.69
348.9	78.69
349.128	94.69
349.355	86.69
349.583	76.69
349.81	84.69
350.037	77.69
350.265	81.69
350.492	78.69
350.72	86.69
350.947	68.69
351.174	82.69
351.402	73.69
351.629	78.69
351.856	85.69
352.083	83.69
352.311	90.69
352.538	88.69
352.765	78.69
352.992	82.69
353.22	78.69
353.447	76.69
353.674	72.69
353.901	91.69
354.128	85.69
354.355	84.69
354.583	82.69
354.81	83.69
355.037	80.69
355.264	72.69
355.491	74.69
355.718	71.69
355.945	82.69
356.172	77.69
356.399	77.69
356.626	78.69
356.853	87.69
357.08	91.69
357.307	76.69
357.534	82.69
357.761	80.69
357.988	79.69
358.215	87.69
358.441	79.69
358.668	84.69
358.895	70.69
359.122	93.69
359.349	76.69
359.576	85.69
359.802	82.69
360.029	85.69
360.256	78.69
360.483	76.69
360.709	74.69
360.936	80.69
361.163	83.69
361.39	83.69
361.616	81.69
361.843	72.69
362.07	86.69
362.296	81.69
362.523	92.69
362.749	71.69
362.976	75.69
363.203	83.69
363.429	94.69
363.656	76.69
363.882	83.69
364.109	91.69
364.335	76.69
364.562	101.69
364.788	83.69
365.015	72.69
365.241	89.69
365.468	80.69
365.694	67.69
365.92	74.69
366.147	78.69
366.373	73.69
366.599	75.69
366.826	83.69
367.052	71.69
367.278	83.69
367.505	87.69
367.731	89.69
367.957	82.69
368.184	88.69
368.41	75.69
368.636	73.69
368.862	84.69
369.089	85.69
369.315	82.69
369.541	80.69
369.767	86.69
369.993	73.69
370.219	80.69
370.445	95.69
370.672	92.69
370.898	87.69
371.124	90.69
371.35	80.69
371.576	79.69
371.802	91.69
372.028	86.69
372.254	93.69
372.48	66.69
372.706	76.69
372.932	64.69
373.158	76.69
373.384	82.69
373.61	82.69
373.835	88.69
374.061	81.69
374.287	102.69
374.513	88.69
374.739	99.69
374.965	84.69
375.191	82.69
375.416	86.69
375.642	75.69
375.868	76.69
376.094	79.69
376.319	84.69
376.545	68.69
376.771	80.69
376.997	83.69
377.222	77.69
377.448	80.69
377.674	89.69
377.899	74.69
378.125	91.69
378.35	80.69
378.576	78.69
378.802	71.69
379.027	74.69
379.253	78.69
379.478	73.69
379.704	93.69
379.929	83.69
380.155	91.69
380.38	67.69
380.606	67.69
380.831	98.69
381.057	98.69
381.282	78.69
381.507	89.69
381.733	79.69
381.958	91.69
382.184	73.69
382.409	83.69
382.634	87.69
382.86	91.69
383.085	90.69
383.31	78.69
383.535	88.69
383.761	69.69
383.986	80.69
384.211	86.69
384.436	94.69
384.662	75.69
384.887	77.69
385.112	87.69
385.337	83.69
385.562	81.69
385.787	72.69
386.013	80.69
386.238	95.69
386.463	88.69
386.688	99.69
386.913	83.69
387.138	72.69
387.363	86.69
387.588	92.69
387.813	77.69
388.038	90.69
388.263	79.69
388.488	96.69
388.713	63.69
388.938	83.69
389.163	79.69
389.387	84.69
389.612	80.69
389.837	84.69
390.062	75.69
390.287	85.69
390.512	86.69
390.736	87.69
390.961	80.69
391.186	71.69
391.411	75.69
391.636	82.69
391.86	74.69
392.085	92.69
392.31	75.69
392.534	71.69
392.759	96.69
392.984	103.69
393.208	105.69
393.433	112.69
393.658	107.69
393.882	98.69
394.107	92.69
394.331	78.69
394.556	65.69
394.78	83.69
395.005	72.69
395.229	77.69
395.454	86.69
395.678	73.69
395.903	87.69
396.127	102.69
396.352	105.69
396.576	94.69
396.801	101.69
397.025	115.69
397.249	112.69
397.474	95.69
397.698	74.69
397.922	71.69
398.147	89.69
398.371	77.69
398.595	90.69
398.82	70.69
399.044	84.69
399.268	85.69
399.492	87.69
399.717	84.69
399.941	77.69
400.165	70.69
400.389	77.69
400.613	86.69
400.837	76.69
401.062	82.69
401.286	78.69
401.51	79.69
401.734	81.69
401.958	88.69
402.182	98.69
402.406	82.69
402.63	91.69
402.854	77.69
403.078	77.69
403.302	85.69
403.526	86.69
403.75	71.69
403.974	86.69
404.198	79.69
404.422	79.69
404.645	76.69
404.869	85.69
405.093	80.69
405.317	81.69
405.541	88.69
405.765	84.69
405.988	80.69
406.212	76.69
406.436	87.69
406.66	84.69
406.883	82.69
407.107	85.69
407.331	81.69
407.555	77.69
407.778	80.69
408.002	81.69
408.226	94.69
408.449	70.69
408.673	83.69
408.896	76.69
409.12	72.69
409.344	82.69
409.567	89.69
409.791	77.69
410.014	74.69
410.238	76.69
410.461	83.69
410.685	81.69
410.908	72.69
411.132	86.69
411.355	82.69
411.578	84.69
411.802	69.69
412.025	71.69
412.249	72.69
412.472	78.69
412.695	88.69
412.919	62.69
413.142	67.69
413.365	92.69
413.589	88.69
413.812	84.69
414.035	84.69
414.258	79.69
414.482	81.69
414.705	73.69
414.928	92.69
415.151	85.69
415.374	76.69
415.597	79.69
415.821	86.69
416.044	66.69
416.267	87.69
416.49	77.69
416.713	88.69
416.936	86.69
417.159	86.69
417.382	83.69
417.605	70.69
417.828	74.69
418.051	86.69
418.274	76.69
418.497	76.69
418.72	77.69
418.943	83.69
419.166	84.69
419.389	74.69
419.611	91.69
419.834	82.69
420.057	77.69
420.28	77.69
420.503	89.69
420.726	78.69
420.948	75.69
421.171	82.69
421.394	76.69
421.617	67.69
421.839	76.69
422.062	68.69
422.285	86.69
422.507	101.69
422.73	116.69
422.953	111.69
423.175	82.69
423.398	86.69
423.621	82.69
423.843	87.69
424.066	79.69
424.288	78.69
424.511	82.69
424.733	75.69
424.956	80.69
425.178	78.69
425.401	83.69
425.623	74.69
425.846	72.69
426.068	78.69
426.291	79.69
426.513	82.69
426.735	74.69
426.958	81.69
427.18	66.69
427.402	88.69
427.625	80.69
427.847	79.69
428.069	74.69
428.292	84.69
428.514	84.69
428.736	76.69
428.958	92.69
429.181	77.69
429.403	91.69
429.625	78.69
429.847	91.69
430.069	76.69
430.292	87.69
430.514	94.69
430.736	92.69
430.958	82.69
431.18	79.69
431.402	78.69
431.624	71.69
431.846	77.69
432.068	74.69
432.29	79.69
432.512	80.69
432.734	77.69
432.956	86.69
433.178	84.69
433.4	75.69
433.622	87.69
433.844	76.69
434.066	87.69
434.287	76.69
434.509	65.69
434.731	82.69
434.953	93.69
435.175	76.69
435.397	71.69
435.618	81.69
435.84	67.69
436.062	86.69
436.284	82.69
436.505	83.69
436.727	74.69
436.949	78.69
437.17	86.69
437.392	73.69
437.614	75.69
437.835	86.69
438.057	75.69
438.278	84.69
438.5	78.69
438.721	86.69
438.943	78.69
439.165	90.69
439.386	67.69
439.608	80.69
439.829	76.69
440.05	71.69
440.272	88.69
440.493	80.69
440.715	65.69
440.936	86.69
441.158	68.69
441.379	82.69
441.6	70.69
441.822	67.69
442.043	79.69
442.264	67.69
442.486	83.69
442.707	81.69
442.928	83.69
443.149	79.69
443.371	93.69
443.592	91.69
443.813	98.69
444.034	78.69
444.255	84.69
444.476	73.69
444.698	86.69
444.919	76.69
445.14	132.69
445.361	111.69
445.582	112.69
445.803	83.69
446.024	72.69
446.245	70.69
446.466	77.69
446.687	82.69
446.908	93.69
447.129	88.69
447.35	76.69
447.571	89.69
447.792	78.69
448.013	80.69
448.234	67.69
448.455	76.69
448.675	72.69
448.896	64.69
449.117	87.69
449.338	81.69
449.559	85.69
449.779	72.69
450	86.69
450.221	73.69
450.442	79.69
450.662	81.69
450.883	74.69
451.104	62.69
451.324	76.69
451.545	72.69
451.766	65.69
451.986	101.69
452.207	89.69
452.428	88.69
452.648	85.69
452.869	80.69
453.089	85.69
453.31	78.69
453.53	78.69
453.751	65.69
453.971	76.69
454.192	80.69
454.412	78.69
454.633	81.69
454.853	66.69
455.073	77.69
455.294	79.69
455.514	93.69
455.734	86.69
455.955	73.69
456.175	82.69
456.395	73.69
456.616	83.69
456.836	80.69
457.056	73.69
457.276	78.69
457.497	92.69
457.717	74.69
457.937	80.69
458.157	85.69
458.377	79.69
458.598	99.69
458.818	81.69
459.038	65.69
459.258	65.69
459.478	60.69
459.698	70.69
459.918	70.69
460.138	80.69
460.358	71.69
460.578	77.69
460.798	87.69
461.018	92.69
461.238	70.69
461.458	82.69
461.678	81.69
461.898	81.69
462.118	86.69
462.338	71.69
462.558	88.69
462.777	75.69
462.997	70.69
463.217	74.69
463.437	68.69
463.657	84.69
463.876	68.69
464.096	85.69
464.316	75.69
464.536	66.69
464.755	79.69
464.975	80.69
465.195	73.69
465.414	88.69
465.634	70.69
465.854	80.69
466.073	64.69
466.293	87.69
466.512	72.69
466.732	70.69
466.951	76.69
467.171	72.69
467.391	92.69
467.61	67.69
467.829	78.69
468.049	88.69
468.268	72.69
468.488	85.69
468.707	84.69
468.927	72.69
469.146	80.69
469.365	70.69
469.585	75.69
469.804	92.69
470.023	82.69
470.243	84.69
470.462	72.69
470.681	73.69
470.901	81.69
471.12	83.69
471.339	86.69
471.558	78.69
471.777	64.69
471.997	85.69
472.216	80.69
472.435	68.69
472.654	79.69
472.873	88.69
473.092	90.69
473.311	86.69
473.53	69.69
473.749	86.69
473.968	66.69
474.187	76.69
474.406	85.69
474.625	88.69
474.844	87.69
475.063	78.69
475.282	77.69
475.501	91.69
475.72	98.69
475.939	80.69
476.158	84.69
476.377	68.69
476.596	94.69
476.814	84.69
477.033	80.69
477.252	72.69
477.471	84.69
477.69	87.69
477.908	87.69
478.127	61.69
478.346	78.69
478.564	86.69
478.783	71.69
479.002	68.69
479.22	80.69
479.439	83.69
479.658	87.69
479.876	87.69
480.095	63.69
480.313	72.69
480.532	92.69
480.751	78.69
480.969	72.69
481.188	62.69
481.406	85.69
481.624	77.69
481.843	84.69
482.061	78.69
482.28	64.69
482.498	89.69
482.717	84.69
482.935	82.69
483.153	83.69
483.372	79.69
483.59	85.69
483.808	74.69
484.027	80.69
484.245	84.69
484.463	76.69
484.681	78.69
484.9	70.69
485.118	83.69
485.336	91.69
485.554	77.69
485.772	85.69
485.99	84.69
486.209	84.69
486.427	70.69
486.645	72.69
486.863	79.69
487.081	70.69
487.299	76.69
487.517	84.69
487.735	71.69
487.953	79.69
488.171	81.69
488.389	76.69
488.607	86.69
488.825	90.69
489.043	69.69
489.261	82.69
489.479	87.69
489.696	87.69
489.914	91.69
490.132	101.69
490.35	72.69
490.568	73.69
490.786	84.69
491.003	77.69
491.221	70.69
491.439	72.69
491.657	82.69
491.874	83.69
492.092	83.69
492.31	88.69
492.527	69.69
492.745	88.69
492.963	89.69
493.18	92.69
493.398	88.69
493.615	72.69
493.833	69.69
494.05	67.69
494.268	70.69
494.485	85.69
494.703	86.69
494.92	78.69
495.138	84.69
495.355	65.69
495.573	84.69
495.79	88.69
496.008	87.69
496.225	67.69
496.442	69.69
496.66	83.69
496.877	87.69
497.094	94.69
497.312	82.69
497.529	81.69
497.746	86.69
497.963	63.69
498.181	68.69
498.398	70.69
498.615	83.69
498.832	93.69
499.049	99.69
499.267	84.69
499.484	79.69
499.701	78.69
499.918	83.69
500.135	80.69
500.352	73.69
500.569	79.69
500.786	82.69
501.003	81.69
501.22	75.69
501.437	72.69
501.654	76.69
501.871	85.69
502.088	76.69
502.305	93.69
502.522	76.69
502.739	77.69
502.956	77.69
503.172	80.69
503.389	76.69
503.606	81.69
503.823	95.69
504.04	96.69
504.256	74.69
504.473	76.69
504.69	84.69
504.907	85.69
505.123	90.69
505.34	91.69
505.557	78.69
505.773	81.69
505.99	83.69
506.207	87.69
506.423	91.69
506.64	88.69
506.856	77.69
507.073	88.69
507.289	74.69
507.506	83.69
507.722	91.69
507.939	72.69
508.155	87.69
508.372	82.69
508.588	71.69
508.805	94.69
509.021	86.69
509.238	79.69
509.454	88.69
509.67	69.69
509.887	87.69
510.103	89.69
510.319	78.69
510.536	86.69
510.752	79.69
510.968	74.69
511.184	75.69
511.401	81.69
511.617	99.69
511.833	79.69
512.049	72.69
512.265	72.69
512.481	74.69
512.698	75.69
512.914	79.69
513.13	85.69
513.346	90.69
513.562	68.69
513.778	76.69
513.994	78.69
514.21	67.69
514.426	80.69
514.642	78.69
514.858	68.69
515.074	76.69
515.29	82.69
515.506	71.69
515.721	81.69
515.937	79.69
516.153	79.69
516.369	59.69
516.585	71.69
516.801	94.69
517.016	78.69
517.232	77.69
517.448	92.69
517.664	88.69
517.879	94.69
518.095	75.69
518.311	76.69
518.527	88.69
518.742	91.69
518.958	101.69
519.173	82.69
519.389	86.69
519.605	96.69
519.82	71.69
520.036	88.69
