Data from Uncirc_2007_H10_HRD10591_00063.txt Node
Date: Wed Jan 03 10:20:55 EST 2024
User: Yrep
Spectrometer: HR+D1059
Trigger mode: 1
Integration Time (sec): 1.000000E-1
Scans to average: 1
Electric dark correction enabled: true
Nonlinearity correction enabled: false
Boxcar width: 0
XAxis mode: Wavelengths
Number of Pixels in Spectrum: 2048
>>>>>Begin Spectral Data<<<<<
223.165	-14.62
223.4	-14.62
223.635	-14.62
223.869	-0.62
224.104	-26.62
224.338	-17.62
224.573	-10.62
224.808	-14.62
225.042	-1.62
225.277	-21.62
225.511	-14.62
225.746	11.38
225.98	14.38
226.215	-0.62
226.449	22.38
226.683	18.38
226.918	27.38
227.152	29.38
227.387	32.38
227.621	42.38
227.856	38.38
228.09	57.38
228.324	67.38
228.559	58.38
228.793	51.38
229.027	63.38
229.262	63.38
229.496	61.38
229.73	91.38
229.964	86.38
230.199	64.38
230.433	86.38
230.667	86.38
230.901	72.38
231.136	68.38
231.37	91.38
231.604	84.38
231.838	69.38
232.072	92.38
232.306	83.38
232.541	81.38
232.775	74.38
233.009	86.38
233.243	92.38
233.477	88.38
233.711	71.38
233.945	80.38
234.179	96.38
234.413	92.38
234.647	68.38
234.881	87.38
235.115	86.38
235.349	101.38
235.583	91.38
235.817	85.38
236.051	75.38
236.285	80.38
236.519	73.38
236.753	91.38
236.987	89.38
237.221	82.38
237.455	83.38
237.689	76.38
237.922	79.38
238.156	87.38
238.39	66.38
238.624	58.38
238.858	82.38
239.091	66.38
239.325	79.38
239.559	101.38
239.793	78.38
240.027	81.38
240.26	77.38
240.494	87.38
240.728	63.38
240.961	70.38
241.195	78.38
241.429	79.38
241.662	89.38
241.896	85.38
242.13	75.38
242.363	82.38
242.597	74.38
242.83	73.38
243.064	91.38
243.298	75.38
243.531	85.38
243.765	88.38
243.998	73.38
244.232	78.38
244.465	84.38
244.699	91.38
244.932	89.38
245.166	78.38
245.399	73.38
245.633	77.38
245.866	81.38
246.099	89.38
246.333	75.38
246.566	77.38
246.8	90.38
247.033	93.38
247.266	95.38
247.5	90.38
247.733	78.38
247.966	77.38
248.2	87.38
248.433	76.38
248.666	71.38
248.899	68.38
249.133	88.38
249.366	98.38
249.599	93.38
249.832	82.38
250.066	81.38
250.299	91.38
250.532	77.38
250.765	81.38
250.998	86.38
251.231	82.38
251.465	92.38
251.698	91.38
251.931	78.38
252.164	81.38
252.397	78.38
252.63	74.38
252.863	86.38
253.096	74.38
253.329	95.38
253.562	86.38
253.795	84.38
254.028	81.38
254.261	75.38
254.494	84.38
254.727	91.38
254.96	83.38
255.193	75.38
255.426	72.38
255.659	75.38
255.892	80.38
256.124	82.38
256.357	85.38
256.59	91.38
256.823	83.38
257.056	87.38
257.289	76.38
257.521	91.38
257.754	83.38
257.987	75.38
258.22	80.38
258.452	71.38
258.685	92.38
258.918	78.38
259.151	86.38
259.383	82.38
259.616	91.38
259.849	85.38
260.081	91.38
260.314	87.38
260.547	80.38
260.779	84.38
261.012	85.38
261.244	86.38
261.477	90.38
261.71	94.38
261.942	108.38
262.175	117.38
262.407	102.38
262.64	87.38
262.872	77.38
263.105	86.38
263.337	95.38
263.57	85.38
263.802	94.38
264.035	92.38
264.267	81.38
264.499	71.38
264.732	75.38
264.964	75.38
265.197	83.38
265.429	87.38
265.661	91.38
265.894	89.38
266.126	84.38
266.358	85.38
266.591	74.38
266.823	71.38
267.055	86.38
267.287	84.38
267.52	88.38
267.752	100.38
267.984	93.38
268.216	79.38
268.448	83.38
268.681	85.38
268.913	82.38
269.145	89.38
269.377	97.38
269.609	95.38
269.841	83.38
270.073	87.38
270.306	93.38
270.538	93.38
270.77	90.38
271.002	86.38
271.234	88.38
271.466	78.38
271.698	82.38
271.93	83.38
272.162	98.38
272.394	89.38
272.626	85.38
272.858	79.38
273.09	101.38
273.322	95.38
273.553	95.38
273.785	96.38
274.017	87.38
274.249	65.38
274.481	84.38
274.713	89.38
274.945	91.38
275.176	92.38
275.408	69.38
275.64	86.38
275.872	95.38
276.104	85.38
276.335	93.38
276.567	103.38
276.799	109.38
277.031	90.38
277.262	92.38
277.494	82.38
277.726	91.38
277.957	78.38
278.189	95.38
278.421	95.38
278.652	90.38
278.884	90.38
279.115	98.38
279.347	74.38
279.579	72.38
279.81	93.38
280.042	97.38
280.273	98.38
280.505	99.38
280.736	76.38
280.968	82.38
281.199	96.38
281.431	81.38
281.662	90.38
281.894	99.38
282.125	101.38
282.356	108.38
282.588	136.38
282.819	114.38
283.051	96.38
283.282	99.38
283.513	84.38
283.745	87.38
283.976	73.38
284.207	85.38
284.439	73.38
284.67	90.38
284.901	97.38
285.132	102.38
285.364	86.38
285.595	93.38
285.826	98.38
286.057	87.38
286.288	78.38
286.52	80.38
286.751	95.38
286.982	92.38
287.213	83.38
287.444	80.38
287.675	92.38
287.906	82.38
288.138	103.38
288.369	96.38
288.6	90.38
288.831	102.38
289.062	99.38
289.293	78.38
289.524	84.38
289.755	89.38
289.986	89.38
290.217	97.38
290.448	91.38
290.679	93.38
290.91	93.38
291.141	88.38
291.371	89.38
291.602	88.38
291.833	74.38
292.064	88.38
292.295	97.38
292.526	99.38
292.757	85.38
292.987	88.38
293.218	97.38
293.449	98.38
293.68	101.38
293.91	87.38
294.141	73.38
294.372	83.38
294.603	87.38
294.833	93.38
295.064	93.38
295.295	81.38
295.525	82.38
295.756	112.38
295.987	110.38
296.217	140.38
296.448	125.38
296.679	94.38
296.909	81.38
297.14	88.38
297.37	79.38
297.601	90.38
297.831	82.38
298.062	103.38
298.292	93.38
298.523	99.38
298.753	89.38
298.984	86.38
299.214	99.38
299.445	96.38
299.675	87.38
299.905	94.38
300.136	92.38
300.366	84.38
300.597	87.38
300.827	93.38
301.057	89.38
301.288	114.38
301.518	90.38
301.748	91.38
301.979	103.38
302.209	99.38
302.439	83.38
302.669	84.38
302.9	91.38
303.13	106.38
303.36	107.38
303.59	102.38
303.82	110.38
304.051	101.38
304.281	88.38
304.511	92.38
304.741	90.38
304.971	91.38
305.201	92.38
305.431	70.38
305.661	106.38
305.891	93.38
306.121	84.38
306.352	112.38
306.582	93.38
306.812	86.38
307.042	71.38
307.272	91.38
307.502	102.38
307.731	94.38
307.961	82.38
308.191	91.38
308.421	87.38
308.651	95.38
308.881	99.38
309.111	110.38
309.341	101.38
309.571	91.38
309.8	93.38
310.03	82.38
310.26	103.38
310.49	91.38
310.72	84.38
310.949	89.38
311.179	93.38
311.409	97.38
311.639	90.38
311.868	94.38
312.098	96.38
312.328	95.38
312.557	105.38
312.787	105.38
313.017	107.38
313.246	93.38
313.476	97.38
313.706	80.38
313.935	92.38
314.165	98.38
314.394	96.38
314.624	100.38
314.853	82.38
315.083	98.38
315.312	87.38
315.542	95.38
315.771	101.38
316.001	95.38
316.23	101.38
316.46	99.38
316.689	101.38
316.919	90.38
317.148	101.38
317.377	90.38
317.607	98.38
317.836	87.38
318.065	99.38
318.295	95.38
318.524	104.38
318.753	96.38
318.983	99.38
319.212	95.38
319.441	117.38
319.67	115.38
319.9	99.38
320.129	99.38
320.358	100.38
320.587	83.38
320.816	103.38
321.046	96.38
321.275	101.38
321.504	85.38
321.733	104.38
321.962	101.38
322.191	109.38
322.42	119.38
322.649	94.38
322.878	105.38
323.108	132.38
323.337	115.38
323.566	126.38
323.795	157.38
324.024	215.38
324.253	431.38
324.482	919.38
324.71	1933.38
324.939	2498.38
325.168	889.38
325.397	259.38
325.626	167.38
325.855	140.38
326.084	124.38
326.313	138.38
326.542	165.38
326.77	245.38
326.999	512.38
327.228	1058.38
327.457	1948.38
327.686	1529.38
327.914	390.38
328.143	197.38
328.372	130.38
328.6	117.38
328.829	116.38
329.058	121.38
329.287	127.38
329.515	118.38
329.744	109.38
329.972	104.38
330.201	98.38
330.43	95.38
330.658	112.38
330.887	151.38
331.115	128.38
331.344	118.38
331.572	100.38
331.801	102.38
332.03	103.38
332.258	101.38
332.486	85.38
332.715	96.38
332.943	103.38
333.172	93.38
333.4	94.38
333.629	89.38
333.857	116.38
334.085	106.38
334.314	92.38
334.542	102.38
334.771	99.38
334.999	86.38
335.227	102.38
335.455	100.38
335.684	87.38
335.912	78.38
336.14	89.38
336.369	94.38
336.597	108.38
336.825	99.38
337.053	95.38
337.281	109.38
337.51	96.38
337.738	98.38
337.966	76.38
338.194	107.38
338.422	102.38
338.65	90.38
338.878	94.38
339.106	85.38
339.334	105.38
339.562	88.38
339.79	76.38
340.018	94.38
340.246	79.38
340.474	94.38
340.702	100.38
340.93	100.38
341.158	100.38
341.386	82.38
341.614	94.38
341.842	93.38
342.07	101.38
342.298	103.38
342.526	76.38
342.754	103.38
342.981	97.38
343.209	82.38
343.437	104.38
343.665	90.38
343.893	91.38
344.12	95.38
344.348	91.38
344.576	94.38
344.804	102.38
345.031	106.38
345.259	108.38
345.487	92.38
345.714	95.38
345.942	85.38
346.17	80.38
346.397	97.38
346.625	93.38
346.853	99.38
347.08	105.38
347.308	97.38
347.535	121.38
347.763	103.38
347.99	99.38
348.218	106.38
348.445	108.38
348.673	97.38
348.9	95.38
349.128	112.38
349.355	94.38
349.583	87.38
349.81	102.38
350.037	93.38
350.265	102.38
350.492	105.38
350.72	97.38
350.947	108.38
351.174	109.38
351.402	110.38
351.629	101.38
351.856	105.38
352.083	102.38
352.311	96.38
352.538	113.38
352.765	124.38
352.992	100.38
353.22	118.38
353.447	109.38
353.674	96.38
353.901	97.38
354.128	105.38
354.355	77.38
354.583	93.38
354.81	99.38
355.037	106.38
355.264	102.38
355.491	98.38
355.718	91.38
355.945	101.38
356.172	97.38
356.399	103.38
356.626	85.38
356.853	79.38
357.08	85.38
357.307	91.38
357.534	85.38
357.761	89.38
357.988	109.38
358.215	94.38
358.441	97.38
358.668	86.38
358.895	89.38
359.122	106.38
359.349	99.38
359.576	87.38
359.802	105.38
360.029	111.38
360.256	114.38
360.483	107.38
360.709	97.38
360.936	92.38
361.163	92.38
361.39	102.38
361.616	100.38
361.843	87.38
362.07	84.38
362.296	98.38
362.523	89.38
362.749	79.38
362.976	80.38
363.203	96.38
363.429	97.38
363.656	87.38
363.882	112.38
364.109	97.38
364.335	102.38
364.562	79.38
364.788	90.38
365.015	86.38
365.241	102.38
365.468	117.38
365.694	103.38
365.92	91.38
366.147	91.38
366.373	95.38
366.599	102.38
366.826	87.38
367.052	94.38
367.278	83.38
367.505	87.38
367.731	89.38
367.957	95.38
368.184	102.38
368.41	107.38
368.636	104.38
368.862	114.38
369.089	107.38
369.315	99.38
369.541	84.38
369.767	85.38
369.993	85.38
370.219	99.38
370.445	90.38
370.672	91.38
370.898	80.38
371.124	84.38
371.35	87.38
371.576	84.38
371.802	85.38
372.028	95.38
372.254	71.38
372.48	77.38
372.706	87.38
372.932	103.38
373.158	105.38
373.384	97.38
373.61	90.38
373.835	95.38
374.061	86.38
374.287	99.38
374.513	91.38
374.739	82.38
374.965	69.38
375.191	83.38
375.416	87.38
375.642	80.38
375.868	92.38
376.094	72.38
376.319	90.38
376.545	69.38
376.771	92.38
376.997	87.38
377.222	94.38
377.448	88.38
377.674	82.38
377.899	85.38
378.125	85.38
378.35	86.38
378.576	85.38
378.802	94.38
379.027	97.38
379.253	93.38
379.478	85.38
379.704	102.38
379.929	100.38
380.155	87.38
380.38	105.38
380.606	81.38
380.831	106.38
381.057	99.38
381.282	82.38
381.507	102.38
381.733	88.38
381.958	87.38
382.184	93.38
382.409	85.38
382.634	109.38
382.86	95.38
383.085	97.38
383.31	108.38
383.535	106.38
383.761	106.38
383.986	96.38
384.211	94.38
384.436	86.38
384.662	105.38
384.887	96.38
385.112	83.38
385.337	86.38
385.562	112.38
385.787	84.38
386.013	100.38
386.238	107.38
386.463	106.38
386.688	107.38
386.913	100.38
387.138	106.38
387.363	106.38
387.588	93.38
387.813	89.38
388.038	96.38
388.263	95.38
388.488	105.38
388.713	99.38
388.938	77.38
389.163	92.38
389.387	94.38
389.612	93.38
389.837	107.38
390.062	82.38
390.287	91.38
390.512	99.38
390.736	83.38
390.961	88.38
391.186	88.38
391.411	93.38
391.636	92.38
391.86	90.38
392.085	106.38
392.31	73.38
392.534	78.38
392.759	84.38
392.984	85.38
393.208	89.38
393.433	70.38
393.658	91.38
393.882	91.38
394.107	93.38
394.331	96.38
394.556	79.38
394.78	92.38
395.005	89.38
395.229	82.38
395.454	76.38
395.678	93.38
395.903	84.38
396.127	98.38
396.352	83.38
396.576	81.38
396.801	77.38
397.025	85.38
397.249	82.38
397.474	100.38
397.698	100.38
397.922	101.38
398.147	86.38
398.371	87.38
398.595	85.38
398.82	97.38
399.044	94.38
399.268	77.38
399.492	94.38
399.717	92.38
399.941	100.38
400.165	78.38
400.389	102.38
400.613	79.38
400.837	92.38
401.062	89.38
401.286	74.38
401.51	89.38
401.734	95.38
401.958	107.38
402.182	122.38
402.406	163.38
402.63	107.38
402.854	100.38
403.078	91.38
403.302	94.38
403.526	95.38
403.75	101.38
403.974	83.38
404.198	94.38
404.422	79.38
404.645	87.38
404.869	87.38
405.093	97.38
405.317	105.38
405.541	92.38
405.765	96.38
405.988	99.38
406.212	177.38
406.436	232.38
406.66	159.38
406.883	108.38
407.107	113.38
407.331	98.38
407.555	113.38
407.778	93.38
408.002	98.38
408.226	82.38
408.449	95.38
408.673	102.38
408.896	110.38
409.12	111.38
409.344	106.38
409.567	97.38
409.791	100.38
410.014	94.38
410.238	87.38
410.461	93.38
410.685	106.38
410.908	91.38
411.132	99.38
411.355	104.38
411.578	98.38
411.802	82.38
412.025	94.38
412.249	84.38
412.472	92.38
412.695	91.38
412.919	95.38
413.142	77.38
413.365	66.38
413.589	78.38
413.812	77.38
414.035	90.38
414.258	95.38
414.482	90.38
414.705	92.38
414.928	95.38
415.151	87.38
415.374	87.38
415.597	86.38
415.821	85.38
416.044	76.38
416.267	88.38
416.49	86.38
416.713	98.38
416.936	85.38
417.159	101.38
417.382	78.38
417.605	88.38
417.828	83.38
418.051	93.38
418.274	78.38
418.497	91.38
418.72	100.38
418.943	93.38
419.166	81.38
419.389	76.38
419.611	95.38
419.834	98.38
420.057	94.38
420.28	89.38
420.503	80.38
420.726	86.38
420.948	91.38
421.171	100.38
421.394	85.38
421.617	88.38
421.839	92.38
422.062	80.38
422.285	104.38
422.507	94.38
422.73	96.38
422.953	85.38
423.175	90.38
423.398	97.38
423.621	80.38
423.843	96.38
424.066	79.38
424.288	110.38
424.511	97.38
424.733	101.38
424.956	106.38
425.178	101.38
425.401	89.38
425.623	93.38
425.846	80.38
426.068	79.38
426.291	85.38
426.513	82.38
426.735	90.38
426.958	94.38
427.18	104.38
427.402	129.38
427.625	178.38
427.847	125.38
428.069	120.38
428.292	83.38
428.514	77.38
428.736	84.38
428.958	82.38
429.181	85.38
429.403	93.38
429.625	93.38
429.847	96.38
430.069	101.38
430.292	93.38
430.514	85.38
430.736	97.38
430.958	73.38
431.18	73.38
431.402	92.38
431.624	81.38
431.846	86.38
432.068	88.38
432.29	95.38
432.512	100.38
432.734	101.38
432.956	96.38
433.178	94.38
433.4	99.38
433.622	97.38
433.844	93.38
434.066	92.38
434.287	94.38
434.509	91.38
434.731	100.38
434.953	86.38
435.175	66.38
435.397	83.38
435.618	87.38
435.84	122.38
436.062	107.38
436.284	111.38
436.505	102.38
436.727	107.38
436.949	89.38
437.17	96.38
437.392	100.38
437.614	83.38
437.835	105.38
438.057	118.38
438.278	110.38
438.5	115.38
438.721	114.38
438.943	112.38
439.165	87.38
439.386	84.38
439.608	85.38
439.829	107.38
440.05	116.38
440.272	146.38
440.493	97.38
440.715	101.38
440.936	94.38
441.158	97.38
441.379	92.38
441.6	100.38
441.822	95.38
442.043	94.38
442.264	105.38
442.486	97.38
442.707	111.38
442.928	114.38
443.149	143.38
443.371	142.38
443.592	111.38
443.813	118.38
444.034	110.38
444.255	86.38
444.476	81.38
444.698	83.38
444.919	81.38
445.14	133.38
445.361	123.38
445.582	110.38
445.803	143.38
446.024	139.38
446.245	132.38
446.466	117.38
446.687	93.38
446.908	87.38
447.129	86.38
447.35	110.38
447.571	103.38
447.792	99.38
448.013	110.38
448.234	94.38
448.455	85.38
448.675	130.38
448.896	126.38
449.117	107.38
449.338	98.38
449.559	122.38
449.779	136.38
450	90.38
450.221	108.38
450.442	87.38
450.662	103.38
450.883	99.38
451.104	113.38
451.324	79.38
451.545	99.38
451.766	96.38
451.986	91.38
452.207	71.38
452.428	89.38
452.648	98.38
452.869	123.38
453.089	109.38
453.31	122.38
453.53	106.38
453.751	86.38
453.971	88.38
454.192	129.38
454.412	87.38
454.633	73.38
454.853	86.38
455.073	106.38
455.294	96.38
455.514	88.38
455.734	80.38
455.955	86.38
456.175	86.38
456.395	98.38
456.616	101.38
456.836	84.38
457.056	87.38
457.276	89.38
457.497	70.38
457.717	77.38
457.937	94.38
458.157	87.38
458.377	83.38
458.598	102.38
458.818	151.38
459.038	164.38
459.258	121.38
459.478	108.38
459.698	84.38
459.918	72.38
460.138	85.38
460.358	79.38
460.578	88.38
460.798	107.38
461.018	99.38
461.238	92.38
461.458	85.38
461.678	79.38
461.898	75.38
462.118	86.38
462.338	81.38
462.558	102.38
462.777	88.38
462.997	90.38
463.217	96.38
463.437	85.38
463.657	99.38
463.876	92.38
464.096	94.38
464.316	93.38
464.536	88.38
464.755	97.38
464.975	97.38
465.195	174.38
465.414	152.38
465.634	107.38
465.854	90.38
466.073	89.38
466.293	77.38
466.512	92.38
466.732	72.38
466.951	104.38
467.171	87.38
467.391	92.38
467.61	101.38
467.829	103.38
468.049	82.38
468.268	88.38
468.488	91.38
468.707	84.38
468.927	88.38
469.146	99.38
469.365	98.38
469.585	97.38
469.804	95.38
470.023	92.38
470.243	98.38
470.462	97.38
470.681	110.38
470.901	88.38
471.12	82.38
471.339	79.38
471.558	102.38
471.777	99.38
471.997	92.38
472.216	102.38
472.435	98.38
472.654	93.38
472.873	86.38
473.092	87.38
473.311	87.38
473.53	83.38
473.749	92.38
473.968	102.38
474.187	114.38
474.406	107.38
474.625	85.38
474.844	88.38
475.063	78.38
475.282	105.38
475.501	83.38
475.72	82.38
475.939	97.38
476.158	81.38
476.377	94.38
476.596	91.38
476.814	102.38
477.033	91.38
477.252	104.38
477.471	98.38
477.69	102.38
477.908	99.38
478.127	84.38
478.346	95.38
478.564	98.38
478.783	101.38
479.002	91.38
479.22	87.38
479.439	98.38
479.658	100.38
479.876	97.38
480.095	93.38
480.313	81.38
480.532	101.38
480.751	98.38
480.969	91.38
481.188	93.38
481.406	79.38
481.624	82.38
481.843	106.38
482.061	97.38
482.28	79.38
482.498	73.38
482.717	93.38
482.935	82.38
483.153	106.38
483.372	83.38
483.59	102.38
483.808	91.38
484.027	97.38
484.245	87.38
484.463	78.38
484.681	91.38
484.9	87.38
485.118	106.38
485.336	87.38
485.554	97.38
485.772	102.38
485.99	106.38
486.209	106.38
486.427	103.38
486.645	123.38
486.863	121.38
487.081	114.38
487.299	94.38
487.517	99.38
487.735	97.38
487.953	99.38
488.171	93.38
488.389	86.38
488.607	93.38
488.825	99.38
489.043	91.38
489.261	87.38
489.479	92.38
489.696	98.38
489.914	97.38
490.132	87.38
490.35	99.38
490.568	91.38
490.786	90.38
491.003	93.38
491.221	67.38
491.439	100.38
491.657	91.38
491.874	101.38
492.092	84.38
492.31	84.38
492.527	80.38
492.745	84.38
492.963	89.38
493.18	98.38
493.398	96.38
493.615	96.38
493.833	108.38
494.05	89.38
494.268	87.38
494.485	79.38
494.703	80.38
494.92	87.38
495.138	75.38
495.355	77.38
495.573	88.38
495.79	87.38
496.008	93.38
496.225	79.38
496.442	97.38
496.66	93.38
496.877	106.38
497.094	100.38
497.312	89.38
497.529	88.38
497.746	95.38
497.963	77.38
498.181	74.38
498.398	97.38
498.615	110.38
498.832	101.38
499.049	99.38
499.267	107.38
499.484	87.38
499.701	104.38
499.918	105.38
500.135	99.38
500.352	94.38
500.569	90.38
500.786	100.38
501.003	94.38
501.22	102.38
501.437	94.38
501.654	89.38
501.871	99.38
502.088	75.38
502.305	116.38
502.522	97.38
502.739	101.38
502.956	105.38
503.172	96.38
503.389	80.38
503.606	101.38
503.823	89.38
504.04	82.38
504.256	97.38
504.473	81.38
504.69	84.38
504.907	107.38
505.123	99.38
505.34	86.38
505.557	86.38
505.773	101.38
505.99	92.38
506.207	82.38
506.423	98.38
506.64	86.38
506.856	68.38
507.073	87.38
507.289	90.38
507.506	101.38
507.722	116.38
507.939	118.38
508.155	93.38
508.372	95.38
508.588	89.38
508.805	98.38
509.021	92.38
509.238	107.38
509.454	105.38
509.67	97.38
509.887	108.38
510.103	118.38
510.319	222.38
510.536	786.38
510.752	2497.38
510.968	701.38
511.184	156.38
511.401	118.38
511.617	106.38
511.833	114.38
512.049	84.38
512.265	88.38
512.481	87.38
512.698	86.38
512.914	100.38
513.13	99.38
513.346	102.38
513.562	104.38
513.778	99.38
513.994	87.38
514.21	110.38
514.426	129.38
514.642	131.38
514.858	136.38
515.074	158.38
