Data from Uncirc_2007_H10_HRD10591_00070.txt Node
Date: Wed Jan 03 10:20:56 EST 2024
User: Yrep
Spectrometer: HR+D1059
Trigger mode: 1
Integration Time (sec): 1.000000E-1
Scans to average: 1
Electric dark correction enabled: true
Nonlinearity correction enabled: false
Boxcar width: 0
XAxis mode: Wavelengths
Number of Pixels in Spectrum: 2048
>>>>>Begin Spectral Data<<<<<
223.165	-15.69
223.4	-15.69
223.635	-15.69
223.869	-11.69
224.104	-15.69
224.338	-24.69
224.573	1.31
224.808	-7.69
225.042	-22.69
225.277	-8.69
225.511	-2.69
225.746	5.31
225.98	4.31
226.215	17.31
226.449	4.31
226.683	21.31
226.918	32.31
227.152	23.31
227.387	34.31
227.621	39.31
227.856	45.31
228.09	44.31
228.324	49.31
228.559	56.31
228.793	50.31
229.027	59.31
229.262	58.31
229.496	71.31
229.73	68.31
229.964	80.31
230.199	75.31
230.433	72.31
230.667	72.31
230.901	72.31
231.136	76.31
231.37	71.31
231.604	85.31
231.838	78.31
232.072	76.31
232.306	89.31
232.541	78.31
232.775	73.31
233.009	70.31
233.243	63.31
233.477	85.31
233.711	84.31
233.945	80.31
234.179	74.31
234.413	77.31
234.647	96.31
234.881	90.31
235.115	80.31
235.349	74.31
235.583	85.31
235.817	79.31
236.051	80.31
236.285	83.31
236.519	71.31
236.753	73.31
236.987	58.31
237.221	71.31
237.455	81.31
237.689	79.31
237.922	76.31
238.156	81.31
238.39	71.31
238.624	75.31
238.858	76.31
239.091	78.31
239.325	75.31
239.559	71.31
239.793	80.31
240.027	74.31
240.26	66.31
240.494	68.31
240.728	70.31
240.961	94.31
241.195	97.31
241.429	77.31
241.662	70.31
241.896	73.31
242.13	75.31
242.363	78.31
242.597	79.31
242.83	79.31
243.064	83.31
243.298	67.31
243.531	72.31
243.765	79.31
243.998	84.31
244.232	80.31
244.465	84.31
244.699	81.31
244.932	88.31
245.166	82.31
245.399	80.31
245.633	76.31
245.866	77.31
246.099	59.31
246.333	71.31
246.566	84.31
246.8	98.31
247.033	73.31
247.266	80.31
247.5	84.31
247.733	69.31
247.966	73.31
248.2	60.31
248.433	85.31
248.666	88.31
248.899	92.31
249.133	89.31
249.366	95.31
249.599	98.31
249.832	93.31
250.066	77.31
250.299	69.31
250.532	77.31
250.765	68.31
250.998	72.31
251.231	78.31
251.465	78.31
251.698	66.31
251.931	88.31
252.164	95.31
252.397	83.31
252.63	70.31
252.863	89.31
253.096	76.31
253.329	81.31
253.562	80.31
253.795	79.31
254.028	79.31
254.261	76.31
254.494	79.31
254.727	81.31
254.96	85.31
255.193	83.31
255.426	64.31
255.659	73.31
255.892	85.31
256.124	88.31
256.357	89.31
256.59	79.31
256.823	80.31
257.056	81.31
257.289	66.31
257.521	74.31
257.754	79.31
257.987	83.31
258.22	80.31
258.452	80.31
258.685	70.31
258.918	81.31
259.151	91.31
259.383	79.31
259.616	90.31
259.849	86.31
260.081	85.31
260.314	83.31
260.547	95.31
260.779	80.31
261.012	89.31
261.244	75.31
261.477	84.31
261.71	89.31
261.942	114.31
262.175	124.31
262.407	85.31
262.64	91.31
262.872	81.31
263.105	89.31
263.337	79.31
263.57	89.31
263.802	73.31
264.035	78.31
264.267	103.31
264.499	94.31
264.732	89.31
264.964	82.31
265.197	82.31
265.429	87.31
265.661	78.31
265.894	88.31
266.126	82.31
266.358	88.31
266.591	78.31
266.823	81.31
267.055	98.31
267.287	75.31
267.52	84.31
267.752	75.31
267.984	80.31
268.216	78.31
268.448	64.31
268.681	83.31
268.913	95.31
269.145	71.31
269.377	61.31
269.609	81.31
269.841	89.31
270.073	89.31
270.306	83.31
270.538	77.31
270.77	86.31
271.002	84.31
271.234	84.31
271.466	76.31
271.698	78.31
271.93	84.31
272.162	93.31
272.394	84.31
272.626	85.31
272.858	84.31
273.09	100.31
273.322	82.31
273.553	81.31
273.785	86.31
274.017	84.31
274.249	74.31
274.481	74.31
274.713	93.31
274.945	84.31
275.176	98.31
275.408	95.31
275.64	78.31
275.872	89.31
276.104	94.31
276.335	84.31
276.567	100.31
276.799	104.31
277.031	106.31
277.262	87.31
277.494	76.31
277.726	81.31
277.957	87.31
278.189	80.31
278.421	96.31
278.652	88.31
278.884	82.31
279.115	73.31
279.347	85.31
279.579	88.31
279.81	76.31
280.042	89.31
280.273	76.31
280.505	85.31
280.736	92.31
280.968	94.31
281.199	88.31
281.431	85.31
281.662	93.31
281.894	89.31
282.125	103.31
282.356	124.31
282.588	151.31
282.819	119.31
283.051	86.31
283.282	82.31
283.513	77.31
283.745	93.31
283.976	102.31
284.207	73.31
284.439	101.31
284.67	82.31
284.901	89.31
285.132	83.31
285.364	84.31
285.595	94.31
285.826	74.31
286.057	77.31
286.288	103.31
286.52	96.31
286.751	91.31
286.982	78.31
287.213	69.31
287.444	96.31
287.675	80.31
287.906	90.31
288.138	93.31
288.369	98.31
288.6	81.31
288.831	89.31
289.062	87.31
289.293	80.31
289.524	83.31
289.755	89.31
289.986	85.31
290.217	85.31
290.448	85.31
290.679	105.31
290.91	79.31
291.141	91.31
291.371	91.31
291.602	80.31
291.833	83.31
292.064	88.31
292.295	96.31
292.526	104.31
292.757	103.31
292.987	89.31
293.218	89.31
293.449	84.31
293.68	87.31
293.91	75.31
294.141	93.31
294.372	96.31
294.603	100.31
294.833	86.31
295.064	87.31
295.295	96.31
295.525	90.31
295.756	114.31
295.987	123.31
296.217	144.31
296.448	135.31
296.679	104.31
296.909	76.31
297.14	81.31
297.37	88.31
297.601	80.31
297.831	87.31
298.062	88.31
298.292	90.31
298.523	91.31
298.753	90.31
298.984	103.31
299.214	88.31
299.445	106.31
299.675	91.31
299.905	106.31
300.136	87.31
300.366	86.31
300.597	94.31
300.827	91.31
301.057	103.31
301.288	100.31
301.518	89.31
301.748	97.31
301.979	108.31
302.209	91.31
302.439	93.31
302.669	73.31
302.9	86.31
303.13	91.31
303.36	82.31
303.59	93.31
303.82	107.31
304.051	95.31
304.281	91.31
304.511	88.31
304.741	73.31
304.971	91.31
305.201	93.31
305.431	90.31
305.661	84.31
305.891	89.31
306.121	96.31
306.352	108.31
306.582	99.31
306.812	82.31
307.042	92.31
307.272	78.31
307.502	81.31
307.731	109.31
307.961	95.31
308.191	89.31
308.421	101.31
308.651	89.31
308.881	100.31
309.111	90.31
309.341	96.31
309.571	101.31
309.8	95.31
310.03	104.31
310.26	79.31
310.49	91.31
310.72	103.31
310.949	99.31
311.179	107.31
311.409	92.31
311.639	104.31
311.868	94.31
312.098	97.31
312.328	106.31
312.557	103.31
312.787	111.31
313.017	114.31
313.246	77.31
313.476	107.31
313.706	98.31
313.935	91.31
314.165	107.31
314.394	113.31
314.624	112.31
314.853	114.31
315.083	95.31
315.312	85.31
315.542	91.31
315.771	95.31
316.001	96.31
316.23	98.31
316.46	108.31
316.689	90.31
316.919	85.31
317.148	99.31
317.377	85.31
317.607	99.31
317.836	106.31
318.065	86.31
318.295	105.31
318.524	91.31
318.753	96.31
318.983	109.31
319.212	111.31
319.441	111.31
319.67	105.31
319.9	92.31
320.129	91.31
320.358	81.31
320.587	106.31
320.816	109.31
321.046	98.31
321.275	111.31
321.504	100.31
321.733	107.31
321.962	117.31
322.191	112.31
322.42	111.31
322.649	125.31
322.878	133.31
323.108	129.31
323.337	136.31
323.566	139.31
323.795	164.31
324.024	223.31
324.253	495.31
324.482	1058.31
324.71	2175.31
324.939	2899.31
325.168	1023.31
325.397	297.31
325.626	180.31
325.855	131.31
326.084	149.31
326.313	150.31
326.542	172.31
326.77	261.31
326.999	542.31
327.228	1166.31
327.457	2201.31
327.686	1744.31
327.914	450.31
328.143	227.31
328.372	185.31
328.6	132.31
328.829	129.31
329.058	139.31
329.287	131.31
329.515	108.31
329.744	114.31
329.972	97.31
330.201	107.31
330.43	101.31
330.658	120.31
330.887	141.31
331.115	130.31
331.344	103.31
331.572	91.31
331.801	115.31
332.03	103.31
332.258	100.31
332.486	90.31
332.715	80.31
332.943	77.31
333.172	78.31
333.4	106.31
333.629	97.31
333.857	130.31
334.085	120.31
334.314	97.31
334.542	108.31
334.771	102.31
334.999	101.31
335.227	85.31
335.455	89.31
335.684	93.31
335.912	103.31
336.14	91.31
336.369	87.31
336.597	90.31
336.825	95.31
337.053	93.31
337.281	101.31
337.51	91.31
337.738	90.31
337.966	94.31
338.194	92.31
338.422	87.31
338.65	94.31
338.878	99.31
339.106	91.31
339.334	98.31
339.562	96.31
339.79	83.31
340.018	103.31
340.246	99.31
340.474	92.31
340.702	103.31
340.93	102.31
341.158	91.31
341.386	85.31
341.614	77.31
341.842	104.31
342.07	92.31
342.298	86.31
342.526	91.31
342.754	89.31
342.981	85.31
343.209	87.31
343.437	104.31
343.665	91.31
343.893	81.31
344.12	100.31
344.348	92.31
344.576	84.31
344.804	97.31
345.031	108.31
345.259	96.31
345.487	96.31
345.714	92.31
345.942	97.31
346.17	106.31
346.397	101.31
346.625	102.31
346.853	87.31
347.08	84.31
347.308	108.31
347.535	106.31
347.763	103.31
347.99	102.31
348.218	113.31
348.445	119.31
348.673	95.31
348.9	101.31
349.128	93.31
349.355	84.31
349.583	96.31
349.81	99.31
350.037	99.31
350.265	109.31
350.492	97.31
350.72	98.31
350.947	98.31
351.174	106.31
351.402	108.31
351.629	113.31
351.856	108.31
352.083	119.31
352.311	106.31
352.538	100.31
352.765	113.31
352.992	107.31
353.22	115.31
353.447	113.31
353.674	106.31
353.901	101.31
354.128	86.31
354.355	94.31
354.583	88.31
354.81	85.31
355.037	88.31
355.264	81.31
355.491	99.31
355.718	101.31
355.945	99.31
356.172	99.31
356.399	90.31
356.626	78.31
356.853	87.31
357.08	88.31
357.307	90.31
357.534	92.31
357.761	93.31
357.988	93.31
358.215	99.31
358.441	91.31
358.668	85.31
358.895	93.31
359.122	94.31
359.349	96.31
359.576	98.31
359.802	100.31
360.029	112.31
360.256	111.31
360.483	117.31
360.709	99.31
360.936	108.31
361.163	90.31
361.39	99.31
361.616	98.31
361.843	79.31
362.07	84.31
362.296	107.31
362.523	91.31
362.749	81.31
362.976	114.31
363.203	109.31
363.429	88.31
363.656	89.31
363.882	112.31
364.109	76.31
364.335	100.31
364.562	100.31
364.788	104.31
365.015	96.31
365.241	115.31
365.468	116.31
365.694	100.31
365.92	101.31
366.147	88.31
366.373	85.31
366.599	98.31
366.826	87.31
367.052	96.31
367.278	86.31
367.505	88.31
367.731	91.31
367.957	93.31
368.184	89.31
368.41	98.31
368.636	124.31
368.862	110.31
369.089	114.31
369.315	89.31
369.541	86.31
369.767	100.31
369.993	84.31
370.219	91.31
370.445	89.31
370.672	100.31
370.898	93.31
371.124	85.31
371.35	95.31
371.576	94.31
371.802	90.31
372.028	87.31
372.254	84.31
372.48	88.31
372.706	82.31
372.932	89.31
373.158	77.31
373.384	91.31
373.61	98.31
373.835	104.31
374.061	87.31
374.287	86.31
374.513	95.31
374.739	102.31
374.965	75.31
375.191	72.31
375.416	78.31
375.642	100.31
375.868	109.31
376.094	101.31
376.319	83.31
376.545	90.31
376.771	94.31
376.997	107.31
377.222	90.31
377.448	83.31
377.674	85.31
377.899	100.31
378.125	84.31
378.35	95.31
378.576	95.31
378.802	80.31
379.027	91.31
379.253	91.31
379.478	82.31
379.704	98.31
379.929	95.31
380.155	87.31
380.38	80.31
380.606	105.31
380.831	93.31
381.057	98.31
381.282	95.31
381.507	94.31
381.733	88.31
381.958	110.31
382.184	94.31
382.409	97.31
382.634	102.31
382.86	108.31
383.085	92.31
383.31	94.31
383.535	110.31
383.761	90.31
383.986	99.31
384.211	103.31
384.436	99.31
384.662	95.31
384.887	106.31
385.112	105.31
385.337	108.31
385.562	92.31
385.787	104.31
386.013	103.31
386.238	124.31
386.463	96.31
386.688	99.31
386.913	109.31
387.138	108.31
387.363	105.31
387.588	103.31
387.813	98.31
388.038	104.31
388.263	99.31
388.488	96.31
388.713	92.31
388.938	93.31
389.163	94.31
389.387	93.31
389.612	91.31
389.837	91.31
390.062	95.31
390.287	94.31
390.512	101.31
390.736	87.31
390.961	97.31
391.186	87.31
391.411	105.31
391.636	89.31
391.86	83.31
392.085	103.31
392.31	87.31
392.534	98.31
392.759	68.31
392.984	103.31
393.208	89.31
393.433	96.31
393.658	95.31
393.882	95.31
394.107	98.31
394.331	91.31
394.556	77.31
394.78	93.31
395.005	77.31
395.229	78.31
395.454	88.31
395.678	98.31
395.903	90.31
396.127	89.31
396.352	87.31
396.576	85.31
396.801	92.31
397.025	91.31
397.249	77.31
397.474	86.31
397.698	82.31
397.922	86.31
398.147	97.31
398.371	94.31
398.595	91.31
398.82	91.31
399.044	82.31
399.268	89.31
399.492	83.31
399.717	83.31
399.941	87.31
400.165	95.31
400.389	116.31
400.613	98.31
400.837	80.31
401.062	84.31
401.286	79.31
401.51	89.31
401.734	87.31
401.958	109.31
402.182	127.31
402.406	194.31
402.63	129.31
402.854	94.31
403.078	91.31
403.302	85.31
403.526	97.31
403.75	98.31
403.974	91.31
404.198	97.31
404.422	87.31
404.645	84.31
404.869	98.31
405.093	96.31
405.317	101.31
405.541	92.31
405.765	100.31
405.988	129.31
406.212	197.31
406.436	264.31
406.66	164.31
406.883	113.31
407.107	102.31
407.331	103.31
407.555	92.31
407.778	99.31
408.002	94.31
408.226	87.31
408.449	93.31
408.673	91.31
408.896	88.31
409.12	84.31
409.344	89.31
409.567	99.31
409.791	93.31
410.014	100.31
410.238	99.31
410.461	104.31
410.685	89.31
410.908	103.31
411.132	93.31
411.355	101.31
411.578	89.31
411.802	79.31
412.025	85.31
412.249	92.31
412.472	87.31
412.695	79.31
412.919	89.31
413.142	92.31
413.365	87.31
413.589	90.31
413.812	96.31
414.035	90.31
414.258	92.31
414.482	91.31
414.705	87.31
414.928	84.31
415.151	81.31
415.374	79.31
415.597	96.31
415.821	94.31
416.044	90.31
416.267	89.31
416.49	83.31
416.713	100.31
416.936	85.31
417.159	89.31
417.382	90.31
417.605	103.31
417.828	106.31
418.051	93.31
418.274	83.31
418.497	89.31
418.72	92.31
418.943	93.31
419.166	100.31
419.389	92.31
419.611	85.31
419.834	97.31
420.057	79.31
420.28	98.31
420.503	86.31
420.726	92.31
420.948	82.31
421.171	100.31
421.394	101.31
421.617	91.31
421.839	90.31
422.062	82.31
422.285	81.31
422.507	104.31
422.73	101.31
422.953	84.31
423.175	91.31
423.398	92.31
423.621	105.31
423.843	94.31
424.066	92.31
424.288	95.31
424.511	97.31
424.733	87.31
424.956	116.31
425.178	113.31
425.401	115.31
425.623	100.31
425.846	99.31
426.068	87.31
426.291	89.31
426.513	93.31
426.735	94.31
426.958	92.31
427.18	116.31
427.402	145.31
427.625	179.31
427.847	151.31
428.069	100.31
428.292	87.31
428.514	98.31
428.736	93.31
428.958	82.31
429.181	88.31
429.403	88.31
429.625	95.31
429.847	95.31
430.069	99.31
430.292	85.31
430.514	91.31
430.736	91.31
430.958	81.31
431.18	94.31
431.402	93.31
431.624	82.31
431.846	79.31
432.068	84.31
432.29	77.31
432.512	83.31
432.734	83.31
432.956	96.31
433.178	106.31
433.4	101.31
433.622	80.31
433.844	92.31
434.066	103.31
434.287	87.31
434.509	95.31
434.731	98.31
434.953	76.31
435.175	88.31
435.397	87.31
435.618	104.31
435.84	98.31
436.062	114.31
436.284	124.31
436.505	91.31
436.727	104.31
436.949	94.31
437.17	89.31
437.392	87.31
437.614	78.31
437.835	109.31
438.057	109.31
438.278	112.31
438.5	99.31
438.721	136.31
438.943	103.31
439.165	90.31
439.386	97.31
439.608	92.31
439.829	100.31
440.05	110.31
440.272	159.31
440.493	103.31
440.715	102.31
440.936	92.31
441.158	80.31
441.379	86.31
441.6	107.31
441.822	97.31
442.043	99.31
442.264	111.31
442.486	108.31
442.707	96.31
442.928	104.31
443.149	130.31
443.371	138.31
443.592	121.31
443.813	106.31
444.034	97.31
444.255	90.31
444.476	80.31
444.698	82.31
444.919	100.31
445.14	136.31
445.361	122.31
445.582	132.31
445.803	149.31
446.024	122.31
446.245	145.31
446.466	119.31
446.687	94.31
446.908	87.31
447.129	96.31
447.35	91.31
447.571	88.31
447.792	93.31
448.013	93.31
448.234	113.31
448.455	92.31
448.675	98.31
448.896	121.31
449.117	91.31
449.338	108.31
449.559	141.31
449.779	145.31
450	84.31
450.221	80.31
450.442	97.31
450.662	111.31
450.883	121.31
451.104	104.31
451.324	88.31
451.545	92.31
451.766	87.31
451.986	85.31
452.207	98.31
452.428	95.31
452.648	100.31
452.869	112.31
453.089	119.31
453.31	122.31
453.53	106.31
453.751	99.31
453.971	90.31
454.192	99.31
454.412	90.31
454.633	94.31
454.853	80.31
455.073	107.31
455.294	101.31
455.514	107.31
455.734	93.31
455.955	95.31
456.175	91.31
456.395	91.31
456.616	84.31
456.836	98.31
457.056	88.31
457.276	80.31
457.497	91.31
457.717	92.31
457.937	100.31
458.157	80.31
458.377	96.31
458.598	106.31
458.818	177.31
459.038	179.31
459.258	124.31
459.478	85.31
459.698	85.31
459.918	91.31
460.138	88.31
460.358	93.31
460.578	98.31
460.798	90.31
461.018	107.31
461.238	85.31
461.458	68.31
461.678	85.31
461.898	92.31
462.118	91.31
462.338	86.31
462.558	96.31
462.777	77.31
462.997	81.31
463.217	85.31
463.437	103.31
463.657	92.31
463.876	81.31
464.096	104.31
464.316	98.31
464.536	96.31
464.755	91.31
464.975	91.31
465.195	187.31
465.414	190.31
465.634	83.31
465.854	91.31
466.073	85.31
466.293	84.31
466.512	81.31
466.732	75.31
466.951	93.31
467.171	81.31
467.391	97.31
467.61	97.31
467.829	100.31
468.049	71.31
468.268	85.31
468.488	75.31
468.707	79.31
468.927	83.31
469.146	100.31
469.365	92.31
469.585	77.31
469.804	97.31
470.023	112.31
470.243	90.31
470.462	99.31
470.681	122.31
470.901	109.31
471.12	80.31
471.339	82.31
471.558	91.31
471.777	83.31
471.997	101.31
472.216	87.31
472.435	94.31
472.654	88.31
472.873	85.31
473.092	83.31
473.311	90.31
473.53	89.31
473.749	96.31
473.968	105.31
474.187	108.31
474.406	100.31
474.625	88.31
474.844	78.31
475.063	76.31
475.282	81.31
475.501	78.31
475.72	93.31
475.939	94.31
476.158	80.31
476.377	83.31
476.596	84.31
476.814	98.31
477.033	87.31
477.252	85.31
477.471	97.31
477.69	86.31
477.908	86.31
478.127	96.31
478.346	93.31
478.564	113.31
478.783	99.31
479.002	96.31
479.22	84.31
479.439	105.31
479.658	107.31
479.876	100.31
480.095	103.31
480.313	103.31
480.532	83.31
480.751	90.31
480.969	94.31
481.188	99.31
481.406	91.31
481.624	93.31
481.843	100.31
482.061	82.31
482.28	88.31
482.498	92.31
482.717	105.31
482.935	93.31
483.153	90.31
483.372	82.31
483.59	90.31
483.808	89.31
484.027	77.31
484.245	92.31
484.463	92.31
484.681	98.31
484.9	73.31
485.118	79.31
485.336	95.31
485.554	103.31
485.772	103.31
485.99	100.31
486.209	107.31
486.427	108.31
486.645	115.31
486.863	117.31
487.081	88.31
487.299	94.31
487.517	98.31
487.735	93.31
487.953	107.31
488.171	93.31
488.389	96.31
488.607	101.31
488.825	91.31
489.043	93.31
489.261	104.31
489.479	88.31
489.696	95.31
489.914	83.31
490.132	87.31
490.35	93.31
490.568	81.31
490.786	83.31
491.003	86.31
491.221	85.31
491.439	83.31
491.657	98.31
491.874	89.31
492.092	92.31
492.31	91.31
492.527	88.31
492.745	98.31
492.963	84.31
493.18	88.31
493.398	73.31
493.615	90.31
493.833	95.31
494.05	84.31
494.268	83.31
494.485	99.31
494.703	88.31
494.92	97.31
495.138	90.31
495.355	89.31
495.573	85.31
495.79	85.31
496.008	97.31
496.225	104.31
496.442	82.31
496.66	84.31
496.877	85.31
497.094	111.31
497.312	77.31
497.529	80.31
497.746	93.31
497.963	91.31
498.181	92.31
498.398	92.31
498.615	99.31
498.832	99.31
499.049	88.31
499.267	93.31
499.484	89.31
499.701	95.31
499.918	93.31
500.135	90.31
500.352	85.31
500.569	78.31
500.786	87.31
501.003	95.31
501.22	101.31
501.437	93.31
501.654	98.31
501.871	110.31
502.088	91.31
502.305	90.31
502.522	97.31
502.739	100.31
502.956	91.31
503.172	85.31
503.389	84.31
503.606	103.31
503.823	103.31
504.04	106.31
504.256	112.31
504.473	92.31
504.69	102.31
504.907	85.31
505.123	92.31
505.34	92.31
505.557	105.31
505.773	103.31
505.99	78.31
506.207	81.31
506.423	84.31
506.64	83.31
506.856	92.31
507.073	103.31
507.289	104.31
507.506	117.31
507.722	106.31
507.939	121.31
508.155	95.31
508.372	106.31
508.588	106.31
508.805	107.31
509.021	90.31
509.238	98.31
509.454	98.31
509.67	120.31
509.887	120.31
510.103	144.31
510.319	236.31
510.536	932.31
510.752	3157.31
510.968	855.31
511.184	189.31
511.401	119.31
511.617	99.31
511.833	85.31
512.049	98.31
512.265	95.31
512.481	83.31
512.698	82.31
512.914	95.31
513.13	90.31
513.346	108.31
513.562	94.31
513.778	94.31
513.994	95.31
514.21	111.31
514.426	128.31
514.642	147.31
514.858	129.31
515.074	187.31
