Data from Uncirc_2007_H10_HRD10591_00003.txt Node
Date: Wed Jan 03 10:20:43 EST 2024
User: Yrep
Spectrometer: HR+D1059
Trigger mode: 1
Integration Time (sec): 1.000000E-1
Scans to average: 1
Electric dark correction enabled: true
Nonlinearity correction enabled: false
Boxcar width: 0
XAxis mode: Wavelengths
Number of Pixels in Spectrum: 2048
>>>>>Begin Spectral Data<<<<<
223.165	-7.44
223.4	-7.44
223.635	-7.44
223.869	-22.44
224.104	-11.44
224.338	-14.44
224.573	-3.44
224.808	-13.44
225.042	-12.44
225.277	-0.44
225.511	-12.44
225.746	10.56
225.98	-5.44
226.215	8.56
226.449	23.56
226.683	6.56
226.918	22.56
227.152	31.56
227.387	34.56
227.621	27.56
227.856	46.56
228.09	50.56
228.324	47.56
228.559	53.56
228.793	160.56
229.027	431.56
229.262	538.56
229.496	624.56
229.73	795.56
229.964	805.56
230.199	534.56
230.433	475.56
230.667	454.56
230.901	468.56
231.136	454.56
231.37	424.56
231.604	451.56
231.838	455.56
232.072	425.56
232.306	448.56
232.541	460.56
232.775	461.56
233.009	446.56
233.243	463.56
233.477	452.56
233.711	482.56
233.945	505.56
234.179	486.56
234.413	495.56
234.647	498.56
234.881	508.56
235.115	515.56
235.349	520.56
235.583	527.56
235.817	598.56
236.051	625.56
236.285	605.56
236.519	632.56
236.753	666.56
236.987	876.56
237.221	1372.56
237.455	1481.56
237.689	909.56
237.922	732.56
238.156	706.56
238.39	662.56
238.624	672.56
238.858	648.56
239.091	660.56
239.325	661.56
239.559	679.56
239.793	696.56
240.027	742.56
240.26	898.56
240.494	975.56
240.728	936.56
240.961	931.56
241.195	818.56
241.429	770.56
241.662	794.56
241.896	779.56
242.13	760.56
242.363	779.56
242.597	790.56
242.83	784.56
243.064	830.56
243.298	816.56
243.531	812.56
243.765	822.56
243.998	850.56
244.232	844.56
244.465	883.56
244.699	872.56
244.932	898.56
245.166	889.56
245.399	892.56
245.633	895.56
245.866	908.56
246.099	931.56
246.333	928.56
246.566	911.56
246.8	980.56
247.033	1016.56
247.266	1042.56
247.5	1094.56
247.733	1151.56
247.966	1129.56
248.2	1147.56
248.433	1161.56
248.666	1211.56
248.899	1331.56
249.133	1450.56
249.366	1414.56
249.599	1282.56
249.832	1212.56
250.066	1199.56
250.299	1257.56
250.532	1320.56
250.765	1476.56
250.998	1700.56
251.231	1632.56
251.465	1495.56
251.698	1408.56
251.931	1391.56
252.164	1418.56
252.397	1407.56
252.63	1449.56
252.863	1545.56
253.096	1686.56
253.329	1762.56
253.562	1658.56
253.795	1577.56
254.028	1552.56
254.261	1632.56
254.494	1829.56
254.727	2164.56
254.96	2250.56
255.193	1947.56
255.426	1760.56
255.659	1637.56
255.892	1605.56
256.124	1513.56
256.357	1527.56
256.59	1495.56
256.823	1518.56
257.056	1493.56
257.289	1493.56
257.521	1530.56
257.754	1540.56
257.987	1550.56
258.22	1511.56
258.452	1530.56
258.685	1549.56
258.918	1574.56
259.151	1627.56
259.383	1656.56
259.616	1698.56
259.849	1769.56
260.081	1935.56
260.314	2096.56
260.547	2052.56
260.779	1854.56
261.012	1764.56
261.244	1725.56
261.477	1645.56
261.71	1613.56
261.942	1729.56
262.175	1755.56
262.407	1684.56
262.64	1654.56
262.872	1638.56
263.105	1648.56
263.337	1625.56
263.57	1663.56
263.802	1652.56
264.035	1667.56
264.267	1652.56
264.499	1654.56
264.732	1686.56
264.964	1666.56
265.197	1687.56
265.429	1717.56
265.661	1734.56
265.894	1728.56
266.126	1734.56
266.358	1780.56
266.591	1795.56
266.823	1845.56
267.055	1891.56
267.287	1857.56
267.52	1805.56
267.752	1832.56
267.984	1857.56
268.216	1894.56
268.448	1956.56
268.681	2019.56
268.913	2146.56
269.145	2340.56
269.377	2391.56
269.609	2279.56
269.841	2273.56
270.073	2386.56
270.306	2671.56
270.538	2833.56
270.77	2729.56
271.002	2573.56
271.234	2499.56
271.466	2619.56
271.698	2754.56
271.93	2786.56
272.162	2778.56
272.394	2658.56
272.626	2544.56
272.858	2376.56
273.09	2283.56
273.322	2284.56
273.553	2278.56
273.785	2243.56
274.017	2216.56
274.249	2233.56
274.481	2236.56
274.713	2258.56
274.945	2275.56
275.176	2265.56
275.408	2215.56
275.64	2290.56
275.872	2250.56
276.104	2269.56
276.335	2291.56
276.567	2426.56
276.799	2515.56
277.031	2768.56
277.262	2874.56
277.494	2726.56
277.726	2602.56
277.957	2470.56
278.189	2433.56
278.421	2347.56
278.652	2337.56
278.884	2401.56
279.115	2377.56
279.347	2345.56
279.579	2328.56
279.81	2356.56
280.042	2315.56
280.273	2353.56
280.505	2376.56
280.736	2399.56
280.968	2382.56
281.199	2406.56
281.431	2398.56
281.662	2422.56
281.894	2451.56
282.125	2513.56
282.356	2644.56
282.588	2805.56
282.819	2669.56
283.051	2548.56
283.282	2540.56
283.513	2566.56
283.745	2655.56
283.976	2636.56
284.207	2652.56
284.439	2619.56
284.67	2612.56
284.901	2614.56
285.132	2641.56
285.364	2563.56
285.595	2632.56
285.826	2579.56
286.057	2638.56
286.288	2670.56
286.52	2744.56
286.751	2677.56
286.982	2666.56
287.213	2727.56
287.444	2722.56
287.675	2805.56
287.906	2898.56
288.138	2940.56
288.369	2885.56
288.6	2876.56
288.831	2851.56
289.062	2874.56
289.293	2816.56
289.524	2798.56
289.755	2772.56
289.986	2750.56
290.217	2795.56
290.448	2802.56
290.679	2852.56
290.91	2813.56
291.141	2782.56
291.371	2802.56
291.602	2804.56
291.833	2776.56
292.064	2823.56
292.295	2847.56
292.526	2832.56
292.757	2837.56
292.987	2790.56
293.218	2790.56
293.449	2873.56
293.68	2815.56
293.91	2788.56
294.141	2818.56
294.372	2852.56
294.603	2899.56
294.833	2874.56
295.064	2827.56
295.295	2864.56
295.525	2853.56
295.756	2935.56
295.987	2990.56
296.217	3189.56
296.448	3151.56
296.679	2925.56
296.909	2968.56
297.14	2894.56
297.37	3044.56
297.601	3061.56
297.831	3033.56
298.062	3028.56
298.292	3060.56
298.523	3116.56
298.753	3125.56
298.984	3105.56
299.214	3099.56
299.445	3051.56
299.675	3113.56
299.905	3095.56
300.136	3101.56
300.366	3112.56
300.597	3158.56
300.827	3312.56
301.057	3320.56
301.288	3348.56
301.518	3286.56
301.748	3300.56
301.979	3381.56
302.209	3412.56
302.439	3390.56
302.669	3328.56
302.9	3336.56
303.13	3285.56
303.36	3356.56
303.59	3355.56
303.82	3398.56
304.051	3334.56
304.281	3357.56
304.511	3290.56
304.741	3293.56
304.971	3279.56
305.201	3263.56
305.431	3191.56
305.661	3299.56
305.891	3244.56
306.121	3255.56
306.352	3343.56
306.582	3279.56
306.812	3274.56
307.042	3295.56
307.272	3239.56
307.502	3254.56
307.731	3247.56
307.961	3236.56
308.191	3288.56
308.421	3256.56
308.651	3340.56
308.881	3286.56
309.111	3344.56
309.341	3375.56
309.571	3417.56
309.8	3523.56
310.03	3540.56
310.26	3566.56
310.49	3574.56
310.72	3692.56
310.949	3728.56
311.179	3740.56
311.409	3587.56
311.639	3665.56
311.868	3691.56
312.098	3737.56
312.328	3749.56
312.557	3906.56
312.787	3926.56
313.017	3848.56
313.246	3769.56
313.476	3724.56
313.706	3753.56
313.935	3882.56
314.165	3898.56
314.394	4000.56
314.624	3799.56
314.853	3811.56
315.083	3811.56
315.312	3793.56
315.542	3749.56
315.771	3680.56
316.001	3678.56
316.23	3693.56
316.46	3756.56
316.689	3775.56
316.919	3791.56
317.148	3773.56
317.377	3792.56
317.607	3715.56
317.836	3657.56
318.065	3690.56
318.295	3688.56
318.524	3684.56
318.753	3625.56
318.983	3653.56
319.212	3710.56
319.441	3798.56
319.67	3780.56
319.9	3652.56
320.129	3734.56
320.358	3748.56
320.587	3735.56
320.816	3807.56
321.046	3810.56
321.275	3831.56
321.504	3817.56
321.733	3878.56
321.962	3932.56
322.191	4009.56
322.42	4158.56
322.649	4190.56
322.878	4252.56
323.108	4304.56
323.337	4554.56
323.566	4668.56
323.795	4982.56
324.024	5503.56
324.253	7279.56
324.482	10973.56
324.71	15196.56
324.939	15600.56
325.168	12990.56
325.397	6635.56
325.626	5273.56
325.855	4860.56
326.084	4796.56
326.313	4774.56
326.542	4871.56
326.77	5500.56
326.999	6985.56
327.228	10285.56
327.457	14290.56
327.686	13573.56
327.914	7261.56
328.143	5741.56
328.372	5345.56
328.6	5244.56
328.829	5149.56
329.058	5267.56
329.287	5292.56
329.515	4933.56
329.744	4731.56
329.972	4752.56
330.201	4816.56
330.43	5103.56
330.658	5426.56
330.887	5652.56
331.115	5298.56
331.344	4872.56
331.572	4832.56
331.801	4979.56
332.03	5005.56
332.258	4911.56
332.486	4903.56
332.715	5028.56
332.943	5141.56
333.172	5317.56
333.4	5402.56
333.629	5514.56
333.857	5579.56
334.085	5433.56
334.314	5337.56
334.542	5308.56
334.771	5283.56
334.999	5219.56
335.227	5199.56
335.455	5160.56
335.684	5015.56
335.912	4994.56
336.14	4952.56
336.369	4874.56
336.597	4990.56
336.825	4892.56
337.053	4874.56
337.281	4869.56
337.51	4704.56
337.738	4705.56
337.966	4680.56
338.194	4667.56
338.422	4602.56
338.65	4598.56
338.878	4560.56
339.106	4573.56
339.334	4526.56
339.562	4519.56
339.79	4458.56
340.018	4472.56
340.246	4397.56
340.474	4440.56
340.702	4413.56
340.93	4334.56
341.158	4408.56
341.386	4355.56
341.614	4423.56
341.842	4363.56
342.07	4314.56
342.298	4335.56
342.526	4277.56
342.754	4216.56
342.981	4309.56
343.209	4405.56
343.437	4661.56
343.665	4898.56
343.893	5216.56
344.12	5232.56
344.348	5004.56
344.576	4854.56
344.804	4750.56
345.031	4631.56
345.259	4628.56
345.487	4471.56
345.714	4419.56
345.942	4313.56
346.17	4266.56
346.397	4281.56
346.625	4236.56
346.853	4225.56
347.08	4226.56
347.308	4247.56
347.535	4276.56
347.763	4360.56
347.99	4301.56
348.218	4346.56
348.445	4324.56
348.673	4314.56
348.9	4175.56
349.128	4106.56
349.355	4134.56
349.583	4105.56
349.81	4070.56
350.037	4071.56
350.265	4101.56
350.492	4010.56
350.72	4121.56
350.947	4090.56
351.174	4239.56
351.402	4233.56
351.629	4262.56
351.856	4130.56
352.083	4178.56
352.311	4258.56
352.538	4242.56
352.765	4232.56
352.992	4105.56
353.22	4104.56
353.447	4117.56
353.674	4054.56
353.901	3951.56
354.128	3977.56
354.355	3982.56
354.583	4030.56
354.81	3922.56
355.037	4013.56
355.264	3929.56
355.491	3935.56
355.718	3939.56
355.945	3987.56
356.172	3999.56
356.399	3995.56
356.626	4011.56
356.853	4000.56
357.08	3909.56
357.307	3946.56
357.534	3998.56
357.761	4039.56
357.988	3955.56
358.215	4027.56
358.441	4051.56
358.668	4023.56
358.895	4010.56
359.122	4053.56
359.349	4156.56
359.576	4298.56
359.802	4454.56
360.029	4604.56
360.256	4572.56
360.483	4454.56
360.709	4240.56
360.936	4204.56
361.163	4238.56
361.39	4274.56
361.616	4243.56
361.843	4146.56
362.07	4188.56
362.296	4184.56
362.523	4154.56
362.749	4143.56
362.976	4140.56
363.203	4064.56
363.429	4015.56
363.656	4048.56
363.882	4120.56
364.109	4082.56
364.335	4063.56
364.562	4047.56
364.788	4021.56
365.015	4014.56
365.241	4078.56
365.468	4061.56
365.694	4118.56
365.92	4104.56
366.147	4049.56
366.373	4068.56
366.599	4049.56
366.826	4010.56
367.052	3965.56
367.278	4050.56
367.505	4119.56
367.731	4078.56
367.957	4105.56
368.184	4118.56
368.41	4172.56
368.636	4265.56
368.862	4308.56
369.089	4185.56
369.315	4137.56
369.541	4158.56
369.767	4188.56
369.993	4229.56
370.219	4249.56
370.445	4253.56
370.672	4271.56
370.898	4254.56
371.124	4351.56
371.35	4343.56
371.576	4346.56
371.802	4322.56
372.028	4275.56
372.254	4314.56
372.48	4317.56
372.706	4458.56
372.932	4450.56
373.158	4398.56
373.384	4385.56
373.61	4278.56
373.835	4378.56
374.061	4382.56
374.287	4444.56
374.513	4529.56
374.739	4648.56
374.965	4732.56
375.191	4757.56
375.416	4662.56
375.642	4469.56
375.868	4507.56
376.094	4400.56
376.319	4381.56
376.545	4396.56
376.771	4352.56
376.997	4395.56
377.222	4344.56
377.448	4318.56
377.674	4340.56
377.899	4309.56
378.125	4281.56
378.35	4293.56
378.576	4303.56
378.802	4227.56
379.027	4323.56
379.253	4321.56
379.478	4263.56
379.704	4379.56
379.929	4355.56
380.155	4404.56
380.38	4294.56
380.606	4399.56
380.831	4347.56
381.057	4402.56
381.282	4303.56
381.507	4349.56
381.733	4418.56
381.958	4452.56
382.184	4504.56
382.409	4575.56
382.634	4546.56
382.86	4525.56
383.085	4678.56
383.31	4731.56
383.535	4751.56
383.761	4816.56
383.986	4883.56
384.211	4980.56
384.436	5076.56
384.662	5014.56
384.887	5201.56
385.112	5171.56
385.337	5221.56
385.562	5276.56
385.787	5294.56
386.013	5333.56
386.238	5360.56
386.463	5321.56
386.688	5299.56
386.913	5244.56
387.138	5193.56
387.363	5194.56
387.588	5141.56
387.813	5147.56
388.038	5177.56
388.263	5180.56
388.488	5258.56
388.713	5247.56
388.938	5230.56
389.163	5161.56
389.387	5171.56
389.612	5116.56
389.837	5093.56
390.062	5054.56
390.287	5095.56
390.512	5078.56
390.736	5126.56
390.961	5242.56
391.186	5335.56
391.411	5549.56
391.636	5658.56
391.86	5861.56
392.085	5903.56
392.31	5742.56
392.534	5642.56
392.759	5574.56
392.984	5409.56
393.208	5356.56
393.433	5371.56
393.658	5352.56
393.882	5366.56
394.107	5402.56
394.331	5442.56
394.556	5433.56
394.78	5572.56
395.005	5524.56
395.229	5619.56
395.454	5726.56
395.678	5834.56
395.903	5907.56
396.127	5936.56
396.352	5726.56
396.576	5500.56
396.801	5455.56
397.025	5694.56
397.249	5730.56
397.474	5855.56
397.698	5939.56
397.922	6005.56
398.147	6105.56
398.371	6193.56
398.595	6298.56
398.82	6664.56
399.044	7209.56
399.268	7958.56
399.492	9020.56
399.717	9574.56
399.941	9342.56
400.165	8752.56
400.389	8093.56
400.613	7294.56
400.837	6810.56
401.062	6766.56
401.286	6570.56
401.51	6552.56
401.734	6532.56
401.958	6694.56
402.182	6732.56
402.406	6902.56
402.63	6945.56
402.854	6991.56
403.078	7127.56
403.302	7306.56
403.526	7362.56
403.75	7451.56
403.974	7458.56
404.198	7420.56
404.422	7496.56
404.645	7388.56
404.869	7288.56
405.093	7501.56
405.317	7503.56
405.541	7552.56
405.765	7282.56
405.988	7197.56
406.212	7457.56
406.436	7682.56
406.66	7775.56
406.883	7773.56
407.107	8365.56
407.331	8916.56
407.555	9444.56
407.778	9124.56
408.002	8358.56
408.226	7795.56
408.449	7757.56
408.673	7649.56
408.896	7765.56
409.12	7997.56
409.344	7574.56
409.567	7173.56
409.791	7146.56
410.014	7068.56
410.238	7061.56
410.461	6967.56
410.685	7022.56
410.908	7197.56
411.132	7362.56
411.355	7393.56
411.578	7050.56
411.802	6757.56
412.025	6820.56
412.249	6834.56
412.472	6798.56
412.695	6540.56
412.919	6463.56
413.142	6452.56
413.365	6428.56
413.589	6497.56
413.812	6357.56
414.035	6317.56
414.258	6338.56
414.482	6453.56
414.705	6485.56
414.928	6476.56
415.151	6451.56
415.374	6432.56
415.597	6416.56
415.821	6326.56
416.044	6295.56
416.267	6270.56
416.49	6239.56
416.713	6266.56
416.936	6292.56
417.159	6339.56
417.382	6342.56
417.605	6411.56
417.828	6479.56
418.051	6647.56
418.274	6558.56
418.497	6466.56
418.72	6584.56
418.943	6518.56
419.166	6916.56
419.389	7317.56
419.611	7212.56
419.834	6960.56
420.057	6836.56
420.28	6661.56
420.503	6505.56
420.726	6501.56
420.948	6705.56
421.171	7082.56
421.394	7010.56
421.617	6571.56
421.839	6474.56
422.062	6666.56
422.285	6822.56
422.507	7454.56
422.73	8034.56
422.953	7427.56
423.175	7045.56
423.398	7067.56
423.621	7087.56
423.843	7339.56
424.066	7261.56
424.288	7254.56
424.511	7339.56
424.733	7855.56
424.956	8230.56
425.178	7882.56
425.401	8061.56
425.623	7849.56
425.846	6879.56
426.068	6758.56
426.291	6612.56
426.513	6589.56
426.735	6795.56
426.958	7156.56
427.18	7957.56
427.402	8959.56
427.625	9060.56
427.847	7655.56
428.069	6733.56
428.292	6477.56
428.514	6122.56
428.736	6103.56
428.958	6010.56
429.181	5888.56
429.403	5906.56
429.625	6054.56
429.847	6384.56
430.069	6878.56
430.292	6441.56
430.514	5867.56
430.736	5826.56
430.958	5766.56
431.18	5719.56
431.402	5711.56
431.624	5698.56
431.846	5734.56
432.068	5816.56
432.29	5991.56
432.512	5727.56
432.734	5923.56
432.956	5756.56
433.178	5903.56
433.4	5946.56
433.622	5799.56
433.844	5787.56
434.066	5829.56
434.287	5978.56
434.509	6170.56
434.731	6383.56
434.953	6582.56
435.175	6729.56
435.397	6816.56
435.618	6680.56
435.84	7045.56
436.062	7829.56
436.284	7879.56
436.505	6646.56
436.727	6303.56
436.949	6052.56
437.17	5860.56
437.392	5876.56
437.614	6002.56
437.835	6380.56
438.057	7378.56
438.278	8031.56
438.5	7959.56
438.721	8735.56
438.943	7680.56
439.165	6539.56
439.386	6356.56
439.608	6339.56
439.829	6435.56
440.05	6736.56
440.272	7008.56
440.493	6534.56
440.715	6232.56
440.936	6145.56
441.158	6210.56
441.379	6373.56
441.6	6652.56
441.822	6925.56
442.043	7356.56
442.264	8169.56
442.486	7816.56
442.707	6895.56
442.928	6838.56
443.149	7015.56
443.371	7151.56
443.592	7771.56
443.813	8742.56
444.034	8702.56
444.255	7599.56
444.476	7383.56
444.698	7548.56
444.919	7744.56
445.14	7438.56
445.361	7322.56
445.582	7527.56
445.803	7973.56
446.024	8719.56
446.245	8336.56
446.466	7541.56
446.687	6609.56
446.908	6264.56
447.129	5880.56
447.35	5774.56
447.571	5762.56
447.792	5704.56
448.013	5684.56
448.234	5926.56
448.455	6602.56
448.675	7814.56
448.896	8141.56
449.117	6741.56
449.338	7017.56
449.559	8287.56
449.779	8503.56
450	6552.56
450.221	5827.56
450.442	5604.56
450.662	5468.56
450.883	5524.56
451.104	5687.56
451.324	5462.56
451.545	5404.56
451.766	5277.56
451.986	5163.56
452.207	5172.56
452.428	5075.56
452.648	5083.56
452.869	5126.56
453.089	5204.56
453.31	5371.56
453.53	5161.56
453.751	5026.56
453.971	5073.56
454.192	5224.56
454.412	5038.56
454.633	4972.56
454.853	4972.56
455.073	5055.56
455.294	5455.56
455.514	5878.56
455.734	5436.56
455.955	4903.56
456.175	4762.56
456.395	4709.56
456.616	4626.56
456.836	4647.56
457.056	4672.56
457.276	4605.56
457.497	4754.56
457.717	4755.56
457.937	4823.56
458.157	4891.56
458.377	5011.56
458.598	5315.56
458.818	6016.56
459.038	6751.56
459.258	6696.56
459.478	5971.56
459.698	5890.56
459.918	5932.56
460.138	6096.56
460.358	6323.56
460.578	6293.56
460.798	6420.56
461.018	6358.56
461.238	6278.56
461.458	6260.56
461.678	6207.56
461.898	6442.56
462.118	6401.56
462.338	6792.56
462.558	6914.56
462.777	7194.56
462.997	7717.56
463.217	8182.56
463.437	7944.56
463.657	7402.56
463.876	7169.56
464.096	7193.56
464.316	7323.56
464.536	7234.56
464.755	7074.56
464.975	6925.56
465.195	7086.56
465.414	6999.56
465.634	6323.56
465.854	5934.56
466.073	5650.56
466.293	5498.56
466.512	5357.56
466.732	5207.56
466.951	5272.56
467.171	5280.56
467.391	5332.56
467.61	5413.56
467.829	5284.56
468.049	5212.56
468.268	5050.56
468.488	4988.56
468.707	4966.56
468.927	5007.56
469.146	5019.56
469.365	5073.56
469.585	5123.56
469.804	5334.56
470.023	5437.56
470.243	5420.56
470.462	5540.56
470.681	5609.56
470.901	5576.56
471.12	5437.56
471.339	5349.56
471.558	5345.56
471.777	5221.56
471.997	5084.56
472.216	5046.56
472.435	5068.56
472.654	5038.56
472.873	4983.56
473.092	4978.56
473.311	4973.56
473.53	4974.56
473.749	5124.56
473.968	5672.56
474.187	6691.56
474.406	6246.56
474.625	5298.56
474.844	5121.56
475.063	5019.56
475.282	5060.56
475.501	5125.56
475.72	5163.56
475.939	5169.56
476.158	5208.56
476.377	5221.56
476.596	5256.56
476.814	5325.56
477.033	5429.56
477.252	5519.56
477.471	5614.56
477.69	5617.56
477.908	5869.56
478.127	5919.56
478.346	6074.56
478.564	6149.56
478.783	6302.56
479.002	6418.56
479.22	6392.56
479.439	6420.56
479.658	6532.56
479.876	6646.56
480.095	6836.56
480.313	7268.56
480.532	7118.56
480.751	6967.56
480.969	6864.56
481.188	6687.56
481.406	6426.56
481.624	6251.56
481.843	6198.56
482.061	6072.56
482.28	6016.56
482.498	5962.56
482.717	5820.56
482.935	5994.56
483.153	5855.56
483.372	5823.56
483.59	5871.56
483.808	5950.56
484.027	5890.56
484.245	5993.56
484.463	6034.56
484.681	6115.56
484.9	6141.56
485.118	6171.56
485.336	6222.56
485.554	6277.56
485.772	6340.56
485.99	6315.56
486.209	6466.56
486.427	6352.56
486.645	6450.56
486.863	6498.56
487.081	6407.56
487.299	6422.56
487.517	6384.56
487.735	6411.56
487.953	6270.56
