Data from Uncirc_2007_H10_HRD10591_00023.txt Node
Date: Wed Jan 03 10:20:47 EST 2024
User: Yrep
Spectrometer: HR+D1059
Trigger mode: 1
Integration Time (sec): 1.000000E-1
Scans to average: 1
Electric dark correction enabled: true
Nonlinearity correction enabled: false
Boxcar width: 0
XAxis mode: Wavelengths
Number of Pixels in Spectrum: 2048
>>>>>Begin Spectral Data<<<<<
223.165	-19.25
223.4	-19.25
223.635	-19.25
223.869	-18.25
224.104	-14.25
224.338	-26.25
224.573	-28.25
224.808	-10.25
225.042	-4.25
225.277	0.75
225.511	-9.25
225.746	1.75
225.98	19.75
226.215	4.75
226.449	21.75
226.683	17.75
226.918	31.75
227.152	31.75
227.387	34.75
227.621	43.75
227.856	51.75
228.09	46.75
228.324	62.75
228.559	58.75
228.793	50.75
229.027	52.75
229.262	77.75
229.496	74.75
229.73	90.75
229.964	71.75
230.199	91.75
230.433	80.75
230.667	82.75
230.901	87.75
231.136	77.75
231.37	71.75
231.604	64.75
231.838	79.75
232.072	81.75
232.306	80.75
232.541	84.75
232.775	79.75
233.009	90.75
233.243	97.75
233.477	83.75
233.711	81.75
233.945	74.75
234.179	88.75
234.413	81.75
234.647	68.75
234.881	75.75
235.115	82.75
235.349	94.75
235.583	82.75
235.817	70.75
236.051	81.75
236.285	72.75
236.519	84.75
236.753	84.75
236.987	79.75
237.221	90.75
237.455	75.75
237.689	82.75
237.922	83.75
238.156	80.75
238.39	62.75
238.624	72.75
238.858	85.75
239.091	78.75
239.325	74.75
239.559	83.75
239.793	75.75
240.027	71.75
240.26	81.75
240.494	81.75
240.728	75.75
240.961	66.75
241.195	78.75
241.429	79.75
241.662	73.75
241.896	70.75
242.13	77.75
242.363	75.75
242.597	77.75
242.83	78.75
243.064	75.75
243.298	84.75
243.531	96.75
243.765	90.75
243.998	79.75
244.232	91.75
244.465	68.75
244.699	60.75
244.932	58.75
245.166	82.75
245.399	66.75
245.633	68.75
245.866	81.75
246.099	78.75
246.333	79.75
246.566	86.75
246.8	89.75
247.033	85.75
247.266	87.75
247.5	85.75
247.733	91.75
247.966	85.75
248.2	73.75
248.433	78.75
248.666	77.75
248.899	98.75
249.133	96.75
249.366	105.75
249.599	105.75
249.832	88.75
250.066	79.75
250.299	70.75
250.532	85.75
250.765	81.75
250.998	79.75
251.231	72.75
251.465	82.75
251.698	81.75
251.931	81.75
252.164	80.75
252.397	72.75
252.63	65.75
252.863	76.75
253.096	74.75
253.329	93.75
253.562	84.75
253.795	81.75
254.028	90.75
254.261	87.75
254.494	88.75
254.727	68.75
254.96	67.75
255.193	68.75
255.426	73.75
255.659	89.75
255.892	86.75
256.124	80.75
256.357	82.75
256.59	89.75
256.823	77.75
257.056	78.75
257.289	83.75
257.521	72.75
257.754	82.75
257.987	78.75
258.22	84.75
258.452	86.75
258.685	72.75
258.918	76.75
259.151	88.75
259.383	86.75
259.616	92.75
259.849	82.75
260.081	68.75
260.314	76.75
260.547	82.75
260.779	98.75
261.012	76.75
261.244	89.75
261.477	86.75
261.71	103.75
261.942	124.75
262.175	116.75
262.407	78.75
262.64	84.75
262.872	76.75
263.105	81.75
263.337	64.75
263.57	84.75
263.802	102.75
264.035	82.75
264.267	73.75
264.499	85.75
264.732	90.75
264.964	82.75
265.197	95.75
265.429	85.75
265.661	75.75
265.894	84.75
266.126	100.75
266.358	89.75
266.591	84.75
266.823	74.75
267.055	75.75
267.287	78.75
267.52	82.75
267.752	86.75
267.984	90.75
268.216	74.75
268.448	74.75
268.681	78.75
268.913	88.75
269.145	80.75
269.377	88.75
269.609	77.75
269.841	88.75
270.073	80.75
270.306	80.75
270.538	83.75
270.77	74.75
271.002	85.75
271.234	76.75
271.466	85.75
271.698	89.75
271.93	93.75
272.162	79.75
272.394	83.75
272.626	80.75
272.858	76.75
273.09	88.75
273.322	92.75
273.553	87.75
273.785	90.75
274.017	90.75
274.249	89.75
274.481	74.75
274.713	89.75
274.945	73.75
275.176	84.75
275.408	91.75
275.64	84.75
275.872	89.75
276.104	100.75
276.335	83.75
276.567	88.75
276.799	108.75
277.031	105.75
277.262	84.75
277.494	96.75
277.726	91.75
277.957	86.75
278.189	91.75
278.421	96.75
278.652	77.75
278.884	83.75
279.115	79.75
279.347	92.75
279.579	89.75
279.81	92.75
280.042	97.75
280.273	82.75
280.505	79.75
280.736	84.75
280.968	80.75
281.199	72.75
281.431	78.75
281.662	98.75
281.894	95.75
282.125	81.75
282.356	123.75
282.588	122.75
282.819	109.75
283.051	104.75
283.282	85.75
283.513	93.75
283.745	77.75
283.976	89.75
284.207	79.75
284.439	81.75
284.67	75.75
284.901	82.75
285.132	86.75
285.364	90.75
285.595	76.75
285.826	79.75
286.057	103.75
286.288	88.75
286.52	94.75
286.751	91.75
286.982	90.75
287.213	88.75
287.444	85.75
287.675	91.75
287.906	90.75
288.138	79.75
288.369	82.75
288.6	95.75
288.831	93.75
289.062	85.75
289.293	107.75
289.524	90.75
289.755	93.75
289.986	86.75
290.217	99.75
290.448	92.75
290.679	86.75
290.91	97.75
291.141	97.75
291.371	90.75
291.602	85.75
291.833	90.75
292.064	97.75
292.295	90.75
292.526	85.75
292.757	107.75
292.987	95.75
293.218	95.75
293.449	110.75
293.68	93.75
293.91	86.75
294.141	97.75
294.372	96.75
294.603	83.75
294.833	84.75
295.064	99.75
295.295	84.75
295.525	89.75
295.756	96.75
295.987	111.75
296.217	140.75
296.448	114.75
296.679	88.75
296.909	80.75
297.14	81.75
297.37	82.75
297.601	94.75
297.831	91.75
298.062	91.75
298.292	104.75
298.523	92.75
298.753	94.75
298.984	77.75
299.214	81.75
299.445	99.75
299.675	104.75
299.905	101.75
300.136	101.75
300.366	77.75
300.597	81.75
300.827	98.75
301.057	106.75
301.288	106.75
301.518	88.75
301.748	92.75
301.979	104.75
302.209	91.75
302.439	94.75
302.669	85.75
302.9	90.75
303.13	88.75
303.36	103.75
303.59	101.75
303.82	99.75
304.051	95.75
304.281	103.75
304.511	98.75
304.741	87.75
304.971	99.75
305.201	87.75
305.431	80.75
305.661	81.75
305.891	92.75
306.121	96.75
306.352	106.75
306.582	114.75
306.812	91.75
307.042	102.75
307.272	105.75
307.502	83.75
307.731	85.75
307.961	92.75
308.191	83.75
308.421	92.75
308.651	94.75
308.881	83.75
309.111	90.75
309.341	84.75
309.571	92.75
309.8	106.75
310.03	103.75
310.26	99.75
310.49	103.75
310.72	93.75
310.949	102.75
311.179	101.75
311.409	91.75
311.639	97.75
311.868	99.75
312.098	93.75
312.328	102.75
312.557	105.75
312.787	92.75
313.017	108.75
313.246	90.75
313.476	97.75
313.706	101.75
313.935	80.75
314.165	98.75
314.394	103.75
314.624	93.75
314.853	98.75
315.083	97.75
315.312	88.75
315.542	89.75
315.771	98.75
316.001	89.75
316.23	86.75
316.46	100.75
316.689	84.75
316.919	84.75
317.148	106.75
317.377	97.75
317.607	88.75
317.836	99.75
318.065	93.75
318.295	82.75
318.524	96.75
318.753	78.75
318.983	93.75
319.212	108.75
319.441	93.75
319.67	108.75
319.9	99.75
320.129	93.75
320.358	97.75
320.587	98.75
320.816	92.75
321.046	116.75
321.275	97.75
321.504	110.75
321.733	101.75
321.962	100.75
322.191	114.75
322.42	88.75
322.649	99.75
322.878	107.75
323.108	128.75
323.337	129.75
323.566	128.75
323.795	160.75
324.024	230.75
324.253	422.75
324.482	937.75
324.71	1907.75
324.939	2561.75
325.168	923.75
325.397	261.75
325.626	177.75
325.855	132.75
326.084	128.75
326.313	131.75
326.542	153.75
326.77	225.75
326.999	508.75
327.228	1064.75
327.457	1961.75
327.686	1576.75
327.914	410.75
328.143	194.75
328.372	160.75
328.6	135.75
328.829	121.75
329.058	120.75
329.287	120.75
329.515	100.75
329.744	105.75
329.972	91.75
330.201	103.75
330.43	101.75
330.658	121.75
330.887	144.75
331.115	124.75
331.344	89.75
331.572	108.75
331.801	103.75
332.03	92.75
332.258	92.75
332.486	96.75
332.715	80.75
332.943	96.75
333.172	84.75
333.4	91.75
333.629	95.75
333.857	105.75
334.085	97.75
334.314	88.75
334.542	87.75
334.771	89.75
334.999	96.75
335.227	98.75
335.455	94.75
335.684	106.75
335.912	111.75
336.14	90.75
336.369	89.75
336.597	96.75
336.825	98.75
337.053	99.75
337.281	109.75
337.51	98.75
337.738	88.75
337.966	79.75
338.194	97.75
338.422	96.75
338.65	85.75
338.878	89.75
339.106	94.75
339.334	95.75
339.562	89.75
339.79	88.75
340.018	90.75
340.246	89.75
340.474	83.75
340.702	85.75
340.93	81.75
341.158	98.75
341.386	93.75
341.614	103.75
341.842	89.75
342.07	80.75
342.298	96.75
342.526	83.75
342.754	93.75
342.981	92.75
343.209	90.75
343.437	82.75
343.665	75.75
343.893	88.75
344.12	89.75
344.348	87.75
344.576	87.75
344.804	94.75
345.031	81.75
345.259	95.75
345.487	88.75
345.714	92.75
345.942	100.75
346.17	87.75
346.397	89.75
346.625	90.75
346.853	96.75
347.08	103.75
347.308	103.75
347.535	104.75
347.763	95.75
347.99	95.75
348.218	96.75
348.445	113.75
348.673	101.75
348.9	85.75
349.128	98.75
349.355	99.75
349.583	103.75
349.81	91.75
350.037	97.75
350.265	98.75
350.492	104.75
350.72	96.75
350.947	100.75
351.174	96.75
351.402	104.75
351.629	103.75
351.856	94.75
352.083	117.75
352.311	101.75
352.538	90.75
352.765	112.75
352.992	120.75
353.22	123.75
353.447	108.75
353.674	98.75
353.901	96.75
354.128	84.75
354.355	92.75
354.583	90.75
354.81	94.75
355.037	102.75
355.264	89.75
355.491	87.75
355.718	90.75
355.945	92.75
356.172	103.75
356.399	98.75
356.626	99.75
356.853	96.75
357.08	94.75
357.307	93.75
357.534	82.75
357.761	94.75
357.988	88.75
358.215	88.75
358.441	97.75
358.668	89.75
358.895	88.75
359.122	95.75
359.349	99.75
359.576	97.75
359.802	91.75
360.029	93.75
360.256	100.75
360.483	95.75
360.709	90.75
360.936	89.75
361.163	99.75
361.39	99.75
361.616	94.75
361.843	85.75
362.07	92.75
362.296	92.75
362.523	92.75
362.749	84.75
362.976	87.75
363.203	103.75
363.429	94.75
363.656	84.75
363.882	83.75
364.109	85.75
364.335	95.75
364.562	90.75
364.788	94.75
365.015	93.75
365.241	102.75
365.468	100.75
365.694	90.75
365.92	116.75
366.147	94.75
366.373	100.75
366.599	86.75
366.826	92.75
367.052	79.75
367.278	86.75
367.505	82.75
367.731	82.75
367.957	98.75
368.184	88.75
368.41	106.75
368.636	99.75
368.862	115.75
369.089	101.75
369.315	80.75
369.541	87.75
369.767	84.75
369.993	97.75
370.219	100.75
370.445	92.75
370.672	89.75
370.898	90.75
371.124	83.75
371.35	68.75
371.576	91.75
371.802	87.75
372.028	92.75
372.254	80.75
372.48	76.75
372.706	83.75
372.932	84.75
373.158	89.75
373.384	99.75
373.61	96.75
373.835	89.75
374.061	78.75
374.287	97.75
374.513	80.75
374.739	95.75
374.965	100.75
375.191	88.75
375.416	76.75
375.642	92.75
375.868	82.75
376.094	95.75
376.319	101.75
376.545	95.75
376.771	86.75
376.997	96.75
377.222	93.75
377.448	94.75
377.674	110.75
377.899	79.75
378.125	88.75
378.35	85.75
378.576	97.75
378.802	87.75
379.027	103.75
379.253	97.75
379.478	97.75
379.704	80.75
379.929	108.75
380.155	94.75
380.38	91.75
380.606	94.75
380.831	106.75
381.057	93.75
381.282	92.75
381.507	80.75
381.733	98.75
381.958	95.75
382.184	93.75
382.409	94.75
382.634	91.75
382.86	98.75
383.085	92.75
383.31	104.75
383.535	106.75
383.761	101.75
383.986	118.75
384.211	110.75
384.436	85.75
384.662	110.75
384.887	112.75
385.112	96.75
385.337	98.75
385.562	111.75
385.787	112.75
386.013	97.75
386.238	113.75
386.463	113.75
386.688	102.75
386.913	83.75
387.138	107.75
387.363	88.75
387.588	104.75
387.813	102.75
388.038	86.75
388.263	107.75
388.488	105.75
388.713	94.75
388.938	106.75
389.163	96.75
389.387	98.75
389.612	90.75
389.837	88.75
390.062	93.75
390.287	99.75
390.512	95.75
390.736	84.75
390.961	89.75
391.186	97.75
391.411	108.75
391.636	89.75
391.86	84.75
392.085	82.75
392.31	78.75
392.534	82.75
392.759	87.75
392.984	88.75
393.208	93.75
393.433	79.75
393.658	87.75
393.882	74.75
394.107	96.75
394.331	100.75
394.556	77.75
394.78	96.75
395.005	83.75
395.229	81.75
395.454	73.75
395.678	81.75
395.903	79.75
396.127	72.75
396.352	81.75
396.576	85.75
396.801	79.75
397.025	99.75
397.249	86.75
397.474	90.75
397.698	91.75
397.922	90.75
398.147	80.75
398.371	81.75
398.595	83.75
398.82	81.75
399.044	84.75
399.268	86.75
399.492	74.75
399.717	76.75
399.941	82.75
400.165	88.75
400.389	96.75
400.613	90.75
400.837	86.75
401.062	92.75
401.286	96.75
401.51	78.75
401.734	89.75
401.958	103.75
402.182	129.75
402.406	165.75
402.63	119.75
402.854	89.75
403.078	98.75
403.302	92.75
403.526	102.75
403.75	90.75
403.974	95.75
404.198	82.75
404.422	92.75
404.645	85.75
404.869	86.75
405.093	86.75
405.317	98.75
405.541	93.75
405.765	88.75
405.988	114.75
406.212	154.75
406.436	232.75
406.66	147.75
406.883	108.75
407.107	99.75
407.331	100.75
407.555	99.75
407.778	98.75
408.002	88.75
408.226	91.75
408.449	89.75
408.673	82.75
408.896	112.75
409.12	98.75
409.344	78.75
409.567	85.75
409.791	89.75
410.014	97.75
410.238	95.75
410.461	87.75
410.685	103.75
410.908	95.75
411.132	113.75
411.355	87.75
411.578	90.75
411.802	88.75
412.025	85.75
412.249	90.75
412.472	89.75
412.695	98.75
412.919	86.75
413.142	93.75
413.365	83.75
413.589	82.75
413.812	98.75
414.035	85.75
414.258	94.75
414.482	77.75
414.705	99.75
414.928	97.75
415.151	99.75
415.374	93.75
415.597	106.75
415.821	94.75
416.044	85.75
416.267	96.75
416.49	84.75
416.713	76.75
416.936	103.75
417.159	91.75
417.382	85.75
417.605	81.75
417.828	98.75
418.051	77.75
418.274	98.75
418.497	97.75
418.72	100.75
418.943	93.75
419.166	85.75
419.389	82.75
419.611	83.75
419.834	101.75
420.057	75.75
420.28	84.75
420.503	99.75
420.726	97.75
420.948	105.75
421.171	96.75
421.394	104.75
421.617	98.75
421.839	79.75
422.062	93.75
422.285	84.75
422.507	91.75
422.73	112.75
422.953	109.75
423.175	90.75
423.398	93.75
423.621	94.75
423.843	95.75
424.066	90.75
424.288	73.75
424.511	91.75
424.733	94.75
424.956	100.75
425.178	106.75
425.401	105.75
425.623	101.75
425.846	97.75
426.068	91.75
426.291	85.75
426.513	99.75
426.735	91.75
426.958	88.75
427.18	105.75
427.402	156.75
427.625	169.75
427.847	111.75
428.069	82.75
428.292	90.75
428.514	85.75
428.736	85.75
428.958	74.75
429.181	94.75
429.403	91.75
429.625	89.75
429.847	92.75
430.069	98.75
430.292	92.75
430.514	73.75
430.736	88.75
430.958	87.75
431.18	95.75
431.402	89.75
431.624	89.75
431.846	69.75
432.068	73.75
432.29	73.75
432.512	77.75
432.734	88.75
432.956	79.75
433.178	103.75
433.4	103.75
433.622	81.75
433.844	89.75
434.066	99.75
434.287	88.75
434.509	87.75
434.731	87.75
434.953	85.75
435.175	89.75
435.397	95.75
435.618	92.75
435.84	95.75
436.062	129.75
436.284	114.75
436.505	100.75
436.727	97.75
436.949	107.75
437.17	83.75
437.392	93.75
437.614	84.75
437.835	102.75
438.057	122.75
438.278	106.75
438.5	83.75
438.721	115.75
438.943	96.75
439.165	89.75
439.386	82.75
439.608	84.75
439.829	93.75
440.05	146.75
440.272	143.75
440.493	102.75
440.715	81.75
440.936	90.75
441.158	84.75
441.379	87.75
441.6	91.75
441.822	90.75
442.043	88.75
442.264	95.75
442.486	104.75
442.707	104.75
442.928	96.75
443.149	117.75
443.371	127.75
443.592	115.75
443.813	106.75
444.034	98.75
444.255	89.75
444.476	100.75
444.698	82.75
444.919	81.75
445.14	135.75
445.361	121.75
445.582	119.75
445.803	143.75
446.024	149.75
446.245	144.75
446.466	113.75
446.687	97.75
446.908	90.75
447.129	73.75
447.35	84.75
447.571	76.75
447.792	91.75
448.013	91.75
448.234	114.75
448.455	109.75
448.675	108.75
448.896	116.75
449.117	104.75
449.338	110.75
449.559	124.75
449.779	136.75
450	111.75
450.221	79.75
450.442	81.75
450.662	94.75
450.883	97.75
451.104	114.75
451.324	80.75
451.545	80.75
451.766	93.75
451.986	86.75
452.207	100.75
452.428	90.75
452.648	90.75
452.869	105.75
453.089	111.75
453.31	120.75
453.53	97.75
453.751	107.75
453.971	110.75
454.192	112.75
454.412	100.75
454.633	85.75
454.853	102.75
455.073	92.75
455.294	74.75
455.514	90.75
455.734	94.75
455.955	85.75
456.175	88.75
456.395	91.75
456.616	95.75
456.836	75.75
457.056	86.75
457.276	76.75
457.497	58.75
457.717	88.75
457.937	87.75
458.157	80.75
458.377	80.75
458.598	110.75
458.818	142.75
459.038	154.75
459.258	102.75
459.478	99.75
459.698	82.75
459.918	91.75
460.138	85.75
460.358	71.75
460.578	82.75
460.798	84.75
461.018	80.75
461.238	95.75
461.458	90.75
461.678	79.75
461.898	95.75
462.118	87.75
462.338	101.75
462.558	85.75
462.777	90.75
462.997	80.75
463.217	77.75
463.437	79.75
463.657	89.75
463.876	85.75
464.096	89.75
464.316	90.75
464.536	86.75
464.755	101.75
464.975	101.75
465.195	172.75
465.414	147.75
465.634	77.75
465.854	82.75
466.073	81.75
466.293	81.75
466.512	75.75
466.732	83.75
466.951	90.75
467.171	91.75
467.391	90.75
467.61	98.75
467.829	103.75
468.049	92.75
468.268	83.75
468.488	80.75
468.707	78.75
468.927	89.75
469.146	87.75
469.365	67.75
469.585	71.75
469.804	88.75
470.023	91.75
470.243	80.75
470.462	107.75
470.681	109.75
470.901	96.75
471.12	79.75
471.339	83.75
471.558	84.75
471.777	89.75
471.997	87.75
472.216	91.75
472.435	80.75
472.654	96.75
472.873	98.75
473.092	85.75
473.311	91.75
473.53	80.75
473.749	93.75
473.968	110.75
474.187	100.75
474.406	96.75
474.625	88.75
474.844	90.75
475.063	74.75
475.282	94.75
475.501	84.75
475.72	73.75
475.939	90.75
476.158	84.75
476.377	91.75
476.596	94.75
476.814	93.75
477.033	95.75
477.252	97.75
477.471	82.75
477.69	84.75
477.908	91.75
478.127	91.75
478.346	81.75
478.564	98.75
478.783	101.75
479.002	102.75
479.22	97.75
479.439	102.75
479.658	100.75
479.876	102.75
480.095	92.75
480.313	89.75
480.532	77.75
480.751	96.75
480.969	89.75
481.188	102.75
481.406	97.75
481.624	74.75
481.843	55.75
482.061	88.75
482.28	74.75
482.498	93.75
482.717	85.75
482.935	92.75
483.153	71.75
483.372	81.75
483.59	96.75
483.808	93.75
484.027	93.75
484.245	95.75
484.463	88.75
484.681	98.75
484.9	96.75
485.118	104.75
485.336	99.75
485.554	92.75
485.772	109.75
485.99	92.75
486.209	105.75
486.427	105.75
486.645	107.75
486.863	112.75
487.081	108.75
487.299	104.75
487.517	109.75
487.735	83.75
487.953	90.75
488.171	92.75
488.389	82.75
488.607	108.75
488.825	85.75
489.043	95.75
489.261	85.75
489.479	87.75
489.696	91.75
489.914	84.75
490.132	76.75
490.35	88.75
490.568	85.75
490.786	88.75
491.003	91.75
491.221	85.75
491.439	92.75
491.657	102.75
491.874	84.75
492.092	79.75
492.31	99.75
492.527	77.75
492.745	80.75
492.963	97.75
493.18	107.75
493.398	83.75
493.615	86.75
493.833	92.75
494.05	83.75
494.268	94.75
494.485	80.75
494.703	92.75
494.92	88.75
495.138	91.75
495.355	74.75
495.573	101.75
495.79	87.75
496.008	90.75
496.225	91.75
496.442	77.75
496.66	97.75
496.877	86.75
497.094	87.75
497.312	94.75
497.529	78.75
497.746	75.75
497.963	87.75
498.181	95.75
498.398	94.75
498.615	100.75
498.832	97.75
499.049	90.75
499.267	93.75
499.484	82.75
499.701	99.75
499.918	89.75
500.135	100.75
500.352	93.75
500.569	97.75
500.786	96.75
501.003	81.75
501.22	93.75
501.437	87.75
501.654	99.75
501.871	95.75
502.088	93.75
502.305	84.75
502.522	102.75
502.739	111.75
502.956	87.75
503.172	91.75
503.389	95.75
503.606	90.75
503.823	99.75
504.04	101.75
504.256	97.75
504.473	88.75
504.69	105.75
504.907	89.75
505.123	79.75
505.34	89.75
505.557	90.75
505.773	90.75
505.99	76.75
506.207	104.75
506.423	81.75
506.64	82.75
506.856	92.75
507.073	91.75
507.289	112.75
507.506	92.75
507.722	111.75
507.939	111.75
508.155	92.75
508.372	86.75
508.588	91.75
508.805	103.75
509.021	89.75
509.238	97.75
509.454	85.75
509.67	116.75
509.887	108.75
510.103	122.75
510.319	225.75
510.536	775.75
510.752	2452.75
510.968	659.75
511.184	161.75
511.401	129.75
511.617	112.75
511.833	101.75
512.049	101.75
512.265	91.75
512.481	89.75
512.698	87.75
512.914	95.75
513.13	91.75
513.346	84.75
513.562	91.75
513.778	93.75
513.994	92.75
514.21	110.75
514.426	108.75
514.642	130.75
514.858	130.75
515.074	168.75
515.29	470.75
515.506	1530.75
515.721	575.75
515.937	155.75
