Data from Uncirc_2007_H10_HRD10591_00085.txt Node
Date: Wed Jan 03 10:20:59 EST 2024
User: Yrep
Spectrometer: HR+D1059
Trigger mode: 1
Integration Time (sec): 1.000000E-1
Scans to average: 1
Electric dark correction enabled: true
Nonlinearity correction enabled: false
Boxcar width: 0
XAxis mode: Wavelengths
Number of Pixels in Spectrum: 2048
>>>>>Begin Spectral Data<<<<<
223.165	-29.06
223.4	-29.06
223.635	-29.06
223.869	-20.06
224.104	-25.06
224.338	-5.06
224.573	-23.06
224.808	-14.06
225.042	4.94
225.277	-5.06
225.511	3.94
225.746	6.94
225.98	4.94
226.215	11.94
226.449	10.94
226.683	13.94
226.918	29.94
227.152	33.94
227.387	13.94
227.621	29.94
227.856	43.94
228.09	44.94
228.324	50.94
228.559	65.94
228.793	68.94
229.027	63.94
229.262	51.94
229.496	75.94
229.73	81.94
229.964	91.94
230.199	77.94
230.433	97.94
230.667	70.94
230.901	81.94
231.136	66.94
231.37	75.94
231.604	84.94
231.838	95.94
232.072	88.94
232.306	75.94
232.541	61.94
232.775	73.94
233.009	75.94
233.243	81.94
233.477	83.94
233.711	77.94
233.945	73.94
234.179	95.94
234.413	84.94
234.647	82.94
234.881	74.94
235.115	72.94
235.349	76.94
235.583	77.94
235.817	73.94
236.051	85.94
236.285	75.94
236.519	85.94
236.753	96.94
236.987	88.94
237.221	78.94
237.455	83.94
237.689	83.94
237.922	70.94
238.156	84.94
238.39	92.94
238.624	71.94
238.858	89.94
239.091	79.94
239.325	81.94
239.559	64.94
239.793	65.94
240.027	66.94
240.26	67.94
240.494	83.94
240.728	72.94
240.961	78.94
241.195	99.94
241.429	83.94
241.662	78.94
241.896	83.94
242.13	72.94
242.363	76.94
242.597	86.94
242.83	76.94
243.064	78.94
243.298	69.94
243.531	72.94
243.765	83.94
243.998	86.94
244.232	83.94
244.465	86.94
244.699	68.94
244.932	75.94
245.166	72.94
245.399	76.94
245.633	84.94
245.866	71.94
246.099	81.94
246.333	74.94
246.566	70.94
246.8	75.94
247.033	82.94
247.266	68.94
247.5	86.94
247.733	79.94
247.966	72.94
248.2	87.94
248.433	83.94
248.666	85.94
248.899	86.94
249.133	74.94
249.366	84.94
249.599	102.94
249.832	73.94
250.066	75.94
250.299	66.94
250.532	90.94
250.765	83.94
250.998	74.94
251.231	90.94
251.465	77.94
251.698	85.94
251.931	77.94
252.164	82.94
252.397	73.94
252.63	80.94
252.863	86.94
253.096	72.94
253.329	77.94
253.562	82.94
253.795	83.94
254.028	103.94
254.261	84.94
254.494	88.94
254.727	79.94
254.96	81.94
255.193	74.94
255.426	76.94
255.659	75.94
255.892	87.94
256.124	78.94
256.357	93.94
256.59	76.94
256.823	83.94
257.056	85.94
257.289	77.94
257.521	80.94
257.754	92.94
257.987	74.94
258.22	86.94
258.452	69.94
258.685	99.94
258.918	82.94
259.151	85.94
259.383	76.94
259.616	74.94
259.849	84.94
260.081	84.94
260.314	74.94
260.547	70.94
260.779	68.94
261.012	90.94
261.244	80.94
261.477	80.94
261.71	100.94
261.942	112.94
262.175	120.94
262.407	91.94
262.64	76.94
262.872	89.94
263.105	74.94
263.337	82.94
263.57	92.94
263.802	80.94
264.035	85.94
264.267	84.94
264.499	76.94
264.732	91.94
264.964	82.94
265.197	86.94
265.429	84.94
265.661	81.94
265.894	78.94
266.126	80.94
266.358	83.94
266.591	69.94
266.823	94.94
267.055	72.94
267.287	86.94
267.52	89.94
267.752	82.94
267.984	85.94
268.216	78.94
268.448	86.94
268.681	84.94
268.913	86.94
269.145	85.94
269.377	89.94
269.609	73.94
269.841	93.94
270.073	88.94
270.306	108.94
270.538	83.94
270.77	71.94
271.002	74.94
271.234	96.94
271.466	87.94
271.698	77.94
271.93	90.94
272.162	93.94
272.394	98.94
272.626	84.94
272.858	80.94
273.09	75.94
273.322	90.94
273.553	86.94
273.785	74.94
274.017	83.94
274.249	95.94
274.481	101.94
274.713	78.94
274.945	93.94
275.176	84.94
275.408	89.94
275.64	84.94
275.872	83.94
276.104	84.94
276.335	83.94
276.567	87.94
276.799	105.94
277.031	88.94
277.262	86.94
277.494	94.94
277.726	85.94
277.957	77.94
278.189	91.94
278.421	88.94
278.652	87.94
278.884	84.94
279.115	91.94
279.347	85.94
279.579	90.94
279.81	81.94
280.042	76.94
280.273	80.94
280.505	76.94
280.736	84.94
280.968	88.94
281.199	93.94
281.431	89.94
281.662	79.94
281.894	95.94
282.125	89.94
282.356	122.94
282.588	141.94
282.819	125.94
283.051	104.94
283.282	88.94
283.513	80.94
283.745	83.94
283.976	84.94
284.207	80.94
284.439	97.94
284.67	91.94
284.901	90.94
285.132	77.94
285.364	83.94
285.595	91.94
285.826	89.94
286.057	91.94
286.288	89.94
286.52	98.94
286.751	76.94
286.982	91.94
287.213	81.94
287.444	88.94
287.675	85.94
287.906	84.94
288.138	102.94
288.369	78.94
288.6	95.94
288.831	90.94
289.062	89.94
289.293	82.94
289.524	80.94
289.755	80.94
289.986	76.94
290.217	95.94
290.448	76.94
290.679	75.94
290.91	96.94
291.141	89.94
291.371	78.94
291.602	83.94
291.833	75.94
292.064	89.94
292.295	89.94
292.526	81.94
292.757	84.94
292.987	96.94
293.218	86.94
293.449	77.94
293.68	101.94
293.91	85.94
294.141	89.94
294.372	74.94
294.603	83.94
294.833	73.94
295.064	98.94
295.295	82.94
295.525	94.94
295.756	107.94
295.987	113.94
296.217	147.94
296.448	117.94
296.679	96.94
296.909	87.94
297.14	85.94
297.37	97.94
297.601	88.94
297.831	91.94
298.062	73.94
298.292	84.94
298.523	88.94
298.753	84.94
298.984	87.94
299.214	83.94
299.445	93.94
299.675	111.94
299.905	94.94
300.136	102.94
300.366	86.94
300.597	80.94
300.827	79.94
301.057	94.94
301.288	105.94
301.518	90.94
301.748	90.94
301.979	92.94
302.209	111.94
302.439	90.94
302.669	96.94
302.9	101.94
303.13	88.94
303.36	86.94
303.59	113.94
303.82	120.94
304.051	91.94
304.281	87.94
304.511	89.94
304.741	94.94
304.971	86.94
305.201	87.94
305.431	97.94
305.661	93.94
305.891	96.94
306.121	109.94
306.352	103.94
306.582	97.94
306.812	85.94
307.042	97.94
307.272	92.94
307.502	91.94
307.731	90.94
307.961	95.94
308.191	97.94
308.421	85.94
308.651	92.94
308.881	96.94
309.111	96.94
309.341	96.94
309.571	110.94
309.8	101.94
310.03	94.94
310.26	90.94
310.49	104.94
310.72	102.94
310.949	108.94
311.179	109.94
311.409	96.94
311.639	95.94
311.868	100.94
312.098	95.94
312.328	99.94
312.557	100.94
312.787	102.94
313.017	98.94
313.246	94.94
313.476	101.94
313.706	85.94
313.935	84.94
314.165	92.94
314.394	108.94
314.624	97.94
314.853	104.94
315.083	87.94
315.312	87.94
315.542	101.94
315.771	87.94
316.001	95.94
316.23	87.94
316.46	81.94
316.689	94.94
316.919	87.94
317.148	95.94
317.377	95.94
317.607	97.94
317.836	100.94
318.065	87.94
318.295	91.94
318.524	106.94
318.753	89.94
318.983	105.94
319.212	118.94
319.441	103.94
319.67	107.94
319.9	97.94
320.129	94.94
320.358	96.94
320.587	104.94
320.816	96.94
321.046	116.94
321.275	102.94
321.504	101.94
321.733	104.94
321.962	106.94
322.191	92.94
322.42	109.94
322.649	110.94
322.878	112.94
323.108	106.94
323.337	125.94
323.566	138.94
323.795	163.94
324.024	247.94
324.253	474.94
324.482	1030.94
324.71	2075.94
324.939	2733.94
325.168	970.94
325.397	268.94
325.626	164.94
325.855	144.94
326.084	129.94
326.313	145.94
326.542	161.94
326.77	255.94
326.999	530.94
327.228	1107.94
327.457	2117.94
327.686	1640.94
327.914	399.94
328.143	192.94
328.372	149.94
328.6	138.94
328.829	123.94
329.058	124.94
329.287	140.94
329.515	122.94
329.744	109.94
329.972	85.94
330.201	105.94
330.43	114.94
330.658	125.94
330.887	144.94
331.115	120.94
331.344	114.94
331.572	112.94
331.801	109.94
332.03	107.94
332.258	86.94
332.486	86.94
332.715	97.94
332.943	103.94
333.172	96.94
333.4	99.94
333.629	84.94
333.857	111.94
334.085	106.94
334.314	91.94
334.542	99.94
334.771	98.94
334.999	112.94
335.227	95.94
335.455	91.94
335.684	101.94
335.912	99.94
336.14	116.94
336.369	103.94
336.597	98.94
336.825	115.94
337.053	88.94
337.281	91.94
337.51	86.94
337.738	101.94
337.966	89.94
338.194	103.94
338.422	83.94
338.65	99.94
338.878	96.94
339.106	91.94
339.334	86.94
339.562	81.94
339.79	95.94
340.018	86.94
340.246	106.94
340.474	94.94
340.702	98.94
340.93	90.94
341.158	97.94
341.386	100.94
341.614	81.94
341.842	105.94
342.07	102.94
342.298	98.94
342.526	80.94
342.754	83.94
342.981	88.94
343.209	86.94
343.437	106.94
343.665	86.94
343.893	79.94
344.12	90.94
344.348	93.94
344.576	84.94
344.804	90.94
345.031	104.94
345.259	83.94
345.487	86.94
345.714	99.94
345.942	110.94
346.17	107.94
346.397	100.94
346.625	83.94
346.853	84.94
347.08	106.94
347.308	90.94
347.535	96.94
347.763	109.94
347.99	92.94
348.218	100.94
348.445	112.94
348.673	107.94
348.9	90.94
349.128	95.94
349.355	99.94
349.583	100.94
349.81	99.94
350.037	93.94
350.265	96.94
350.492	98.94
350.72	89.94
350.947	99.94
351.174	112.94
351.402	113.94
351.629	113.94
351.856	97.94
352.083	93.94
352.311	107.94
352.538	108.94
352.765	111.94
352.992	117.94
353.22	114.94
353.447	97.94
353.674	121.94
353.901	111.94
354.128	102.94
354.355	91.94
354.583	87.94
354.81	109.94
355.037	105.94
355.264	89.94
355.491	110.94
355.718	110.94
355.945	94.94
356.172	101.94
356.399	93.94
356.626	92.94
356.853	105.94
357.08	100.94
357.307	101.94
357.534	96.94
357.761	108.94
357.988	91.94
358.215	91.94
358.441	83.94
358.668	89.94
358.895	106.94
359.122	84.94
359.349	88.94
359.576	89.94
359.802	98.94
360.029	126.94
360.256	103.94
360.483	91.94
360.709	89.94
360.936	85.94
361.163	109.94
361.39	105.94
361.616	117.94
361.843	90.94
362.07	83.94
362.296	90.94
362.523	95.94
362.749	102.94
362.976	97.94
363.203	93.94
363.429	96.94
363.656	88.94
363.882	96.94
364.109	83.94
364.335	84.94
364.562	86.94
364.788	93.94
365.015	80.94
365.241	93.94
365.468	108.94
365.694	103.94
365.92	88.94
366.147	85.94
366.373	103.94
366.599	95.94
366.826	105.94
367.052	99.94
367.278	84.94
367.505	100.94
367.731	92.94
367.957	111.94
368.184	99.94
368.41	106.94
368.636	110.94
368.862	109.94
369.089	119.94
369.315	106.94
369.541	90.94
369.767	99.94
369.993	97.94
370.219	81.94
370.445	78.94
370.672	98.94
370.898	96.94
371.124	84.94
371.35	82.94
371.576	90.94
371.802	89.94
372.028	90.94
372.254	77.94
372.48	89.94
372.706	92.94
372.932	107.94
373.158	75.94
373.384	94.94
373.61	89.94
373.835	97.94
374.061	81.94
374.287	96.94
374.513	83.94
374.739	88.94
374.965	86.94
375.191	98.94
375.416	89.94
375.642	91.94
375.868	89.94
376.094	84.94
376.319	85.94
376.545	98.94
376.771	100.94
376.997	103.94
377.222	83.94
377.448	84.94
377.674	87.94
377.899	81.94
378.125	85.94
378.35	94.94
378.576	91.94
378.802	93.94
379.027	93.94
379.253	79.94
379.478	90.94
379.704	92.94
379.929	92.94
380.155	77.94
380.38	96.94
380.606	93.94
380.831	102.94
381.057	96.94
381.282	91.94
381.507	95.94
381.733	93.94
381.958	108.94
382.184	99.94
382.409	95.94
382.634	91.94
382.86	96.94
383.085	101.94
383.31	106.94
383.535	90.94
383.761	100.94
383.986	91.94
384.211	92.94
384.436	99.94
384.662	82.94
384.887	97.94
385.112	111.94
385.337	90.94
385.562	91.94
385.787	97.94
386.013	113.94
386.238	112.94
386.463	94.94
386.688	97.94
386.913	74.94
387.138	87.94
387.363	102.94
387.588	94.94
387.813	106.94
388.038	110.94
388.263	106.94
388.488	97.94
388.713	97.94
388.938	92.94
389.163	99.94
389.387	107.94
389.612	102.94
389.837	93.94
390.062	92.94
390.287	98.94
390.512	91.94
390.736	89.94
390.961	80.94
391.186	97.94
391.411	97.94
391.636	93.94
391.86	78.94
392.085	84.94
392.31	93.94
392.534	86.94
392.759	81.94
392.984	89.94
393.208	89.94
393.433	90.94
393.658	86.94
393.882	89.94
394.107	93.94
394.331	87.94
394.556	89.94
394.78	95.94
395.005	83.94
395.229	101.94
395.454	92.94
395.678	91.94
395.903	93.94
396.127	94.94
396.352	94.94
396.576	88.94
396.801	86.94
397.025	95.94
397.249	74.94
397.474	88.94
397.698	83.94
397.922	86.94
398.147	91.94
398.371	93.94
398.595	94.94
398.82	85.94
399.044	94.94
399.268	78.94
399.492	79.94
399.717	81.94
399.941	99.94
400.165	107.94
400.389	97.94
400.613	95.94
400.837	88.94
401.062	89.94
401.286	96.94
401.51	86.94
401.734	92.94
401.958	104.94
402.182	121.94
402.406	163.94
402.63	114.94
402.854	88.94
403.078	93.94
403.302	98.94
403.526	77.94
403.75	94.94
403.974	90.94
404.198	95.94
404.422	92.94
404.645	98.94
404.869	77.94
405.093	79.94
405.317	103.94
405.541	117.94
405.765	87.94
405.988	127.94
406.212	177.94
406.436	232.94
406.66	138.94
406.883	101.94
407.107	100.94
407.331	93.94
407.555	107.94
407.778	105.94
408.002	99.94
408.226	101.94
408.449	117.94
408.673	93.94
408.896	101.94
409.12	77.94
409.344	94.94
409.567	87.94
409.791	96.94
410.014	80.94
410.238	89.94
410.461	86.94
410.685	107.94
410.908	108.94
411.132	102.94
411.355	96.94
411.578	82.94
411.802	98.94
412.025	90.94
412.249	83.94
412.472	90.94
412.695	92.94
412.919	90.94
413.142	87.94
413.365	90.94
413.589	82.94
413.812	82.94
414.035	98.94
414.258	93.94
414.482	86.94
414.705	93.94
414.928	108.94
415.151	103.94
415.374	80.94
415.597	92.94
415.821	97.94
416.044	78.94
416.267	94.94
416.49	83.94
416.713	77.94
416.936	83.94
417.159	100.94
417.382	82.94
417.605	81.94
417.828	98.94
418.051	90.94
418.274	91.94
418.497	102.94
418.72	89.94
418.943	89.94
419.166	75.94
419.389	93.94
419.611	88.94
419.834	81.94
420.057	84.94
420.28	79.94
420.503	83.94
420.726	96.94
420.948	95.94
421.171	94.94
421.394	106.94
421.617	86.94
421.839	75.94
422.062	93.94
422.285	120.94
422.507	113.94
422.73	103.94
422.953	97.94
423.175	92.94
423.398	85.94
423.621	80.94
423.843	88.94
424.066	76.94
424.288	97.94
424.511	99.94
424.733	91.94
424.956	115.94
425.178	93.94
425.401	94.94
425.623	106.94
425.846	104.94
426.068	94.94
426.291	98.94
426.513	85.94
426.735	85.94
426.958	101.94
427.18	124.94
427.402	147.94
427.625	162.94
427.847	129.94
428.069	105.94
428.292	89.94
428.514	104.94
428.736	78.94
428.958	83.94
429.181	92.94
429.403	84.94
429.625	76.94
429.847	97.94
430.069	103.94
430.292	102.94
430.514	84.94
430.736	78.94
430.958	86.94
431.18	83.94
431.402	83.94
431.624	83.94
431.846	84.94
432.068	86.94
432.29	104.94
432.512	90.94
432.734	78.94
432.956	100.94
433.178	107.94
433.4	104.94
433.622	81.94
433.844	99.94
434.066	103.94
434.287	93.94
434.509	92.94
434.731	88.94
434.953	82.94
435.175	82.94
435.397	100.94
435.618	86.94
435.84	102.94
436.062	124.94
436.284	128.94
436.505	94.94
436.727	114.94
436.949	83.94
437.17	89.94
437.392	90.94
437.614	102.94
437.835	104.94
438.057	139.94
438.278	117.94
438.5	112.94
438.721	127.94
438.943	120.94
439.165	96.94
439.386	84.94
439.608	82.94
439.829	100.94
440.05	123.94
440.272	157.94
440.493	93.94
440.715	102.94
440.936	90.94
441.158	88.94
441.379	99.94
441.6	105.94
441.822	82.94
442.043	99.94
442.264	100.94
442.486	100.94
442.707	86.94
442.928	103.94
443.149	131.94
443.371	120.94
443.592	98.94
443.813	106.94
444.034	121.94
444.255	80.94
444.476	86.94
444.698	101.94
444.919	85.94
445.14	143.94
445.361	120.94
445.582	130.94
445.803	154.94
446.024	133.94
446.245	150.94
446.466	124.94
446.687	99.94
446.908	94.94
447.129	95.94
447.35	84.94
447.571	98.94
447.792	91.94
448.013	97.94
448.234	108.94
448.455	92.94
448.675	115.94
448.896	128.94
449.117	92.94
449.338	112.94
449.559	137.94
449.779	146.94
450	89.94
450.221	98.94
450.442	90.94
450.662	93.94
450.883	105.94
451.104	121.94
451.324	76.94
451.545	96.94
451.766	92.94
451.986	79.94
452.207	84.94
452.428	89.94
452.648	101.94
452.869	123.94
453.089	120.94
453.31	118.94
453.53	108.94
453.751	101.94
453.971	93.94
454.192	124.94
454.412	76.94
454.633	80.94
454.853	85.94
455.073	93.94
455.294	93.94
455.514	112.94
455.734	102.94
455.955	76.94
456.175	82.94
456.395	79.94
456.616	89.94
456.836	97.94
457.056	86.94
457.276	83.94
457.497	85.94
457.717	80.94
457.937	93.94
458.157	96.94
458.377	106.94
458.598	101.94
458.818	167.94
459.038	172.94
459.258	117.94
459.478	97.94
459.698	87.94
459.918	97.94
460.138	95.94
460.358	82.94
460.578	70.94
460.798	99.94
461.018	96.94
461.238	92.94
461.458	91.94
461.678	90.94
461.898	78.94
462.118	67.94
462.338	74.94
462.558	74.94
462.777	83.94
462.997	92.94
463.217	92.94
463.437	80.94
463.657	84.94
463.876	82.94
464.096	86.94
464.316	88.94
464.536	99.94
464.755	93.94
464.975	104.94
465.195	181.94
465.414	166.94
465.634	101.94
465.854	80.94
466.073	90.94
466.293	80.94
466.512	106.94
466.732	84.94
466.951	75.94
467.171	95.94
467.391	80.94
467.61	105.94
467.829	105.94
468.049	84.94
468.268	75.94
468.488	86.94
468.707	100.94
468.927	90.94
469.146	89.94
469.365	87.94
469.585	80.94
469.804	91.94
470.023	98.94
470.243	98.94
470.462	82.94
470.681	111.94
470.901	99.94
471.12	94.94
471.339	90.94
471.558	90.94
471.777	96.94
471.997	89.94
472.216	89.94
472.435	89.94
472.654	79.94
472.873	84.94
473.092	93.94
473.311	95.94
473.53	94.94
473.749	80.94
473.968	100.94
474.187	108.94
474.406	102.94
474.625	77.94
474.844	80.94
475.063	89.94
475.282	84.94
475.501	82.94
475.72	99.94
475.939	103.94
476.158	93.94
476.377	77.94
476.596	94.94
476.814	109.94
477.033	93.94
477.252	88.94
477.471	80.94
477.69	96.94
477.908	96.94
478.127	85.94
478.346	77.94
478.564	80.94
478.783	96.94
479.002	83.94
479.22	97.94
479.439	109.94
479.658	99.94
479.876	87.94
480.095	96.94
480.313	92.94
480.532	95.94
480.751	89.94
480.969	81.94
481.188	94.94
481.406	99.94
481.624	88.94
481.843	82.94
482.061	94.94
482.28	106.94
482.498	102.94
482.717	84.94
482.935	86.94
483.153	98.94
483.372	94.94
483.59	75.94
483.808	91.94
484.027	90.94
484.245	90.94
484.463	90.94
484.681	92.94
484.9	79.94
485.118	97.94
485.336	105.94
485.554	86.94
485.772	94.94
485.99	90.94
486.209	101.94
486.427	96.94
486.645	107.94
486.863	104.94
487.081	98.94
487.299	106.94
487.517	90.94
487.735	82.94
487.953	83.94
488.171	84.94
488.389	90.94
488.607	124.94
488.825	94.94
489.043	88.94
489.261	85.94
489.479	97.94
489.696	92.94
489.914	88.94
490.132	93.94
490.35	81.94
490.568	88.94
490.786	76.94
491.003	101.94
491.221	91.94
491.439	119.94
491.657	90.94
491.874	95.94
492.092	92.94
492.31	84.94
492.527	96.94
492.745	83.94
492.963	79.94
493.18	90.94
493.398	91.94
493.615	81.94
493.833	104.94
494.05	97.94
494.268	90.94
494.485	86.94
494.703	85.94
494.92	90.94
495.138	75.94
495.355	72.94
495.573	90.94
495.79	91.94
496.008	93.94
496.225	77.94
496.442	104.94
496.66	94.94
496.877	82.94
497.094	82.94
497.312	80.94
497.529	89.94
497.746	104.94
497.963	93.94
498.181	76.94
498.398	98.94
498.615	124.94
498.832	112.94
499.049	98.94
499.267	111.94
499.484	92.94
499.701	90.94
499.918	98.94
500.135	92.94
500.352	97.94
500.569	98.94
500.786	103.94
501.003	96.94
501.22	103.94
501.437	98.94
501.654	94.94
501.871	118.94
502.088	88.94
502.305	82.94
502.522	84.94
502.739	85.94
502.956	89.94
503.172	93.94
503.389	96.94
503.606	107.94
503.823	96.94
504.04	94.94
504.256	89.94
504.473	103.94
504.69	93.94
504.907	89.94
505.123	87.94
505.34	87.94
505.557	100.94
505.773	91.94
505.99	86.94
506.207	107.94
506.423	94.94
506.64	99.94
506.856	97.94
507.073	91.94
507.289	89.94
507.506	84.94
507.722	120.94
507.939	120.94
508.155	86.94
508.372	89.94
508.588	86.94
508.805	92.94
509.021	107.94
509.238	100.94
509.454	92.94
509.67	108.94
509.887	111.94
510.103	134.94
510.319	219.94
510.536	857.94
510.752	2642.94
510.968	753.94
511.184	159.94
511.401	111.94
511.617	96.94
511.833	93.94
512.049	91.94
512.265	93.94
512.481	102.94
512.698	97.94
512.914	94.94
513.13	91.94
513.346	81.94
513.562	103.94
513.778	95.94
513.994	107.94
514.21	121.94
514.426	126.94
514.642	144.94
514.858	144.94
515.074	191.94
515.29	499.94
