Data from Uncirc_2007_H10_HRD10591_00046.txt Node
Date: Wed Jan 03 10:20:51 EST 2024
User: Yrep
Spectrometer: HR+D1059
Trigger mode: 1
Integration Time (sec): 1.000000E-1
Scans to average: 1
Electric dark correction enabled: true
Nonlinearity correction enabled: false
Boxcar width: 0
XAxis mode: Wavelengths
Number of Pixels in Spectrum: 2048
>>>>>Begin Spectral Data<<<<<
223.165	-20.75
223.4	-20.75
223.635	-20.75
223.869	-17.75
224.104	-16.75
224.338	-18.75
224.573	-3.75
224.808	-14.75
225.042	-6.75
225.277	-11.75
225.511	-12.75
225.746	-3.75
225.98	17.25
226.215	2.25
226.449	16.25
226.683	31.25
226.918	27.25
227.152	33.25
227.387	32.25
227.621	51.25
227.856	56.25
228.09	60.25
228.324	65.25
228.559	57.25
228.793	66.25
229.027	66.25
229.262	74.25
229.496	70.25
229.73	96.25
229.964	98.25
230.199	79.25
230.433	73.25
230.667	67.25
230.901	78.25
231.136	76.25
231.37	74.25
231.604	81.25
231.838	90.25
232.072	79.25
232.306	87.25
232.541	85.25
232.775	74.25
233.009	75.25
233.243	87.25
233.477	77.25
233.711	76.25
233.945	92.25
234.179	81.25
234.413	83.25
234.647	88.25
234.881	91.25
235.115	95.25
235.349	75.25
235.583	80.25
235.817	71.25
236.051	78.25
236.285	85.25
236.519	71.25
236.753	88.25
236.987	70.25
237.221	71.25
237.455	92.25
237.689	94.25
237.922	87.25
238.156	70.25
238.39	74.25
238.624	67.25
238.858	67.25
239.091	81.25
239.325	75.25
239.559	74.25
239.793	75.25
240.027	76.25
240.26	90.25
240.494	74.25
240.728	86.25
240.961	70.25
241.195	79.25
241.429	70.25
241.662	78.25
241.896	68.25
242.13	70.25
242.363	90.25
242.597	85.25
242.83	74.25
243.064	74.25
243.298	81.25
243.531	71.25
243.765	81.25
243.998	94.25
244.232	72.25
244.465	85.25
244.699	81.25
244.932	92.25
245.166	89.25
245.399	89.25
245.633	80.25
245.866	75.25
246.099	83.25
246.333	94.25
246.566	97.25
246.8	92.25
247.033	73.25
247.266	77.25
247.5	86.25
247.733	59.25
247.966	77.25
248.2	78.25
248.433	83.25
248.666	84.25
248.899	91.25
249.133	96.25
249.366	93.25
249.599	87.25
249.832	86.25
250.066	89.25
250.299	81.25
250.532	79.25
250.765	72.25
250.998	72.25
251.231	85.25
251.465	80.25
251.698	81.25
251.931	93.25
252.164	79.25
252.397	81.25
252.63	82.25
252.863	92.25
253.096	69.25
253.329	79.25
253.562	73.25
253.795	95.25
254.028	93.25
254.261	72.25
254.494	79.25
254.727	93.25
254.96	92.25
255.193	83.25
255.426	84.25
255.659	75.25
255.892	88.25
256.124	58.25
256.357	94.25
256.59	87.25
256.823	86.25
257.056	77.25
257.289	77.25
257.521	76.25
257.754	87.25
257.987	87.25
258.22	83.25
258.452	88.25
258.685	81.25
258.918	89.25
259.151	94.25
259.383	79.25
259.616	88.25
259.849	84.25
260.081	85.25
260.314	76.25
260.547	74.25
260.779	94.25
261.012	74.25
261.244	87.25
261.477	85.25
261.71	91.25
261.942	112.25
262.175	126.25
262.407	91.25
262.64	84.25
262.872	69.25
263.105	81.25
263.337	83.25
263.57	84.25
263.802	84.25
264.035	82.25
264.267	82.25
264.499	74.25
264.732	83.25
264.964	83.25
265.197	87.25
265.429	83.25
265.661	82.25
265.894	81.25
266.126	88.25
266.358	77.25
266.591	82.25
266.823	89.25
267.055	67.25
267.287	91.25
267.52	92.25
267.752	78.25
267.984	86.25
268.216	93.25
268.448	88.25
268.681	81.25
268.913	76.25
269.145	92.25
269.377	83.25
269.609	75.25
269.841	86.25
270.073	82.25
270.306	81.25
270.538	87.25
270.77	77.25
271.002	82.25
271.234	102.25
271.466	63.25
271.698	87.25
271.93	78.25
272.162	81.25
272.394	98.25
272.626	94.25
272.858	76.25
273.09	82.25
273.322	90.25
273.553	82.25
273.785	74.25
274.017	68.25
274.249	83.25
274.481	98.25
274.713	85.25
274.945	88.25
275.176	79.25
275.408	84.25
275.64	80.25
275.872	86.25
276.104	94.25
276.335	100.25
276.567	93.25
276.799	97.25
277.031	100.25
277.262	85.25
277.494	86.25
277.726	83.25
277.957	77.25
278.189	78.25
278.421	94.25
278.652	82.25
278.884	79.25
279.115	93.25
279.347	82.25
279.579	80.25
279.81	85.25
280.042	90.25
280.273	80.25
280.505	90.25
280.736	76.25
280.968	91.25
281.199	94.25
281.431	83.25
281.662	93.25
281.894	90.25
282.125	107.25
282.356	109.25
282.588	146.25
282.819	113.25
283.051	100.25
283.282	93.25
283.513	84.25
283.745	98.25
283.976	87.25
284.207	89.25
284.439	76.25
284.67	84.25
284.901	66.25
285.132	93.25
285.364	96.25
285.595	90.25
285.826	82.25
286.057	78.25
286.288	98.25
286.52	98.25
286.751	80.25
286.982	85.25
287.213	87.25
287.444	85.25
287.675	83.25
287.906	80.25
288.138	92.25
288.369	98.25
288.6	93.25
288.831	85.25
289.062	99.25
289.293	87.25
289.524	90.25
289.755	85.25
289.986	85.25
290.217	96.25
290.448	85.25
290.679	94.25
290.91	88.25
291.141	97.25
291.371	99.25
291.602	85.25
291.833	95.25
292.064	93.25
292.295	88.25
292.526	86.25
292.757	86.25
292.987	89.25
293.218	105.25
293.449	89.25
293.68	94.25
293.91	87.25
294.141	86.25
294.372	95.25
294.603	84.25
294.833	94.25
295.064	90.25
295.295	85.25
295.525	92.25
295.756	91.25
295.987	131.25
296.217	137.25
296.448	130.25
296.679	108.25
296.909	95.25
297.14	85.25
297.37	82.25
297.601	84.25
297.831	95.25
298.062	97.25
298.292	100.25
298.523	87.25
298.753	87.25
298.984	99.25
299.214	84.25
299.445	91.25
299.675	108.25
299.905	99.25
300.136	99.25
300.366	95.25
300.597	89.25
300.827	87.25
301.057	101.25
301.288	98.25
301.518	94.25
301.748	95.25
301.979	103.25
302.209	95.25
302.439	91.25
302.669	92.25
302.9	77.25
303.13	99.25
303.36	98.25
303.59	97.25
303.82	103.25
304.051	99.25
304.281	100.25
304.511	83.25
304.741	89.25
304.971	77.25
305.201	87.25
305.431	85.25
305.661	99.25
305.891	100.25
306.121	99.25
306.352	109.25
306.582	108.25
306.812	91.25
307.042	93.25
307.272	108.25
307.502	103.25
307.731	89.25
307.961	100.25
308.191	91.25
308.421	90.25
308.651	87.25
308.881	97.25
309.111	94.25
309.341	91.25
309.571	101.25
309.8	90.25
310.03	103.25
310.26	94.25
310.49	102.25
310.72	91.25
310.949	107.25
311.179	88.25
311.409	76.25
311.639	102.25
311.868	82.25
312.098	101.25
312.328	95.25
312.557	103.25
312.787	122.25
313.017	93.25
313.246	84.25
313.476	92.25
313.706	97.25
313.935	92.25
314.165	93.25
314.394	102.25
314.624	89.25
314.853	95.25
315.083	98.25
315.312	88.25
315.542	94.25
315.771	96.25
316.001	85.25
316.23	92.25
316.46	87.25
316.689	90.25
316.919	93.25
317.148	89.25
317.377	90.25
317.607	94.25
317.836	88.25
318.065	96.25
318.295	87.25
318.524	98.25
318.753	89.25
318.983	86.25
319.212	108.25
319.441	93.25
319.67	100.25
319.9	100.25
320.129	78.25
320.358	94.25
320.587	89.25
320.816	81.25
321.046	108.25
321.275	97.25
321.504	100.25
321.733	101.25
321.962	114.25
322.191	108.25
322.42	95.25
322.649	101.25
322.878	104.25
323.108	106.25
323.337	124.25
323.566	143.25
323.795	157.25
324.024	215.25
324.253	432.25
324.482	942.25
324.71	1965.25
324.939	2574.25
325.168	915.25
325.397	265.25
325.626	142.25
325.855	131.25
326.084	129.25
326.313	157.25
326.542	155.25
326.77	245.25
326.999	529.25
327.228	1052.25
327.457	1955.25
327.686	1547.25
327.914	413.25
328.143	186.25
328.372	147.25
328.6	129.25
328.829	118.25
329.058	125.25
329.287	141.25
329.515	110.25
329.744	109.25
329.972	98.25
330.201	95.25
330.43	111.25
330.658	129.25
330.887	139.25
331.115	131.25
331.344	88.25
331.572	101.25
331.801	113.25
332.03	110.25
332.258	100.25
332.486	85.25
332.715	92.25
332.943	87.25
333.172	97.25
333.4	107.25
333.629	119.25
333.857	132.25
334.085	103.25
334.314	87.25
334.542	82.25
334.771	92.25
334.999	95.25
335.227	97.25
335.455	94.25
335.684	96.25
335.912	101.25
336.14	96.25
336.369	100.25
336.597	103.25
336.825	104.25
337.053	86.25
337.281	109.25
337.51	95.25
337.738	99.25
337.966	88.25
338.194	97.25
338.422	103.25
338.65	102.25
338.878	97.25
339.106	77.25
339.334	85.25
339.562	79.25
339.79	91.25
340.018	94.25
340.246	102.25
340.474	100.25
340.702	94.25
340.93	96.25
341.158	98.25
341.386	98.25
341.614	105.25
341.842	100.25
342.07	99.25
342.298	95.25
342.526	94.25
342.754	92.25
342.981	108.25
343.209	100.25
343.437	107.25
343.665	86.25
343.893	99.25
344.12	102.25
344.348	92.25
344.576	93.25
344.804	97.25
345.031	92.25
345.259	97.25
345.487	107.25
345.714	86.25
345.942	84.25
346.17	84.25
346.397	98.25
346.625	107.25
346.853	94.25
347.08	104.25
347.308	87.25
347.535	106.25
347.763	84.25
347.99	101.25
348.218	99.25
348.445	116.25
348.673	105.25
348.9	90.25
349.128	104.25
349.355	81.25
349.583	97.25
349.81	113.25
350.037	107.25
350.265	87.25
350.492	94.25
350.72	103.25
350.947	103.25
351.174	113.25
351.402	103.25
351.629	111.25
351.856	92.25
352.083	114.25
352.311	82.25
352.538	111.25
352.765	116.25
352.992	101.25
353.22	108.25
353.447	90.25
353.674	104.25
353.901	94.25
354.128	91.25
354.355	96.25
354.583	87.25
354.81	112.25
355.037	92.25
355.264	116.25
355.491	105.25
355.718	100.25
355.945	97.25
356.172	103.25
356.399	100.25
356.626	95.25
356.853	100.25
357.08	102.25
357.307	100.25
357.534	91.25
357.761	104.25
357.988	100.25
358.215	88.25
358.441	94.25
358.668	101.25
358.895	97.25
359.122	81.25
359.349	85.25
359.576	99.25
359.802	99.25
360.029	120.25
360.256	113.25
360.483	100.25
360.709	86.25
360.936	99.25
361.163	90.25
361.39	90.25
361.616	102.25
361.843	89.25
362.07	83.25
362.296	93.25
362.523	105.25
362.749	87.25
362.976	93.25
363.203	86.25
363.429	81.25
363.656	107.25
363.882	81.25
364.109	79.25
364.335	67.25
364.562	91.25
364.788	87.25
365.015	93.25
365.241	105.25
365.468	99.25
365.694	95.25
365.92	96.25
366.147	107.25
366.373	99.25
366.599	87.25
366.826	96.25
367.052	89.25
367.278	103.25
367.505	86.25
367.731	87.25
367.957	85.25
368.184	94.25
368.41	110.25
368.636	110.25
368.862	114.25
369.089	102.25
369.315	91.25
369.541	94.25
369.767	97.25
369.993	78.25
370.219	106.25
370.445	106.25
370.672	87.25
370.898	88.25
371.124	85.25
371.35	73.25
371.576	71.25
371.802	86.25
372.028	94.25
372.254	94.25
372.48	91.25
372.706	94.25
372.932	101.25
373.158	86.25
373.384	84.25
373.61	79.25
373.835	97.25
374.061	93.25
374.287	89.25
374.513	96.25
374.739	99.25
374.965	90.25
375.191	100.25
375.416	96.25
375.642	86.25
375.868	85.25
376.094	89.25
376.319	101.25
376.545	99.25
376.771	94.25
376.997	93.25
377.222	90.25
377.448	81.25
377.674	90.25
377.899	91.25
378.125	95.25
378.35	100.25
378.576	80.25
378.802	83.25
379.027	94.25
379.253	111.25
379.478	83.25
379.704	82.25
379.929	84.25
380.155	103.25
380.38	94.25
380.606	90.25
380.831	93.25
381.057	100.25
381.282	91.25
381.507	100.25
381.733	93.25
381.958	91.25
382.184	86.25
382.409	99.25
382.634	110.25
382.86	109.25
383.085	93.25
383.31	94.25
383.535	98.25
383.761	99.25
383.986	91.25
384.211	84.25
384.436	92.25
384.662	86.25
384.887	95.25
385.112	83.25
385.337	107.25
385.562	103.25
385.787	99.25
386.013	108.25
386.238	109.25
386.463	108.25
386.688	100.25
386.913	109.25
387.138	92.25
387.363	94.25
387.588	104.25
387.813	111.25
388.038	114.25
388.263	117.25
388.488	106.25
388.713	104.25
388.938	97.25
389.163	105.25
389.387	75.25
389.612	98.25
389.837	91.25
390.062	93.25
390.287	82.25
390.512	96.25
390.736	74.25
390.961	73.25
391.186	98.25
391.411	91.25
391.636	98.25
391.86	81.25
392.085	99.25
392.31	87.25
392.534	76.25
392.759	82.25
392.984	92.25
393.208	102.25
393.433	85.25
393.658	86.25
393.882	65.25
394.107	77.25
394.331	82.25
394.556	91.25
394.78	71.25
395.005	69.25
395.229	79.25
395.454	88.25
395.678	95.25
395.903	70.25
396.127	75.25
396.352	79.25
396.576	89.25
396.801	92.25
397.025	77.25
397.249	97.25
397.474	89.25
397.698	83.25
397.922	93.25
398.147	91.25
398.371	92.25
398.595	87.25
398.82	94.25
399.044	88.25
399.268	80.25
399.492	89.25
399.717	94.25
399.941	95.25
400.165	93.25
400.389	87.25
400.613	75.25
400.837	91.25
401.062	81.25
401.286	91.25
401.51	79.25
401.734	90.25
401.958	89.25
402.182	122.25
402.406	169.25
402.63	123.25
402.854	91.25
403.078	87.25
403.302	88.25
403.526	79.25
403.75	97.25
403.974	99.25
404.198	86.25
404.422	90.25
404.645	100.25
404.869	85.25
405.093	102.25
405.317	110.25
405.541	83.25
405.765	93.25
405.988	127.25
406.212	196.25
406.436	253.25
406.66	151.25
406.883	105.25
407.107	89.25
407.331	92.25
407.555	97.25
407.778	105.25
408.002	103.25
408.226	100.25
408.449	75.25
408.673	98.25
408.896	87.25
409.12	103.25
409.344	97.25
409.567	88.25
409.791	95.25
410.014	80.25
410.238	103.25
410.461	92.25
410.685	83.25
410.908	92.25
411.132	95.25
411.355	101.25
411.578	86.25
411.802	88.25
412.025	99.25
412.249	90.25
412.472	86.25
412.695	95.25
412.919	84.25
413.142	104.25
413.365	98.25
413.589	79.25
413.812	85.25
414.035	91.25
414.258	84.25
414.482	82.25
414.705	99.25
414.928	91.25
415.151	96.25
415.374	99.25
415.597	87.25
415.821	91.25
416.044	104.25
416.267	92.25
416.49	81.25
416.713	79.25
416.936	82.25
417.159	83.25
417.382	106.25
417.605	86.25
417.828	98.25
418.051	97.25
418.274	87.25
418.497	93.25
418.72	83.25
418.943	88.25
419.166	86.25
419.389	67.25
419.611	92.25
419.834	86.25
420.057	81.25
420.28	79.25
420.503	81.25
420.726	78.25
420.948	93.25
421.171	90.25
421.394	97.25
421.617	108.25
421.839	84.25
422.062	86.25
422.285	82.25
422.507	94.25
422.73	113.25
422.953	77.25
423.175	84.25
423.398	90.25
423.621	92.25
423.843	90.25
424.066	85.25
424.288	106.25
424.511	97.25
424.733	102.25
424.956	106.25
425.178	101.25
425.401	101.25
425.623	98.25
425.846	87.25
426.068	101.25
426.291	92.25
426.513	76.25
426.735	85.25
426.958	95.25
427.18	103.25
427.402	149.25
427.625	164.25
427.847	131.25
428.069	94.25
428.292	79.25
428.514	84.25
428.736	93.25
428.958	85.25
429.181	81.25
429.403	87.25
429.625	74.25
429.847	93.25
430.069	94.25
430.292	84.25
430.514	90.25
430.736	91.25
430.958	87.25
431.18	93.25
431.402	76.25
431.624	79.25
431.846	96.25
432.068	92.25
432.29	90.25
432.512	92.25
432.734	95.25
432.956	89.25
433.178	79.25
433.4	100.25
433.622	80.25
433.844	99.25
434.066	91.25
434.287	87.25
434.509	85.25
434.731	106.25
434.953	95.25
435.175	87.25
435.397	89.25
435.618	80.25
435.84	100.25
436.062	129.25
436.284	107.25
436.505	105.25
436.727	98.25
436.949	87.25
437.17	94.25
437.392	94.25
437.614	94.25
437.835	91.25
438.057	105.25
438.278	106.25
438.5	91.25
438.721	116.25
438.943	97.25
439.165	93.25
439.386	90.25
439.608	102.25
439.829	110.25
440.05	108.25
440.272	141.25
440.493	113.25
440.715	88.25
440.936	86.25
441.158	80.25
441.379	80.25
441.6	70.25
441.822	89.25
442.043	104.25
442.264	106.25
442.486	107.25
442.707	75.25
442.928	115.25
443.149	133.25
443.371	129.25
443.592	114.25
443.813	106.25
444.034	102.25
444.255	98.25
444.476	77.25
444.698	85.25
444.919	87.25
445.14	141.25
445.361	121.25
445.582	125.25
445.803	149.25
446.024	138.25
446.245	121.25
446.466	122.25
446.687	95.25
446.908	93.25
447.129	82.25
447.35	89.25
447.571	100.25
447.792	85.25
448.013	97.25
448.234	105.25
448.455	108.25
448.675	116.25
448.896	111.25
449.117	103.25
449.338	103.25
449.559	135.25
449.779	148.25
450	101.25
450.221	80.25
450.442	98.25
450.662	94.25
450.883	105.25
451.104	107.25
451.324	90.25
451.545	92.25
451.766	92.25
451.986	91.25
452.207	83.25
452.428	98.25
452.648	98.25
452.869	113.25
453.089	125.25
453.31	114.25
453.53	94.25
453.751	111.25
453.971	100.25
454.192	111.25
454.412	91.25
454.633	85.25
454.853	87.25
455.073	87.25
455.294	93.25
455.514	99.25
455.734	80.25
455.955	95.25
456.175	96.25
456.395	86.25
456.616	96.25
456.836	94.25
457.056	81.25
457.276	85.25
457.497	89.25
457.717	81.25
457.937	80.25
458.157	86.25
458.377	92.25
458.598	105.25
458.818	156.25
459.038	171.25
459.258	128.25
459.478	93.25
459.698	82.25
459.918	93.25
460.138	89.25
460.358	89.25
460.578	95.25
460.798	77.25
461.018	82.25
461.238	94.25
461.458	84.25
461.678	83.25
461.898	93.25
462.118	87.25
462.338	87.25
462.558	86.25
462.777	77.25
462.997	74.25
463.217	95.25
463.437	86.25
463.657	89.25
463.876	85.25
464.096	95.25
464.316	86.25
464.536	109.25
464.755	91.25
464.975	96.25
465.195	155.25
465.414	155.25
465.634	99.25
465.854	95.25
466.073	77.25
466.293	82.25
466.512	85.25
466.732	87.25
466.951	98.25
467.171	97.25
467.391	100.25
467.61	98.25
467.829	93.25
468.049	87.25
468.268	76.25
468.488	78.25
468.707	73.25
468.927	60.25
469.146	108.25
469.365	87.25
469.585	85.25
469.804	93.25
470.023	82.25
470.243	100.25
470.462	95.25
470.681	113.25
470.901	89.25
471.12	88.25
471.339	84.25
471.558	84.25
471.777	90.25
471.997	84.25
472.216	86.25
472.435	82.25
472.654	81.25
472.873	99.25
473.092	85.25
473.311	88.25
473.53	84.25
473.749	79.25
473.968	86.25
474.187	95.25
474.406	104.25
474.625	93.25
474.844	91.25
475.063	77.25
475.282	86.25
475.501	86.25
475.72	88.25
475.939	75.25
476.158	73.25
476.377	75.25
476.596	74.25
476.814	92.25
477.033	90.25
477.252	94.25
477.471	103.25
477.69	72.25
477.908	95.25
478.127	92.25
478.346	94.25
478.564	101.25
478.783	102.25
479.002	74.25
479.22	114.25
479.439	101.25
479.658	114.25
479.876	101.25
480.095	97.25
480.313	87.25
480.532	97.25
480.751	98.25
480.969	92.25
481.188	86.25
481.406	81.25
481.624	76.25
481.843	91.25
482.061	89.25
482.28	113.25
482.498	88.25
482.717	85.25
482.935	97.25
483.153	76.25
483.372	95.25
483.59	97.25
483.808	90.25
484.027	91.25
484.245	92.25
484.463	91.25
484.681	97.25
484.9	94.25
485.118	92.25
485.336	88.25
485.554	91.25
485.772	88.25
485.99	110.25
486.209	89.25
486.427	99.25
486.645	107.25
486.863	103.25
487.081	91.25
487.299	98.25
487.517	80.25
487.735	92.25
487.953	106.25
488.171	102.25
488.389	99.25
488.607	89.25
488.825	101.25
489.043	89.25
489.261	78.25
489.479	79.25
489.696	88.25
489.914	84.25
490.132	83.25
490.35	86.25
490.568	71.25
490.786	96.25
491.003	103.25
491.221	84.25
491.439	87.25
491.657	96.25
491.874	89.25
492.092	106.25
492.31	102.25
492.527	93.25
492.745	88.25
492.963	86.25
493.18	94.25
493.398	101.25
493.615	89.25
493.833	91.25
494.05	95.25
494.268	86.25
494.485	81.25
494.703	86.25
494.92	70.25
495.138	109.25
495.355	91.25
495.573	88.25
495.79	80.25
496.008	95.25
496.225	91.25
496.442	73.25
496.66	77.25
496.877	86.25
497.094	110.25
497.312	89.25
497.529	85.25
497.746	86.25
497.963	84.25
498.181	92.25
498.398	97.25
498.615	120.25
498.832	106.25
499.049	99.25
499.267	82.25
499.484	77.25
499.701	90.25
499.918	91.25
500.135	96.25
500.352	78.25
500.569	89.25
500.786	103.25
501.003	91.25
501.22	98.25
501.437	97.25
501.654	97.25
501.871	101.25
502.088	97.25
502.305	99.25
502.522	83.25
502.739	93.25
502.956	95.25
503.172	83.25
503.389	104.25
503.606	112.25
503.823	115.25
504.04	97.25
504.256	95.25
504.473	87.25
504.69	77.25
504.907	94.25
505.123	74.25
505.34	89.25
505.557	91.25
505.773	85.25
505.99	92.25
506.207	98.25
506.423	92.25
506.64	89.25
506.856	89.25
507.073	74.25
507.289	87.25
507.506	94.25
507.722	99.25
507.939	132.25
508.155	99.25
508.372	89.25
508.588	94.25
508.805	95.25
509.021	102.25
509.238	94.25
509.454	91.25
509.67	109.25
509.887	109.25
510.103	139.25
510.319	230.25
510.536	822.25
510.752	2708.25
510.968	754.25
511.184	169.25
511.401	115.25
511.617	119.25
511.833	100.25
512.049	87.25
512.265	99.25
512.481	96.25
512.698	92.25
512.914	93.25
513.13	98.25
513.346	102.25
513.562	101.25
513.778	98.25
513.994	87.25
514.21	104.25
514.426	124.25
514.642	127.25
514.858	137.25
515.074	186.25
515.29	494.25
515.506	1629.25
