Data from Uncirc_2007_H10_HRD10591_00098.txt Node
Date: Wed Jan 03 10:21:02 EST 2024
User: Yrep
Spectrometer: HR+D1059
Trigger mode: 1
Integration Time (sec): 1.000000E-1
Scans to average: 1
Electric dark correction enabled: true
Nonlinearity correction enabled: false
Boxcar width: 0
XAxis mode: Wavelengths
Number of Pixels in Spectrum: 2048
>>>>>Begin Spectral Data<<<<<
223.165	-21.5
223.4	-21.5
223.635	-21.5
223.869	-18.5
224.104	-14.5
224.338	-7.5
224.573	-21.5
224.808	-17.5
225.042	-23.5
225.277	-9.5
225.511	-0.5
225.746	12.5
225.98	-2.5
226.215	17.5
226.449	11.5
226.683	21.5
226.918	36.5
227.152	37.5
227.387	23.5
227.621	43.5
227.856	48.5
228.09	53.5
228.324	53.5
228.559	56.5
228.793	49.5
229.027	54.5
229.262	65.5
229.496	83.5
229.73	96.5
229.964	73.5
230.199	78.5
230.433	69.5
230.667	78.5
230.901	84.5
231.136	57.5
231.37	88.5
231.604	73.5
231.838	67.5
232.072	83.5
232.306	77.5
232.541	64.5
232.775	79.5
233.009	86.5
233.243	74.5
233.477	78.5
233.711	72.5
233.945	73.5
234.179	83.5
234.413	59.5
234.647	66.5
234.881	84.5
235.115	70.5
235.349	69.5
235.583	77.5
235.817	81.5
236.051	89.5
236.285	79.5
236.519	66.5
236.753	77.5
236.987	74.5
237.221	74.5
237.455	91.5
237.689	72.5
237.922	64.5
238.156	68.5
238.39	70.5
238.624	74.5
238.858	77.5
239.091	88.5
239.325	51.5
239.559	79.5
239.793	82.5
240.027	79.5
240.26	68.5
240.494	76.5
240.728	61.5
240.961	71.5
241.195	77.5
241.429	78.5
241.662	68.5
241.896	83.5
242.13	82.5
242.363	68.5
242.597	78.5
242.83	75.5
243.064	63.5
243.298	64.5
243.531	83.5
243.765	83.5
243.998	87.5
244.232	82.5
244.465	91.5
244.699	83.5
244.932	77.5
245.166	81.5
245.399	75.5
245.633	92.5
245.866	77.5
246.099	87.5
246.333	78.5
246.566	68.5
246.8	86.5
247.033	87.5
247.266	91.5
247.5	74.5
247.733	84.5
247.966	73.5
248.2	69.5
248.433	85.5
248.666	72.5
248.899	75.5
249.133	90.5
249.366	98.5
249.599	100.5
249.832	87.5
250.066	73.5
250.299	71.5
250.532	84.5
250.765	77.5
250.998	87.5
251.231	87.5
251.465	66.5
251.698	73.5
251.931	63.5
252.164	72.5
252.397	71.5
252.63	71.5
252.863	75.5
253.096	80.5
253.329	77.5
253.562	79.5
253.795	70.5
254.028	72.5
254.261	92.5
254.494	73.5
254.727	92.5
254.96	71.5
255.193	80.5
255.426	74.5
255.659	87.5
255.892	72.5
256.124	57.5
256.357	74.5
256.59	79.5
256.823	62.5
257.056	66.5
257.289	78.5
257.521	75.5
257.754	79.5
257.987	75.5
258.22	79.5
258.452	82.5
258.685	88.5
258.918	84.5
259.151	79.5
259.383	71.5
259.616	79.5
259.849	75.5
260.081	82.5
260.314	76.5
260.547	96.5
260.779	77.5
261.012	65.5
261.244	82.5
261.477	67.5
261.71	86.5
261.942	113.5
262.175	115.5
262.407	94.5
262.64	84.5
262.872	77.5
263.105	71.5
263.337	67.5
263.57	79.5
263.802	84.5
264.035	91.5
264.267	85.5
264.499	72.5
264.732	80.5
264.964	87.5
265.197	79.5
265.429	86.5
265.661	83.5
265.894	94.5
266.126	81.5
266.358	88.5
266.591	87.5
266.823	71.5
267.055	86.5
267.287	84.5
267.52	80.5
267.752	76.5
267.984	94.5
268.216	66.5
268.448	88.5
268.681	87.5
268.913	74.5
269.145	73.5
269.377	80.5
269.609	81.5
269.841	78.5
270.073	74.5
270.306	69.5
270.538	92.5
270.77	86.5
271.002	75.5
271.234	75.5
271.466	85.5
271.698	80.5
271.93	90.5
272.162	97.5
272.394	80.5
272.626	93.5
272.858	78.5
273.09	80.5
273.322	77.5
273.553	83.5
273.785	93.5
274.017	78.5
274.249	82.5
274.481	78.5
274.713	73.5
274.945	75.5
275.176	89.5
275.408	88.5
275.64	90.5
275.872	71.5
276.104	78.5
276.335	97.5
276.567	87.5
276.799	94.5
277.031	94.5
277.262	90.5
277.494	90.5
277.726	75.5
277.957	91.5
278.189	96.5
278.421	99.5
278.652	72.5
278.884	89.5
279.115	85.5
279.347	96.5
279.579	90.5
279.81	97.5
280.042	90.5
280.273	78.5
280.505	88.5
280.736	80.5
280.968	78.5
281.199	84.5
281.431	80.5
281.662	91.5
281.894	91.5
282.125	97.5
282.356	108.5
282.588	139.5
282.819	117.5
283.051	85.5
283.282	83.5
283.513	92.5
283.745	95.5
283.976	83.5
284.207	104.5
284.439	98.5
284.67	87.5
284.901	87.5
285.132	102.5
285.364	80.5
285.595	87.5
285.826	93.5
286.057	89.5
286.288	107.5
286.52	87.5
286.751	93.5
286.982	82.5
287.213	89.5
287.444	83.5
287.675	90.5
287.906	79.5
288.138	95.5
288.369	104.5
288.6	86.5
288.831	81.5
289.062	93.5
289.293	81.5
289.524	69.5
289.755	81.5
289.986	89.5
290.217	83.5
290.448	87.5
290.679	81.5
290.91	85.5
291.141	90.5
291.371	98.5
291.602	93.5
291.833	91.5
292.064	92.5
292.295	79.5
292.526	92.5
292.757	71.5
292.987	65.5
293.218	95.5
293.449	91.5
293.68	93.5
293.91	95.5
294.141	93.5
294.372	97.5
294.603	102.5
294.833	94.5
295.064	83.5
295.295	87.5
295.525	93.5
295.756	96.5
295.987	110.5
296.217	141.5
296.448	120.5
296.679	89.5
296.909	91.5
297.14	85.5
297.37	83.5
297.601	87.5
297.831	85.5
298.062	72.5
298.292	86.5
298.523	83.5
298.753	104.5
298.984	91.5
299.214	79.5
299.445	91.5
299.675	84.5
299.905	99.5
300.136	84.5
300.366	97.5
300.597	90.5
300.827	98.5
301.057	88.5
301.288	94.5
301.518	98.5
301.748	91.5
301.979	100.5
302.209	110.5
302.439	85.5
302.669	85.5
302.9	87.5
303.13	105.5
303.36	101.5
303.59	89.5
303.82	119.5
304.051	77.5
304.281	85.5
304.511	90.5
304.741	91.5
304.971	77.5
305.201	98.5
305.431	87.5
305.661	83.5
305.891	83.5
306.121	95.5
306.352	110.5
306.582	95.5
306.812	92.5
307.042	89.5
307.272	87.5
307.502	96.5
307.731	103.5
307.961	78.5
308.191	82.5
308.421	89.5
308.651	89.5
308.881	89.5
309.111	97.5
309.341	91.5
309.571	98.5
309.8	109.5
310.03	101.5
310.26	101.5
310.49	106.5
310.72	91.5
310.949	118.5
311.179	90.5
311.409	93.5
311.639	86.5
311.868	111.5
312.098	116.5
312.328	97.5
312.557	91.5
312.787	114.5
313.017	97.5
313.246	106.5
313.476	91.5
313.706	92.5
313.935	90.5
314.165	93.5
314.394	105.5
314.624	91.5
314.853	94.5
315.083	93.5
315.312	91.5
315.542	75.5
315.771	92.5
316.001	94.5
316.23	103.5
316.46	78.5
316.689	98.5
316.919	102.5
317.148	88.5
317.377	95.5
317.607	102.5
317.836	89.5
318.065	85.5
318.295	101.5
318.524	83.5
318.753	87.5
318.983	101.5
319.212	106.5
319.441	117.5
319.67	96.5
319.9	96.5
320.129	91.5
320.358	95.5
320.587	105.5
320.816	111.5
321.046	102.5
321.275	98.5
321.504	99.5
321.733	95.5
321.962	101.5
322.191	100.5
322.42	102.5
322.649	111.5
322.878	121.5
323.108	106.5
323.337	133.5
323.566	141.5
323.795	161.5
324.024	215.5
324.253	426.5
324.482	948.5
324.71	1877.5
324.939	2574.5
325.168	929.5
325.397	262.5
325.626	158.5
325.855	128.5
326.084	110.5
326.313	137.5
326.542	166.5
326.77	242.5
326.999	488.5
327.228	1046.5
327.457	1951.5
327.686	1517.5
327.914	401.5
328.143	197.5
328.372	151.5
328.6	127.5
328.829	110.5
329.058	127.5
329.287	118.5
329.515	112.5
329.744	105.5
329.972	100.5
330.201	108.5
330.43	97.5
330.658	126.5
330.887	142.5
331.115	130.5
331.344	100.5
331.572	100.5
331.801	101.5
332.03	114.5
332.258	94.5
332.486	94.5
332.715	81.5
332.943	87.5
333.172	91.5
333.4	90.5
333.629	104.5
333.857	115.5
334.085	108.5
334.314	87.5
334.542	88.5
334.771	103.5
334.999	90.5
335.227	106.5
335.455	105.5
335.684	97.5
335.912	93.5
336.14	94.5
336.369	84.5
336.597	97.5
336.825	105.5
337.053	82.5
337.281	93.5
337.51	93.5
337.738	99.5
337.966	82.5
338.194	111.5
338.422	92.5
338.65	88.5
338.878	94.5
339.106	91.5
339.334	82.5
339.562	84.5
339.79	112.5
340.018	93.5
340.246	96.5
340.474	91.5
340.702	87.5
340.93	86.5
341.158	82.5
341.386	98.5
341.614	91.5
341.842	93.5
342.07	94.5
342.298	86.5
342.526	96.5
342.754	80.5
342.981	81.5
343.209	81.5
343.437	98.5
343.665	75.5
343.893	93.5
344.12	95.5
344.348	94.5
344.576	91.5
344.804	85.5
345.031	96.5
345.259	93.5
345.487	93.5
345.714	85.5
345.942	83.5
346.17	91.5
346.397	81.5
346.625	98.5
346.853	78.5
347.08	111.5
347.308	103.5
347.535	97.5
347.763	91.5
347.99	90.5
348.218	91.5
348.445	101.5
348.673	104.5
348.9	80.5
349.128	81.5
349.355	94.5
349.583	90.5
349.81	81.5
350.037	88.5
350.265	94.5
350.492	86.5
350.72	94.5
350.947	126.5
351.174	108.5
351.402	129.5
351.629	101.5
351.856	100.5
352.083	99.5
352.311	98.5
352.538	95.5
352.765	104.5
352.992	112.5
353.22	108.5
353.447	114.5
353.674	88.5
353.901	104.5
354.128	98.5
354.355	92.5
354.583	89.5
354.81	82.5
355.037	94.5
355.264	87.5
355.491	82.5
355.718	91.5
355.945	89.5
356.172	95.5
356.399	98.5
356.626	78.5
356.853	75.5
357.08	97.5
357.307	89.5
357.534	84.5
357.761	89.5
357.988	86.5
358.215	89.5
358.441	86.5
358.668	91.5
358.895	83.5
359.122	88.5
359.349	101.5
359.576	98.5
359.802	101.5
360.029	110.5
360.256	105.5
360.483	105.5
360.709	102.5
360.936	81.5
361.163	80.5
361.39	87.5
361.616	104.5
361.843	73.5
362.07	81.5
362.296	95.5
362.523	93.5
362.749	80.5
362.976	87.5
363.203	93.5
363.429	74.5
363.656	86.5
363.882	88.5
364.109	80.5
364.335	83.5
364.562	90.5
364.788	94.5
365.015	89.5
365.241	93.5
365.468	114.5
365.694	97.5
365.92	100.5
366.147	85.5
366.373	92.5
366.599	90.5
366.826	86.5
367.052	86.5
367.278	85.5
367.505	98.5
367.731	89.5
367.957	80.5
368.184	97.5
368.41	98.5
368.636	110.5
368.862	130.5
369.089	97.5
369.315	87.5
369.541	85.5
369.767	72.5
369.993	79.5
370.219	89.5
370.445	86.5
370.672	103.5
370.898	93.5
371.124	99.5
371.35	69.5
371.576	98.5
371.802	97.5
372.028	98.5
372.254	103.5
372.48	94.5
372.706	68.5
372.932	84.5
373.158	92.5
373.384	87.5
373.61	92.5
373.835	80.5
374.061	90.5
374.287	94.5
374.513	69.5
374.739	75.5
374.965	83.5
375.191	83.5
375.416	84.5
375.642	89.5
375.868	94.5
376.094	95.5
376.319	84.5
376.545	85.5
376.771	74.5
376.997	83.5
377.222	96.5
377.448	100.5
377.674	85.5
377.899	73.5
378.125	94.5
378.35	90.5
378.576	90.5
378.802	83.5
379.027	91.5
379.253	95.5
379.478	86.5
379.704	89.5
379.929	91.5
380.155	89.5
380.38	86.5
380.606	97.5
380.831	95.5
381.057	97.5
381.282	89.5
381.507	85.5
381.733	101.5
381.958	111.5
382.184	94.5
382.409	96.5
382.634	96.5
382.86	99.5
383.085	93.5
383.31	94.5
383.535	105.5
383.761	85.5
383.986	88.5
384.211	96.5
384.436	110.5
384.662	103.5
384.887	97.5
385.112	90.5
385.337	94.5
385.562	104.5
385.787	93.5
386.013	106.5
386.238	107.5
386.463	113.5
386.688	117.5
386.913	89.5
387.138	92.5
387.363	97.5
387.588	98.5
387.813	80.5
388.038	98.5
388.263	104.5
388.488	110.5
388.713	97.5
388.938	90.5
389.163	87.5
389.387	91.5
389.612	74.5
389.837	76.5
390.062	85.5
390.287	101.5
390.512	103.5
390.736	93.5
390.961	96.5
391.186	90.5
391.411	83.5
391.636	81.5
391.86	97.5
392.085	86.5
392.31	103.5
392.534	88.5
392.759	96.5
392.984	83.5
393.208	86.5
393.433	76.5
393.658	86.5
393.882	68.5
394.107	71.5
394.331	90.5
394.556	96.5
394.78	77.5
395.005	77.5
395.229	80.5
395.454	69.5
395.678	77.5
395.903	105.5
396.127	93.5
396.352	81.5
396.576	87.5
396.801	93.5
397.025	80.5
397.249	100.5
397.474	90.5
397.698	88.5
397.922	79.5
398.147	100.5
398.371	89.5
398.595	74.5
398.82	81.5
399.044	63.5
399.268	80.5
399.492	81.5
399.717	95.5
399.941	99.5
400.165	89.5
400.389	82.5
400.613	82.5
400.837	86.5
401.062	84.5
401.286	95.5
401.51	93.5
401.734	87.5
401.958	101.5
402.182	132.5
402.406	153.5
402.63	117.5
402.854	87.5
403.078	90.5
403.302	92.5
403.526	99.5
403.75	75.5
403.974	75.5
404.198	80.5
404.422	72.5
404.645	92.5
404.869	97.5
405.093	88.5
405.317	86.5
405.541	101.5
405.765	101.5
405.988	125.5
406.212	181.5
406.436	249.5
406.66	139.5
406.883	89.5
407.107	87.5
407.331	84.5
407.555	95.5
407.778	86.5
408.002	91.5
408.226	94.5
408.449	88.5
408.673	72.5
408.896	95.5
409.12	96.5
409.344	96.5
409.567	88.5
409.791	87.5
410.014	88.5
410.238	102.5
410.461	92.5
410.685	95.5
410.908	83.5
411.132	100.5
411.355	84.5
411.578	83.5
411.802	86.5
412.025	100.5
412.249	87.5
412.472	80.5
412.695	66.5
412.919	74.5
413.142	77.5
413.365	83.5
413.589	88.5
413.812	71.5
414.035	100.5
414.258	80.5
414.482	79.5
414.705	86.5
414.928	83.5
415.151	101.5
415.374	86.5
415.597	82.5
415.821	82.5
416.044	86.5
416.267	87.5
416.49	91.5
416.713	91.5
416.936	77.5
417.159	96.5
417.382	88.5
417.605	90.5
417.828	98.5
418.051	79.5
418.274	90.5
418.497	89.5
418.72	82.5
418.943	84.5
419.166	79.5
419.389	86.5
419.611	83.5
419.834	91.5
420.057	82.5
420.28	89.5
420.503	86.5
420.726	90.5
420.948	78.5
421.171	95.5
421.394	81.5
421.617	101.5
421.839	76.5
422.062	77.5
422.285	70.5
422.507	97.5
422.73	106.5
422.953	94.5
423.175	80.5
423.398	89.5
423.621	88.5
423.843	83.5
424.066	87.5
424.288	88.5
424.511	81.5
424.733	102.5
424.956	103.5
425.178	103.5
425.401	123.5
425.623	101.5
425.846	92.5
426.068	95.5
426.291	92.5
426.513	80.5
426.735	83.5
426.958	90.5
427.18	98.5
427.402	141.5
427.625	165.5
427.847	110.5
428.069	103.5
428.292	89.5
428.514	85.5
428.736	77.5
428.958	81.5
429.181	86.5
429.403	91.5
429.625	89.5
429.847	76.5
430.069	96.5
430.292	90.5
430.514	92.5
430.736	83.5
430.958	91.5
431.18	85.5
431.402	80.5
431.624	75.5
431.846	57.5
432.068	88.5
432.29	86.5
432.512	75.5
432.734	82.5
432.956	86.5
433.178	96.5
433.4	98.5
433.622	86.5
433.844	85.5
434.066	85.5
434.287	77.5
434.509	92.5
434.731	93.5
434.953	74.5
435.175	83.5
435.397	86.5
435.618	81.5
435.84	103.5
436.062	113.5
436.284	107.5
436.505	91.5
436.727	96.5
436.949	73.5
437.17	71.5
437.392	77.5
437.614	93.5
437.835	103.5
438.057	111.5
438.278	120.5
438.5	102.5
438.721	122.5
438.943	96.5
439.165	87.5
439.386	82.5
439.608	68.5
439.829	96.5
440.05	129.5
440.272	144.5
440.493	104.5
440.715	79.5
440.936	78.5
441.158	83.5
441.379	79.5
441.6	96.5
441.822	95.5
442.043	80.5
442.264	106.5
442.486	83.5
442.707	90.5
442.928	122.5
443.149	144.5
443.371	151.5
443.592	103.5
443.813	121.5
444.034	104.5
444.255	90.5
444.476	85.5
444.698	77.5
444.919	97.5
445.14	138.5
445.361	124.5
445.582	130.5
445.803	140.5
446.024	130.5
446.245	136.5
446.466	102.5
446.687	82.5
446.908	97.5
447.129	83.5
447.35	83.5
447.571	95.5
447.792	98.5
448.013	87.5
448.234	107.5
448.455	83.5
448.675	103.5
448.896	108.5
449.117	97.5
449.338	98.5
449.559	125.5
449.779	130.5
450	88.5
450.221	92.5
450.442	98.5
450.662	78.5
450.883	112.5
451.104	110.5
451.324	102.5
451.545	86.5
451.766	75.5
451.986	72.5
452.207	66.5
452.428	98.5
452.648	90.5
452.869	117.5
453.089	111.5
453.31	112.5
453.53	94.5
453.751	79.5
453.971	102.5
454.192	112.5
454.412	105.5
454.633	66.5
454.853	78.5
455.073	71.5
455.294	74.5
455.514	106.5
455.734	94.5
455.955	93.5
456.175	85.5
456.395	82.5
456.616	80.5
456.836	70.5
457.056	77.5
457.276	76.5
457.497	77.5
457.717	69.5
457.937	68.5
458.157	83.5
458.377	85.5
458.598	104.5
458.818	151.5
459.038	170.5
459.258	117.5
459.478	82.5
459.698	78.5
459.918	95.5
460.138	66.5
460.358	71.5
460.578	82.5
460.798	84.5
461.018	97.5
461.238	83.5
461.458	82.5
461.678	72.5
461.898	82.5
462.118	82.5
462.338	83.5
462.558	77.5
462.777	78.5
462.997	80.5
463.217	82.5
463.437	62.5
463.657	84.5
463.876	76.5
464.096	89.5
464.316	74.5
464.536	92.5
464.755	78.5
464.975	105.5
465.195	154.5
465.414	159.5
465.634	90.5
465.854	86.5
466.073	79.5
466.293	82.5
466.512	86.5
466.732	90.5
466.951	78.5
467.171	96.5
467.391	84.5
467.61	98.5
467.829	92.5
468.049	83.5
468.268	82.5
468.488	77.5
468.707	98.5
468.927	83.5
469.146	88.5
469.365	82.5
469.585	90.5
469.804	93.5
470.023	88.5
470.243	85.5
470.462	95.5
470.681	111.5
470.901	94.5
471.12	82.5
471.339	79.5
471.558	75.5
471.777	77.5
471.997	79.5
472.216	87.5
472.435	71.5
472.654	86.5
472.873	81.5
473.092	98.5
473.311	76.5
473.53	89.5
473.749	84.5
473.968	96.5
474.187	112.5
474.406	108.5
474.625	93.5
474.844	88.5
475.063	78.5
475.282	88.5
475.501	84.5
475.72	92.5
475.939	79.5
476.158	78.5
476.377	89.5
476.596	81.5
476.814	88.5
477.033	85.5
477.252	98.5
477.471	70.5
477.69	84.5
477.908	81.5
478.127	70.5
478.346	78.5
478.564	80.5
478.783	90.5
479.002	77.5
479.22	78.5
479.439	101.5
479.658	85.5
479.876	96.5
480.095	91.5
480.313	103.5
480.532	83.5
480.751	87.5
480.969	91.5
481.188	94.5
481.406	67.5
481.624	79.5
481.843	82.5
482.061	81.5
482.28	97.5
482.498	86.5
482.717	79.5
482.935	90.5
483.153	83.5
483.372	81.5
483.59	76.5
483.808	76.5
484.027	92.5
484.245	107.5
484.463	82.5
484.681	107.5
484.9	83.5
485.118	91.5
485.336	97.5
485.554	92.5
485.772	89.5
485.99	83.5
486.209	89.5
486.427	110.5
486.645	111.5
486.863	114.5
487.081	104.5
487.299	96.5
487.517	90.5
487.735	87.5
487.953	94.5
488.171	77.5
488.389	86.5
488.607	101.5
488.825	109.5
489.043	72.5
489.261	79.5
489.479	80.5
489.696	97.5
489.914	89.5
490.132	84.5
490.35	101.5
490.568	95.5
490.786	81.5
491.003	64.5
491.221	84.5
491.439	92.5
491.657	86.5
491.874	87.5
492.092	82.5
492.31	89.5
492.527	86.5
492.745	82.5
492.963	74.5
493.18	88.5
493.398	106.5
493.615	99.5
493.833	90.5
494.05	76.5
494.268	82.5
494.485	82.5
494.703	86.5
494.92	90.5
495.138	81.5
495.355	88.5
495.573	88.5
495.79	76.5
496.008	79.5
496.225	89.5
496.442	91.5
496.66	85.5
496.877	89.5
497.094	86.5
497.312	92.5
497.529	98.5
497.746	80.5
497.963	79.5
498.181	85.5
498.398	86.5
498.615	111.5
498.832	92.5
499.049	104.5
499.267	97.5
499.484	94.5
499.701	108.5
499.918	88.5
500.135	83.5
500.352	85.5
500.569	110.5
500.786	97.5
501.003	82.5
501.22	85.5
501.437	97.5
501.654	91.5
501.871	97.5
502.088	88.5
502.305	88.5
502.522	90.5
502.739	89.5
502.956	89.5
503.172	78.5
503.389	87.5
503.606	94.5
503.823	91.5
504.04	94.5
504.256	83.5
504.473	67.5
504.69	97.5
504.907	83.5
505.123	95.5
505.34	89.5
505.557	86.5
505.773	94.5
505.99	79.5
506.207	94.5
506.423	97.5
506.64	88.5
506.856	98.5
507.073	80.5
507.289	92.5
507.506	90.5
507.722	98.5
507.939	111.5
508.155	104.5
508.372	81.5
508.588	96.5
508.805	86.5
509.021	95.5
509.238	96.5
509.454	104.5
509.67	106.5
509.887	102.5
510.103	138.5
510.319	214.5
510.536	812.5
510.752	2701.5
510.968	741.5
511.184	154.5
511.401	105.5
511.617	98.5
511.833	94.5
512.049	78.5
512.265	86.5
512.481	86.5
512.698	94.5
512.914	86.5
513.13	86.5
513.346	98.5
513.562	94.5
513.778	88.5
513.994	86.5
514.21	98.5
514.426	126.5
514.642	137.5
514.858	133.5
515.074	157.5
515.29	498.5
515.506	1677.5
515.721	622.5
515.937	161.5
516.153	114.5
516.369	89.5
516.585	101.5
516.801	93.5
517.016	93.5
517.232	92.5
517.448	96.5
517.664	90.5
517.879	89.5
518.095	87.5
518.311	89.5
518.527	92.5
518.742	84.5
518.958	76.5
519.173	103.5
519.389	93.5
519.605	89.5
519.82	102.5
520.036	97.5
520.251	110.5
520.467	106.5
520.682	107.5
520.898	98.5
521.113	121.5
521.329	137.5
521.544	221.5
521.76	595.5
521.975	2722.5
522.19	1669.5
522.406	338.5
522.621	125.5
522.836	87.5
523.052	86.5
523.267	89.5
523.482	91.5
523.698	102.5
523.913	118.5
524.128	105.5
524.343	89.5
524.559	90.5
524.774	93.5
524.989	92.5
525.204	97.5
525.419	83.5
525.634	86.5
525.849	83.5
526.064	81.5
526.28	79.5
526.495	85.5
526.71	87.5
526.925	74.5
527.14	71.5
527.355	101.5
527.57	90.5
527.785	89.5
527.999	95.5
528.214	92.5
528.429	92.5
528.644	83.5
528.859	86.5
529.074	100.5
529.289	128.5
529.503	182.5
529.718	93.5
529.933	93.5
530.148	88.5
530.363	91.5
530.577	87.5
530.792	94.5
531.007	78.5
531.221	81.5
531.436	101.5
531.651	77.5
531.865	100.5
532.08	93.5
532.295	78.5
532.509	87.5
532.724	89.5
532.938	81.5
533.153	94.5
533.367	86.5
533.582	82.5
533.796	91.5
534.011	89.5
534.225	105.5
534.44	89.5
534.654	96.5
534.868	83.5
535.083	98.5
535.297	106.5
535.511	90.5
535.726	103.5
535.94	90.5
536.154	101.5
