Data from Uncirc_2007_H10_HRD10591_00016.txt Node
Date: Wed Jan 03 10:20:45 EST 2024
User: Yrep
Spectrometer: HR+D1059
Trigger mode: 1
Integration Time (sec): 1.000000E-1
Scans to average: 1
Electric dark correction enabled: true
Nonlinearity correction enabled: false
Boxcar width: 0
XAxis mode: Wavelengths
Number of Pixels in Spectrum: 2048
>>>>>Begin Spectral Data<<<<<
223.165	-10.88
223.4	-10.88
223.635	-10.88
223.869	-10.88
224.104	-3.88
224.338	-4.88
224.573	-15.88
224.808	-10.88
225.042	-25.88
225.277	-9.88
225.511	-6.88
225.746	8.12
225.98	14.12
226.215	14.12
226.449	1.12
226.683	8.12
226.918	24.12
227.152	30.12
227.387	46.12
227.621	38.12
227.856	49.12
228.09	70.12
228.324	43.12
228.559	46.12
228.793	66.12
229.027	59.12
229.262	57.12
229.496	54.12
229.73	67.12
229.964	92.12
230.199	77.12
230.433	77.12
230.667	88.12
230.901	61.12
231.136	81.12
231.37	80.12
231.604	79.12
231.838	77.12
232.072	81.12
232.306	65.12
232.541	78.12
232.775	92.12
233.009	65.12
233.243	80.12
233.477	86.12
233.711	86.12
233.945	75.12
234.179	100.12
234.413	80.12
234.647	80.12
234.881	64.12
235.115	71.12
235.349	78.12
235.583	71.12
235.817	81.12
236.051	82.12
236.285	63.12
236.519	73.12
236.753	89.12
236.987	73.12
237.221	93.12
237.455	92.12
237.689	75.12
237.922	78.12
238.156	71.12
238.39	66.12
238.624	80.12
238.858	78.12
239.091	77.12
239.325	75.12
239.559	82.12
239.793	91.12
240.027	73.12
240.26	78.12
240.494	81.12
240.728	83.12
240.961	75.12
241.195	68.12
241.429	66.12
241.662	66.12
241.896	70.12
242.13	70.12
242.363	71.12
242.597	77.12
242.83	78.12
243.064	68.12
243.298	70.12
243.531	53.12
243.765	70.12
243.998	69.12
244.232	75.12
244.465	89.12
244.699	81.12
244.932	71.12
245.166	72.12
245.399	80.12
245.633	74.12
245.866	77.12
246.099	81.12
246.333	60.12
246.566	72.12
246.8	77.12
247.033	82.12
247.266	85.12
247.5	89.12
247.733	72.12
247.966	74.12
248.2	83.12
248.433	78.12
248.666	69.12
248.899	90.12
249.133	82.12
249.366	96.12
249.599	92.12
249.832	74.12
250.066	74.12
250.299	66.12
250.532	88.12
250.765	77.12
250.998	82.12
251.231	70.12
251.465	74.12
251.698	76.12
251.931	75.12
252.164	82.12
252.397	72.12
252.63	70.12
252.863	72.12
253.096	82.12
253.329	65.12
253.562	58.12
253.795	73.12
254.028	74.12
254.261	86.12
254.494	81.12
254.727	79.12
254.96	83.12
255.193	78.12
255.426	68.12
255.659	77.12
255.892	88.12
256.124	72.12
256.357	72.12
256.59	72.12
256.823	83.12
257.056	95.12
257.289	70.12
257.521	55.12
257.754	91.12
257.987	75.12
258.22	90.12
258.452	83.12
258.685	77.12
258.918	94.12
259.151	86.12
259.383	70.12
259.616	80.12
259.849	82.12
260.081	89.12
260.314	88.12
260.547	79.12
260.779	74.12
261.012	73.12
261.244	71.12
261.477	74.12
261.71	77.12
261.942	103.12
262.175	113.12
262.407	91.12
262.64	80.12
262.872	94.12
263.105	74.12
263.337	81.12
263.57	61.12
263.802	83.12
264.035	88.12
264.267	71.12
264.499	92.12
264.732	71.12
264.964	76.12
265.197	77.12
265.429	73.12
265.661	74.12
265.894	77.12
266.126	82.12
266.358	81.12
266.591	73.12
266.823	90.12
267.055	82.12
267.287	85.12
267.52	91.12
267.752	83.12
267.984	76.12
268.216	84.12
268.448	78.12
268.681	75.12
268.913	84.12
269.145	82.12
269.377	67.12
269.609	78.12
269.841	70.12
270.073	81.12
270.306	86.12
270.538	93.12
270.77	87.12
271.002	76.12
271.234	82.12
271.466	66.12
271.698	90.12
271.93	83.12
272.162	98.12
272.394	85.12
272.626	89.12
272.858	85.12
273.09	82.12
273.322	89.12
273.553	73.12
273.785	92.12
274.017	89.12
274.249	86.12
274.481	81.12
274.713	91.12
274.945	82.12
275.176	82.12
275.408	74.12
275.64	83.12
275.872	93.12
276.104	82.12
276.335	78.12
276.567	93.12
276.799	110.12
277.031	98.12
277.262	92.12
277.494	74.12
277.726	93.12
277.957	81.12
278.189	77.12
278.421	87.12
278.652	82.12
278.884	95.12
279.115	65.12
279.347	70.12
279.579	97.12
279.81	81.12
280.042	83.12
280.273	93.12
280.505	86.12
280.736	77.12
280.968	82.12
281.199	61.12
281.431	74.12
281.662	94.12
281.894	97.12
282.125	95.12
282.356	118.12
282.588	151.12
282.819	120.12
283.051	96.12
283.282	88.12
283.513	100.12
283.745	94.12
283.976	74.12
284.207	78.12
284.439	98.12
284.67	82.12
284.901	84.12
285.132	98.12
285.364	86.12
285.595	92.12
285.826	90.12
286.057	88.12
286.288	73.12
286.52	76.12
286.751	87.12
286.982	93.12
287.213	80.12
287.444	82.12
287.675	84.12
287.906	100.12
288.138	81.12
288.369	71.12
288.6	93.12
288.831	87.12
289.062	88.12
289.293	84.12
289.524	85.12
289.755	95.12
289.986	80.12
290.217	82.12
290.448	79.12
290.679	97.12
290.91	89.12
291.141	90.12
291.371	99.12
291.602	89.12
291.833	72.12
292.064	79.12
292.295	96.12
292.526	88.12
292.757	103.12
292.987	98.12
293.218	81.12
293.449	65.12
293.68	76.12
293.91	81.12
294.141	87.12
294.372	77.12
294.603	88.12
294.833	90.12
295.064	87.12
295.295	77.12
295.525	83.12
295.756	78.12
295.987	104.12
296.217	127.12
296.448	107.12
296.679	87.12
296.909	90.12
297.14	86.12
297.37	77.12
297.601	99.12
297.831	81.12
298.062	103.12
298.292	88.12
298.523	93.12
298.753	83.12
298.984	90.12
299.214	77.12
299.445	104.12
299.675	97.12
299.905	103.12
300.136	90.12
300.366	94.12
300.597	72.12
300.827	94.12
301.057	101.12
301.288	101.12
301.518	82.12
301.748	98.12
301.979	87.12
302.209	86.12
302.439	105.12
302.669	79.12
302.9	94.12
303.13	78.12
303.36	81.12
303.59	82.12
303.82	104.12
304.051	74.12
304.281	98.12
304.511	90.12
304.741	87.12
304.971	89.12
305.201	91.12
305.431	95.12
305.661	96.12
305.891	90.12
306.121	82.12
306.352	107.12
306.582	101.12
306.812	98.12
307.042	83.12
307.272	98.12
307.502	83.12
307.731	82.12
307.961	64.12
308.191	74.12
308.421	94.12
308.651	89.12
308.881	81.12
309.111	79.12
309.341	84.12
309.571	96.12
309.8	85.12
310.03	110.12
310.26	86.12
310.49	105.12
310.72	98.12
310.949	103.12
311.179	98.12
311.409	92.12
311.639	99.12
311.868	95.12
312.098	83.12
312.328	97.12
312.557	105.12
312.787	95.12
313.017	88.12
313.246	83.12
313.476	83.12
313.706	93.12
313.935	99.12
314.165	100.12
314.394	98.12
314.624	92.12
314.853	90.12
315.083	101.12
315.312	81.12
315.542	95.12
315.771	107.12
316.001	85.12
316.23	83.12
316.46	91.12
316.689	78.12
316.919	82.12
317.148	102.12
317.377	88.12
317.607	99.12
317.836	95.12
318.065	100.12
318.295	93.12
318.524	86.12
318.753	99.12
318.983	86.12
319.212	85.12
319.441	103.12
319.67	99.12
319.9	84.12
320.129	96.12
320.358	90.12
320.587	85.12
320.816	102.12
321.046	91.12
321.275	106.12
321.504	87.12
321.733	100.12
321.962	81.12
322.191	96.12
322.42	98.12
322.649	110.12
322.878	103.12
323.108	109.12
323.337	115.12
323.566	128.12
323.795	141.12
324.024	197.12
324.253	429.12
324.482	876.12
324.71	1841.12
324.939	2428.12
325.168	882.12
325.397	263.12
325.626	145.12
325.855	131.12
326.084	123.12
326.313	133.12
326.542	150.12
326.77	223.12
326.999	515.12
327.228	1047.12
327.457	1876.12
327.686	1465.12
327.914	397.12
328.143	187.12
328.372	149.12
328.6	115.12
328.829	119.12
329.058	129.12
329.287	112.12
329.515	110.12
329.744	101.12
329.972	110.12
330.201	97.12
330.43	96.12
330.658	90.12
330.887	135.12
331.115	121.12
331.344	94.12
331.572	81.12
331.801	107.12
332.03	110.12
332.258	97.12
332.486	79.12
332.715	98.12
332.943	94.12
333.172	96.12
333.4	93.12
333.629	95.12
333.857	103.12
334.085	105.12
334.314	87.12
334.542	97.12
334.771	107.12
334.999	85.12
335.227	88.12
335.455	103.12
335.684	94.12
335.912	105.12
336.14	97.12
336.369	104.12
336.597	95.12
336.825	105.12
337.053	80.12
337.281	91.12
337.51	79.12
337.738	91.12
337.966	97.12
338.194	106.12
338.422	82.12
338.65	83.12
338.878	81.12
339.106	87.12
339.334	112.12
339.562	102.12
339.79	90.12
340.018	91.12
340.246	91.12
340.474	95.12
340.702	87.12
340.93	101.12
341.158	93.12
341.386	83.12
341.614	99.12
341.842	95.12
342.07	97.12
342.298	88.12
342.526	87.12
342.754	102.12
342.981	87.12
343.209	82.12
343.437	87.12
343.665	87.12
343.893	86.12
344.12	96.12
344.348	91.12
344.576	90.12
344.804	106.12
345.031	88.12
345.259	74.12
345.487	81.12
345.714	98.12
345.942	89.12
346.17	91.12
346.397	97.12
346.625	88.12
346.853	89.12
347.08	82.12
347.308	98.12
347.535	98.12
347.763	94.12
347.99	105.12
348.218	98.12
348.445	101.12
348.673	94.12
348.9	93.12
349.128	89.12
349.355	85.12
349.583	94.12
349.81	83.12
350.037	79.12
350.265	98.12
350.492	89.12
350.72	99.12
350.947	87.12
351.174	104.12
351.402	96.12
351.629	104.12
351.856	105.12
352.083	95.12
352.311	96.12
352.538	107.12
352.765	109.12
352.992	106.12
353.22	108.12
353.447	96.12
353.674	107.12
353.901	99.12
354.128	97.12
354.355	92.12
354.583	101.12
354.81	86.12
355.037	94.12
355.264	99.12
355.491	92.12
355.718	95.12
355.945	86.12
356.172	90.12
356.399	90.12
356.626	90.12
356.853	92.12
357.08	84.12
357.307	81.12
357.534	87.12
357.761	89.12
357.988	94.12
358.215	81.12
358.441	99.12
358.668	75.12
358.895	92.12
359.122	103.12
359.349	73.12
359.576	86.12
359.802	93.12
360.029	99.12
360.256	107.12
360.483	81.12
360.709	73.12
360.936	87.12
361.163	87.12
361.39	91.12
361.616	100.12
361.843	98.12
362.07	90.12
362.296	89.12
362.523	98.12
362.749	86.12
362.976	80.12
363.203	98.12
363.429	86.12
363.656	87.12
363.882	97.12
364.109	88.12
364.335	87.12
364.562	98.12
364.788	95.12
365.015	78.12
365.241	88.12
365.468	118.12
365.694	121.12
365.92	112.12
366.147	86.12
366.373	95.12
366.599	99.12
366.826	96.12
367.052	83.12
367.278	98.12
367.505	90.12
367.731	78.12
367.957	75.12
368.184	86.12
368.41	93.12
368.636	106.12
368.862	126.12
369.089	95.12
369.315	100.12
369.541	84.12
369.767	89.12
369.993	98.12
370.219	89.12
370.445	79.12
370.672	86.12
370.898	81.12
371.124	87.12
371.35	85.12
371.576	82.12
371.802	86.12
372.028	87.12
372.254	96.12
372.48	81.12
372.706	96.12
372.932	75.12
373.158	85.12
373.384	77.12
373.61	101.12
373.835	81.12
374.061	90.12
374.287	99.12
374.513	87.12
374.739	90.12
374.965	89.12
375.191	79.12
375.416	91.12
375.642	87.12
375.868	95.12
376.094	82.12
376.319	82.12
376.545	75.12
376.771	93.12
376.997	81.12
377.222	75.12
377.448	85.12
377.674	111.12
377.899	87.12
378.125	105.12
378.35	96.12
378.576	82.12
378.802	83.12
379.027	101.12
379.253	85.12
379.478	97.12
379.704	81.12
379.929	88.12
380.155	85.12
380.38	100.12
380.606	85.12
380.831	97.12
381.057	95.12
381.282	89.12
381.507	83.12
381.733	87.12
381.958	103.12
382.184	96.12
382.409	102.12
382.634	89.12
382.86	103.12
383.085	97.12
383.31	109.12
383.535	88.12
383.761	99.12
383.986	92.12
384.211	82.12
384.436	84.12
384.662	110.12
384.887	101.12
385.112	105.12
385.337	103.12
385.562	101.12
385.787	109.12
386.013	113.12
386.238	120.12
386.463	103.12
386.688	114.12
386.913	106.12
387.138	93.12
387.363	84.12
387.588	95.12
387.813	97.12
388.038	92.12
388.263	119.12
388.488	95.12
388.713	106.12
388.938	84.12
389.163	102.12
389.387	80.12
389.612	95.12
389.837	91.12
390.062	97.12
390.287	90.12
390.512	89.12
390.736	97.12
390.961	92.12
391.186	83.12
391.411	93.12
391.636	83.12
391.86	86.12
392.085	91.12
392.31	96.12
392.534	86.12
392.759	82.12
392.984	88.12
393.208	87.12
393.433	80.12
393.658	88.12
393.882	80.12
394.107	91.12
394.331	82.12
394.556	93.12
394.78	98.12
395.005	105.12
395.229	85.12
395.454	90.12
395.678	87.12
395.903	86.12
396.127	94.12
396.352	99.12
396.576	101.12
396.801	91.12
397.025	91.12
397.249	89.12
397.474	105.12
397.698	78.12
397.922	87.12
398.147	89.12
398.371	81.12
398.595	78.12
398.82	102.12
399.044	85.12
399.268	90.12
399.492	89.12
399.717	87.12
399.941	92.12
400.165	81.12
400.389	93.12
400.613	93.12
400.837	89.12
401.062	83.12
401.286	85.12
401.51	89.12
401.734	84.12
401.958	93.12
402.182	121.12
402.406	147.12
402.63	124.12
402.854	101.12
403.078	82.12
403.302	96.12
403.526	86.12
403.75	93.12
403.974	70.12
404.198	88.12
404.422	84.12
404.645	84.12
404.869	85.12
405.093	77.12
405.317	104.12
405.541	95.12
405.765	97.12
405.988	106.12
406.212	157.12
406.436	207.12
406.66	129.12
406.883	98.12
407.107	86.12
407.331	97.12
407.555	98.12
407.778	89.12
408.002	77.12
408.226	92.12
408.449	86.12
408.673	83.12
408.896	95.12
409.12	86.12
409.344	83.12
409.567	92.12
409.791	85.12
410.014	89.12
410.238	87.12
410.461	89.12
410.685	101.12
410.908	100.12
411.132	95.12
411.355	90.12
411.578	101.12
411.802	89.12
412.025	95.12
412.249	85.12
412.472	81.12
412.695	94.12
412.919	98.12
413.142	70.12
413.365	83.12
413.589	88.12
413.812	94.12
414.035	95.12
414.258	91.12
414.482	92.12
414.705	85.12
414.928	78.12
415.151	83.12
415.374	86.12
415.597	88.12
415.821	90.12
416.044	90.12
416.267	92.12
416.49	92.12
416.713	94.12
416.936	91.12
417.159	74.12
417.382	80.12
417.605	77.12
417.828	101.12
418.051	106.12
418.274	88.12
418.497	100.12
418.72	84.12
418.943	80.12
419.166	99.12
419.389	88.12
419.611	90.12
419.834	81.12
420.057	96.12
420.28	81.12
420.503	87.12
420.726	87.12
420.948	88.12
421.171	81.12
421.394	92.12
421.617	78.12
421.839	84.12
422.062	94.12
422.285	97.12
422.507	90.12
422.73	92.12
422.953	83.12
423.175	97.12
423.398	88.12
423.621	94.12
423.843	77.12
424.066	83.12
424.288	86.12
424.511	81.12
424.733	94.12
424.956	87.12
425.178	105.12
425.401	96.12
425.623	102.12
425.846	92.12
426.068	101.12
426.291	87.12
426.513	85.12
426.735	84.12
426.958	102.12
427.18	110.12
427.402	129.12
427.625	148.12
427.847	109.12
428.069	87.12
428.292	80.12
428.514	86.12
428.736	83.12
428.958	67.12
429.181	94.12
429.403	91.12
429.625	78.12
429.847	89.12
430.069	94.12
430.292	97.12
430.514	89.12
430.736	82.12
430.958	83.12
431.18	89.12
431.402	72.12
431.624	65.12
431.846	95.12
432.068	94.12
432.29	78.12
432.512	89.12
432.734	63.12
432.956	103.12
433.178	109.12
433.4	98.12
433.622	88.12
433.844	82.12
434.066	87.12
434.287	86.12
434.509	82.12
434.731	91.12
434.953	83.12
435.175	102.12
435.397	82.12
435.618	82.12
435.84	102.12
436.062	124.12
436.284	103.12
436.505	95.12
436.727	102.12
436.949	99.12
437.17	82.12
437.392	92.12
437.614	88.12
437.835	93.12
438.057	113.12
438.278	95.12
438.5	94.12
438.721	118.12
438.943	92.12
439.165	82.12
439.386	85.12
439.608	93.12
439.829	107.12
440.05	126.12
440.272	142.12
440.493	95.12
440.715	90.12
440.936	87.12
441.158	92.12
441.379	74.12
441.6	80.12
441.822	90.12
442.043	87.12
442.264	94.12
442.486	92.12
442.707	99.12
442.928	113.12
443.149	124.12
443.371	113.12
443.592	130.12
443.813	118.12
444.034	104.12
444.255	88.12
444.476	86.12
444.698	78.12
444.919	89.12
445.14	135.12
445.361	126.12
445.582	129.12
445.803	143.12
446.024	133.12
446.245	140.12
446.466	115.12
446.687	90.12
446.908	77.12
447.129	79.12
447.35	84.12
447.571	88.12
447.792	88.12
448.013	109.12
448.234	96.12
448.455	95.12
448.675	115.12
448.896	114.12
449.117	110.12
449.338	100.12
449.559	138.12
449.779	120.12
450	84.12
450.221	93.12
450.442	88.12
450.662	95.12
450.883	106.12
451.104	100.12
451.324	94.12
451.545	94.12
451.766	82.12
451.986	81.12
452.207	91.12
452.428	81.12
452.648	98.12
452.869	107.12
453.089	98.12
453.31	117.12
453.53	93.12
453.751	90.12
453.971	104.12
454.192	110.12
454.412	108.12
454.633	84.12
454.853	79.12
455.073	95.12
455.294	94.12
455.514	90.12
455.734	82.12
455.955	81.12
456.175	68.12
456.395	78.12
456.616	81.12
456.836	81.12
457.056	96.12
457.276	102.12
457.497	87.12
457.717	88.12
457.937	87.12
458.157	72.12
458.377	81.12
458.598	106.12
458.818	156.12
459.038	147.12
459.258	116.12
459.478	89.12
459.698	82.12
459.918	83.12
460.138	93.12
460.358	89.12
460.578	90.12
460.798	101.12
461.018	90.12
461.238	87.12
461.458	88.12
461.678	79.12
461.898	92.12
462.118	85.12
462.338	87.12
462.558	82.12
462.777	68.12
462.997	78.12
463.217	81.12
463.437	79.12
463.657	80.12
463.876	91.12
464.096	88.12
464.316	78.12
464.536	102.12
464.755	84.12
464.975	101.12
465.195	167.12
465.414	162.12
465.634	82.12
465.854	90.12
466.073	90.12
466.293	87.12
466.512	82.12
466.732	88.12
466.951	93.12
467.171	89.12
467.391	90.12
467.61	111.12
467.829	93.12
468.049	86.12
468.268	78.12
468.488	84.12
468.707	86.12
468.927	86.12
469.146	98.12
469.365	100.12
469.585	102.12
469.804	96.12
470.023	93.12
470.243	94.12
470.462	96.12
470.681	94.12
470.901	90.12
471.12	87.12
471.339	89.12
471.558	91.12
471.777	80.12
471.997	91.12
472.216	70.12
472.435	96.12
472.654	93.12
472.873	71.12
473.092	91.12
473.311	79.12
473.53	63.12
473.749	97.12
473.968	93.12
474.187	97.12
474.406	96.12
474.625	92.12
474.844	92.12
475.063	80.12
475.282	77.12
475.501	101.12
475.72	82.12
475.939	84.12
476.158	88.12
476.377	82.12
476.596	103.12
476.814	88.12
477.033	94.12
477.252	89.12
477.471	85.12
477.69	74.12
477.908	95.12
478.127	93.12
478.346	92.12
478.564	94.12
478.783	101.12
479.002	89.12
479.22	90.12
479.439	106.12
479.658	94.12
479.876	98.12
480.095	94.12
480.313	88.12
480.532	90.12
480.751	84.12
480.969	83.12
481.188	93.12
481.406	100.12
481.624	82.12
481.843	91.12
482.061	100.12
482.28	82.12
482.498	83.12
482.717	81.12
482.935	88.12
483.153	71.12
483.372	97.12
483.59	83.12
483.808	72.12
484.027	81.12
484.245	89.12
484.463	86.12
484.681	107.12
484.9	86.12
485.118	94.12
485.336	95.12
485.554	91.12
485.772	102.12
485.99	101.12
486.209	103.12
486.427	100.12
486.645	101.12
486.863	95.12
487.081	94.12
487.299	102.12
487.517	80.12
487.735	82.12
487.953	85.12
488.171	104.12
488.389	93.12
488.607	92.12
488.825	88.12
489.043	82.12
489.261	90.12
489.479	88.12
489.696	88.12
489.914	88.12
490.132	92.12
490.35	91.12
490.568	99.12
490.786	78.12
491.003	84.12
491.221	101.12
491.439	82.12
491.657	90.12
491.874	91.12
492.092	93.12
492.31	88.12
492.527	90.12
492.745	90.12
492.963	79.12
493.18	96.12
493.398	94.12
493.615	110.12
493.833	101.12
494.05	91.12
494.268	92.12
494.485	78.12
494.703	84.12
494.92	86.12
495.138	94.12
495.355	93.12
495.573	77.12
495.79	91.12
496.008	92.12
496.225	91.12
496.442	76.12
496.66	87.12
496.877	81.12
497.094	85.12
497.312	85.12
497.529	93.12
497.746	87.12
497.963	92.12
498.181	89.12
498.398	99.12
498.615	110.12
498.832	119.12
499.049	95.12
499.267	102.12
499.484	85.12
499.701	83.12
499.918	93.12
500.135	79.12
500.352	87.12
500.569	83.12
500.786	77.12
501.003	77.12
501.22	92.12
501.437	99.12
501.654	96.12
501.871	117.12
502.088	80.12
502.305	79.12
502.522	75.12
502.739	93.12
502.956	99.12
503.172	90.12
503.389	83.12
503.606	89.12
503.823	85.12
504.04	95.12
504.256	77.12
504.473	93.12
504.69	95.12
504.907	95.12
505.123	86.12
505.34	85.12
505.557	88.12
505.773	83.12
505.99	80.12
506.207	84.12
506.423	82.12
506.64	74.12
506.856	95.12
507.073	93.12
507.289	90.12
507.506	98.12
507.722	97.12
507.939	103.12
508.155	82.12
508.372	81.12
508.588	95.12
508.805	97.12
509.021	93.12
509.238	97.12
509.454	90.12
509.67	102.12
509.887	115.12
510.103	136.12
510.319	206.12
510.536	743.12
510.752	2431.12
510.968	653.12
511.184	160.12
511.401	107.12
511.617	89.12
511.833	96.12
512.049	95.12
512.265	75.12
512.481	85.12
512.698	94.12
512.914	87.12
513.13	96.12
513.346	107.12
513.562	101.12
513.778	105.12
513.994	91.12
514.21	92.12
514.426	111.12
514.642	127.12
514.858	136.12
515.074	146.12
515.29	445.12
515.506	1467.12
515.721	552.12
515.937	150.12
516.153	103.12
516.369	107.12
516.585	87.12
