Data from Uncirc_2007_H10_HRD10591_00009.txt Node
Date: Wed Jan 03 10:20:44 EST 2024
User: Yrep
Spectrometer: HR+D1059
Trigger mode: 1
Integration Time (sec): 1.000000E-1
Scans to average: 1
Electric dark correction enabled: true
Nonlinearity correction enabled: false
Boxcar width: 0
XAxis mode: Wavelengths
Number of Pixels in Spectrum: 2048
>>>>>Begin Spectral Data<<<<<
223.165	-30.62
223.4	-30.62
223.635	-30.62
223.869	-34.62
224.104	-24.62
224.338	-12.62
224.573	-20.62
224.808	-4.62
225.042	-4.62
225.277	-12.62
225.511	-5.62
225.746	3.38
225.98	14.38
226.215	16.38
226.449	27.38
226.683	27.38
226.918	29.38
227.152	32.38
227.387	49.38
227.621	46.38
227.856	50.38
228.09	56.38
228.324	55.38
228.559	66.38
228.793	170.38
229.027	452.38
229.262	524.38
229.496	612.38
229.73	795.38
229.964	816.38
230.199	559.38
230.433	475.38
230.667	476.38
230.901	447.38
231.136	431.38
231.37	466.38
231.604	442.38
231.838	452.38
232.072	448.38
232.306	449.38
232.541	470.38
232.775	458.38
233.009	498.38
233.243	476.38
233.477	469.38
233.711	469.38
233.945	491.38
234.179	519.38
234.413	525.38
234.647	501.38
234.881	517.38
235.115	527.38
235.349	552.38
235.583	562.38
235.817	619.38
236.051	677.38
236.285	645.38
236.519	608.38
236.753	723.38
236.987	921.38
237.221	1422.38
237.455	1567.38
237.689	915.38
237.922	756.38
238.156	743.38
238.39	704.38
238.624	632.38
238.858	666.38
239.091	655.38
239.325	638.38
239.559	665.38
239.793	708.38
240.027	792.38
240.26	915.38
240.494	982.38
240.728	983.38
240.961	914.38
241.195	816.38
241.429	765.38
241.662	773.38
241.896	778.38
242.13	759.38
242.363	754.38
242.597	795.38
242.83	799.38
243.064	842.38
243.298	827.38
243.531	808.38
243.765	849.38
243.998	829.38
244.232	862.38
244.465	860.38
244.699	896.38
244.932	916.38
245.166	899.38
245.399	893.38
245.633	901.38
245.866	899.38
246.099	916.38
246.333	944.38
246.566	932.38
246.8	953.38
247.033	1023.38
247.266	1044.38
247.5	1106.38
247.733	1144.38
247.966	1161.38
248.2	1154.38
248.433	1140.38
248.666	1185.38
248.899	1353.38
249.133	1482.38
249.366	1448.38
249.599	1325.38
249.832	1203.38
250.066	1199.38
250.299	1235.38
250.532	1330.38
250.765	1476.38
250.998	1716.38
251.231	1656.38
251.465	1552.38
251.698	1408.38
251.931	1375.38
252.164	1358.38
252.397	1439.38
252.63	1466.38
252.863	1576.38
253.096	1721.38
253.329	1787.38
253.562	1681.38
253.795	1577.38
254.028	1565.38
254.261	1645.38
254.494	1863.38
254.727	2219.38
254.96	2353.38
255.193	1979.38
255.426	1765.38
255.659	1626.38
255.892	1571.38
256.124	1559.38
256.357	1487.38
256.59	1488.38
256.823	1500.38
257.056	1491.38
257.289	1488.38
257.521	1517.38
257.754	1531.38
257.987	1529.38
258.22	1520.38
258.452	1560.38
258.685	1556.38
258.918	1579.38
259.151	1597.38
259.383	1687.38
259.616	1715.38
259.849	1816.38
260.081	1952.38
260.314	2154.38
260.547	2055.38
260.779	1861.38
261.012	1773.38
261.244	1755.38
261.477	1686.38
261.71	1698.38
261.942	1742.38
262.175	1767.38
262.407	1685.38
262.64	1629.38
262.872	1636.38
263.105	1628.38
263.337	1624.38
263.57	1669.38
263.802	1678.38
264.035	1620.38
264.267	1662.38
264.499	1652.38
264.732	1706.38
264.964	1710.38
265.197	1683.38
265.429	1695.38
265.661	1682.38
265.894	1724.38
266.126	1706.38
266.358	1716.38
266.591	1799.38
266.823	1863.38
267.055	1870.38
267.287	1866.38
267.52	1841.38
267.752	1874.38
267.984	1858.38
268.216	1863.38
268.448	1918.38
268.681	2025.38
268.913	2147.38
269.145	2384.38
269.377	2396.38
269.609	2311.38
269.841	2282.38
270.073	2411.38
270.306	2681.38
270.538	2912.38
270.77	2703.38
271.002	2553.38
271.234	2511.38
271.466	2640.38
271.698	2824.38
271.93	2825.38
272.162	2793.38
272.394	2714.38
272.626	2543.38
272.858	2404.38
273.09	2342.38
273.322	2236.38
273.553	2276.38
273.785	2260.38
274.017	2272.38
274.249	2263.38
274.481	2226.38
274.713	2285.38
274.945	2312.38
275.176	2271.38
275.408	2251.38
275.64	2247.38
275.872	2285.38
276.104	2290.38
276.335	2306.38
276.567	2460.38
276.799	2539.38
277.031	2831.38
277.262	2929.38
277.494	2763.38
277.726	2564.38
277.957	2500.38
278.189	2412.38
278.421	2387.38
278.652	2414.38
278.884	2399.38
279.115	2347.38
279.347	2370.38
279.579	2375.38
279.81	2382.38
280.042	2318.38
280.273	2406.38
280.505	2389.38
280.736	2415.38
280.968	2404.38
281.199	2425.38
281.431	2426.38
281.662	2506.38
281.894	2465.38
282.125	2564.38
282.356	2686.38
282.588	2771.38
282.819	2648.38
283.051	2523.38
283.282	2487.38
283.513	2519.38
283.745	2542.38
283.976	2641.38
284.207	2611.38
284.439	2618.38
284.67	2602.38
284.901	2629.38
285.132	2635.38
285.364	2592.38
285.595	2613.38
285.826	2630.38
286.057	2659.38
286.288	2625.38
286.52	2685.38
286.751	2691.38
286.982	2722.38
287.213	2701.38
287.444	2740.38
287.675	2816.38
287.906	2939.38
288.138	2914.38
288.369	2953.38
288.6	2877.38
288.831	2898.38
289.062	2792.38
289.293	2756.38
289.524	2851.38
289.755	2758.38
289.986	2819.38
290.217	2791.38
290.448	2800.38
290.679	2872.38
290.91	2765.38
291.141	2738.38
291.371	2787.38
291.602	2825.38
291.833	2851.38
292.064	2807.38
292.295	2861.38
292.526	2805.38
292.757	2832.38
292.987	2815.38
293.218	2809.38
293.449	2837.38
293.68	2794.38
293.91	2811.38
294.141	2827.38
294.372	2825.38
294.603	2810.38
294.833	2877.38
295.064	2899.38
295.295	2887.38
295.525	2883.38
295.756	2969.38
295.987	2989.38
296.217	3185.38
296.448	3078.38
296.679	2930.38
296.909	2940.38
297.14	2939.38
297.37	3045.38
297.601	3045.38
297.831	3015.38
298.062	3056.38
298.292	2997.38
298.523	3110.38
298.753	3092.38
298.984	3069.38
299.214	3089.38
299.445	3002.38
299.675	3097.38
299.905	3154.38
300.136	3108.38
300.366	3119.38
300.597	3209.38
300.827	3261.38
301.057	3368.38
301.288	3391.38
301.518	3318.38
301.748	3361.38
301.979	3416.38
302.209	3320.38
302.439	3384.38
302.669	3340.38
302.9	3337.38
303.13	3321.38
303.36	3279.38
303.59	3403.38
303.82	3410.38
304.051	3320.38
304.281	3317.38
304.511	3287.38
304.741	3303.38
304.971	3289.38
305.201	3251.38
305.431	3259.38
305.661	3280.38
305.891	3245.38
306.121	3263.38
306.352	3314.38
306.582	3297.38
306.812	3197.38
307.042	3268.38
307.272	3258.38
307.502	3266.38
307.731	3273.38
307.961	3220.38
308.191	3311.38
308.421	3253.38
308.651	3336.38
308.881	3287.38
309.111	3323.38
309.341	3316.38
309.571	3422.38
309.8	3485.38
310.03	3605.38
310.26	3618.38
310.49	3546.38
310.72	3708.38
310.949	3829.38
311.179	3752.38
311.409	3583.38
311.639	3614.38
311.868	3644.38
312.098	3741.38
312.328	3852.38
312.557	3848.38
312.787	3981.38
313.017	3848.38
313.246	3770.38
313.476	3733.38
313.706	3839.38
313.935	3846.38
314.165	4003.38
314.394	3919.38
314.624	3928.38
314.853	3836.38
315.083	3785.38
315.312	3761.38
315.542	3726.38
315.771	3667.38
316.001	3672.38
316.23	3705.38
316.46	3639.38
316.689	3703.38
316.919	3787.38
317.148	3732.38
317.377	3690.38
317.607	3703.38
317.836	3693.38
318.065	3664.38
318.295	3674.38
318.524	3659.38
318.753	3646.38
318.983	3680.38
319.212	3666.38
319.441	3694.38
319.67	3780.38
319.9	3650.38
320.129	3688.38
320.358	3689.38
320.587	3748.38
320.816	3843.38
321.046	3800.38
321.275	3749.38
321.504	3843.38
321.733	3885.38
321.962	3935.38
322.191	3973.38
322.42	4139.38
322.649	4198.38
322.878	4200.38
323.108	4288.38
323.337	4531.38
323.566	4668.38
323.795	4999.38
324.024	5541.38
324.253	7309.38
324.482	11030.38
324.71	15335.38
324.939	15605.38
325.168	13271.38
325.397	6603.38
325.626	5296.38
325.855	4891.38
326.084	4685.38
326.313	4777.38
326.542	4937.38
326.77	5523.38
326.999	7125.38
327.228	10348.38
327.457	14483.38
327.686	13798.38
327.914	7395.38
328.143	5874.38
328.372	5412.38
328.6	5225.38
328.829	5154.38
329.058	5251.38
329.287	5341.38
329.515	4943.38
329.744	4735.38
329.972	4766.38
330.201	4845.38
330.43	5068.38
330.658	5335.38
330.887	5658.38
331.115	5316.38
331.344	4950.38
331.572	4795.38
331.801	4966.38
332.03	4977.38
332.258	4948.38
332.486	4954.38
332.715	4947.38
332.943	5076.38
333.172	5288.38
333.4	5410.38
333.629	5490.38
333.857	5539.38
334.085	5431.38
334.314	5340.38
334.542	5319.38
334.771	5338.38
334.999	5195.38
335.227	5131.38
335.455	5136.38
335.684	5052.38
335.912	5003.38
336.14	4943.38
336.369	4980.38
336.597	4963.38
336.825	4949.38
337.053	4889.38
337.281	4829.38
337.51	4788.38
337.738	4761.38
337.966	4713.38
338.194	4677.38
338.422	4594.38
338.65	4509.38
338.878	4481.38
339.106	4559.38
339.334	4501.38
339.562	4510.38
339.79	4409.38
340.018	4383.38
340.246	4432.38
340.474	4448.38
340.702	4421.38
340.93	4412.38
341.158	4428.38
341.386	4364.38
341.614	4452.38
341.842	4347.38
342.07	4296.38
342.298	4341.38
342.526	4201.38
342.754	4292.38
342.981	4344.38
343.209	4424.38
343.437	4673.38
343.665	4915.38
343.893	5179.38
344.12	5145.38
344.348	4957.38
344.576	4780.38
344.804	4716.38
345.031	4635.38
345.259	4633.38
345.487	4420.38
345.714	4410.38
345.942	4249.38
346.17	4276.38
346.397	4245.38
346.625	4216.38
346.853	4184.38
347.08	4143.38
347.308	4180.38
347.535	4320.38
347.763	4384.38
347.99	4252.38
348.218	4283.38
348.445	4280.38
348.673	4232.38
348.9	4157.38
349.128	4109.38
349.355	4037.38
349.583	4112.38
349.81	4108.38
350.037	4082.38
350.265	4088.38
350.492	4067.38
350.72	4079.38
350.947	4071.38
351.174	4249.38
351.402	4215.38
351.629	4165.38
351.856	4139.38
352.083	4209.38
352.311	4224.38
352.538	4280.38
352.765	4216.38
352.992	4132.38
353.22	4145.38
353.447	4069.38
353.674	4015.38
353.901	4008.38
354.128	3944.38
354.355	3992.38
354.583	3960.38
354.81	3988.38
355.037	4019.38
355.264	3959.38
355.491	3893.38
355.718	3995.38
355.945	3946.38
356.172	3976.38
356.399	4024.38
356.626	3919.38
356.853	3927.38
357.08	3871.38
357.307	3962.38
357.534	3951.38
357.761	3991.38
357.988	4032.38
358.215	4012.38
358.441	3968.38
358.668	4013.38
358.895	4047.38
359.122	4067.38
359.349	4146.38
359.576	4259.38
359.802	4524.38
360.029	4621.38
360.256	4635.38
360.483	4465.38
360.709	4260.38
360.936	4236.38
361.163	4228.38
361.39	4230.38
361.616	4231.38
361.843	4162.38
362.07	4205.38
362.296	4216.38
362.523	4142.38
362.749	4121.38
362.976	4123.38
363.203	4088.38
363.429	4049.38
363.656	4167.38
363.882	4021.38
364.109	4004.38
364.335	4034.38
364.562	4080.38
364.788	4003.38
365.015	4095.38
365.241	4055.38
365.468	4061.38
365.694	4099.38
365.92	4104.38
366.147	4022.38
366.373	4051.38
366.599	4027.38
366.826	4014.38
367.052	3988.38
367.278	4056.38
367.505	4031.38
367.731	4128.38
367.957	4073.38
368.184	4106.38
368.41	4129.38
368.636	4259.38
368.862	4296.38
369.089	4175.38
369.315	4176.38
369.541	4159.38
369.767	4138.38
369.993	4200.38
370.219	4242.38
370.445	4149.38
370.672	4255.38
370.898	4192.38
371.124	4288.38
371.35	4364.38
371.576	4297.38
371.802	4274.38
372.028	4259.38
372.254	4295.38
372.48	4325.38
372.706	4444.38
372.932	4550.38
373.158	4435.38
373.384	4379.38
373.61	4356.38
373.835	4431.38
374.061	4346.38
374.287	4425.38
374.513	4476.38
374.739	4609.38
374.965	4711.38
375.191	4727.38
375.416	4697.38
375.642	4498.38
375.868	4562.38
376.094	4433.38
376.319	4394.38
376.545	4355.38
376.771	4335.38
376.997	4407.38
377.222	4315.38
377.448	4358.38
377.674	4279.38
377.899	4306.38
378.125	4304.38
378.35	4237.38
378.576	4253.38
378.802	4270.38
379.027	4293.38
379.253	4246.38
379.478	4252.38
379.704	4307.38
379.929	4355.38
380.155	4323.38
380.38	4334.38
380.606	4350.38
380.831	4291.38
381.057	4398.38
381.282	4369.38
381.507	4370.38
381.733	4411.38
381.958	4405.38
382.184	4459.38
382.409	4547.38
382.634	4582.38
382.86	4615.38
383.085	4601.38
383.31	4681.38
383.535	4762.38
383.761	4840.38
383.986	4879.38
384.211	4963.38
384.436	5011.38
384.662	5061.38
384.887	5166.38
385.112	5114.38
385.337	5240.38
385.562	5254.38
385.787	5249.38
386.013	5332.38
386.238	5327.38
386.463	5359.38
386.688	5270.38
386.913	5221.38
387.138	5188.38
387.363	5211.38
387.588	5156.38
387.813	5169.38
388.038	5173.38
388.263	5187.38
388.488	5178.38
388.713	5180.38
388.938	5176.38
389.163	5137.38
389.387	5140.38
389.612	5069.38
389.837	5033.38
390.062	5085.38
390.287	5113.38
390.512	5113.38
390.736	5197.38
390.961	5281.38
391.186	5348.38
391.411	5495.38
391.636	5584.38
391.86	5815.38
392.085	5872.38
392.31	5695.38
392.534	5576.38
392.759	5459.38
392.984	5373.38
393.208	5425.38
393.433	5321.38
393.658	5336.38
393.882	5348.38
394.107	5436.38
394.331	5454.38
394.556	5452.38
394.78	5504.38
395.005	5483.38
395.229	5514.38
395.454	5717.38
395.678	5802.38
395.903	5864.38
396.127	5890.38
396.352	5727.38
396.576	5499.38
396.801	5470.38
397.025	5515.38
397.249	5650.38
397.474	5825.38
397.698	5817.38
397.922	5991.38
398.147	6157.38
398.371	6167.38
398.595	6345.38
398.82	6608.38
399.044	7117.38
399.268	7927.38
399.492	9057.38
399.717	9601.38
399.941	9326.38
400.165	8731.38
400.389	8153.38
400.613	7300.38
400.837	6871.38
401.062	6726.38
401.286	6586.38
401.51	6494.38
401.734	6514.38
401.958	6612.38
402.182	6713.38
402.406	6819.38
402.63	6925.38
402.854	7023.38
403.078	7099.38
403.302	7277.38
403.526	7302.38
403.75	7319.38
403.974	7466.38
404.198	7311.38
404.422	7504.38
404.645	7345.38
404.869	7340.38
405.093	7423.38
405.317	7445.38
405.541	7498.38
405.765	7267.38
405.988	7203.38
406.212	7490.38
406.436	7633.38
406.66	7807.38
406.883	7776.38
407.107	8319.38
407.331	8860.38
407.555	9350.38
407.778	9099.38
408.002	8343.38
408.226	7914.38
408.449	7805.38
408.673	7705.38
408.896	7927.38
409.12	8026.38
409.344	7540.38
409.567	7096.38
409.791	7131.38
410.014	6972.38
410.238	7018.38
410.461	7043.38
410.685	7048.38
410.908	7169.38
411.132	7373.38
411.355	7436.38
411.578	6978.38
411.802	6762.38
412.025	6842.38
412.249	6809.38
412.472	6772.38
412.695	6600.38
412.919	6507.38
413.142	6478.38
413.365	6309.38
413.589	6467.38
413.812	6417.38
414.035	6291.38
414.258	6320.38
414.482	6405.38
414.705	6431.38
414.928	6372.38
415.151	6372.38
415.374	6405.38
415.597	6335.38
415.821	6240.38
416.044	6269.38
416.267	6248.38
416.49	6181.38
416.713	6175.38
416.936	6316.38
417.159	6304.38
417.382	6339.38
417.605	6348.38
417.828	6529.38
418.051	6570.38
418.274	6572.38
418.497	6357.38
418.72	6551.38
418.943	6529.38
419.166	6910.38
419.389	7321.38
419.611	7118.38
419.834	6909.38
420.057	6841.38
420.28	6639.38
420.503	6336.38
420.726	6444.38
420.948	6711.38
421.171	7184.38
421.394	7055.38
421.617	6501.38
421.839	6543.38
422.062	6668.38
422.285	6852.38
422.507	7545.38
422.73	8088.38
422.953	7399.38
423.175	7024.38
423.398	6977.38
423.621	7113.38
423.843	7349.38
424.066	7265.38
424.288	7143.38
424.511	7377.38
424.733	7907.38
424.956	8441.38
425.178	7885.38
425.401	7990.38
425.623	7888.38
425.846	6867.38
426.068	6694.38
426.291	6723.38
426.513	6629.38
426.735	6849.38
426.958	7284.38
427.18	8079.38
427.402	9211.38
427.625	9217.38
427.847	7673.38
428.069	6760.38
428.292	6421.38
428.514	6159.38
428.736	6099.38
428.958	6023.38
429.181	5798.38
429.403	5804.38
429.625	6116.38
429.847	6449.38
430.069	6940.38
430.292	6531.38
430.514	5881.38
430.736	5862.38
430.958	5777.38
431.18	5732.38
431.402	5670.38
431.624	5735.38
431.846	5752.38
432.068	5757.38
432.29	5890.38
432.512	5711.38
432.734	5798.38
432.956	5796.38
433.178	5888.38
433.4	5821.38
433.622	5768.38
433.844	5865.38
434.066	5820.38
434.287	5949.38
434.509	6131.38
434.731	6336.38
434.953	6559.38
435.175	6691.38
435.397	6762.38
435.618	6712.38
435.84	7132.38
436.062	7912.38
436.284	7854.38
436.505	6652.38
436.727	6349.38
436.949	5964.38
437.17	5916.38
437.392	5893.38
437.614	6055.38
437.835	6446.38
438.057	7431.38
438.278	8269.38
438.5	8052.38
438.721	8866.38
438.943	7795.38
439.165	6504.38
439.386	6315.38
439.608	6337.38
439.829	6449.38
440.05	6749.38
440.272	7129.38
440.493	6486.38
440.715	6233.38
440.936	6141.38
441.158	6211.38
441.379	6344.38
441.6	6613.38
441.822	6781.38
442.043	7360.38
442.264	8213.38
442.486	7857.38
442.707	7029.38
442.928	6753.38
443.149	7042.38
443.371	7268.38
443.592	7751.38
443.813	8877.38
444.034	8735.38
444.255	7607.38
444.476	7462.38
444.698	7675.38
444.919	7650.38
445.14	7408.38
445.361	7291.38
445.582	7516.38
445.803	8047.38
446.024	8786.38
446.245	8434.38
446.466	7594.38
446.687	6599.38
446.908	6232.38
447.129	5883.38
447.35	5678.38
447.571	5684.38
447.792	5618.38
448.013	5739.38
448.234	5972.38
448.455	6584.38
448.675	7905.38
448.896	8416.38
449.117	6843.38
449.338	7086.38
449.559	8399.38
449.779	8715.38
450	6603.38
450.221	5944.38
450.442	5585.38
450.662	5543.38
450.883	5563.38
451.104	5673.38
451.324	5572.38
451.545	5387.38
451.766	5242.38
451.986	5123.38
452.207	5127.38
452.428	5067.38
452.648	5103.38
452.869	5142.38
453.089	5296.38
453.31	5344.38
453.53	5098.38
453.751	5027.38
453.971	5155.38
454.192	5154.38
454.412	4964.38
454.633	4901.38
454.853	4905.38
455.073	5002.38
455.294	5348.38
455.514	6055.38
455.734	5521.38
455.955	4870.38
456.175	4789.38
456.395	4698.38
456.616	4686.38
456.836	4675.38
457.056	4688.38
457.276	4580.38
457.497	4723.38
457.717	4770.38
457.937	4840.38
458.157	4891.38
458.377	4988.38
458.598	5358.38
458.818	6044.38
459.038	6765.38
459.258	6780.38
459.478	6016.38
459.698	5844.38
459.918	5923.38
460.138	6022.38
460.358	6275.38
460.578	6244.38
460.798	6405.38
461.018	6360.38
461.238	6337.38
461.458	6217.38
461.678	6158.38
461.898	6354.38
462.118	6336.38
462.338	6722.38
462.558	6917.38
462.777	7116.38
462.997	7685.38
463.217	8137.38
463.437	8001.38
463.657	7337.38
463.876	7155.38
464.096	7163.38
464.316	7152.38
464.536	7193.38
464.755	6958.38
464.975	6871.38
465.195	7034.38
465.414	7121.38
465.634	6324.38
465.854	5928.38
466.073	5669.38
466.293	5465.38
466.512	5380.38
466.732	5229.38
466.951	5312.38
467.171	5205.38
467.391	5401.38
467.61	5356.38
467.829	5303.38
468.049	5271.38
468.268	5109.38
468.488	4991.38
468.707	5030.38
468.927	5033.38
469.146	4999.38
469.365	5065.38
469.585	5113.38
469.804	5320.38
470.023	5468.38
470.243	5378.38
470.462	5482.38
470.681	5663.38
470.901	5566.38
471.12	5368.38
471.339	5311.38
471.558	5346.38
471.777	5216.38
471.997	5098.38
472.216	4976.38
472.435	5083.38
472.654	4938.38
472.873	4954.38
473.092	5020.38
473.311	4923.38
473.53	5026.38
473.749	5162.38
473.968	5716.38
474.187	6655.38
474.406	6352.38
474.625	5342.38
474.844	5033.38
475.063	5056.38
475.282	5040.38
475.501	5127.38
475.72	5183.38
475.939	5160.38
476.158	5255.38
476.377	5216.38
476.596	5175.38
476.814	5416.38
477.033	5445.38
477.252	5475.38
477.471	5636.38
477.69	5697.38
477.908	5800.38
478.127	5973.38
478.346	5988.38
478.564	6115.38
478.783	6260.38
479.002	6351.38
479.22	6385.38
479.439	6388.38
479.658	6516.38
479.876	6600.38
480.095	6919.38
480.313	7272.38
480.532	7095.38
480.751	6908.38
480.969	6806.38
481.188	6699.38
481.406	6413.38
481.624	6347.38
481.843	6013.38
482.061	6049.38
482.28	5973.38
482.498	5948.38
482.717	5903.38
482.935	5917.38
483.153	5838.38
483.372	5881.38
483.59	5873.38
483.808	5912.38
484.027	5854.38
484.245	5981.38
484.463	5971.38
484.681	5980.38
484.9	6092.38
485.118	6219.38
485.336	6242.38
485.554	6290.38
485.772	6307.38
485.99	6298.38
486.209	6332.38
486.427	6318.38
486.645	6384.38
486.863	6443.38
487.081	6451.38
487.299	6388.38
487.517	6410.38
487.735	6327.38
