Data from Uncirc_2007_H10_HRD10591_00012.txt Node
Date: Wed Jan 03 10:20:45 EST 2024
User: Yrep
Spectrometer: HR+D1059
Trigger mode: 1
Integration Time (sec): 1.000000E-1
Scans to average: 1
Electric dark correction enabled: true
Nonlinearity correction enabled: false
Boxcar width: 0
XAxis mode: Wavelengths
Number of Pixels in Spectrum: 2048
>>>>>Begin Spectral Data<<<<<
223.165	-22.06
223.4	-22.06
223.635	-22.06
223.869	-20.06
224.104	-11.06
224.338	-25.06
224.573	-13.06
224.808	-8.06
225.042	-11.06
225.277	-5.06
225.511	-1.06
225.746	-5.06
225.98	6.94
226.215	17.94
226.449	16.94
226.683	21.94
226.918	26.94
227.152	30.94
227.387	43.94
227.621	22.94
227.856	42.94
228.09	53.94
228.324	54.94
228.559	39.94
228.793	70.94
229.027	62.94
229.262	59.94
229.496	77.94
229.73	73.94
229.964	89.94
230.199	78.94
230.433	64.94
230.667	86.94
230.901	77.94
231.136	77.94
231.37	77.94
231.604	83.94
231.838	72.94
232.072	86.94
232.306	81.94
232.541	81.94
232.775	82.94
233.009	88.94
233.243	92.94
233.477	65.94
233.711	76.94
233.945	76.94
234.179	87.94
234.413	72.94
234.647	71.94
234.881	76.94
235.115	78.94
235.349	84.94
235.583	86.94
235.817	89.94
236.051	81.94
236.285	80.94
236.519	71.94
236.753	77.94
236.987	64.94
237.221	90.94
237.455	95.94
237.689	92.94
237.922	76.94
238.156	86.94
238.39	84.94
238.624	67.94
238.858	76.94
239.091	72.94
239.325	87.94
239.559	88.94
239.793	72.94
240.027	79.94
240.26	77.94
240.494	79.94
240.728	83.94
240.961	71.94
241.195	83.94
241.429	68.94
241.662	78.94
241.896	78.94
242.13	64.94
242.363	76.94
242.597	67.94
242.83	70.94
243.064	77.94
243.298	90.94
243.531	64.94
243.765	78.94
243.998	89.94
244.232	79.94
244.465	75.94
244.699	69.94
244.932	66.94
245.166	62.94
245.399	74.94
245.633	81.94
245.866	71.94
246.099	75.94
246.333	70.94
246.566	73.94
246.8	86.94
247.033	75.94
247.266	77.94
247.5	89.94
247.733	69.94
247.966	76.94
248.2	75.94
248.433	84.94
248.666	84.94
248.899	82.94
249.133	82.94
249.366	86.94
249.599	92.94
249.832	80.94
250.066	91.94
250.299	87.94
250.532	81.94
250.765	83.94
250.998	86.94
251.231	79.94
251.465	80.94
251.698	77.94
251.931	77.94
252.164	68.94
252.397	90.94
252.63	79.94
252.863	66.94
253.096	76.94
253.329	83.94
253.562	79.94
253.795	68.94
254.028	87.94
254.261	80.94
254.494	79.94
254.727	88.94
254.96	82.94
255.193	75.94
255.426	65.94
255.659	72.94
255.892	91.94
256.124	79.94
256.357	67.94
256.59	79.94
256.823	76.94
257.056	71.94
257.289	80.94
257.521	77.94
257.754	87.94
257.987	82.94
258.22	93.94
258.452	71.94
258.685	86.94
258.918	77.94
259.151	83.94
259.383	93.94
259.616	74.94
259.849	87.94
260.081	86.94
260.314	74.94
260.547	101.94
260.779	79.94
261.012	72.94
261.244	83.94
261.477	77.94
261.71	84.94
261.942	104.94
262.175	111.94
262.407	91.94
262.64	87.94
262.872	97.94
263.105	90.94
263.337	82.94
263.57	93.94
263.802	73.94
264.035	83.94
264.267	86.94
264.499	75.94
264.732	91.94
264.964	74.94
265.197	77.94
265.429	89.94
265.661	81.94
265.894	86.94
266.126	76.94
266.358	87.94
266.591	62.94
266.823	92.94
267.055	76.94
267.287	93.94
267.52	91.94
267.752	88.94
267.984	56.94
268.216	82.94
268.448	93.94
268.681	94.94
268.913	80.94
269.145	77.94
269.377	82.94
269.609	83.94
269.841	94.94
270.073	83.94
270.306	77.94
270.538	89.94
270.77	77.94
271.002	84.94
271.234	80.94
271.466	74.94
271.698	85.94
271.93	78.94
272.162	105.94
272.394	85.94
272.626	83.94
272.858	83.94
273.09	90.94
273.322	70.94
273.553	77.94
273.785	75.94
274.017	76.94
274.249	74.94
274.481	86.94
274.713	79.94
274.945	74.94
275.176	98.94
275.408	85.94
275.64	66.94
275.872	83.94
276.104	88.94
276.335	89.94
276.567	103.94
276.799	94.94
277.031	105.94
277.262	81.94
277.494	79.94
277.726	65.94
277.957	72.94
278.189	92.94
278.421	89.94
278.652	89.94
278.884	97.94
279.115	85.94
279.347	68.94
279.579	93.94
279.81	86.94
280.042	100.94
280.273	85.94
280.505	74.94
280.736	84.94
280.968	90.94
281.199	83.94
281.431	80.94
281.662	90.94
281.894	88.94
282.125	95.94
282.356	100.94
282.588	135.94
282.819	108.94
283.051	88.94
283.282	73.94
283.513	80.94
283.745	75.94
283.976	83.94
284.207	84.94
284.439	74.94
284.67	90.94
284.901	84.94
285.132	74.94
285.364	84.94
285.595	75.94
285.826	81.94
286.057	86.94
286.288	78.94
286.52	96.94
286.751	81.94
286.982	95.94
287.213	98.94
287.444	86.94
287.675	67.94
287.906	84.94
288.138	91.94
288.369	92.94
288.6	78.94
288.831	88.94
289.062	83.94
289.293	96.94
289.524	83.94
289.755	86.94
289.986	82.94
290.217	91.94
290.448	81.94
290.679	88.94
290.91	88.94
291.141	83.94
291.371	97.94
291.602	87.94
291.833	92.94
292.064	83.94
292.295	73.94
292.526	87.94
292.757	87.94
292.987	104.94
293.218	93.94
293.449	92.94
293.68	87.94
293.91	73.94
294.141	85.94
294.372	89.94
294.603	84.94
294.833	82.94
295.064	64.94
295.295	95.94
295.525	89.94
295.756	99.94
295.987	104.94
296.217	135.94
296.448	127.94
296.679	85.94
296.909	84.94
297.14	93.94
297.37	83.94
297.601	92.94
297.831	82.94
298.062	93.94
298.292	82.94
298.523	84.94
298.753	95.94
298.984	85.94
299.214	92.94
299.445	105.94
299.675	85.94
299.905	99.94
300.136	100.94
300.366	90.94
300.597	99.94
300.827	96.94
301.057	97.94
301.288	101.94
301.518	103.94
301.748	81.94
301.979	92.94
302.209	90.94
302.439	87.94
302.669	94.94
302.9	92.94
303.13	99.94
303.36	88.94
303.59	98.94
303.82	105.94
304.051	102.94
304.281	90.94
304.511	94.94
304.741	88.94
304.971	95.94
305.201	91.94
305.431	92.94
305.661	100.94
305.891	92.94
306.121	86.94
306.352	86.94
306.582	82.94
306.812	97.94
307.042	94.94
307.272	89.94
307.502	93.94
307.731	90.94
307.961	81.94
308.191	76.94
308.421	83.94
308.651	109.94
308.881	94.94
309.111	97.94
309.341	89.94
309.571	84.94
309.8	102.94
310.03	99.94
310.26	90.94
310.49	92.94
310.72	103.94
310.949	100.94
311.179	92.94
311.409	103.94
311.639	87.94
311.868	105.94
312.098	90.94
312.328	92.94
312.557	110.94
312.787	109.94
313.017	100.94
313.246	93.94
313.476	102.94
313.706	93.94
313.935	94.94
314.165	105.94
314.394	95.94
314.624	91.94
314.853	83.94
315.083	103.94
315.312	90.94
315.542	88.94
315.771	101.94
316.001	78.94
316.23	87.94
316.46	80.94
316.689	84.94
316.919	87.94
317.148	92.94
317.377	89.94
317.607	91.94
317.836	95.94
318.065	92.94
318.295	95.94
318.524	89.94
318.753	90.94
318.983	102.94
319.212	95.94
319.441	115.94
319.67	113.94
319.9	88.94
320.129	92.94
320.358	98.94
320.587	90.94
320.816	105.94
321.046	83.94
321.275	110.94
321.504	100.94
321.733	88.94
321.962	96.94
322.191	105.94
322.42	108.94
322.649	105.94
322.878	112.94
323.108	106.94
323.337	136.94
323.566	142.94
323.795	164.94
324.024	210.94
324.253	418.94
324.482	878.94
324.71	1790.94
324.939	2297.94
325.168	812.94
325.397	251.94
325.626	146.94
325.855	130.94
326.084	132.94
326.313	151.94
326.542	154.94
326.77	240.94
326.999	496.94
327.228	1017.94
327.457	1798.94
327.686	1400.94
327.914	379.94
328.143	203.94
328.372	141.94
328.6	122.94
328.829	123.94
329.058	137.94
329.287	125.94
329.515	110.94
329.744	113.94
329.972	96.94
330.201	91.94
330.43	118.94
330.658	120.94
330.887	146.94
331.115	111.94
331.344	90.94
331.572	101.94
331.801	104.94
332.03	98.94
332.258	100.94
332.486	91.94
332.715	83.94
332.943	90.94
333.172	97.94
333.4	99.94
333.629	118.94
333.857	112.94
334.085	100.94
334.314	82.94
334.542	91.94
334.771	95.94
334.999	88.94
335.227	99.94
335.455	91.94
335.684	107.94
335.912	87.94
336.14	83.94
336.369	99.94
336.597	99.94
336.825	103.94
337.053	98.94
337.281	79.94
337.51	90.94
337.738	94.94
337.966	94.94
338.194	103.94
338.422	82.94
338.65	83.94
338.878	92.94
339.106	83.94
339.334	96.94
339.562	90.94
339.79	93.94
340.018	95.94
340.246	110.94
340.474	92.94
340.702	94.94
340.93	94.94
341.158	99.94
341.386	97.94
341.614	111.94
341.842	98.94
342.07	88.94
342.298	91.94
342.526	93.94
342.754	89.94
342.981	89.94
343.209	98.94
343.437	98.94
343.665	96.94
343.893	88.94
344.12	99.94
344.348	96.94
344.576	81.94
344.804	89.94
345.031	93.94
345.259	90.94
345.487	95.94
345.714	92.94
345.942	91.94
346.17	85.94
346.397	103.94
346.625	79.94
346.853	84.94
347.08	94.94
347.308	94.94
347.535	105.94
347.763	101.94
347.99	98.94
348.218	92.94
348.445	116.94
348.673	109.94
348.9	102.94
349.128	99.94
349.355	93.94
349.583	96.94
349.81	82.94
350.037	92.94
350.265	99.94
350.492	99.94
350.72	96.94
350.947	100.94
351.174	98.94
351.402	114.94
351.629	102.94
351.856	96.94
352.083	112.94
352.311	111.94
352.538	105.94
352.765	101.94
352.992	104.94
353.22	118.94
353.447	97.94
353.674	103.94
353.901	90.94
354.128	97.94
354.355	87.94
354.583	100.94
354.81	105.94
355.037	94.94
355.264	92.94
355.491	102.94
355.718	98.94
355.945	96.94
356.172	93.94
356.399	101.94
356.626	96.94
356.853	92.94
357.08	93.94
357.307	97.94
357.534	100.94
357.761	104.94
357.988	91.94
358.215	118.94
358.441	96.94
358.668	94.94
358.895	94.94
359.122	79.94
359.349	95.94
359.576	102.94
359.802	90.94
360.029	118.94
360.256	107.94
360.483	111.94
360.709	105.94
360.936	98.94
361.163	94.94
361.39	94.94
361.616	82.94
361.843	96.94
362.07	92.94
362.296	97.94
362.523	90.94
362.749	96.94
362.976	90.94
363.203	94.94
363.429	80.94
363.656	97.94
363.882	93.94
364.109	97.94
364.335	92.94
364.562	88.94
364.788	82.94
365.015	88.94
365.241	98.94
365.468	103.94
365.694	104.94
365.92	104.94
366.147	90.94
366.373	83.94
366.599	86.94
366.826	81.94
367.052	97.94
367.278	95.94
367.505	84.94
367.731	93.94
367.957	92.94
368.184	91.94
368.41	90.94
368.636	115.94
368.862	118.94
369.089	100.94
369.315	103.94
369.541	93.94
369.767	94.94
369.993	111.94
370.219	90.94
370.445	71.94
370.672	90.94
370.898	82.94
371.124	89.94
371.35	89.94
371.576	95.94
371.802	78.94
372.028	95.94
372.254	93.94
372.48	101.94
372.706	93.94
372.932	79.94
373.158	75.94
373.384	92.94
373.61	87.94
373.835	90.94
374.061	97.94
374.287	96.94
374.513	86.94
374.739	98.94
374.965	91.94
375.191	87.94
375.416	106.94
375.642	94.94
375.868	88.94
376.094	87.94
376.319	87.94
376.545	89.94
376.771	98.94
376.997	83.94
377.222	93.94
377.448	90.94
377.674	88.94
377.899	89.94
378.125	87.94
378.35	94.94
378.576	96.94
378.802	93.94
379.027	97.94
379.253	89.94
379.478	76.94
379.704	108.94
379.929	81.94
380.155	94.94
380.38	93.94
380.606	104.94
380.831	79.94
381.057	96.94
381.282	104.94
381.507	91.94
381.733	86.94
381.958	94.94
382.184	93.94
382.409	96.94
382.634	110.94
382.86	113.94
383.085	102.94
383.31	111.94
383.535	105.94
383.761	92.94
383.986	103.94
384.211	99.94
384.436	95.94
384.662	98.94
384.887	112.94
385.112	111.94
385.337	103.94
385.562	114.94
385.787	111.94
386.013	113.94
386.238	124.94
386.463	122.94
386.688	112.94
386.913	96.94
387.138	89.94
387.363	107.94
387.588	105.94
387.813	109.94
388.038	104.94
388.263	117.94
388.488	120.94
388.713	104.94
388.938	96.94
389.163	114.94
389.387	103.94
389.612	98.94
389.837	94.94
390.062	103.94
390.287	96.94
390.512	91.94
390.736	88.94
390.961	98.94
391.186	96.94
391.411	98.94
391.636	86.94
391.86	81.94
392.085	80.94
392.31	92.94
392.534	84.94
392.759	81.94
392.984	112.94
393.208	108.94
393.433	84.94
393.658	87.94
393.882	94.94
394.107	85.94
394.331	84.94
394.556	90.94
394.78	89.94
395.005	77.94
395.229	86.94
395.454	89.94
395.678	78.94
395.903	88.94
396.127	81.94
396.352	82.94
396.576	84.94
396.801	91.94
397.025	92.94
397.249	84.94
397.474	94.94
397.698	85.94
397.922	83.94
398.147	78.94
398.371	91.94
398.595	78.94
398.82	97.94
399.044	99.94
399.268	83.94
399.492	88.94
399.717	101.94
399.941	82.94
400.165	98.94
400.389	66.94
400.613	94.94
400.837	82.94
401.062	81.94
401.286	89.94
401.51	87.94
401.734	95.94
401.958	105.94
402.182	124.94
402.406	166.94
402.63	125.94
402.854	102.94
403.078	99.94
403.302	83.94
403.526	78.94
403.75	84.94
403.974	83.94
404.198	77.94
404.422	94.94
404.645	91.94
404.869	84.94
405.093	94.94
405.317	87.94
405.541	87.94
405.765	81.94
405.988	112.94
406.212	172.94
406.436	233.94
406.66	144.94
406.883	114.94
407.107	85.94
407.331	80.94
407.555	95.94
407.778	87.94
408.002	83.94
408.226	96.94
408.449	89.94
408.673	104.94
408.896	103.94
409.12	84.94
409.344	95.94
409.567	88.94
409.791	89.94
410.014	92.94
410.238	91.94
410.461	99.94
410.685	99.94
410.908	98.94
411.132	93.94
411.355	97.94
411.578	94.94
411.802	101.94
412.025	90.94
412.249	88.94
412.472	76.94
412.695	83.94
412.919	78.94
413.142	68.94
413.365	105.94
413.589	79.94
413.812	91.94
414.035	90.94
414.258	89.94
414.482	96.94
414.705	86.94
414.928	91.94
415.151	93.94
415.374	94.94
415.597	95.94
415.821	90.94
416.044	82.94
416.267	100.94
416.49	103.94
416.713	80.94
416.936	93.94
417.159	78.94
417.382	91.94
417.605	92.94
417.828	88.94
418.051	80.94
418.274	86.94
418.497	81.94
418.72	86.94
418.943	73.94
419.166	97.94
419.389	85.94
419.611	80.94
419.834	97.94
420.057	86.94
420.28	101.94
420.503	86.94
420.726	73.94
420.948	83.94
421.171	106.94
421.394	78.94
421.617	94.94
421.839	92.94
422.062	85.94
422.285	92.94
422.507	98.94
422.73	112.94
422.953	105.94
423.175	84.94
423.398	78.94
423.621	99.94
423.843	99.94
424.066	82.94
424.288	92.94
424.511	98.94
424.733	90.94
424.956	116.94
425.178	94.94
425.401	91.94
425.623	111.94
425.846	100.94
426.068	98.94
426.291	86.94
426.513	96.94
426.735	86.94
426.958	96.94
427.18	102.94
427.402	124.94
427.625	172.94
427.847	139.94
428.069	93.94
428.292	68.94
428.514	71.94
428.736	73.94
428.958	63.94
429.181	78.94
429.403	83.94
429.625	86.94
429.847	95.94
430.069	86.94
430.292	85.94
430.514	81.94
430.736	96.94
430.958	83.94
431.18	75.94
431.402	78.94
431.624	94.94
431.846	89.94
432.068	80.94
432.29	74.94
432.512	75.94
432.734	88.94
432.956	91.94
433.178	110.94
433.4	83.94
433.622	88.94
433.844	88.94
434.066	98.94
434.287	87.94
434.509	96.94
434.731	82.94
434.953	89.94
435.175	80.94
435.397	79.94
435.618	99.94
435.84	107.94
436.062	120.94
436.284	110.94
436.505	92.94
436.727	99.94
436.949	76.94
437.17	82.94
437.392	91.94
437.614	90.94
437.835	107.94
438.057	113.94
438.278	99.94
438.5	90.94
438.721	109.94
438.943	111.94
439.165	92.94
439.386	102.94
439.608	86.94
439.829	94.94
440.05	96.94
440.272	131.94
440.493	97.94
440.715	96.94
440.936	92.94
441.158	98.94
441.379	78.94
441.6	88.94
441.822	80.94
442.043	98.94
442.264	101.94
442.486	89.94
442.707	95.94
442.928	108.94
443.149	131.94
443.371	134.94
443.592	102.94
443.813	110.94
444.034	120.94
444.255	94.94
444.476	83.94
444.698	92.94
444.919	106.94
445.14	138.94
445.361	127.94
445.582	116.94
445.803	138.94
446.024	146.94
446.245	130.94
446.466	114.94
446.687	92.94
446.908	83.94
447.129	84.94
447.35	97.94
447.571	90.94
447.792	87.94
448.013	90.94
448.234	102.94
448.455	94.94
448.675	121.94
448.896	131.94
449.117	95.94
449.338	107.94
449.559	135.94
449.779	123.94
450	93.94
450.221	86.94
450.442	105.94
450.662	103.94
450.883	102.94
451.104	120.94
451.324	95.94
451.545	85.94
451.766	76.94
451.986	97.94
452.207	92.94
452.428	91.94
452.648	100.94
452.869	99.94
453.089	103.94
453.31	115.94
453.53	95.94
453.751	90.94
453.971	108.94
454.192	102.94
454.412	72.94
454.633	84.94
454.853	79.94
455.073	90.94
455.294	74.94
455.514	88.94
455.734	86.94
455.955	84.94
456.175	74.94
456.395	91.94
456.616	84.94
456.836	94.94
457.056	73.94
457.276	85.94
457.497	76.94
457.717	86.94
457.937	75.94
458.157	90.94
458.377	82.94
458.598	111.94
458.818	142.94
459.038	155.94
459.258	114.94
459.478	93.94
459.698	88.94
459.918	84.94
460.138	78.94
460.358	93.94
460.578	83.94
460.798	78.94
461.018	96.94
461.238	92.94
461.458	88.94
461.678	90.94
461.898	90.94
462.118	91.94
462.338	94.94
462.558	80.94
462.777	79.94
462.997	94.94
463.217	94.94
463.437	71.94
463.657	76.94
463.876	87.94
464.096	94.94
464.316	90.94
464.536	108.94
464.755	74.94
464.975	98.94
465.195	162.94
465.414	154.94
465.634	104.94
465.854	79.94
466.073	83.94
466.293	83.94
466.512	88.94
466.732	71.94
466.951	94.94
467.171	98.94
467.391	96.94
467.61	105.94
467.829	98.94
468.049	85.94
468.268	83.94
468.488	96.94
468.707	79.94
468.927	67.94
469.146	67.94
469.365	81.94
469.585	98.94
469.804	84.94
470.023	105.94
470.243	85.94
470.462	113.94
470.681	121.94
470.901	89.94
471.12	85.94
471.339	87.94
471.558	94.94
471.777	83.94
471.997	79.94
472.216	77.94
472.435	97.94
472.654	85.94
472.873	95.94
473.092	88.94
473.311	101.94
473.53	77.94
473.749	80.94
473.968	99.94
474.187	98.94
474.406	91.94
474.625	72.94
474.844	95.94
475.063	95.94
475.282	93.94
475.501	73.94
475.72	101.94
475.939	83.94
476.158	80.94
476.377	76.94
476.596	80.94
476.814	81.94
477.033	94.94
477.252	79.94
477.471	94.94
477.69	80.94
477.908	71.94
478.127	83.94
478.346	92.94
478.564	86.94
478.783	89.94
479.002	94.94
479.22	91.94
479.439	102.94
479.658	90.94
479.876	84.94
480.095	87.94
480.313	90.94
480.532	93.94
480.751	87.94
480.969	82.94
481.188	94.94
481.406	95.94
481.624	84.94
481.843	90.94
482.061	91.94
482.28	97.94
482.498	90.94
482.717	81.94
482.935	86.94
483.153	96.94
483.372	99.94
483.59	65.94
483.808	91.94
484.027	84.94
484.245	91.94
484.463	95.94
484.681	103.94
484.9	80.94
485.118	92.94
485.336	91.94
485.554	89.94
485.772	98.94
485.99	102.94
486.209	92.94
486.427	99.94
486.645	111.94
486.863	97.94
487.081	104.94
487.299	88.94
487.517	88.94
487.735	86.94
487.953	103.94
488.171	89.94
488.389	99.94
488.607	111.94
488.825	93.94
489.043	88.94
489.261	85.94
489.479	81.94
489.696	74.94
489.914	81.94
490.132	88.94
490.35	94.94
490.568	92.94
490.786	82.94
491.003	82.94
491.221	91.94
491.439	88.94
491.657	92.94
491.874	96.94
492.092	106.94
492.31	82.94
492.527	93.94
492.745	91.94
492.963	80.94
493.18	95.94
493.398	91.94
493.615	79.94
493.833	97.94
494.05	71.94
494.268	76.94
494.485	87.94
494.703	89.94
494.92	80.94
495.138	75.94
495.355	83.94
495.573	88.94
495.79	90.94
496.008	102.94
496.225	105.94
496.442	80.94
496.66	83.94
496.877	80.94
497.094	92.94
497.312	80.94
497.529	95.94
497.746	88.94
497.963	85.94
498.181	93.94
498.398	96.94
498.615	94.94
498.832	103.94
499.049	72.94
499.267	79.94
499.484	93.94
499.701	94.94
499.918	87.94
500.135	89.94
500.352	83.94
500.569	73.94
500.786	91.94
501.003	74.94
501.22	84.94
501.437	94.94
501.654	82.94
501.871	119.94
502.088	76.94
502.305	79.94
502.522	94.94
502.739	88.94
502.956	90.94
503.172	91.94
503.389	93.94
503.606	100.94
503.823	97.94
504.04	83.94
504.256	96.94
504.473	100.94
504.69	79.94
504.907	103.94
505.123	92.94
505.34	84.94
505.557	83.94
505.773	84.94
505.99	90.94
506.207	79.94
506.423	93.94
506.64	89.94
506.856	93.94
507.073	93.94
507.289	102.94
507.506	104.94
507.722	120.94
507.939	105.94
508.155	82.94
508.372	90.94
508.588	89.94
508.805	98.94
509.021	99.94
509.238	109.94
509.454	92.94
509.67	109.94
509.887	94.94
510.103	142.94
510.319	227.94
510.536	775.94
510.752	2512.94
510.968	713.94
511.184	155.94
511.401	105.94
511.617	95.94
511.833	90.94
512.049	95.94
512.265	88.94
512.481	88.94
512.698	95.94
512.914	106.94
513.13	96.94
513.346	81.94
513.562	86.94
513.778	100.94
513.994	104.94
514.21	115.94
514.426	112.94
514.642	126.94
514.858	121.94
515.074	166.94
515.29	461.94
515.506	1491.94
515.721	581.94
515.937	161.94
