Data from Uncirc_2007_H10_HRD10591_00075.txt Node
Date: Wed Jan 03 10:20:57 EST 2024
User: Yrep
Spectrometer: HR+D1059
Trigger mode: 1
Integration Time (sec): 1.000000E-1
Scans to average: 1
Electric dark correction enabled: true
Nonlinearity correction enabled: false
Boxcar width: 0
XAxis mode: Wavelengths
Number of Pixels in Spectrum: 2048
>>>>>Begin Spectral Data<<<<<
223.165	-22.69
223.4	-22.69
223.635	-22.69
223.869	-17.69
224.104	-17.69
224.338	-2.69
224.573	-11.69
224.808	-2.69
225.042	-7.69
225.277	-13.69
225.511	1.31
225.746	0.31
225.98	10.31
226.215	1.31
226.449	12.31
226.683	28.31
226.918	25.31
227.152	17.31
227.387	54.31
227.621	38.31
227.856	45.31
228.09	44.31
228.324	49.31
228.559	44.31
228.793	60.31
229.027	62.31
229.262	66.31
229.496	58.31
229.73	95.31
229.964	86.31
230.199	76.31
230.433	74.31
230.667	85.31
230.901	82.31
231.136	80.31
231.37	76.31
231.604	80.31
231.838	87.31
232.072	75.31
232.306	79.31
232.541	70.31
232.775	78.31
233.009	80.31
233.243	77.31
233.477	74.31
233.711	75.31
233.945	88.31
234.179	63.31
234.413	76.31
234.647	80.31
234.881	91.31
235.115	79.31
235.349	79.31
235.583	68.31
235.817	66.31
236.051	70.31
236.285	84.31
236.519	74.31
236.753	92.31
236.987	77.31
237.221	85.31
237.455	90.31
237.689	76.31
237.922	62.31
238.156	75.31
238.39	73.31
238.624	66.31
238.858	72.31
239.091	86.31
239.325	72.31
239.559	90.31
239.793	81.31
240.027	74.31
240.26	76.31
240.494	73.31
240.728	67.31
240.961	73.31
241.195	85.31
241.429	77.31
241.662	72.31
241.896	74.31
242.13	74.31
242.363	73.31
242.597	70.31
242.83	86.31
243.064	89.31
243.298	86.31
243.531	84.31
243.765	78.31
243.998	91.31
244.232	69.31
244.465	79.31
244.699	95.31
244.932	81.31
245.166	85.31
245.399	87.31
245.633	74.31
245.866	79.31
246.099	70.31
246.333	88.31
246.566	79.31
246.8	87.31
247.033	84.31
247.266	84.31
247.5	80.31
247.733	84.31
247.966	76.31
248.2	72.31
248.433	82.31
248.666	81.31
248.899	91.31
249.133	83.31
249.366	101.31
249.599	102.31
249.832	86.31
250.066	91.31
250.299	87.31
250.532	86.31
250.765	85.31
250.998	86.31
251.231	76.31
251.465	85.31
251.698	84.31
251.931	73.31
252.164	69.31
252.397	83.31
252.63	84.31
252.863	80.31
253.096	95.31
253.329	90.31
253.562	79.31
253.795	71.31
254.028	77.31
254.261	82.31
254.494	87.31
254.727	92.31
254.96	88.31
255.193	96.31
255.426	82.31
255.659	63.31
255.892	92.31
256.124	80.31
256.357	74.31
256.59	84.31
256.823	83.31
257.056	76.31
257.289	77.31
257.521	81.31
257.754	86.31
257.987	85.31
258.22	90.31
258.452	90.31
258.685	75.31
258.918	95.31
259.151	81.31
259.383	70.31
259.616	76.31
259.849	81.31
260.081	79.31
260.314	91.31
260.547	79.31
260.779	82.31
261.012	99.31
261.244	79.31
261.477	78.31
261.71	79.31
261.942	95.31
262.175	103.31
262.407	85.31
262.64	80.31
262.872	73.31
263.105	93.31
263.337	98.31
263.57	92.31
263.802	65.31
264.035	79.31
264.267	70.31
264.499	85.31
264.732	85.31
264.964	79.31
265.197	81.31
265.429	82.31
265.661	81.31
265.894	73.31
266.126	83.31
266.358	95.31
266.591	90.31
266.823	94.31
267.055	77.31
267.287	102.31
267.52	84.31
267.752	89.31
267.984	80.31
268.216	71.31
268.448	69.31
268.681	76.31
268.913	92.31
269.145	81.31
269.377	76.31
269.609	80.31
269.841	73.31
270.073	84.31
270.306	85.31
270.538	82.31
270.77	93.31
271.002	80.31
271.234	106.31
271.466	70.31
271.698	81.31
271.93	94.31
272.162	89.31
272.394	77.31
272.626	87.31
272.858	75.31
273.09	83.31
273.322	91.31
273.553	77.31
273.785	89.31
274.017	93.31
274.249	78.31
274.481	84.31
274.713	84.31
274.945	86.31
275.176	95.31
275.408	98.31
275.64	71.31
275.872	88.31
276.104	93.31
276.335	89.31
276.567	92.31
276.799	111.31
277.031	94.31
277.262	74.31
277.494	96.31
277.726	84.31
277.957	69.31
278.189	83.31
278.421	84.31
278.652	76.31
278.884	81.31
279.115	99.31
279.347	99.31
279.579	92.31
279.81	78.31
280.042	82.31
280.273	84.31
280.505	72.31
280.736	85.31
280.968	89.31
281.199	85.31
281.431	86.31
281.662	84.31
281.894	85.31
282.125	104.31
282.356	134.31
282.588	136.31
282.819	121.31
283.051	89.31
283.282	90.31
283.513	80.31
283.745	78.31
283.976	93.31
284.207	95.31
284.439	84.31
284.67	80.31
284.901	93.31
285.132	85.31
285.364	77.31
285.595	94.31
285.826	97.31
286.057	86.31
286.288	77.31
286.52	88.31
286.751	84.31
286.982	76.31
287.213	83.31
287.444	77.31
287.675	83.31
287.906	86.31
288.138	85.31
288.369	82.31
288.6	100.31
288.831	93.31
289.062	88.31
289.293	91.31
289.524	96.31
289.755	96.31
289.986	98.31
290.217	89.31
290.448	75.31
290.679	85.31
290.91	85.31
291.141	90.31
291.371	88.31
291.602	85.31
291.833	98.31
292.064	84.31
292.295	93.31
292.526	94.31
292.757	88.31
292.987	76.31
293.218	97.31
293.449	91.31
293.68	93.31
293.91	83.31
294.141	97.31
294.372	80.31
294.603	88.31
294.833	82.31
295.064	80.31
295.295	93.31
295.525	80.31
295.756	97.31
295.987	100.31
296.217	120.31
296.448	127.31
296.679	94.31
296.909	91.31
297.14	90.31
297.37	98.31
297.601	98.31
297.831	91.31
298.062	84.31
298.292	70.31
298.523	83.31
298.753	84.31
298.984	96.31
299.214	90.31
299.445	92.31
299.675	91.31
299.905	85.31
300.136	102.31
300.366	74.31
300.597	82.31
300.827	96.31
301.057	107.31
301.288	85.31
301.518	93.31
301.748	80.31
301.979	94.31
302.209	92.31
302.439	99.31
302.669	86.31
302.9	72.31
303.13	91.31
303.36	104.31
303.59	100.31
303.82	96.31
304.051	97.31
304.281	93.31
304.511	93.31
304.741	91.31
304.971	97.31
305.201	95.31
305.431	77.31
305.661	92.31
305.891	91.31
306.121	100.31
306.352	99.31
306.582	90.31
306.812	100.31
307.042	89.31
307.272	102.31
307.502	95.31
307.731	100.31
307.961	95.31
308.191	92.31
308.421	84.31
308.651	84.31
308.881	85.31
309.111	83.31
309.341	105.31
309.571	86.31
309.8	95.31
310.03	103.31
310.26	105.31
310.49	107.31
310.72	104.31
310.949	92.31
311.179	105.31
311.409	76.31
311.639	90.31
311.868	98.31
312.098	99.31
312.328	93.31
312.557	91.31
312.787	101.31
313.017	112.31
313.246	94.31
313.476	89.31
313.706	91.31
313.935	93.31
314.165	96.31
314.394	102.31
314.624	94.31
314.853	98.31
315.083	96.31
315.312	90.31
315.542	96.31
315.771	106.31
316.001	102.31
316.23	105.31
316.46	92.31
316.689	85.31
316.919	96.31
317.148	106.31
317.377	108.31
317.607	107.31
317.836	106.31
318.065	85.31
318.295	92.31
318.524	103.31
318.753	95.31
318.983	92.31
319.212	105.31
319.441	93.31
319.67	111.31
319.9	76.31
320.129	96.31
320.358	111.31
320.587	109.31
320.816	84.31
321.046	100.31
321.275	92.31
321.504	106.31
321.733	90.31
321.962	97.31
322.191	116.31
322.42	102.31
322.649	105.31
322.878	119.31
323.108	124.31
323.337	140.31
323.566	124.31
323.795	156.31
324.024	231.31
324.253	459.31
324.482	928.31
324.71	1937.31
324.939	2516.31
325.168	931.31
325.397	257.31
325.626	155.31
325.855	129.31
326.084	140.31
326.313	142.31
326.542	162.31
326.77	252.31
326.999	495.31
327.228	1096.31
327.457	1967.31
327.686	1534.31
327.914	412.31
328.143	208.31
328.372	142.31
328.6	128.31
328.829	113.31
329.058	127.31
329.287	106.31
329.515	102.31
329.744	102.31
329.972	85.31
330.201	113.31
330.43	120.31
330.658	111.31
330.887	148.31
331.115	142.31
331.344	93.31
331.572	102.31
331.801	109.31
332.03	110.31
332.258	97.31
332.486	107.31
332.715	92.31
332.943	89.31
333.172	98.31
333.4	94.31
333.629	117.31
333.857	121.31
334.085	100.31
334.314	95.31
334.542	102.31
334.771	88.31
334.999	86.31
335.227	85.31
335.455	95.31
335.684	92.31
335.912	94.31
336.14	110.31
336.369	94.31
336.597	106.31
336.825	78.31
337.053	93.31
337.281	90.31
337.51	92.31
337.738	94.31
337.966	95.31
338.194	105.31
338.422	96.31
338.65	90.31
338.878	105.31
339.106	94.31
339.334	89.31
339.562	93.31
339.79	113.31
340.018	95.31
340.246	97.31
340.474	83.31
340.702	101.31
340.93	93.31
341.158	105.31
341.386	93.31
341.614	84.31
341.842	98.31
342.07	88.31
342.298	97.31
342.526	89.31
342.754	74.31
342.981	90.31
343.209	85.31
343.437	100.31
343.665	93.31
343.893	80.31
344.12	83.31
344.348	85.31
344.576	100.31
344.804	104.31
345.031	93.31
345.259	97.31
345.487	91.31
345.714	95.31
345.942	97.31
346.17	82.31
346.397	76.31
346.625	93.31
346.853	76.31
347.08	95.31
347.308	93.31
347.535	108.31
347.763	82.31
347.99	110.31
348.218	111.31
348.445	112.31
348.673	93.31
348.9	95.31
349.128	95.31
349.355	101.31
349.583	82.31
349.81	88.31
350.037	99.31
350.265	100.31
350.492	102.31
350.72	94.31
350.947	102.31
351.174	111.31
351.402	106.31
351.629	91.31
351.856	107.31
352.083	96.31
352.311	97.31
352.538	94.31
352.765	106.31
352.992	112.31
353.22	110.31
353.447	110.31
353.674	112.31
353.901	109.31
354.128	92.31
354.355	90.31
354.583	117.31
354.81	86.31
355.037	97.31
355.264	113.31
355.491	99.31
355.718	85.31
355.945	85.31
356.172	95.31
356.399	100.31
356.626	100.31
356.853	101.31
357.08	102.31
357.307	91.31
357.534	67.31
357.761	85.31
357.988	98.31
358.215	106.31
358.441	100.31
358.668	85.31
358.895	93.31
359.122	96.31
359.349	95.31
359.576	90.31
359.802	94.31
360.029	101.31
360.256	104.31
360.483	104.31
360.709	79.31
360.936	101.31
361.163	99.31
361.39	84.31
361.616	103.31
361.843	97.31
362.07	95.31
362.296	94.31
362.523	105.31
362.749	73.31
362.976	77.31
363.203	103.31
363.429	95.31
363.656	105.31
363.882	84.31
364.109	86.31
364.335	82.31
364.562	105.31
364.788	73.31
365.015	97.31
365.241	103.31
365.468	100.31
365.694	98.31
365.92	100.31
366.147	92.31
366.373	93.31
366.599	90.31
366.826	84.31
367.052	84.31
367.278	87.31
367.505	75.31
367.731	87.31
367.957	91.31
368.184	103.31
368.41	99.31
368.636	96.31
368.862	114.31
369.089	105.31
369.315	89.31
369.541	93.31
369.767	96.31
369.993	82.31
370.219	102.31
370.445	83.31
370.672	95.31
370.898	102.31
371.124	85.31
371.35	94.31
371.576	77.31
371.802	98.31
372.028	88.31
372.254	97.31
372.48	89.31
372.706	83.31
372.932	78.31
373.158	88.31
373.384	78.31
373.61	83.31
373.835	89.31
374.061	89.31
374.287	99.31
374.513	86.31
374.739	70.31
374.965	85.31
375.191	94.31
375.416	83.31
375.642	88.31
375.868	98.31
376.094	105.31
376.319	103.31
376.545	97.31
376.771	85.31
376.997	100.31
377.222	87.31
377.448	94.31
377.674	97.31
377.899	110.31
378.125	93.31
378.35	96.31
378.576	90.31
378.802	85.31
379.027	90.31
379.253	85.31
379.478	94.31
379.704	108.31
379.929	104.31
380.155	97.31
380.38	100.31
380.606	94.31
380.831	107.31
381.057	100.31
381.282	92.31
381.507	97.31
381.733	98.31
381.958	108.31
382.184	88.31
382.409	104.31
382.634	105.31
382.86	96.31
383.085	91.31
383.31	96.31
383.535	96.31
383.761	104.31
383.986	86.31
384.211	91.31
384.436	91.31
384.662	93.31
384.887	104.31
385.112	99.31
385.337	105.31
385.562	89.31
385.787	97.31
386.013	108.31
386.238	104.31
386.463	98.31
386.688	107.31
386.913	100.31
387.138	106.31
387.363	97.31
387.588	89.31
387.813	106.31
388.038	104.31
388.263	106.31
388.488	112.31
388.713	113.31
388.938	106.31
389.163	97.31
389.387	104.31
389.612	108.31
389.837	90.31
390.062	81.31
390.287	94.31
390.512	82.31
390.736	99.31
390.961	90.31
391.186	104.31
391.411	108.31
391.636	84.31
391.86	96.31
392.085	85.31
392.31	81.31
392.534	93.31
392.759	93.31
392.984	86.31
393.208	97.31
393.433	75.31
393.658	88.31
393.882	70.31
394.107	81.31
394.331	89.31
394.556	85.31
394.78	99.31
395.005	90.31
395.229	75.31
395.454	84.31
395.678	92.31
395.903	77.31
396.127	79.31
396.352	81.31
396.576	86.31
396.801	87.31
397.025	90.31
397.249	94.31
397.474	80.31
397.698	82.31
397.922	91.31
398.147	92.31
398.371	77.31
398.595	93.31
398.82	83.31
399.044	71.31
399.268	92.31
399.492	88.31
399.717	92.31
399.941	81.31
400.165	95.31
400.389	89.31
400.613	94.31
400.837	82.31
401.062	89.31
401.286	85.31
401.51	97.31
401.734	97.31
401.958	104.31
402.182	123.31
402.406	156.31
402.63	123.31
402.854	110.31
403.078	104.31
403.302	80.31
403.526	79.31
403.75	83.31
403.974	97.31
404.198	95.31
404.422	89.31
404.645	85.31
404.869	83.31
405.093	90.31
405.317	103.31
405.541	107.31
405.765	100.31
405.988	124.31
406.212	175.31
406.436	242.31
406.66	156.31
406.883	103.31
407.107	104.31
407.331	107.31
407.555	107.31
407.778	112.31
408.002	106.31
408.226	98.31
408.449	77.31
408.673	99.31
408.896	90.31
409.12	89.31
409.344	93.31
409.567	79.31
409.791	86.31
410.014	85.31
410.238	92.31
410.461	92.31
410.685	80.31
410.908	80.31
411.132	91.31
411.355	94.31
411.578	90.31
411.802	77.31
412.025	90.31
412.249	111.31
412.472	95.31
412.695	89.31
412.919	85.31
413.142	92.31
413.365	72.31
413.589	78.31
413.812	101.31
414.035	111.31
414.258	91.31
414.482	85.31
414.705	79.31
414.928	90.31
415.151	75.31
415.374	76.31
415.597	84.31
415.821	92.31
416.044	101.31
416.267	86.31
416.49	92.31
416.713	93.31
416.936	95.31
417.159	99.31
417.382	81.31
417.605	91.31
417.828	97.31
418.051	97.31
418.274	94.31
418.497	85.31
418.72	91.31
418.943	88.31
419.166	78.31
419.389	85.31
419.611	85.31
419.834	77.31
420.057	81.31
420.28	81.31
420.503	99.31
420.726	89.31
420.948	94.31
421.171	89.31
421.394	76.31
421.617	100.31
421.839	84.31
422.062	84.31
422.285	92.31
422.507	87.31
422.73	90.31
422.953	94.31
423.175	94.31
423.398	89.31
423.621	105.31
423.843	93.31
424.066	90.31
424.288	82.31
424.511	95.31
424.733	104.31
424.956	104.31
425.178	100.31
425.401	120.31
425.623	110.31
425.846	103.31
426.068	100.31
426.291	93.31
426.513	103.31
426.735	85.31
426.958	103.31
427.18	101.31
427.402	142.31
427.625	167.31
427.847	115.31
428.069	104.31
428.292	79.31
428.514	82.31
428.736	86.31
428.958	80.31
429.181	85.31
429.403	89.31
429.625	95.31
429.847	82.31
430.069	93.31
430.292	86.31
430.514	88.31
430.736	92.31
430.958	93.31
431.18	91.31
431.402	100.31
431.624	88.31
431.846	86.31
432.068	88.31
432.29	91.31
432.512	72.31
432.734	106.31
432.956	99.31
433.178	105.31
433.4	103.31
433.622	94.31
433.844	100.31
434.066	100.31
434.287	90.31
434.509	94.31
434.731	87.31
434.953	94.31
435.175	92.31
435.397	98.31
435.618	94.31
435.84	95.31
436.062	134.31
436.284	114.31
436.505	92.31
436.727	96.31
436.949	90.31
437.17	86.31
437.392	88.31
437.614	87.31
437.835	96.31
438.057	107.31
438.278	110.31
438.5	109.31
438.721	120.31
438.943	109.31
439.165	106.31
439.386	94.31
439.608	90.31
439.829	90.31
440.05	126.31
440.272	132.31
440.493	96.31
440.715	80.31
440.936	94.31
441.158	84.31
441.379	79.31
441.6	78.31
441.822	94.31
442.043	94.31
442.264	105.31
442.486	109.31
442.707	93.31
442.928	113.31
443.149	125.31
443.371	128.31
443.592	94.31
443.813	117.31
444.034	112.31
444.255	94.31
444.476	100.31
444.698	88.31
444.919	85.31
445.14	118.31
445.361	129.31
445.582	100.31
445.803	144.31
446.024	134.31
446.245	141.31
446.466	108.31
446.687	97.31
446.908	81.31
447.129	92.31
447.35	82.31
447.571	91.31
447.792	72.31
448.013	99.31
448.234	99.31
448.455	112.31
448.675	106.31
448.896	117.31
449.117	92.31
449.338	89.31
449.559	132.31
449.779	142.31
450	89.31
450.221	80.31
450.442	86.31
450.662	78.31
450.883	81.31
451.104	95.31
451.324	97.31
451.545	97.31
451.766	91.31
451.986	101.31
452.207	99.31
452.428	95.31
452.648	108.31
452.869	114.31
453.089	112.31
453.31	132.31
453.53	104.31
453.751	88.31
453.971	104.31
454.192	112.31
454.412	102.31
454.633	92.31
454.853	92.31
455.073	79.31
455.294	87.31
455.514	99.31
455.734	86.31
455.955	86.31
456.175	84.31
456.395	91.31
456.616	91.31
456.836	89.31
457.056	84.31
457.276	78.31
457.497	82.31
457.717	97.31
457.937	96.31
458.157	110.31
458.377	92.31
458.598	102.31
458.818	153.31
459.038	144.31
459.258	114.31
459.478	93.31
459.698	76.31
459.918	92.31
460.138	82.31
460.358	90.31
460.578	92.31
460.798	94.31
461.018	90.31
461.238	79.31
461.458	89.31
461.678	90.31
461.898	83.31
462.118	86.31
462.338	92.31
462.558	97.31
462.777	75.31
462.997	94.31
463.217	73.31
463.437	71.31
463.657	85.31
463.876	75.31
464.096	86.31
464.316	83.31
464.536	98.31
464.755	94.31
464.975	102.31
465.195	160.31
465.414	165.31
465.634	94.31
465.854	100.31
466.073	83.31
466.293	81.31
466.512	85.31
466.732	75.31
466.951	87.31
467.171	90.31
467.391	91.31
467.61	95.31
467.829	107.31
468.049	91.31
468.268	84.31
468.488	74.31
468.707	77.31
468.927	92.31
469.146	82.31
469.365	93.31
469.585	85.31
469.804	87.31
470.023	102.31
470.243	97.31
470.462	105.31
470.681	91.31
470.901	99.31
471.12	91.31
471.339	89.31
471.558	94.31
471.777	92.31
471.997	92.31
472.216	81.31
472.435	88.31
472.654	81.31
472.873	83.31
473.092	80.31
473.311	98.31
473.53	77.31
473.749	96.31
473.968	93.31
474.187	106.31
474.406	92.31
474.625	86.31
474.844	90.31
475.063	84.31
475.282	77.31
475.501	68.31
475.72	85.31
475.939	90.31
476.158	91.31
476.377	86.31
476.596	82.31
476.814	84.31
477.033	90.31
477.252	80.31
477.471	89.31
477.69	90.31
477.908	87.31
478.127	96.31
478.346	85.31
478.564	98.31
478.783	91.31
479.002	93.31
479.22	88.31
479.439	101.31
479.658	95.31
479.876	92.31
480.095	80.31
480.313	90.31
480.532	77.31
480.751	75.31
480.969	75.31
481.188	93.31
481.406	90.31
481.624	91.31
481.843	92.31
482.061	85.31
482.28	96.31
482.498	82.31
482.717	80.31
482.935	92.31
483.153	81.31
483.372	97.31
483.59	90.31
483.808	82.31
484.027	99.31
484.245	104.31
484.463	83.31
484.681	80.31
484.9	84.31
485.118	97.31
485.336	93.31
485.554	98.31
485.772	106.31
485.99	77.31
486.209	98.31
486.427	100.31
486.645	105.31
486.863	101.31
487.081	100.31
487.299	100.31
487.517	87.31
487.735	94.31
487.953	81.31
488.171	90.31
488.389	97.31
488.607	98.31
488.825	81.31
489.043	85.31
489.261	84.31
489.479	86.31
489.696	93.31
489.914	95.31
490.132	92.31
490.35	93.31
490.568	89.31
490.786	76.31
491.003	89.31
491.221	84.31
491.439	80.31
491.657	88.31
491.874	100.31
492.092	85.31
492.31	84.31
492.527	93.31
492.745	87.31
492.963	93.31
493.18	82.31
493.398	90.31
493.615	78.31
493.833	94.31
494.05	81.31
494.268	82.31
494.485	93.31
494.703	93.31
494.92	83.31
495.138	81.31
495.355	72.31
495.573	83.31
495.79	89.31
496.008	80.31
496.225	84.31
496.442	84.31
496.66	89.31
496.877	90.31
497.094	85.31
497.312	93.31
497.529	86.31
497.746	80.31
497.963	89.31
498.181	74.31
498.398	97.31
498.615	109.31
498.832	104.31
499.049	95.31
499.267	89.31
499.484	76.31
499.701	81.31
499.918	91.31
500.135	80.31
500.352	81.31
500.569	79.31
500.786	81.31
501.003	96.31
501.22	91.31
501.437	91.31
501.654	90.31
501.871	109.31
502.088	96.31
502.305	98.31
502.522	90.31
502.739	91.31
502.956	85.31
503.172	103.31
503.389	95.31
503.606	108.31
503.823	98.31
504.04	101.31
504.256	85.31
504.473	91.31
504.69	89.31
504.907	91.31
505.123	91.31
505.34	91.31
505.557	84.31
505.773	98.31
505.99	80.31
506.207	92.31
506.423	80.31
506.64	79.31
506.856	82.31
507.073	83.31
507.289	101.31
507.506	89.31
507.722	102.31
507.939	109.31
508.155	86.31
508.372	107.31
508.588	92.31
508.805	96.31
509.021	91.31
509.238	93.31
509.454	99.31
509.67	109.31
509.887	89.31
510.103	120.31
510.319	237.31
510.536	805.31
510.752	2587.31
510.968	717.31
511.184	158.31
511.401	109.31
511.617	99.31
511.833	94.31
512.049	94.31
512.265	93.31
512.481	99.31
512.698	89.31
512.914	101.31
513.13	92.31
513.346	97.31
513.562	91.31
513.778	111.31
513.994	92.31
514.21	99.31
514.426	125.31
514.642	139.31
514.858	133.31
515.074	151.31
515.29	460.31
515.506	1624.31
515.721	577.31
