Data from Uncirc_2007_H10_HRD10591_00025.txt Node
Date: Wed Jan 03 10:20:47 EST 2024
User: Yrep
Spectrometer: HR+D1059
Trigger mode: 1
Integration Time (sec): 1.000000E-1
Scans to average: 1
Electric dark correction enabled: true
Nonlinearity correction enabled: false
Boxcar width: 0
XAxis mode: Wavelengths
Number of Pixels in Spectrum: 2048
>>>>>Begin Spectral Data<<<<<
223.165	-25.88
223.4	-25.88
223.635	-25.88
223.869	-24.88
224.104	-9.88
224.338	-28.88
224.573	-22.88
224.808	-2.88
225.042	1.12
225.277	-2.88
225.511	4.12
225.746	6.12
225.98	9.12
226.215	22.12
226.449	11.12
226.683	17.12
226.918	14.12
227.152	33.12
227.387	34.12
227.621	54.12
227.856	50.12
228.09	52.12
228.324	49.12
228.559	36.12
228.793	55.12
229.027	65.12
229.262	66.12
229.496	78.12
229.73	91.12
229.964	82.12
230.199	81.12
230.433	74.12
230.667	86.12
230.901	75.12
231.136	69.12
231.37	81.12
231.604	86.12
231.838	84.12
232.072	77.12
232.306	75.12
232.541	77.12
232.775	91.12
233.009	83.12
233.243	103.12
233.477	92.12
233.711	87.12
233.945	80.12
234.179	80.12
234.413	81.12
234.647	84.12
234.881	85.12
235.115	77.12
235.349	83.12
235.583	99.12
235.817	82.12
236.051	75.12
236.285	91.12
236.519	62.12
236.753	77.12
236.987	79.12
237.221	83.12
237.455	100.12
237.689	91.12
237.922	65.12
238.156	65.12
238.39	80.12
238.624	86.12
238.858	75.12
239.091	76.12
239.325	78.12
239.559	83.12
239.793	84.12
240.027	83.12
240.26	73.12
240.494	90.12
240.728	82.12
240.961	90.12
241.195	77.12
241.429	77.12
241.662	82.12
241.896	75.12
242.13	79.12
242.363	71.12
242.597	83.12
242.83	76.12
243.064	77.12
243.298	81.12
243.531	81.12
243.765	74.12
243.998	67.12
244.232	82.12
244.465	89.12
244.699	89.12
244.932	83.12
245.166	80.12
245.399	99.12
245.633	79.12
245.866	78.12
246.099	79.12
246.333	83.12
246.566	69.12
246.8	80.12
247.033	79.12
247.266	93.12
247.5	84.12
247.733	83.12
247.966	86.12
248.2	85.12
248.433	69.12
248.666	84.12
248.899	90.12
249.133	89.12
249.366	102.12
249.599	100.12
249.832	74.12
250.066	78.12
250.299	81.12
250.532	72.12
250.765	77.12
250.998	69.12
251.231	79.12
251.465	85.12
251.698	85.12
251.931	66.12
252.164	85.12
252.397	66.12
252.63	80.12
252.863	78.12
253.096	64.12
253.329	79.12
253.562	75.12
253.795	74.12
254.028	78.12
254.261	86.12
254.494	84.12
254.727	85.12
254.96	88.12
255.193	78.12
255.426	78.12
255.659	95.12
255.892	79.12
256.124	61.12
256.357	80.12
256.59	73.12
256.823	88.12
257.056	74.12
257.289	78.12
257.521	78.12
257.754	77.12
257.987	74.12
258.22	75.12
258.452	80.12
258.685	75.12
258.918	66.12
259.151	85.12
259.383	86.12
259.616	86.12
259.849	70.12
260.081	75.12
260.314	88.12
260.547	75.12
260.779	85.12
261.012	82.12
261.244	81.12
261.477	95.12
261.71	77.12
261.942	98.12
262.175	106.12
262.407	81.12
262.64	95.12
262.872	99.12
263.105	78.12
263.337	92.12
263.57	82.12
263.802	89.12
264.035	92.12
264.267	79.12
264.499	78.12
264.732	90.12
264.964	88.12
265.197	84.12
265.429	85.12
265.661	83.12
265.894	90.12
266.126	84.12
266.358	84.12
266.591	78.12
266.823	77.12
267.055	81.12
267.287	104.12
267.52	86.12
267.752	79.12
267.984	78.12
268.216	83.12
268.448	95.12
268.681	83.12
268.913	83.12
269.145	94.12
269.377	81.12
269.609	81.12
269.841	81.12
270.073	84.12
270.306	92.12
270.538	79.12
270.77	84.12
271.002	83.12
271.234	74.12
271.466	101.12
271.698	91.12
271.93	90.12
272.162	92.12
272.394	85.12
272.626	87.12
272.858	85.12
273.09	97.12
273.322	77.12
273.553	86.12
273.785	83.12
274.017	88.12
274.249	81.12
274.481	66.12
274.713	82.12
274.945	87.12
275.176	83.12
275.408	84.12
275.64	85.12
275.872	85.12
276.104	99.12
276.335	94.12
276.567	89.12
276.799	110.12
277.031	109.12
277.262	107.12
277.494	87.12
277.726	90.12
277.957	95.12
278.189	85.12
278.421	95.12
278.652	89.12
278.884	74.12
279.115	89.12
279.347	89.12
279.579	93.12
279.81	97.12
280.042	91.12
280.273	83.12
280.505	81.12
280.736	82.12
280.968	83.12
281.199	92.12
281.431	82.12
281.662	90.12
281.894	91.12
282.125	93.12
282.356	119.12
282.588	141.12
282.819	106.12
283.051	85.12
283.282	84.12
283.513	89.12
283.745	93.12
283.976	82.12
284.207	84.12
284.439	80.12
284.67	106.12
284.901	107.12
285.132	80.12
285.364	72.12
285.595	81.12
285.826	89.12
286.057	91.12
286.288	83.12
286.52	76.12
286.751	88.12
286.982	86.12
287.213	77.12
287.444	93.12
287.675	88.12
287.906	96.12
288.138	92.12
288.369	92.12
288.6	110.12
288.831	81.12
289.062	84.12
289.293	104.12
289.524	82.12
289.755	90.12
289.986	84.12
290.217	87.12
290.448	90.12
290.679	91.12
290.91	94.12
291.141	94.12
291.371	97.12
291.602	91.12
291.833	87.12
292.064	92.12
292.295	91.12
292.526	94.12
292.757	90.12
292.987	90.12
293.218	78.12
293.449	87.12
293.68	73.12
293.91	88.12
294.141	103.12
294.372	87.12
294.603	92.12
294.833	77.12
295.064	89.12
295.295	92.12
295.525	88.12
295.756	100.12
295.987	111.12
296.217	128.12
296.448	115.12
296.679	84.12
296.909	85.12
297.14	97.12
297.37	92.12
297.601	79.12
297.831	76.12
298.062	92.12
298.292	94.12
298.523	94.12
298.753	94.12
298.984	78.12
299.214	97.12
299.445	105.12
299.675	106.12
299.905	89.12
300.136	92.12
300.366	94.12
300.597	79.12
300.827	91.12
301.057	93.12
301.288	105.12
301.518	91.12
301.748	79.12
301.979	106.12
302.209	80.12
302.439	93.12
302.669	81.12
302.9	88.12
303.13	85.12
303.36	91.12
303.59	97.12
303.82	115.12
304.051	97.12
304.281	77.12
304.511	89.12
304.741	85.12
304.971	93.12
305.201	85.12
305.431	89.12
305.661	82.12
305.891	94.12
306.121	101.12
306.352	107.12
306.582	97.12
306.812	99.12
307.042	92.12
307.272	94.12
307.502	101.12
307.731	83.12
307.961	87.12
308.191	98.12
308.421	79.12
308.651	77.12
308.881	106.12
309.111	93.12
309.341	100.12
309.571	86.12
309.8	92.12
310.03	95.12
310.26	95.12
310.49	92.12
310.72	98.12
310.949	97.12
311.179	93.12
311.409	78.12
311.639	83.12
311.868	89.12
312.098	103.12
312.328	99.12
312.557	104.12
312.787	111.12
313.017	106.12
313.246	99.12
313.476	91.12
313.706	86.12
313.935	100.12
314.165	99.12
314.394	108.12
314.624	112.12
314.853	99.12
315.083	91.12
315.312	94.12
315.542	89.12
315.771	98.12
316.001	94.12
316.23	80.12
316.46	92.12
316.689	89.12
316.919	89.12
317.148	92.12
317.377	93.12
317.607	107.12
317.836	98.12
318.065	86.12
318.295	102.12
318.524	92.12
318.753	95.12
318.983	102.12
319.212	92.12
319.441	109.12
319.67	106.12
319.9	95.12
320.129	98.12
320.358	70.12
320.587	77.12
320.816	107.12
321.046	96.12
321.275	106.12
321.504	99.12
321.733	97.12
321.962	99.12
322.191	94.12
322.42	116.12
322.649	97.12
322.878	120.12
323.108	125.12
323.337	124.12
323.566	138.12
323.795	162.12
324.024	229.12
324.253	432.12
324.482	930.12
324.71	1938.12
324.939	2613.12
325.168	956.12
325.397	284.12
325.626	159.12
325.855	129.12
326.084	142.12
326.313	142.12
326.542	162.12
326.77	233.12
326.999	499.12
327.228	1090.12
327.457	2013.12
327.686	1574.12
327.914	412.12
328.143	212.12
328.372	142.12
328.6	116.12
328.829	129.12
329.058	127.12
329.287	135.12
329.515	101.12
329.744	115.12
329.972	101.12
330.201	95.12
330.43	98.12
330.658	106.12
330.887	137.12
331.115	129.12
331.344	104.12
331.572	89.12
331.801	102.12
332.03	86.12
332.258	91.12
332.486	104.12
332.715	106.12
332.943	87.12
333.172	99.12
333.4	94.12
333.629	103.12
333.857	98.12
334.085	101.12
334.314	86.12
334.542	94.12
334.771	91.12
334.999	89.12
335.227	100.12
335.455	82.12
335.684	96.12
335.912	100.12
336.14	97.12
336.369	95.12
336.597	91.12
336.825	91.12
337.053	91.12
337.281	91.12
337.51	108.12
337.738	92.12
337.966	85.12
338.194	113.12
338.422	108.12
338.65	95.12
338.878	89.12
339.106	97.12
339.334	81.12
339.562	94.12
339.79	97.12
340.018	94.12
340.246	98.12
340.474	106.12
340.702	94.12
340.93	94.12
341.158	92.12
341.386	94.12
341.614	82.12
341.842	108.12
342.07	102.12
342.298	92.12
342.526	81.12
342.754	85.12
342.981	101.12
343.209	82.12
343.437	96.12
343.665	89.12
343.893	81.12
344.12	81.12
344.348	102.12
344.576	101.12
344.804	91.12
345.031	100.12
345.259	89.12
345.487	91.12
345.714	97.12
345.942	113.12
346.17	102.12
346.397	85.12
346.625	103.12
346.853	92.12
347.08	94.12
347.308	96.12
347.535	89.12
347.763	86.12
347.99	104.12
348.218	100.12
348.445	97.12
348.673	95.12
348.9	105.12
349.128	92.12
349.355	106.12
349.583	91.12
349.81	101.12
350.037	97.12
350.265	101.12
350.492	91.12
350.72	90.12
350.947	91.12
351.174	98.12
351.402	111.12
351.629	98.12
351.856	95.12
352.083	106.12
352.311	111.12
352.538	122.12
352.765	115.12
352.992	110.12
353.22	112.12
353.447	105.12
353.674	98.12
353.901	92.12
354.128	95.12
354.355	95.12
354.583	112.12
354.81	101.12
355.037	111.12
355.264	107.12
355.491	91.12
355.718	102.12
355.945	95.12
356.172	94.12
356.399	104.12
356.626	94.12
356.853	109.12
357.08	89.12
357.307	97.12
357.534	91.12
357.761	93.12
357.988	94.12
358.215	111.12
358.441	88.12
358.668	99.12
358.895	93.12
359.122	101.12
359.349	87.12
359.576	86.12
359.802	102.12
360.029	100.12
360.256	106.12
360.483	104.12
360.709	86.12
360.936	95.12
361.163	91.12
361.39	101.12
361.616	86.12
361.843	106.12
362.07	102.12
362.296	120.12
362.523	86.12
362.749	89.12
362.976	93.12
363.203	97.12
363.429	92.12
363.656	88.12
363.882	89.12
364.109	81.12
364.335	93.12
364.562	96.12
364.788	108.12
365.015	85.12
365.241	92.12
365.468	105.12
365.694	109.12
365.92	91.12
366.147	87.12
366.373	98.12
366.599	85.12
366.826	77.12
367.052	96.12
367.278	82.12
367.505	87.12
367.731	87.12
367.957	99.12
368.184	94.12
368.41	97.12
368.636	109.12
368.862	115.12
369.089	98.12
369.315	99.12
369.541	98.12
369.767	77.12
369.993	86.12
370.219	87.12
370.445	80.12
370.672	100.12
370.898	83.12
371.124	100.12
371.35	93.12
371.576	87.12
371.802	80.12
372.028	89.12
372.254	86.12
372.48	81.12
372.706	98.12
372.932	81.12
373.158	97.12
373.384	80.12
373.61	94.12
373.835	91.12
374.061	98.12
374.287	94.12
374.513	104.12
374.739	88.12
374.965	95.12
375.191	94.12
375.416	90.12
375.642	101.12
375.868	82.12
376.094	82.12
376.319	86.12
376.545	91.12
376.771	90.12
376.997	97.12
377.222	93.12
377.448	77.12
377.674	108.12
377.899	104.12
378.125	96.12
378.35	88.12
378.576	91.12
378.802	95.12
379.027	110.12
379.253	90.12
379.478	85.12
379.704	89.12
379.929	92.12
380.155	94.12
380.38	99.12
380.606	101.12
380.831	95.12
381.057	110.12
381.282	108.12
381.507	82.12
381.733	98.12
381.958	102.12
382.184	94.12
382.409	93.12
382.634	105.12
382.86	92.12
383.085	98.12
383.31	106.12
383.535	99.12
383.761	105.12
383.986	103.12
384.211	94.12
384.436	92.12
384.662	104.12
384.887	97.12
385.112	95.12
385.337	99.12
385.562	106.12
385.787	86.12
386.013	110.12
386.238	119.12
386.463	113.12
386.688	102.12
386.913	97.12
387.138	108.12
387.363	97.12
387.588	91.12
387.813	92.12
388.038	93.12
388.263	108.12
388.488	110.12
388.713	92.12
388.938	101.12
389.163	111.12
389.387	90.12
389.612	102.12
389.837	100.12
390.062	98.12
390.287	94.12
390.512	95.12
390.736	84.12
390.961	104.12
391.186	90.12
391.411	99.12
391.636	96.12
391.86	91.12
392.085	65.12
392.31	82.12
392.534	83.12
392.759	92.12
392.984	86.12
393.208	79.12
393.433	83.12
393.658	81.12
393.882	101.12
394.107	98.12
394.331	98.12
394.556	87.12
394.78	102.12
395.005	87.12
395.229	89.12
395.454	89.12
395.678	93.12
395.903	106.12
396.127	98.12
396.352	80.12
396.576	95.12
396.801	79.12
397.025	79.12
397.249	71.12
397.474	87.12
397.698	87.12
397.922	87.12
398.147	82.12
398.371	90.12
398.595	97.12
398.82	95.12
399.044	94.12
399.268	90.12
399.492	89.12
399.717	93.12
399.941	95.12
400.165	91.12
400.389	89.12
400.613	84.12
400.837	103.12
401.062	88.12
401.286	86.12
401.51	101.12
401.734	94.12
401.958	111.12
402.182	124.12
402.406	162.12
402.63	121.12
402.854	90.12
403.078	85.12
403.302	88.12
403.526	96.12
403.75	74.12
403.974	83.12
404.198	82.12
404.422	99.12
404.645	82.12
404.869	76.12
405.093	116.12
405.317	98.12
405.541	102.12
405.765	99.12
405.988	113.12
406.212	183.12
406.436	238.12
406.66	152.12
406.883	96.12
407.107	92.12
407.331	97.12
407.555	94.12
407.778	95.12
408.002	103.12
408.226	87.12
408.449	84.12
408.673	88.12
408.896	101.12
409.12	93.12
409.344	95.12
409.567	99.12
409.791	108.12
410.014	105.12
410.238	88.12
410.461	85.12
410.685	116.12
410.908	110.12
411.132	100.12
411.355	98.12
411.578	99.12
411.802	106.12
412.025	92.12
412.249	102.12
412.472	94.12
412.695	92.12
412.919	86.12
413.142	81.12
413.365	103.12
413.589	95.12
413.812	97.12
414.035	103.12
414.258	97.12
414.482	97.12
414.705	89.12
414.928	82.12
415.151	91.12
415.374	97.12
415.597	93.12
415.821	93.12
416.044	78.12
416.267	86.12
416.49	84.12
416.713	93.12
416.936	94.12
417.159	78.12
417.382	79.12
417.605	86.12
417.828	93.12
418.051	84.12
418.274	92.12
418.497	98.12
418.72	91.12
418.943	92.12
419.166	87.12
419.389	99.12
419.611	103.12
419.834	92.12
420.057	85.12
420.28	81.12
420.503	64.12
420.726	95.12
420.948	93.12
421.171	102.12
421.394	87.12
421.617	102.12
421.839	90.12
422.062	80.12
422.285	107.12
422.507	106.12
422.73	103.12
422.953	90.12
423.175	81.12
423.398	89.12
423.621	92.12
423.843	75.12
424.066	91.12
424.288	93.12
424.511	89.12
424.733	105.12
424.956	107.12
425.178	106.12
425.401	106.12
425.623	100.12
425.846	92.12
426.068	93.12
426.291	99.12
426.513	98.12
426.735	90.12
426.958	92.12
427.18	109.12
427.402	140.12
427.625	153.12
427.847	128.12
428.069	99.12
428.292	92.12
428.514	85.12
428.736	75.12
428.958	95.12
429.181	74.12
429.403	81.12
429.625	84.12
429.847	87.12
430.069	92.12
430.292	111.12
430.514	95.12
430.736	101.12
430.958	86.12
431.18	80.12
431.402	82.12
431.624	90.12
431.846	97.12
432.068	91.12
432.29	87.12
432.512	113.12
432.734	86.12
432.956	98.12
433.178	113.12
433.4	109.12
433.622	94.12
433.844	96.12
434.066	100.12
434.287	82.12
434.509	82.12
434.731	83.12
434.953	84.12
435.175	77.12
435.397	102.12
435.618	100.12
435.84	113.12
436.062	139.12
436.284	132.12
436.505	90.12
436.727	93.12
436.949	101.12
437.17	83.12
437.392	83.12
437.614	84.12
437.835	121.12
438.057	121.12
438.278	102.12
438.5	113.12
438.721	111.12
438.943	104.12
439.165	102.12
439.386	85.12
439.608	81.12
439.829	110.12
440.05	139.12
440.272	143.12
440.493	94.12
440.715	83.12
440.936	95.12
441.158	93.12
441.379	103.12
441.6	92.12
441.822	82.12
442.043	92.12
442.264	101.12
442.486	112.12
442.707	102.12
442.928	103.12
443.149	118.12
443.371	124.12
443.592	111.12
443.813	131.12
444.034	106.12
444.255	101.12
444.476	92.12
444.698	97.12
444.919	90.12
445.14	135.12
445.361	140.12
445.582	122.12
445.803	140.12
446.024	144.12
446.245	142.12
446.466	116.12
446.687	96.12
446.908	86.12
447.129	98.12
447.35	89.12
447.571	89.12
447.792	97.12
448.013	103.12
448.234	109.12
448.455	108.12
448.675	96.12
448.896	119.12
449.117	101.12
449.338	120.12
449.559	130.12
449.779	141.12
450	99.12
450.221	83.12
450.442	92.12
450.662	95.12
450.883	98.12
451.104	98.12
451.324	89.12
451.545	97.12
451.766	88.12
451.986	82.12
452.207	85.12
452.428	97.12
452.648	94.12
452.869	110.12
453.089	118.12
453.31	112.12
453.53	98.12
453.751	94.12
453.971	105.12
454.192	107.12
454.412	105.12
454.633	79.12
454.853	83.12
455.073	93.12
455.294	84.12
455.514	106.12
455.734	100.12
455.955	87.12
456.175	98.12
456.395	78.12
456.616	73.12
456.836	98.12
457.056	97.12
457.276	85.12
457.497	90.12
457.717	91.12
457.937	91.12
458.157	79.12
458.377	98.12
458.598	115.12
458.818	150.12
459.038	166.12
459.258	126.12
459.478	95.12
459.698	84.12
459.918	94.12
460.138	86.12
460.358	99.12
460.578	82.12
460.798	79.12
461.018	80.12
461.238	92.12
461.458	93.12
461.678	95.12
461.898	81.12
462.118	85.12
462.338	90.12
462.558	90.12
462.777	91.12
462.997	92.12
463.217	99.12
463.437	84.12
463.657	83.12
463.876	98.12
464.096	74.12
464.316	85.12
464.536	95.12
464.755	103.12
464.975	106.12
465.195	171.12
465.414	165.12
465.634	97.12
465.854	76.12
466.073	93.12
466.293	90.12
466.512	98.12
466.732	86.12
466.951	87.12
467.171	92.12
467.391	105.12
467.61	98.12
467.829	103.12
468.049	79.12
468.268	100.12
468.488	87.12
468.707	87.12
468.927	71.12
469.146	94.12
469.365	98.12
469.585	86.12
469.804	114.12
470.023	85.12
470.243	96.12
470.462	94.12
470.681	123.12
470.901	91.12
471.12	82.12
471.339	81.12
471.558	93.12
471.777	83.12
471.997	102.12
472.216	100.12
472.435	101.12
472.654	79.12
472.873	79.12
473.092	90.12
473.311	92.12
473.53	90.12
473.749	88.12
473.968	96.12
474.187	107.12
474.406	98.12
474.625	94.12
474.844	87.12
475.063	89.12
475.282	85.12
475.501	85.12
475.72	90.12
475.939	86.12
476.158	86.12
476.377	91.12
476.596	83.12
476.814	86.12
477.033	89.12
477.252	100.12
477.471	91.12
477.69	91.12
477.908	94.12
478.127	86.12
478.346	82.12
478.564	90.12
478.783	104.12
479.002	97.12
479.22	90.12
479.439	92.12
479.658	111.12
479.876	96.12
480.095	82.12
480.313	100.12
480.532	87.12
480.751	90.12
480.969	91.12
481.188	89.12
481.406	91.12
481.624	95.12
481.843	87.12
482.061	101.12
482.28	87.12
482.498	75.12
482.717	89.12
482.935	88.12
483.153	93.12
483.372	81.12
483.59	84.12
483.808	86.12
484.027	99.12
484.245	90.12
484.463	101.12
484.681	95.12
484.9	89.12
485.118	104.12
485.336	99.12
485.554	94.12
485.772	91.12
485.99	93.12
486.209	113.12
486.427	91.12
486.645	123.12
486.863	122.12
487.081	107.12
487.299	98.12
487.517	87.12
487.735	96.12
487.953	102.12
488.171	93.12
488.389	101.12
488.607	107.12
488.825	90.12
489.043	95.12
489.261	87.12
489.479	86.12
489.696	96.12
489.914	87.12
490.132	99.12
490.35	97.12
490.568	95.12
490.786	91.12
491.003	92.12
491.221	98.12
491.439	90.12
491.657	100.12
491.874	93.12
492.092	92.12
492.31	95.12
492.527	88.12
492.745	84.12
492.963	106.12
493.18	105.12
493.398	95.12
493.615	107.12
493.833	89.12
494.05	81.12
494.268	97.12
494.485	99.12
494.703	88.12
494.92	99.12
495.138	84.12
495.355	81.12
495.573	90.12
495.79	82.12
496.008	94.12
496.225	91.12
496.442	91.12
496.66	81.12
496.877	110.12
497.094	89.12
497.312	98.12
497.529	80.12
497.746	87.12
497.963	94.12
498.181	95.12
498.398	95.12
498.615	108.12
498.832	107.12
499.049	101.12
499.267	101.12
499.484	91.12
499.701	85.12
499.918	90.12
500.135	93.12
500.352	77.12
500.569	103.12
500.786	89.12
501.003	85.12
501.22	106.12
501.437	98.12
501.654	98.12
501.871	108.12
502.088	106.12
502.305	93.12
502.522	93.12
502.739	99.12
502.956	94.12
503.172	82.12
503.389	102.12
503.606	123.12
503.823	105.12
504.04	100.12
504.256	98.12
504.473	96.12
504.69	103.12
504.907	81.12
505.123	93.12
505.34	87.12
505.557	92.12
505.773	101.12
505.99	89.12
506.207	94.12
506.423	87.12
506.64	99.12
506.856	103.12
507.073	92.12
507.289	95.12
507.506	96.12
507.722	109.12
507.939	113.12
508.155	95.12
508.372	93.12
508.588	91.12
508.805	101.12
509.021	87.12
509.238	106.12
509.454	108.12
509.67	99.12
509.887	105.12
510.103	141.12
510.319	214.12
510.536	830.12
510.752	2635.12
510.968	746.12
511.184	171.12
511.401	116.12
511.617	101.12
511.833	99.12
512.049	97.12
512.265	84.12
512.481	105.12
512.698	102.12
512.914	91.12
513.13	96.12
513.346	94.12
513.562	111.12
513.778	100.12
513.994	108.12
514.21	103.12
514.426	112.12
514.642	140.12
514.858	139.12
515.074	162.12
515.29	479.12
