Data from Uncirc_2007_H10_HRD10591_00033.txt Node
Date: Wed Jan 03 10:20:49 EST 2024
User: Yrep
Spectrometer: HR+D1059
Trigger mode: 1
Integration Time (sec): 1.000000E-1
Scans to average: 1
Electric dark correction enabled: true
Nonlinearity correction enabled: false
Boxcar width: 0
XAxis mode: Wavelengths
Number of Pixels in Spectrum: 2048
>>>>>Begin Spectral Data<<<<<
223.165	-5.94
223.4	-5.94
223.635	-5.94
223.869	-22.94
224.104	-26.94
224.338	-18.94
224.573	-11.94
224.808	-4.94
225.042	-26.94
225.277	-8.94
225.511	0.06
225.746	18.06
225.98	5.06
226.215	6.06
226.449	16.06
226.683	19.06
226.918	30.06
227.152	33.06
227.387	39.06
227.621	41.06
227.856	39.06
228.09	42.06
228.324	47.06
228.559	56.06
228.793	69.06
229.027	62.06
229.262	55.06
229.496	67.06
229.73	81.06
229.964	75.06
230.199	77.06
230.433	75.06
230.667	81.06
230.901	78.06
231.136	73.06
231.37	75.06
231.604	73.06
231.838	81.06
232.072	77.06
232.306	76.06
232.541	77.06
232.775	94.06
233.009	83.06
233.243	79.06
233.477	88.06
233.711	80.06
233.945	72.06
234.179	80.06
234.413	89.06
234.647	75.06
234.881	86.06
235.115	64.06
235.349	77.06
235.583	80.06
235.817	66.06
236.051	89.06
236.285	75.06
236.519	75.06
236.753	74.06
236.987	71.06
237.221	73.06
237.455	91.06
237.689	74.06
237.922	72.06
238.156	76.06
238.39	70.06
238.624	67.06
238.858	80.06
239.091	64.06
239.325	80.06
239.559	84.06
239.793	76.06
240.027	71.06
240.26	66.06
240.494	85.06
240.728	68.06
240.961	76.06
241.195	75.06
241.429	79.06
241.662	74.06
241.896	75.06
242.13	79.06
242.363	91.06
242.597	72.06
242.83	77.06
243.064	78.06
243.298	72.06
243.531	74.06
243.765	89.06
243.998	69.06
244.232	83.06
244.465	78.06
244.699	73.06
244.932	75.06
245.166	81.06
245.399	79.06
245.633	83.06
245.866	79.06
246.099	68.06
246.333	77.06
246.566	78.06
246.8	74.06
247.033	85.06
247.266	82.06
247.5	83.06
247.733	66.06
247.966	76.06
248.2	83.06
248.433	74.06
248.666	64.06
248.899	80.06
249.133	68.06
249.366	90.06
249.599	85.06
249.832	75.06
250.066	77.06
250.299	81.06
250.532	78.06
250.765	82.06
250.998	82.06
251.231	73.06
251.465	74.06
251.698	84.06
251.931	70.06
252.164	58.06
252.397	82.06
252.63	87.06
252.863	80.06
253.096	81.06
253.329	63.06
253.562	70.06
253.795	77.06
254.028	73.06
254.261	70.06
254.494	80.06
254.727	106.06
254.96	77.06
255.193	81.06
255.426	78.06
255.659	81.06
255.892	88.06
256.124	75.06
256.357	87.06
256.59	100.06
256.823	84.06
257.056	91.06
257.289	78.06
257.521	75.06
257.754	62.06
257.987	67.06
258.22	81.06
258.452	74.06
258.685	90.06
258.918	79.06
259.151	86.06
259.383	85.06
259.616	79.06
259.849	74.06
260.081	91.06
260.314	83.06
260.547	82.06
260.779	73.06
261.012	94.06
261.244	78.06
261.477	78.06
261.71	83.06
261.942	90.06
262.175	108.06
262.407	93.06
262.64	97.06
262.872	91.06
263.105	76.06
263.337	70.06
263.57	87.06
263.802	81.06
264.035	90.06
264.267	86.06
264.499	87.06
264.732	88.06
264.964	78.06
265.197	74.06
265.429	77.06
265.661	75.06
265.894	79.06
266.126	76.06
266.358	86.06
266.591	69.06
266.823	82.06
267.055	83.06
267.287	73.06
267.52	71.06
267.752	62.06
267.984	81.06
268.216	79.06
268.448	74.06
268.681	72.06
268.913	77.06
269.145	86.06
269.377	80.06
269.609	78.06
269.841	80.06
270.073	80.06
270.306	75.06
270.538	80.06
270.77	76.06
271.002	69.06
271.234	81.06
271.466	74.06
271.698	84.06
271.93	77.06
272.162	79.06
272.394	67.06
272.626	80.06
272.858	82.06
273.09	81.06
273.322	80.06
273.553	88.06
273.785	83.06
274.017	79.06
274.249	82.06
274.481	82.06
274.713	84.06
274.945	78.06
275.176	77.06
275.408	87.06
275.64	90.06
275.872	84.06
276.104	83.06
276.335	79.06
276.567	107.06
276.799	120.06
277.031	85.06
277.262	90.06
277.494	87.06
277.726	80.06
277.957	81.06
278.189	77.06
278.421	92.06
278.652	76.06
278.884	77.06
279.115	86.06
279.347	95.06
279.579	77.06
279.81	83.06
280.042	89.06
280.273	92.06
280.505	96.06
280.736	71.06
280.968	78.06
281.199	97.06
281.431	74.06
281.662	96.06
281.894	86.06
282.125	96.06
282.356	110.06
282.588	142.06
282.819	113.06
283.051	92.06
283.282	81.06
283.513	87.06
283.745	88.06
283.976	93.06
284.207	77.06
284.439	81.06
284.67	87.06
284.901	77.06
285.132	87.06
285.364	85.06
285.595	81.06
285.826	96.06
286.057	95.06
286.288	86.06
286.52	82.06
286.751	93.06
286.982	95.06
287.213	88.06
287.444	94.06
287.675	78.06
287.906	93.06
288.138	65.06
288.369	84.06
288.6	105.06
288.831	73.06
289.062	79.06
289.293	98.06
289.524	87.06
289.755	71.06
289.986	78.06
290.217	75.06
290.448	87.06
290.679	78.06
290.91	83.06
291.141	111.06
291.371	87.06
291.602	73.06
291.833	69.06
292.064	99.06
292.295	77.06
292.526	78.06
292.757	77.06
292.987	95.06
293.218	81.06
293.449	70.06
293.68	93.06
293.91	93.06
294.141	91.06
294.372	78.06
294.603	83.06
294.833	86.06
295.064	81.06
295.295	78.06
295.525	94.06
295.756	88.06
295.987	125.06
296.217	149.06
296.448	125.06
296.679	89.06
296.909	93.06
297.14	88.06
297.37	86.06
297.601	87.06
297.831	87.06
298.062	92.06
298.292	102.06
298.523	84.06
298.753	86.06
298.984	85.06
299.214	83.06
299.445	88.06
299.675	80.06
299.905	80.06
300.136	88.06
300.366	86.06
300.597	81.06
300.827	85.06
301.057	95.06
301.288	94.06
301.518	97.06
301.748	82.06
301.979	90.06
302.209	74.06
302.439	93.06
302.669	77.06
302.9	82.06
303.13	82.06
303.36	92.06
303.59	94.06
303.82	97.06
304.051	98.06
304.281	81.06
304.511	106.06
304.741	82.06
304.971	93.06
305.201	88.06
305.431	95.06
305.661	99.06
305.891	89.06
306.121	87.06
306.352	102.06
306.582	109.06
306.812	70.06
307.042	101.06
307.272	82.06
307.502	97.06
307.731	80.06
307.961	85.06
308.191	59.06
308.421	103.06
308.651	101.06
308.881	91.06
309.111	96.06
309.341	96.06
309.571	94.06
309.8	103.06
310.03	92.06
310.26	91.06
310.49	98.06
310.72	100.06
310.949	94.06
311.179	100.06
311.409	85.06
311.639	87.06
311.868	89.06
312.098	94.06
312.328	94.06
312.557	96.06
312.787	109.06
313.017	102.06
313.246	98.06
313.476	85.06
313.706	84.06
313.935	84.06
314.165	87.06
314.394	89.06
314.624	79.06
314.853	91.06
315.083	91.06
315.312	89.06
315.542	90.06
315.771	98.06
316.001	83.06
316.23	94.06
316.46	81.06
316.689	87.06
316.919	106.06
317.148	80.06
317.377	92.06
317.607	90.06
317.836	90.06
318.065	82.06
318.295	67.06
318.524	72.06
318.753	81.06
318.983	79.06
319.212	82.06
319.441	95.06
319.67	107.06
319.9	102.06
320.129	84.06
320.358	96.06
320.587	108.06
320.816	93.06
321.046	97.06
321.275	94.06
321.504	83.06
321.733	92.06
321.962	102.06
322.191	93.06
322.42	105.06
322.649	82.06
322.878	114.06
323.108	115.06
323.337	125.06
323.566	138.06
323.795	129.06
324.024	210.06
324.253	425.06
324.482	882.06
324.71	1886.06
324.939	2490.06
325.168	894.06
325.397	250.06
325.626	143.06
325.855	109.06
326.084	131.06
326.313	142.06
326.542	151.06
326.77	251.06
326.999	523.06
327.228	1047.06
327.457	1885.06
327.686	1495.06
327.914	401.06
328.143	201.06
328.372	141.06
328.6	123.06
328.829	126.06
329.058	119.06
329.287	125.06
329.515	110.06
329.744	80.06
329.972	75.06
330.201	106.06
330.43	110.06
330.658	121.06
330.887	139.06
331.115	121.06
331.344	90.06
331.572	96.06
331.801	93.06
332.03	96.06
332.258	98.06
332.486	74.06
332.715	94.06
332.943	83.06
333.172	94.06
333.4	96.06
333.629	105.06
333.857	102.06
334.085	100.06
334.314	84.06
334.542	90.06
334.771	82.06
334.999	89.06
335.227	78.06
335.455	89.06
335.684	86.06
335.912	97.06
336.14	95.06
336.369	108.06
336.597	97.06
336.825	98.06
337.053	86.06
337.281	82.06
337.51	89.06
337.738	90.06
337.966	100.06
338.194	96.06
338.422	92.06
338.65	93.06
338.878	94.06
339.106	94.06
339.334	88.06
339.562	89.06
339.79	86.06
340.018	91.06
340.246	92.06
340.474	82.06
340.702	79.06
340.93	95.06
341.158	95.06
341.386	102.06
341.614	79.06
341.842	99.06
342.07	79.06
342.298	93.06
342.526	88.06
342.754	83.06
342.981	89.06
343.209	96.06
343.437	99.06
343.665	90.06
343.893	88.06
344.12	94.06
344.348	102.06
344.576	88.06
344.804	94.06
345.031	93.06
345.259	88.06
345.487	98.06
345.714	89.06
345.942	89.06
346.17	74.06
346.397	94.06
346.625	96.06
346.853	87.06
347.08	88.06
347.308	90.06
347.535	99.06
347.763	89.06
347.99	105.06
348.218	113.06
348.445	111.06
348.673	90.06
348.9	86.06
349.128	102.06
349.355	75.06
349.583	107.06
349.81	82.06
350.037	78.06
350.265	100.06
350.492	105.06
350.72	77.06
350.947	85.06
351.174	93.06
351.402	102.06
351.629	98.06
351.856	97.06
352.083	110.06
352.311	124.06
352.538	96.06
352.765	117.06
352.992	108.06
353.22	107.06
353.447	115.06
353.674	101.06
353.901	85.06
354.128	95.06
354.355	104.06
354.583	95.06
354.81	89.06
355.037	83.06
355.264	82.06
355.491	98.06
355.718	81.06
355.945	89.06
356.172	98.06
356.399	99.06
356.626	91.06
356.853	105.06
357.08	90.06
357.307	74.06
357.534	88.06
357.761	92.06
357.988	103.06
358.215	98.06
358.441	91.06
358.668	87.06
358.895	88.06
359.122	87.06
359.349	89.06
359.576	91.06
359.802	95.06
360.029	111.06
360.256	104.06
360.483	101.06
360.709	86.06
360.936	89.06
361.163	79.06
361.39	85.06
361.616	80.06
361.843	85.06
362.07	100.06
362.296	85.06
362.523	73.06
362.749	93.06
362.976	89.06
363.203	94.06
363.429	112.06
363.656	77.06
363.882	97.06
364.109	81.06
364.335	90.06
364.562	83.06
364.788	96.06
365.015	90.06
365.241	93.06
365.468	106.06
365.694	94.06
365.92	87.06
366.147	78.06
366.373	82.06
366.599	79.06
366.826	78.06
367.052	80.06
367.278	85.06
367.505	92.06
367.731	82.06
367.957	80.06
368.184	87.06
368.41	86.06
368.636	96.06
368.862	117.06
369.089	101.06
369.315	79.06
369.541	92.06
369.767	96.06
369.993	92.06
370.219	94.06
370.445	84.06
370.672	89.06
370.898	84.06
371.124	88.06
371.35	87.06
371.576	96.06
371.802	78.06
372.028	84.06
372.254	73.06
372.48	86.06
372.706	96.06
372.932	90.06
373.158	85.06
373.384	83.06
373.61	89.06
373.835	74.06
374.061	92.06
374.287	92.06
374.513	92.06
374.739	88.06
374.965	97.06
375.191	94.06
375.416	75.06
375.642	94.06
375.868	91.06
376.094	81.06
376.319	82.06
376.545	88.06
376.771	94.06
376.997	104.06
377.222	91.06
377.448	80.06
377.674	88.06
377.899	85.06
378.125	97.06
378.35	100.06
378.576	79.06
378.802	86.06
379.027	78.06
379.253	79.06
379.478	92.06
379.704	87.06
379.929	90.06
380.155	95.06
380.38	90.06
380.606	79.06
380.831	92.06
381.057	87.06
381.282	85.06
381.507	90.06
381.733	95.06
381.958	93.06
382.184	88.06
382.409	101.06
382.634	106.06
382.86	93.06
383.085	105.06
383.31	88.06
383.535	99.06
383.761	89.06
383.986	99.06
384.211	92.06
384.436	96.06
384.662	87.06
384.887	91.06
385.112	87.06
385.337	106.06
385.562	100.06
385.787	106.06
386.013	113.06
386.238	125.06
386.463	111.06
386.688	101.06
386.913	89.06
387.138	103.06
387.363	99.06
387.588	103.06
387.813	110.06
388.038	99.06
388.263	104.06
388.488	105.06
388.713	97.06
388.938	84.06
389.163	86.06
389.387	93.06
389.612	83.06
389.837	100.06
390.062	75.06
390.287	83.06
390.512	87.06
390.736	81.06
390.961	77.06
391.186	95.06
391.411	83.06
391.636	93.06
391.86	78.06
392.085	84.06
392.31	91.06
392.534	75.06
392.759	85.06
392.984	82.06
393.208	82.06
393.433	83.06
393.658	82.06
393.882	65.06
394.107	70.06
394.331	78.06
394.556	79.06
394.78	88.06
395.005	98.06
395.229	86.06
395.454	89.06
395.678	74.06
395.903	61.06
396.127	91.06
396.352	87.06
396.576	88.06
396.801	87.06
397.025	95.06
397.249	79.06
397.474	83.06
397.698	83.06
397.922	75.06
398.147	77.06
398.371	71.06
398.595	89.06
398.82	75.06
399.044	76.06
399.268	80.06
399.492	91.06
399.717	93.06
399.941	93.06
400.165	92.06
400.389	82.06
400.613	93.06
400.837	81.06
401.062	77.06
401.286	88.06
401.51	99.06
401.734	107.06
401.958	102.06
402.182	125.06
402.406	160.06
402.63	110.06
402.854	87.06
403.078	93.06
403.302	97.06
403.526	85.06
403.75	95.06
403.974	67.06
404.198	90.06
404.422	87.06
404.645	88.06
404.869	79.06
405.093	87.06
405.317	67.06
405.541	102.06
405.765	90.06
405.988	129.06
406.212	172.06
406.436	228.06
406.66	147.06
406.883	89.06
407.107	95.06
407.331	90.06
407.555	97.06
407.778	90.06
408.002	85.06
408.226	88.06
408.449	76.06
408.673	85.06
408.896	87.06
409.12	91.06
409.344	84.06
409.567	94.06
409.791	87.06
410.014	95.06
410.238	92.06
410.461	93.06
410.685	100.06
410.908	98.06
411.132	101.06
411.355	90.06
411.578	78.06
411.802	108.06
412.025	70.06
412.249	81.06
412.472	78.06
412.695	89.06
412.919	94.06
413.142	87.06
413.365	93.06
413.589	84.06
413.812	91.06
414.035	83.06
414.258	90.06
414.482	82.06
414.705	83.06
414.928	88.06
415.151	93.06
415.374	91.06
415.597	67.06
415.821	78.06
416.044	79.06
416.267	92.06
416.49	78.06
416.713	78.06
416.936	85.06
417.159	77.06
417.382	83.06
417.605	69.06
417.828	83.06
418.051	95.06
418.274	92.06
418.497	76.06
418.72	74.06
418.943	93.06
419.166	85.06
419.389	91.06
419.611	87.06
419.834	80.06
420.057	89.06
420.28	94.06
420.503	80.06
420.726	97.06
420.948	90.06
421.171	86.06
421.394	98.06
421.617	75.06
421.839	89.06
422.062	82.06
422.285	96.06
422.507	89.06
422.73	95.06
422.953	92.06
423.175	76.06
423.398	71.06
423.621	87.06
423.843	87.06
424.066	86.06
424.288	87.06
424.511	98.06
424.733	92.06
424.956	111.06
425.178	95.06
425.401	81.06
425.623	110.06
425.846	84.06
426.068	76.06
426.291	93.06
426.513	104.06
426.735	79.06
426.958	87.06
427.18	105.06
427.402	120.06
427.625	163.06
427.847	120.06
428.069	109.06
428.292	92.06
428.514	87.06
428.736	82.06
428.958	79.06
429.181	77.06
429.403	79.06
429.625	89.06
429.847	82.06
430.069	95.06
430.292	94.06
430.514	89.06
430.736	75.06
430.958	71.06
431.18	74.06
431.402	78.06
431.624	83.06
431.846	77.06
432.068	76.06
432.29	80.06
432.512	78.06
432.734	82.06
432.956	91.06
433.178	95.06
433.4	93.06
433.622	86.06
433.844	90.06
434.066	89.06
434.287	77.06
434.509	89.06
434.731	93.06
434.953	85.06
435.175	93.06
435.397	93.06
435.618	99.06
435.84	108.06
436.062	119.06
436.284	108.06
436.505	98.06
436.727	100.06
436.949	101.06
437.17	96.06
437.392	81.06
437.614	91.06
437.835	113.06
438.057	109.06
438.278	100.06
438.5	113.06
438.721	131.06
438.943	92.06
439.165	69.06
439.386	95.06
439.608	100.06
439.829	89.06
440.05	111.06
440.272	128.06
440.493	105.06
440.715	96.06
440.936	83.06
441.158	94.06
441.379	90.06
441.6	86.06
441.822	91.06
442.043	95.06
442.264	101.06
442.486	108.06
442.707	86.06
442.928	106.06
443.149	119.06
443.371	131.06
443.592	107.06
443.813	122.06
444.034	117.06
444.255	103.06
444.476	96.06
444.698	85.06
444.919	93.06
445.14	133.06
445.361	125.06
445.582	110.06
445.803	122.06
446.024	137.06
446.245	124.06
446.466	119.06
446.687	73.06
446.908	90.06
447.129	71.06
447.35	82.06
447.571	101.06
447.792	90.06
448.013	102.06
448.234	103.06
448.455	96.06
448.675	100.06
448.896	115.06
449.117	104.06
449.338	104.06
449.559	131.06
449.779	132.06
450	87.06
450.221	87.06
450.442	90.06
450.662	87.06
450.883	98.06
451.104	117.06
451.324	104.06
451.545	86.06
451.766	87.06
451.986	84.06
452.207	100.06
452.428	91.06
452.648	78.06
452.869	111.06
453.089	103.06
453.31	126.06
453.53	89.06
453.751	72.06
453.971	107.06
454.192	93.06
454.412	90.06
454.633	85.06
454.853	83.06
455.073	80.06
455.294	74.06
455.514	83.06
455.734	87.06
455.955	82.06
456.175	73.06
456.395	69.06
456.616	95.06
456.836	85.06
457.056	77.06
457.276	73.06
457.497	83.06
457.717	94.06
457.937	89.06
458.157	75.06
458.377	89.06
458.598	107.06
458.818	145.06
459.038	147.06
459.258	121.06
459.478	76.06
459.698	89.06
459.918	79.06
460.138	87.06
460.358	83.06
460.578	74.06
460.798	80.06
461.018	91.06
461.238	91.06
461.458	82.06
461.678	90.06
461.898	95.06
462.118	77.06
462.338	103.06
462.558	89.06
462.777	77.06
462.997	83.06
463.217	100.06
463.437	92.06
463.657	91.06
463.876	97.06
464.096	90.06
464.316	89.06
464.536	84.06
464.755	94.06
464.975	121.06
465.195	161.06
465.414	157.06
465.634	98.06
465.854	83.06
466.073	78.06
466.293	94.06
466.512	82.06
466.732	71.06
466.951	80.06
467.171	90.06
467.391	89.06
467.61	90.06
467.829	88.06
468.049	83.06
468.268	90.06
468.488	83.06
468.707	88.06
468.927	99.06
469.146	90.06
469.365	88.06
469.585	86.06
469.804	86.06
470.023	95.06
470.243	102.06
470.462	96.06
470.681	108.06
470.901	88.06
471.12	81.06
471.339	88.06
471.558	83.06
471.777	83.06
471.997	85.06
472.216	87.06
472.435	86.06
472.654	82.06
472.873	78.06
473.092	95.06
473.311	78.06
473.53	91.06
473.749	77.06
473.968	85.06
474.187	97.06
474.406	95.06
474.625	89.06
474.844	87.06
475.063	81.06
475.282	76.06
475.501	86.06
475.72	79.06
475.939	70.06
476.158	86.06
476.377	89.06
476.596	86.06
476.814	82.06
477.033	91.06
477.252	83.06
477.471	80.06
477.69	99.06
477.908	86.06
478.127	77.06
478.346	84.06
478.564	82.06
478.783	89.06
479.002	95.06
479.22	78.06
479.439	90.06
479.658	106.06
479.876	94.06
480.095	96.06
480.313	91.06
480.532	77.06
480.751	80.06
480.969	76.06
481.188	101.06
481.406	91.06
481.624	93.06
481.843	87.06
482.061	88.06
482.28	87.06
482.498	92.06
482.717	85.06
482.935	86.06
483.153	72.06
483.372	82.06
483.59	83.06
483.808	89.06
484.027	91.06
484.245	82.06
484.463	79.06
484.681	81.06
484.9	81.06
485.118	92.06
485.336	86.06
485.554	82.06
485.772	99.06
485.99	103.06
486.209	97.06
486.427	87.06
486.645	99.06
486.863	103.06
487.081	98.06
487.299	93.06
487.517	83.06
487.735	89.06
487.953	89.06
488.171	85.06
488.389	95.06
488.607	88.06
488.825	90.06
489.043	83.06
489.261	96.06
489.479	88.06
489.696	100.06
489.914	86.06
490.132	73.06
490.35	85.06
490.568	80.06
490.786	83.06
491.003	79.06
491.221	73.06
491.439	82.06
491.657	100.06
491.874	92.06
492.092	103.06
492.31	89.06
492.527	87.06
492.745	92.06
492.963	75.06
493.18	82.06
493.398	105.06
493.615	91.06
493.833	94.06
494.05	97.06
494.268	88.06
494.485	90.06
494.703	83.06
494.92	98.06
495.138	89.06
495.355	89.06
495.573	90.06
495.79	79.06
496.008	92.06
496.225	82.06
496.442	92.06
496.66	93.06
496.877	85.06
497.094	89.06
497.312	75.06
497.529	88.06
497.746	82.06
497.963	83.06
498.181	86.06
498.398	88.06
498.615	108.06
498.832	90.06
499.049	87.06
499.267	81.06
499.484	87.06
499.701	81.06
499.918	85.06
500.135	88.06
500.352	83.06
500.569	91.06
500.786	94.06
501.003	88.06
501.22	82.06
501.437	88.06
501.654	100.06
501.871	91.06
502.088	93.06
502.305	91.06
502.522	89.06
502.739	82.06
502.956	78.06
503.172	74.06
503.389	93.06
503.606	98.06
503.823	102.06
504.04	98.06
504.256	95.06
504.473	96.06
504.69	90.06
504.907	75.06
505.123	93.06
505.34	85.06
505.557	89.06
505.773	82.06
505.99	82.06
506.207	70.06
506.423	87.06
506.64	81.06
506.856	95.06
507.073	80.06
507.289	93.06
507.506	74.06
507.722	113.06
507.939	115.06
508.155	90.06
508.372	91.06
508.588	101.06
508.805	107.06
509.021	85.06
509.238	92.06
509.454	89.06
509.67	107.06
509.887	98.06
510.103	113.06
510.319	213.06
510.536	743.06
510.752	2423.06
510.968	673.06
511.184	148.06
511.401	100.06
511.617	107.06
511.833	101.06
512.049	88.06
512.265	83.06
512.481	92.06
512.698	96.06
512.914	89.06
513.13	83.06
513.346	82.06
513.562	88.06
513.778	107.06
513.994	98.06
514.21	114.06
514.426	134.06
514.642	122.06
514.858	128.06
515.074	170.06
515.29	458.06
515.506	1487.06
515.721	559.06
515.937	161.06
516.153	102.06
516.369	95.06
516.585	80.06
516.801	102.06
