Data from Uncirc_2007_H10_HRD10591_00018.txt Node
Date: Wed Jan 03 10:20:46 EST 2024
User: Yrep
Spectrometer: HR+D1059
Trigger mode: 1
Integration Time (sec): 1.000000E-1
Scans to average: 1
Electric dark correction enabled: true
Nonlinearity correction enabled: false
Boxcar width: 0
XAxis mode: Wavelengths
Number of Pixels in Spectrum: 2048
>>>>>Begin Spectral Data<<<<<
223.165	-11.12
223.4	-11.12
223.635	-11.12
223.869	-21.12
224.104	-14.12
224.338	-20.12
224.573	-13.12
224.808	-6.12
225.042	-7.12
225.277	-10.12
225.511	5.88
225.746	3.88
225.98	3.88
226.215	6.88
226.449	16.88
226.683	15.88
226.918	23.88
227.152	25.88
227.387	43.88
227.621	52.88
227.856	51.88
228.09	38.88
228.324	45.88
228.559	58.88
228.793	53.88
229.027	52.88
229.262	65.88
229.496	72.88
229.73	87.88
229.964	84.88
230.199	67.88
230.433	75.88
230.667	63.88
230.901	87.88
231.136	75.88
231.37	84.88
231.604	72.88
231.838	80.88
232.072	72.88
232.306	68.88
232.541	74.88
232.775	82.88
233.009	74.88
233.243	76.88
233.477	84.88
233.711	85.88
233.945	75.88
234.179	65.88
234.413	78.88
234.647	74.88
234.881	80.88
235.115	77.88
235.349	77.88
235.583	86.88
235.817	86.88
236.051	85.88
236.285	76.88
236.519	69.88
236.753	73.88
236.987	69.88
237.221	76.88
237.455	89.88
237.689	78.88
237.922	82.88
238.156	72.88
238.39	76.88
238.624	82.88
238.858	71.88
239.091	76.88
239.325	88.88
239.559	84.88
239.793	76.88
240.027	86.88
240.26	85.88
240.494	75.88
240.728	86.88
240.961	85.88
241.195	83.88
241.429	78.88
241.662	75.88
241.896	79.88
242.13	81.88
242.363	77.88
242.597	76.88
242.83	66.88
243.064	77.88
243.298	70.88
243.531	87.88
243.765	72.88
243.998	79.88
244.232	68.88
244.465	84.88
244.699	81.88
244.932	82.88
245.166	88.88
245.399	83.88
245.633	82.88
245.866	73.88
246.099	88.88
246.333	84.88
246.566	70.88
246.8	89.88
247.033	76.88
247.266	73.88
247.5	75.88
247.733	64.88
247.966	84.88
248.2	89.88
248.433	75.88
248.666	77.88
248.899	78.88
249.133	89.88
249.366	91.88
249.599	91.88
249.832	85.88
250.066	76.88
250.299	78.88
250.532	72.88
250.765	75.88
250.998	89.88
251.231	71.88
251.465	84.88
251.698	81.88
251.931	74.88
252.164	82.88
252.397	92.88
252.63	75.88
252.863	89.88
253.096	80.88
253.329	92.88
253.562	89.88
253.795	84.88
254.028	75.88
254.261	83.88
254.494	82.88
254.727	92.88
254.96	75.88
255.193	73.88
255.426	73.88
255.659	92.88
255.892	87.88
256.124	84.88
256.357	86.88
256.59	83.88
256.823	83.88
257.056	82.88
257.289	84.88
257.521	80.88
257.754	79.88
257.987	81.88
258.22	81.88
258.452	77.88
258.685	71.88
258.918	75.88
259.151	64.88
259.383	68.88
259.616	83.88
259.849	84.88
260.081	84.88
260.314	75.88
260.547	73.88
260.779	70.88
261.012	72.88
261.244	69.88
261.477	87.88
261.71	91.88
261.942	107.88
262.175	123.88
262.407	101.88
262.64	78.88
262.872	85.88
263.105	86.88
263.337	76.88
263.57	78.88
263.802	77.88
264.035	88.88
264.267	96.88
264.499	70.88
264.732	84.88
264.964	75.88
265.197	70.88
265.429	82.88
265.661	81.88
265.894	83.88
266.126	85.88
266.358	96.88
266.591	87.88
266.823	91.88
267.055	80.88
267.287	84.88
267.52	83.88
267.752	75.88
267.984	92.88
268.216	74.88
268.448	79.88
268.681	90.88
268.913	98.88
269.145	91.88
269.377	81.88
269.609	79.88
269.841	89.88
270.073	80.88
270.306	89.88
270.538	93.88
270.77	86.88
271.002	89.88
271.234	83.88
271.466	84.88
271.698	71.88
271.93	81.88
272.162	92.88
272.394	81.88
272.626	68.88
272.858	85.88
273.09	91.88
273.322	81.88
273.553	98.88
273.785	85.88
274.017	78.88
274.249	83.88
274.481	80.88
274.713	87.88
274.945	91.88
275.176	86.88
275.408	95.88
275.64	91.88
275.872	91.88
276.104	104.88
276.335	82.88
276.567	93.88
276.799	112.88
277.031	103.88
277.262	99.88
277.494	86.88
277.726	89.88
277.957	84.88
278.189	97.88
278.421	74.88
278.652	83.88
278.884	79.88
279.115	89.88
279.347	78.88
279.579	92.88
279.81	86.88
280.042	98.88
280.273	81.88
280.505	88.88
280.736	88.88
280.968	73.88
281.199	72.88
281.431	82.88
281.662	81.88
281.894	79.88
282.125	97.88
282.356	115.88
282.588	143.88
282.819	106.88
283.051	111.88
283.282	78.88
283.513	64.88
283.745	68.88
283.976	87.88
284.207	75.88
284.439	92.88
284.67	98.88
284.901	85.88
285.132	89.88
285.364	85.88
285.595	81.88
285.826	90.88
286.057	81.88
286.288	70.88
286.52	71.88
286.751	81.88
286.982	84.88
287.213	85.88
287.444	94.88
287.675	93.88
287.906	73.88
288.138	88.88
288.369	75.88
288.6	87.88
288.831	89.88
289.062	93.88
289.293	79.88
289.524	84.88
289.755	83.88
289.986	91.88
290.217	90.88
290.448	93.88
290.679	81.88
290.91	89.88
291.141	79.88
291.371	68.88
291.602	76.88
291.833	79.88
292.064	92.88
292.295	85.88
292.526	87.88
292.757	95.88
292.987	91.88
293.218	94.88
293.449	82.88
293.68	97.88
293.91	79.88
294.141	81.88
294.372	93.88
294.603	88.88
294.833	85.88
295.064	76.88
295.295	78.88
295.525	88.88
295.756	85.88
295.987	115.88
296.217	149.88
296.448	130.88
296.679	94.88
296.909	81.88
297.14	87.88
297.37	84.88
297.601	89.88
297.831	79.88
298.062	88.88
298.292	81.88
298.523	99.88
298.753	80.88
298.984	77.88
299.214	88.88
299.445	89.88
299.675	84.88
299.905	94.88
300.136	90.88
300.366	90.88
300.597	94.88
300.827	94.88
301.057	79.88
301.288	88.88
301.518	85.88
301.748	84.88
301.979	107.88
302.209	98.88
302.439	87.88
302.669	92.88
302.9	86.88
303.13	84.88
303.36	90.88
303.59	103.88
303.82	116.88
304.051	100.88
304.281	91.88
304.511	98.88
304.741	80.88
304.971	78.88
305.201	81.88
305.431	83.88
305.661	83.88
305.891	90.88
306.121	99.88
306.352	109.88
306.582	106.88
306.812	83.88
307.042	91.88
307.272	96.88
307.502	88.88
307.731	95.88
307.961	90.88
308.191	85.88
308.421	83.88
308.651	96.88
308.881	85.88
309.111	83.88
309.341	99.88
309.571	105.88
309.8	97.88
310.03	88.88
310.26	90.88
310.49	92.88
310.72	110.88
310.949	101.88
311.179	106.88
311.409	77.88
311.639	95.88
311.868	95.88
312.098	95.88
312.328	71.88
312.557	101.88
312.787	101.88
313.017	111.88
313.246	90.88
313.476	91.88
313.706	89.88
313.935	90.88
314.165	107.88
314.394	99.88
314.624	102.88
314.853	104.88
315.083	95.88
315.312	95.88
315.542	87.88
315.771	95.88
316.001	97.88
316.23	109.88
316.46	99.88
316.689	89.88
316.919	103.88
317.148	113.88
317.377	100.88
317.607	95.88
317.836	88.88
318.065	86.88
318.295	107.88
318.524	98.88
318.753	94.88
318.983	96.88
319.212	93.88
319.441	104.88
319.67	103.88
319.9	93.88
320.129	88.88
320.358	95.88
320.587	80.88
320.816	96.88
321.046	97.88
321.275	105.88
321.504	108.88
321.733	89.88
321.962	104.88
322.191	97.88
322.42	104.88
322.649	100.88
322.878	115.88
323.108	107.88
323.337	128.88
323.566	141.88
323.795	148.88
324.024	220.88
324.253	455.88
324.482	1007.88
324.71	2007.88
324.939	2660.88
325.168	984.88
325.397	271.88
325.626	161.88
325.855	127.88
326.084	127.88
326.313	117.88
326.542	157.88
326.77	254.88
326.999	527.88
327.228	1116.88
327.457	2054.88
327.686	1587.88
327.914	421.88
328.143	200.88
328.372	165.88
328.6	117.88
328.829	125.88
329.058	128.88
329.287	124.88
329.515	99.88
329.744	99.88
329.972	114.88
330.201	92.88
330.43	106.88
330.658	117.88
330.887	140.88
331.115	136.88
331.344	87.88
331.572	97.88
331.801	108.88
332.03	105.88
332.258	103.88
332.486	90.88
332.715	90.88
332.943	90.88
333.172	87.88
333.4	103.88
333.629	100.88
333.857	108.88
334.085	106.88
334.314	91.88
334.542	92.88
334.771	95.88
334.999	105.88
335.227	103.88
335.455	101.88
335.684	104.88
335.912	97.88
336.14	99.88
336.369	95.88
336.597	92.88
336.825	98.88
337.053	91.88
337.281	79.88
337.51	79.88
337.738	87.88
337.966	99.88
338.194	106.88
338.422	92.88
338.65	91.88
338.878	97.88
339.106	92.88
339.334	89.88
339.562	93.88
339.79	85.88
340.018	89.88
340.246	97.88
340.474	86.88
340.702	93.88
340.93	104.88
341.158	91.88
341.386	97.88
341.614	90.88
341.842	84.88
342.07	90.88
342.298	90.88
342.526	81.88
342.754	80.88
342.981	96.88
343.209	82.88
343.437	106.88
343.665	85.88
343.893	106.88
344.12	87.88
344.348	85.88
344.576	68.88
344.804	92.88
345.031	100.88
345.259	92.88
345.487	89.88
345.714	92.88
345.942	91.88
346.17	104.88
346.397	101.88
346.625	85.88
346.853	89.88
347.08	92.88
347.308	90.88
347.535	90.88
347.763	106.88
347.99	104.88
348.218	107.88
348.445	98.88
348.673	104.88
348.9	95.88
349.128	102.88
349.355	93.88
349.583	101.88
349.81	90.88
350.037	80.88
350.265	77.88
350.492	95.88
350.72	94.88
350.947	97.88
351.174	114.88
351.402	110.88
351.629	103.88
351.856	98.88
352.083	116.88
352.311	111.88
352.538	108.88
352.765	99.88
352.992	111.88
353.22	118.88
353.447	118.88
353.674	107.88
353.901	103.88
354.128	108.88
354.355	83.88
354.583	84.88
354.81	93.88
355.037	99.88
355.264	105.88
355.491	96.88
355.718	85.88
355.945	93.88
356.172	90.88
356.399	99.88
356.626	95.88
356.853	94.88
357.08	85.88
357.307	94.88
357.534	104.88
357.761	103.88
357.988	82.88
358.215	105.88
358.441	77.88
358.668	79.88
358.895	77.88
359.122	94.88
359.349	90.88
359.576	96.88
359.802	101.88
360.029	111.88
360.256	119.88
360.483	87.88
360.709	88.88
360.936	74.88
361.163	91.88
361.39	100.88
361.616	98.88
361.843	91.88
362.07	87.88
362.296	95.88
362.523	98.88
362.749	96.88
362.976	83.88
363.203	90.88
363.429	90.88
363.656	89.88
363.882	90.88
364.109	91.88
364.335	88.88
364.562	84.88
364.788	105.88
365.015	101.88
365.241	107.88
365.468	103.88
365.694	95.88
365.92	103.88
366.147	102.88
366.373	98.88
366.599	86.88
366.826	91.88
367.052	99.88
367.278	92.88
367.505	88.88
367.731	96.88
367.957	85.88
368.184	80.88
368.41	96.88
368.636	99.88
368.862	123.88
369.089	94.88
369.315	94.88
369.541	89.88
369.767	88.88
369.993	88.88
370.219	85.88
370.445	78.88
370.672	100.88
370.898	85.88
371.124	90.88
371.35	95.88
371.576	85.88
371.802	80.88
372.028	85.88
372.254	81.88
372.48	80.88
372.706	84.88
372.932	90.88
373.158	81.88
373.384	95.88
373.61	87.88
373.835	83.88
374.061	89.88
374.287	87.88
374.513	90.88
374.739	88.88
374.965	90.88
375.191	84.88
375.416	83.88
375.642	107.88
375.868	93.88
376.094	89.88
376.319	102.88
376.545	88.88
376.771	91.88
376.997	91.88
377.222	79.88
377.448	84.88
377.674	93.88
377.899	65.88
378.125	91.88
378.35	100.88
378.576	84.88
378.802	91.88
379.027	99.88
379.253	90.88
379.478	108.88
379.704	84.88
379.929	85.88
380.155	99.88
380.38	103.88
380.606	98.88
380.831	87.88
381.057	105.88
381.282	96.88
381.507	90.88
381.733	100.88
381.958	105.88
382.184	93.88
382.409	92.88
382.634	106.88
382.86	95.88
383.085	103.88
383.31	105.88
383.535	95.88
383.761	92.88
383.986	101.88
384.211	102.88
384.436	94.88
384.662	96.88
384.887	109.88
385.112	95.88
385.337	82.88
385.562	87.88
385.787	109.88
386.013	112.88
386.238	120.88
386.463	100.88
386.688	99.88
386.913	97.88
387.138	95.88
387.363	100.88
387.588	103.88
387.813	122.88
388.038	108.88
388.263	98.88
388.488	110.88
388.713	99.88
388.938	98.88
389.163	112.88
389.387	93.88
389.612	93.88
389.837	85.88
390.062	90.88
390.287	96.88
390.512	95.88
390.736	105.88
390.961	92.88
391.186	92.88
391.411	90.88
391.636	89.88
391.86	82.88
392.085	98.88
392.31	94.88
392.534	76.88
392.759	91.88
392.984	85.88
393.208	80.88
393.433	96.88
393.658	84.88
393.882	85.88
394.107	73.88
394.331	92.88
394.556	91.88
394.78	92.88
395.005	87.88
395.229	101.88
395.454	81.88
395.678	83.88
395.903	93.88
396.127	95.88
396.352	92.88
396.576	89.88
396.801	88.88
397.025	91.88
397.249	81.88
397.474	82.88
397.698	103.88
397.922	96.88
398.147	91.88
398.371	75.88
398.595	91.88
398.82	107.88
399.044	91.88
399.268	81.88
399.492	86.88
399.717	90.88
399.941	76.88
400.165	101.88
400.389	105.88
400.613	96.88
400.837	67.88
401.062	84.88
401.286	93.88
401.51	86.88
401.734	91.88
401.958	95.88
402.182	132.88
402.406	164.88
402.63	133.88
402.854	91.88
403.078	81.88
403.302	80.88
403.526	78.88
403.75	82.88
403.974	82.88
404.198	96.88
404.422	104.88
404.645	91.88
404.869	89.88
405.093	90.88
405.317	84.88
405.541	87.88
405.765	110.88
405.988	120.88
406.212	195.88
406.436	221.88
406.66	146.88
406.883	99.88
407.107	87.88
407.331	99.88
407.555	94.88
407.778	104.88
408.002	86.88
408.226	82.88
408.449	81.88
408.673	85.88
408.896	82.88
409.12	102.88
409.344	98.88
409.567	94.88
409.791	88.88
410.014	87.88
410.238	91.88
410.461	93.88
410.685	97.88
410.908	94.88
411.132	105.88
411.355	104.88
411.578	86.88
411.802	91.88
412.025	95.88
412.249	87.88
412.472	93.88
412.695	78.88
412.919	79.88
413.142	86.88
413.365	95.88
413.589	92.88
413.812	98.88
414.035	90.88
414.258	90.88
414.482	93.88
414.705	90.88
414.928	94.88
415.151	85.88
415.374	88.88
415.597	91.88
415.821	97.88
416.044	91.88
416.267	91.88
416.49	84.88
416.713	89.88
416.936	82.88
417.159	85.88
417.382	88.88
417.605	74.88
417.828	96.88
418.051	86.88
418.274	79.88
418.497	74.88
418.72	71.88
418.943	90.88
419.166	85.88
419.389	91.88
419.611	96.88
419.834	88.88
420.057	94.88
420.28	84.88
420.503	89.88
420.726	105.88
420.948	96.88
421.171	88.88
421.394	101.88
421.617	92.88
421.839	97.88
422.062	89.88
422.285	90.88
422.507	89.88
422.73	102.88
422.953	86.88
423.175	98.88
423.398	79.88
423.621	82.88
423.843	85.88
424.066	84.88
424.288	86.88
424.511	96.88
424.733	85.88
424.956	106.88
425.178	99.88
425.401	91.88
425.623	107.88
425.846	94.88
426.068	96.88
426.291	85.88
426.513	102.88
426.735	89.88
426.958	83.88
427.18	106.88
427.402	118.88
427.625	166.88
427.847	122.88
428.069	89.88
428.292	97.88
428.514	76.88
428.736	84.88
428.958	70.88
429.181	93.88
429.403	89.88
429.625	82.88
429.847	82.88
430.069	79.88
430.292	76.88
430.514	89.88
430.736	80.88
430.958	82.88
431.18	73.88
431.402	79.88
431.624	81.88
431.846	72.88
432.068	95.88
432.29	93.88
432.512	95.88
432.734	81.88
432.956	97.88
433.178	104.88
433.4	105.88
433.622	92.88
433.844	93.88
434.066	82.88
434.287	92.88
434.509	87.88
434.731	91.88
434.953	93.88
435.175	99.88
435.397	80.88
435.618	103.88
435.84	104.88
436.062	130.88
436.284	124.88
436.505	98.88
436.727	104.88
436.949	100.88
437.17	96.88
437.392	81.88
437.614	78.88
437.835	113.88
438.057	104.88
438.278	96.88
438.5	106.88
438.721	124.88
438.943	101.88
439.165	70.88
439.386	94.88
439.608	80.88
439.829	107.88
440.05	119.88
440.272	152.88
440.493	100.88
440.715	73.88
440.936	80.88
441.158	93.88
441.379	95.88
441.6	101.88
441.822	106.88
442.043	107.88
442.264	100.88
442.486	95.88
442.707	90.88
442.928	103.88
443.149	128.88
443.371	127.88
443.592	108.88
443.813	115.88
444.034	113.88
444.255	89.88
444.476	103.88
444.698	95.88
444.919	79.88
445.14	143.88
445.361	119.88
445.582	116.88
445.803	133.88
446.024	151.88
446.245	149.88
446.466	116.88
446.687	105.88
446.908	99.88
447.129	86.88
447.35	77.88
447.571	96.88
447.792	91.88
448.013	108.88
448.234	106.88
448.455	96.88
448.675	120.88
448.896	107.88
449.117	106.88
449.338	94.88
449.559	133.88
449.779	133.88
450	97.88
450.221	81.88
450.442	85.88
450.662	94.88
450.883	106.88
451.104	99.88
451.324	100.88
451.545	77.88
451.766	72.88
451.986	84.88
452.207	96.88
452.428	101.88
452.648	101.88
452.869	124.88
453.089	100.88
453.31	108.88
453.53	81.88
453.751	87.88
453.971	108.88
454.192	107.88
454.412	98.88
454.633	88.88
454.853	90.88
455.073	84.88
455.294	88.88
455.514	98.88
455.734	92.88
455.955	81.88
456.175	88.88
456.395	73.88
456.616	88.88
456.836	83.88
457.056	83.88
457.276	76.88
457.497	70.88
457.717	88.88
457.937	85.88
458.157	93.88
458.377	92.88
458.598	100.88
458.818	152.88
459.038	176.88
459.258	107.88
459.478	92.88
459.698	86.88
459.918	92.88
460.138	95.88
460.358	75.88
460.578	94.88
460.798	82.88
461.018	91.88
461.238	83.88
461.458	92.88
461.678	90.88
461.898	80.88
462.118	91.88
462.338	85.88
462.558	75.88
462.777	90.88
462.997	95.88
463.217	86.88
463.437	75.88
463.657	75.88
463.876	89.88
464.096	92.88
464.316	88.88
464.536	80.88
464.755	100.88
464.975	108.88
465.195	159.88
465.414	152.88
465.634	116.88
465.854	89.88
466.073	81.88
466.293	79.88
466.512	92.88
466.732	83.88
466.951	85.88
467.171	94.88
467.391	91.88
467.61	96.88
467.829	102.88
468.049	96.88
468.268	91.88
468.488	83.88
468.707	75.88
468.927	81.88
469.146	83.88
469.365	98.88
469.585	75.88
469.804	98.88
470.023	100.88
470.243	94.88
470.462	91.88
470.681	102.88
470.901	81.88
471.12	92.88
471.339	94.88
471.558	76.88
471.777	85.88
471.997	84.88
472.216	98.88
472.435	89.88
472.654	92.88
472.873	88.88
473.092	84.88
473.311	90.88
473.53	84.88
473.749	95.88
473.968	82.88
474.187	121.88
474.406	103.88
474.625	64.88
474.844	83.88
475.063	90.88
475.282	85.88
475.501	71.88
475.72	91.88
475.939	96.88
476.158	91.88
476.377	81.88
476.596	96.88
476.814	103.88
477.033	84.88
477.252	89.88
477.471	82.88
477.69	79.88
477.908	84.88
478.127	87.88
478.346	89.88
478.564	77.88
478.783	92.88
479.002	94.88
479.22	96.88
479.439	84.88
479.658	80.88
479.876	108.88
480.095	90.88
480.313	89.88
480.532	91.88
480.751	101.88
480.969	100.88
481.188	83.88
481.406	76.88
481.624	85.88
481.843	89.88
482.061	82.88
482.28	91.88
482.498	94.88
482.717	79.88
482.935	86.88
483.153	95.88
483.372	105.88
483.59	90.88
483.808	87.88
484.027	84.88
484.245	95.88
484.463	93.88
484.681	103.88
484.9	85.88
485.118	94.88
485.336	92.88
485.554	89.88
485.772	100.88
485.99	113.88
486.209	107.88
486.427	106.88
486.645	113.88
486.863	108.88
487.081	101.88
487.299	87.88
487.517	86.88
487.735	107.88
487.953	104.88
488.171	102.88
488.389	89.88
488.607	114.88
488.825	97.88
489.043	82.88
489.261	101.88
489.479	92.88
489.696	97.88
489.914	79.88
490.132	82.88
490.35	78.88
490.568	79.88
490.786	76.88
491.003	93.88
491.221	98.88
491.439	88.88
491.657	90.88
491.874	92.88
492.092	95.88
492.31	105.88
492.527	92.88
492.745	89.88
492.963	93.88
493.18	89.88
493.398	87.88
493.615	98.88
493.833	91.88
494.05	80.88
494.268	79.88
494.485	89.88
494.703	83.88
494.92	98.88
495.138	96.88
495.355	83.88
495.573	96.88
495.79	96.88
496.008	93.88
496.225	92.88
496.442	90.88
496.66	88.88
496.877	88.88
497.094	89.88
497.312	102.88
497.529	82.88
497.746	100.88
497.963	88.88
498.181	94.88
498.398	91.88
498.615	101.88
498.832	104.88
499.049	94.88
499.267	96.88
499.484	87.88
499.701	97.88
499.918	90.88
500.135	86.88
500.352	88.88
500.569	79.88
500.786	85.88
501.003	72.88
501.22	84.88
501.437	100.88
501.654	92.88
501.871	108.88
502.088	87.88
502.305	85.88
502.522	87.88
502.739	99.88
502.956	92.88
503.172	99.88
503.389	102.88
503.606	94.88
503.823	91.88
504.04	91.88
504.256	96.88
504.473	94.88
504.69	95.88
504.907	88.88
505.123	94.88
505.34	88.88
505.557	86.88
505.773	93.88
505.99	95.88
506.207	99.88
506.423	116.88
506.64	76.88
506.856	84.88
507.073	91.88
507.289	90.88
507.506	101.88
507.722	120.88
507.939	119.88
508.155	96.88
508.372	90.88
508.588	101.88
508.805	104.88
509.021	88.88
509.238	97.88
509.454	91.88
509.67	105.88
509.887	109.88
510.103	146.88
510.319	232.88
510.536	833.88
510.752	2615.88
510.968	709.88
511.184	177.88
511.401	116.88
511.617	86.88
511.833	100.88
512.049	84.88
512.265	93.88
512.481	100.88
512.698	97.88
512.914	98.88
513.13	91.88
513.346	87.88
513.562	100.88
513.778	91.88
513.994	101.88
514.21	91.88
514.426	116.88
514.642	139.88
514.858	129.88
515.074	180.88
515.29	494.88
515.506	1639.88
515.721	604.88
