Data from Uncirc_2007_H10_HRD10591_00026.txt Node
Date: Wed Jan 03 10:20:47 EST 2024
User: Yrep
Spectrometer: HR+D1059
Trigger mode: 1
Integration Time (sec): 1.000000E-1
Scans to average: 1
Electric dark correction enabled: true
Nonlinearity correction enabled: false
Boxcar width: 0
XAxis mode: Wavelengths
Number of Pixels in Spectrum: 2048
>>>>>Begin Spectral Data<<<<<
223.165	-17.31
223.4	-17.31
223.635	-17.31
223.869	-23.31
224.104	-18.31
224.338	-16.31
224.573	-12.31
224.808	-14.31
225.042	-22.31
225.277	5.69
225.511	-13.31
225.746	-4.31
225.98	6.69
226.215	26.69
226.449	8.69
226.683	32.69
226.918	19.69
227.152	41.69
227.387	31.69
227.621	47.69
227.856	48.69
228.09	37.69
228.324	45.69
228.559	48.69
228.793	58.69
229.027	42.69
229.262	64.69
229.496	73.69
229.73	80.69
229.964	84.69
230.199	77.69
230.433	79.69
230.667	76.69
230.901	78.69
231.136	76.69
231.37	73.69
231.604	77.69
231.838	73.69
232.072	78.69
232.306	81.69
232.541	74.69
232.775	86.69
233.009	88.69
233.243	87.69
233.477	67.69
233.711	85.69
233.945	91.69
234.179	79.69
234.413	82.69
234.647	77.69
234.881	71.69
235.115	78.69
235.349	70.69
235.583	67.69
235.817	86.69
236.051	95.69
236.285	71.69
236.519	71.69
236.753	75.69
236.987	66.69
237.221	82.69
237.455	84.69
237.689	70.69
237.922	71.69
238.156	95.69
238.39	61.69
238.624	66.69
238.858	74.69
239.091	75.69
239.325	80.69
239.559	89.69
239.793	62.69
240.027	69.69
240.26	77.69
240.494	61.69
240.728	63.69
240.961	73.69
241.195	66.69
241.429	74.69
241.662	79.69
241.896	60.69
242.13	83.69
242.363	78.69
242.597	73.69
242.83	80.69
243.064	90.69
243.298	76.69
243.531	73.69
243.765	69.69
243.998	80.69
244.232	79.69
244.465	85.69
244.699	71.69
244.932	88.69
245.166	83.69
245.399	72.69
245.633	66.69
245.866	75.69
246.099	74.69
246.333	85.69
246.566	73.69
246.8	87.69
247.033	82.69
247.266	88.69
247.5	76.69
247.733	78.69
247.966	71.69
248.2	72.69
248.433	67.69
248.666	70.69
248.899	80.69
249.133	74.69
249.366	86.69
249.599	105.69
249.832	69.69
250.066	69.69
250.299	76.69
250.532	76.69
250.765	81.69
250.998	81.69
251.231	63.69
251.465	76.69
251.698	92.69
251.931	69.69
252.164	80.69
252.397	84.69
252.63	88.69
252.863	88.69
253.096	62.69
253.329	78.69
253.562	59.69
253.795	79.69
254.028	83.69
254.261	78.69
254.494	75.69
254.727	82.69
254.96	68.69
255.193	75.69
255.426	76.69
255.659	89.69
255.892	74.69
256.124	74.69
256.357	71.69
256.59	82.69
256.823	79.69
257.056	72.69
257.289	74.69
257.521	73.69
257.754	79.69
257.987	93.69
258.22	70.69
258.452	76.69
258.685	81.69
258.918	80.69
259.151	76.69
259.383	83.69
259.616	68.69
259.849	94.69
260.081	85.69
260.314	96.69
260.547	73.69
260.779	75.69
261.012	70.69
261.244	64.69
261.477	70.69
261.71	87.69
261.942	114.69
262.175	101.69
262.407	74.69
262.64	72.69
262.872	87.69
263.105	66.69
263.337	75.69
263.57	71.69
263.802	68.69
264.035	76.69
264.267	79.69
264.499	77.69
264.732	79.69
264.964	81.69
265.197	71.69
265.429	86.69
265.661	89.69
265.894	84.69
266.126	86.69
266.358	84.69
266.591	87.69
266.823	74.69
267.055	82.69
267.287	65.69
267.52	86.69
267.752	93.69
267.984	82.69
268.216	88.69
268.448	91.69
268.681	82.69
268.913	94.69
269.145	81.69
269.377	86.69
269.609	78.69
269.841	79.69
270.073	91.69
270.306	78.69
270.538	76.69
270.77	78.69
271.002	77.69
271.234	78.69
271.466	77.69
271.698	82.69
271.93	78.69
272.162	77.69
272.394	89.69
272.626	79.69
272.858	82.69
273.09	88.69
273.322	89.69
273.553	81.69
273.785	80.69
274.017	76.69
274.249	77.69
274.481	81.69
274.713	92.69
274.945	84.69
275.176	92.69
275.408	71.69
275.64	74.69
275.872	58.69
276.104	83.69
276.335	103.69
276.567	84.69
276.799	105.69
277.031	101.69
277.262	80.69
277.494	84.69
277.726	75.69
277.957	93.69
278.189	90.69
278.421	92.69
278.652	85.69
278.884	95.69
279.115	79.69
279.347	94.69
279.579	78.69
279.81	77.69
280.042	87.69
280.273	85.69
280.505	80.69
280.736	86.69
280.968	68.69
281.199	84.69
281.431	73.69
281.662	94.69
281.894	78.69
282.125	86.69
282.356	116.69
282.588	131.69
282.819	100.69
283.051	83.69
283.282	87.69
283.513	83.69
283.745	86.69
283.976	81.69
284.207	87.69
284.439	80.69
284.67	79.69
284.901	90.69
285.132	88.69
285.364	86.69
285.595	89.69
285.826	90.69
286.057	79.69
286.288	87.69
286.52	81.69
286.751	72.69
286.982	82.69
287.213	95.69
287.444	89.69
287.675	76.69
287.906	89.69
288.138	75.69
288.369	97.69
288.6	82.69
288.831	82.69
289.062	86.69
289.293	93.69
289.524	74.69
289.755	76.69
289.986	89.69
290.217	83.69
290.448	85.69
290.679	89.69
290.91	90.69
291.141	78.69
291.371	78.69
291.602	83.69
291.833	85.69
292.064	84.69
292.295	90.69
292.526	86.69
292.757	89.69
292.987	89.69
293.218	103.69
293.449	77.69
293.68	91.69
293.91	89.69
294.141	86.69
294.372	88.69
294.603	87.69
294.833	79.69
295.064	91.69
295.295	95.69
295.525	86.69
295.756	101.69
295.987	98.69
296.217	141.69
296.448	133.69
296.679	92.69
296.909	95.69
297.14	95.69
297.37	93.69
297.601	88.69
297.831	91.69
298.062	91.69
298.292	82.69
298.523	102.69
298.753	102.69
298.984	95.69
299.214	93.69
299.445	98.69
299.675	79.69
299.905	88.69
300.136	80.69
300.366	89.69
300.597	83.69
300.827	87.69
301.057	87.69
301.288	93.69
301.518	84.69
301.748	95.69
301.979	104.69
302.209	90.69
302.439	87.69
302.669	80.69
302.9	78.69
303.13	91.69
303.36	101.69
303.59	98.69
303.82	100.69
304.051	86.69
304.281	86.69
304.511	88.69
304.741	81.69
304.971	81.69
305.201	73.69
305.431	87.69
305.661	94.69
305.891	97.69
306.121	90.69
306.352	91.69
306.582	96.69
306.812	85.69
307.042	91.69
307.272	83.69
307.502	87.69
307.731	86.69
307.961	91.69
308.191	84.69
308.421	100.69
308.651	93.69
308.881	83.69
309.111	88.69
309.341	89.69
309.571	93.69
309.8	94.69
310.03	80.69
310.26	95.69
310.49	97.69
310.72	111.69
310.949	97.69
311.179	106.69
311.409	87.69
311.639	103.69
311.868	94.69
312.098	89.69
312.328	107.69
312.557	112.69
312.787	121.69
313.017	102.69
313.246	100.69
313.476	92.69
313.706	90.69
313.935	73.69
314.165	95.69
314.394	110.69
314.624	100.69
314.853	111.69
315.083	90.69
315.312	88.69
315.542	111.69
315.771	79.69
316.001	89.69
316.23	95.69
316.46	93.69
316.689	85.69
316.919	85.69
317.148	93.69
317.377	89.69
317.607	93.69
317.836	90.69
318.065	91.69
318.295	106.69
318.524	80.69
318.753	103.69
318.983	92.69
319.212	85.69
319.441	96.69
319.67	105.69
319.9	91.69
320.129	107.69
320.358	95.69
320.587	93.69
320.816	99.69
321.046	100.69
321.275	83.69
321.504	101.69
321.733	103.69
321.962	96.69
322.191	111.69
322.42	107.69
322.649	115.69
322.878	124.69
323.108	124.69
323.337	108.69
323.566	121.69
323.795	149.69
324.024	208.69
324.253	441.69
324.482	951.69
324.71	2006.69
324.939	2526.69
325.168	924.69
325.397	254.69
325.626	147.69
325.855	127.69
326.084	124.69
326.313	138.69
326.542	153.69
326.77	251.69
326.999	512.69
327.228	1071.69
327.457	1985.69
327.686	1543.69
327.914	413.69
328.143	190.69
328.372	165.69
328.6	136.69
328.829	127.69
329.058	119.69
329.287	123.69
329.515	108.69
329.744	100.69
329.972	86.69
330.201	98.69
330.43	89.69
330.658	118.69
330.887	136.69
331.115	117.69
331.344	99.69
331.572	109.69
331.801	95.69
332.03	104.69
332.258	106.69
332.486	84.69
332.715	91.69
332.943	90.69
333.172	91.69
333.4	91.69
333.629	100.69
333.857	106.69
334.085	108.69
334.314	93.69
334.542	87.69
334.771	109.69
334.999	85.69
335.227	75.69
335.455	91.69
335.684	97.69
335.912	104.69
336.14	98.69
336.369	104.69
336.597	97.69
336.825	97.69
337.053	91.69
337.281	98.69
337.51	95.69
337.738	89.69
337.966	96.69
338.194	88.69
338.422	93.69
338.65	103.69
338.878	90.69
339.106	85.69
339.334	100.69
339.562	76.69
339.79	82.69
340.018	80.69
340.246	98.69
340.474	98.69
340.702	101.69
340.93	91.69
341.158	97.69
341.386	98.69
341.614	101.69
341.842	92.69
342.07	93.69
342.298	98.69
342.526	88.69
342.754	83.69
342.981	83.69
343.209	72.69
343.437	94.69
343.665	92.69
343.893	87.69
344.12	97.69
344.348	94.69
344.576	95.69
344.804	91.69
345.031	94.69
345.259	97.69
345.487	88.69
345.714	90.69
345.942	97.69
346.17	97.69
346.397	90.69
346.625	95.69
346.853	85.69
347.08	90.69
347.308	93.69
347.535	75.69
347.763	97.69
347.99	102.69
348.218	96.69
348.445	104.69
348.673	100.69
348.9	99.69
349.128	93.69
349.355	74.69
349.583	90.69
349.81	96.69
350.037	92.69
350.265	97.69
350.492	101.69
350.72	87.69
350.947	108.69
351.174	105.69
351.402	97.69
351.629	103.69
351.856	105.69
352.083	103.69
352.311	100.69
352.538	109.69
352.765	98.69
352.992	113.69
353.22	111.69
353.447	96.69
353.674	93.69
353.901	93.69
354.128	93.69
354.355	96.69
354.583	86.69
354.81	84.69
355.037	87.69
355.264	90.69
355.491	94.69
355.718	82.69
355.945	105.69
356.172	88.69
356.399	102.69
356.626	97.69
356.853	97.69
357.08	90.69
357.307	97.69
357.534	82.69
357.761	74.69
357.988	89.69
358.215	102.69
358.441	89.69
358.668	94.69
358.895	84.69
359.122	89.69
359.349	89.69
359.576	94.69
359.802	81.69
360.029	111.69
360.256	110.69
360.483	105.69
360.709	87.69
360.936	95.69
361.163	99.69
361.39	102.69
361.616	82.69
361.843	86.69
362.07	106.69
362.296	87.69
362.523	92.69
362.749	81.69
362.976	81.69
363.203	84.69
363.429	91.69
363.656	91.69
363.882	89.69
364.109	93.69
364.335	86.69
364.562	83.69
364.788	87.69
365.015	79.69
365.241	94.69
365.468	91.69
365.694	106.69
365.92	96.69
366.147	91.69
366.373	79.69
366.599	89.69
366.826	73.69
367.052	73.69
367.278	75.69
367.505	92.69
367.731	93.69
367.957	79.69
368.184	88.69
368.41	87.69
368.636	114.69
368.862	125.69
369.089	106.69
369.315	107.69
369.541	85.69
369.767	78.69
369.993	92.69
370.219	94.69
370.445	76.69
370.672	87.69
370.898	99.69
371.124	79.69
371.35	84.69
371.576	80.69
371.802	79.69
372.028	90.69
372.254	98.69
372.48	77.69
372.706	93.69
372.932	89.69
373.158	84.69
373.384	91.69
373.61	93.69
373.835	70.69
374.061	89.69
374.287	89.69
374.513	82.69
374.739	95.69
374.965	87.69
375.191	86.69
375.416	106.69
375.642	95.69
375.868	88.69
376.094	102.69
376.319	81.69
376.545	86.69
376.771	89.69
376.997	89.69
377.222	101.69
377.448	96.69
377.674	91.69
377.899	89.69
378.125	101.69
378.35	104.69
378.576	87.69
378.802	97.69
379.027	88.69
379.253	92.69
379.478	92.69
379.704	91.69
379.929	93.69
380.155	90.69
380.38	89.69
380.606	91.69
380.831	101.69
381.057	113.69
381.282	83.69
381.507	87.69
381.733	97.69
381.958	107.69
382.184	87.69
382.409	95.69
382.634	93.69
382.86	95.69
383.085	99.69
383.31	81.69
383.535	96.69
383.761	96.69
383.986	115.69
384.211	99.69
384.436	101.69
384.662	87.69
384.887	91.69
385.112	87.69
385.337	103.69
385.562	101.69
385.787	103.69
386.013	99.69
386.238	98.69
386.463	96.69
386.688	103.69
386.913	101.69
387.138	96.69
387.363	96.69
387.588	102.69
387.813	103.69
388.038	96.69
388.263	123.69
388.488	95.69
388.713	101.69
388.938	85.69
389.163	84.69
389.387	91.69
389.612	89.69
389.837	87.69
390.062	84.69
390.287	88.69
390.512	83.69
390.736	83.69
390.961	82.69
391.186	92.69
391.411	93.69
391.636	96.69
391.86	84.69
392.085	87.69
392.31	91.69
392.534	82.69
392.759	88.69
392.984	80.69
393.208	80.69
393.433	70.69
393.658	91.69
393.882	93.69
394.107	81.69
394.331	75.69
394.556	93.69
394.78	88.69
395.005	88.69
395.229	86.69
395.454	88.69
395.678	87.69
395.903	73.69
396.127	82.69
396.352	83.69
396.576	74.69
396.801	94.69
397.025	85.69
397.249	85.69
397.474	84.69
397.698	72.69
397.922	83.69
398.147	67.69
398.371	88.69
398.595	80.69
398.82	81.69
399.044	98.69
399.268	85.69
399.492	88.69
399.717	94.69
399.941	86.69
400.165	92.69
400.389	71.69
400.613	78.69
400.837	70.69
401.062	85.69
401.286	87.69
401.51	80.69
401.734	92.69
401.958	96.69
402.182	124.69
402.406	173.69
402.63	129.69
402.854	98.69
403.078	86.69
403.302	98.69
403.526	100.69
403.75	84.69
403.974	78.69
404.198	90.69
404.422	96.69
404.645	89.69
404.869	87.69
405.093	80.69
405.317	101.69
405.541	86.69
405.765	98.69
405.988	124.69
406.212	167.69
406.436	232.69
406.66	141.69
406.883	88.69
407.107	93.69
407.331	82.69
407.555	95.69
407.778	95.69
408.002	85.69
408.226	95.69
408.449	97.69
408.673	93.69
408.896	83.69
409.12	91.69
409.344	74.69
409.567	81.69
409.791	91.69
410.014	102.69
410.238	83.69
410.461	87.69
410.685	91.69
410.908	87.69
411.132	103.69
411.355	104.69
411.578	87.69
411.802	76.69
412.025	78.69
412.249	101.69
412.472	80.69
412.695	85.69
412.919	69.69
413.142	76.69
413.365	93.69
413.589	88.69
413.812	88.69
414.035	90.69
414.258	103.69
414.482	82.69
414.705	78.69
414.928	94.69
415.151	89.69
415.374	95.69
415.597	96.69
415.821	88.69
416.044	91.69
416.267	82.69
416.49	96.69
416.713	83.69
416.936	89.69
417.159	80.69
417.382	94.69
417.605	85.69
417.828	78.69
418.051	86.69
418.274	104.69
418.497	86.69
418.72	86.69
418.943	97.69
419.166	75.69
419.389	76.69
419.611	73.69
419.834	97.69
420.057	86.69
420.28	80.69
420.503	91.69
420.726	97.69
420.948	101.69
421.171	93.69
421.394	81.69
421.617	92.69
421.839	80.69
422.062	90.69
422.285	97.69
422.507	102.69
422.73	99.69
422.953	86.69
423.175	85.69
423.398	92.69
423.621	108.69
423.843	90.69
424.066	76.69
424.288	66.69
424.511	88.69
424.733	94.69
424.956	97.69
425.178	83.69
425.401	92.69
425.623	96.69
425.846	98.69
426.068	95.69
426.291	87.69
426.513	89.69
426.735	97.69
426.958	102.69
427.18	95.69
427.402	133.69
427.625	168.69
427.847	110.69
428.069	106.69
428.292	81.69
428.514	88.69
428.736	83.69
428.958	80.69
429.181	76.69
429.403	83.69
429.625	88.69
429.847	96.69
430.069	82.69
430.292	92.69
430.514	81.69
430.736	91.69
430.958	81.69
431.18	88.69
431.402	85.69
431.624	75.69
431.846	94.69
432.068	72.69
432.29	81.69
432.512	83.69
432.734	98.69
432.956	75.69
433.178	96.69
433.4	111.69
433.622	91.69
433.844	95.69
434.066	93.69
434.287	92.69
434.509	86.69
434.731	80.69
434.953	84.69
435.175	80.69
435.397	93.69
435.618	82.69
435.84	96.69
436.062	130.69
436.284	126.69
436.505	102.69
436.727	111.69
436.949	86.69
437.17	93.69
437.392	96.69
437.614	86.69
437.835	99.69
438.057	100.69
438.278	107.69
438.5	99.69
438.721	109.69
438.943	114.69
439.165	81.69
439.386	91.69
439.608	87.69
439.829	94.69
440.05	121.69
440.272	141.69
440.493	101.69
440.715	86.69
440.936	93.69
441.158	77.69
441.379	77.69
441.6	89.69
441.822	76.69
442.043	94.69
442.264	104.69
442.486	95.69
442.707	94.69
442.928	114.69
443.149	125.69
443.371	110.69
443.592	101.69
443.813	100.69
444.034	109.69
444.255	93.69
444.476	90.69
444.698	81.69
444.919	78.69
445.14	141.69
445.361	125.69
445.582	112.69
445.803	133.69
446.024	137.69
446.245	131.69
446.466	128.69
446.687	89.69
446.908	99.69
447.129	100.69
447.35	85.69
447.571	86.69
447.792	93.69
448.013	90.69
448.234	105.69
448.455	97.69
448.675	110.69
448.896	131.69
449.117	97.69
449.338	109.69
449.559	123.69
449.779	118.69
450	97.69
450.221	85.69
450.442	80.69
450.662	97.69
450.883	99.69
451.104	110.69
451.324	86.69
451.545	84.69
451.766	84.69
451.986	93.69
452.207	82.69
452.428	82.69
452.648	88.69
452.869	119.69
453.089	104.69
453.31	97.69
453.53	102.69
453.751	66.69
453.971	97.69
454.192	121.69
454.412	99.69
454.633	70.69
454.853	82.69
455.073	82.69
455.294	91.69
455.514	92.69
455.734	100.69
455.955	88.69
456.175	88.69
456.395	70.69
456.616	75.69
456.836	72.69
457.056	82.69
457.276	76.69
457.497	83.69
457.717	87.69
457.937	102.69
458.157	89.69
458.377	92.69
458.598	92.69
458.818	143.69
459.038	154.69
459.258	112.69
459.478	94.69
459.698	80.69
459.918	71.69
460.138	85.69
460.358	88.69
460.578	78.69
460.798	69.69
461.018	93.69
461.238	83.69
461.458	85.69
461.678	77.69
461.898	85.69
462.118	75.69
462.338	93.69
462.558	84.69
462.777	81.69
462.997	75.69
463.217	73.69
463.437	105.69
463.657	83.69
463.876	83.69
464.096	95.69
464.316	81.69
464.536	90.69
464.755	89.69
464.975	111.69
465.195	154.69
465.414	142.69
465.634	95.69
465.854	85.69
466.073	91.69
466.293	81.69
466.512	88.69
466.732	74.69
466.951	91.69
467.171	82.69
467.391	89.69
467.61	100.69
467.829	93.69
468.049	86.69
468.268	92.69
468.488	81.69
468.707	82.69
468.927	88.69
469.146	88.69
469.365	77.69
469.585	88.69
469.804	85.69
470.023	99.69
470.243	102.69
470.462	81.69
470.681	102.69
470.901	93.69
471.12	80.69
471.339	97.69
471.558	91.69
471.777	91.69
471.997	90.69
472.216	78.69
472.435	96.69
472.654	79.69
472.873	67.69
473.092	66.69
473.311	90.69
473.53	82.69
473.749	95.69
473.968	88.69
474.187	101.69
474.406	93.69
474.625	89.69
474.844	83.69
475.063	99.69
475.282	82.69
475.501	79.69
475.72	85.69
475.939	83.69
476.158	73.69
476.377	79.69
476.596	85.69
476.814	89.69
477.033	87.69
477.252	94.69
477.471	94.69
477.69	101.69
477.908	81.69
478.127	89.69
478.346	97.69
478.564	79.69
478.783	93.69
479.002	85.69
479.22	94.69
479.439	98.69
479.658	113.69
479.876	92.69
480.095	85.69
480.313	93.69
480.532	85.69
480.751	83.69
480.969	103.69
481.188	79.69
481.406	87.69
481.624	94.69
481.843	88.69
482.061	92.69
482.28	90.69
482.498	81.69
482.717	74.69
482.935	78.69
483.153	88.69
483.372	98.69
483.59	100.69
483.808	88.69
484.027	96.69
484.245	87.69
484.463	89.69
484.681	87.69
484.9	97.69
485.118	90.69
485.336	87.69
485.554	111.69
485.772	95.69
485.99	97.69
486.209	98.69
486.427	105.69
486.645	101.69
486.863	97.69
487.081	100.69
487.299	87.69
487.517	93.69
487.735	91.69
487.953	91.69
488.171	81.69
488.389	88.69
488.607	94.69
488.825	90.69
489.043	92.69
489.261	89.69
489.479	97.69
489.696	92.69
489.914	84.69
490.132	75.69
490.35	96.69
490.568	90.69
490.786	98.69
491.003	83.69
491.221	89.69
491.439	72.69
491.657	90.69
491.874	88.69
492.092	94.69
492.31	97.69
492.527	91.69
492.745	91.69
492.963	81.69
493.18	91.69
493.398	95.69
493.615	88.69
493.833	79.69
494.05	89.69
494.268	94.69
494.485	91.69
494.703	87.69
494.92	71.69
495.138	91.69
495.355	99.69
495.573	83.69
495.79	77.69
496.008	82.69
496.225	95.69
496.442	83.69
496.66	86.69
496.877	97.69
497.094	82.69
497.312	98.69
497.529	89.69
497.746	94.69
497.963	88.69
498.181	88.69
498.398	87.69
498.615	118.69
498.832	102.69
499.049	89.69
499.267	89.69
499.484	80.69
499.701	92.69
499.918	75.69
500.135	87.69
500.352	85.69
500.569	87.69
500.786	100.69
501.003	84.69
501.22	78.69
501.437	80.69
501.654	97.69
501.871	100.69
502.088	92.69
502.305	91.69
502.522	90.69
502.739	88.69
502.956	80.69
503.172	81.69
503.389	90.69
503.606	102.69
503.823	87.69
504.04	95.69
504.256	76.69
504.473	88.69
504.69	82.69
504.907	98.69
505.123	85.69
505.34	85.69
505.557	95.69
505.773	89.69
505.99	93.69
506.207	64.69
506.423	80.69
506.64	75.69
506.856	84.69
507.073	92.69
507.289	87.69
507.506	86.69
507.722	102.69
507.939	115.69
508.155	84.69
508.372	81.69
508.588	85.69
508.805	98.69
509.021	91.69
509.238	103.69
509.454	96.69
509.67	94.69
509.887	102.69
510.103	121.69
510.319	216.69
510.536	827.69
510.752	2559.69
510.968	719.69
511.184	162.69
511.401	130.69
511.617	89.69
511.833	81.69
512.049	81.69
512.265	96.69
512.481	88.69
512.698	91.69
512.914	92.69
513.13	104.69
513.346	93.69
513.562	82.69
513.778	93.69
513.994	76.69
514.21	102.69
514.426	112.69
514.642	139.69
514.858	111.69
515.074	169.69
515.29	462.69
515.506	1569.69
515.721	569.69
515.937	155.69
516.153	124.69
516.369	82.69
516.585	82.69
