Data from Uncirc_2007_H10_HRD10591_00022.txt Node
Date: Wed Jan 03 10:20:47 EST 2024
User: Yrep
Spectrometer: HR+D1059
Trigger mode: 1
Integration Time (sec): 1.000000E-1
Scans to average: 1
Electric dark correction enabled: true
Nonlinearity correction enabled: false
Boxcar width: 0
XAxis mode: Wavelengths
Number of Pixels in Spectrum: 2048
>>>>>Begin Spectral Data<<<<<
223.165	-21.56
223.4	-21.56
223.635	-21.56
223.869	-26.56
224.104	-22.56
224.338	-18.56
224.573	-17.56
224.808	-15.56
225.042	1.44
225.277	2.44
225.511	-8.56
225.746	7.44
225.98	5.44
226.215	10.44
226.449	21.44
226.683	11.44
226.918	33.44
227.152	37.44
227.387	30.44
227.621	29.44
227.856	34.44
228.09	38.44
228.324	39.44
228.559	55.44
228.793	165.44
229.027	435.44
229.262	531.44
229.496	615.44
229.73	815.44
229.964	814.44
230.199	547.44
230.433	493.44
230.667	464.44
230.901	466.44
231.136	440.44
231.37	451.44
231.604	455.44
231.838	458.44
232.072	458.44
232.306	462.44
232.541	485.44
232.775	476.44
233.009	466.44
233.243	481.44
233.477	495.44
233.711	485.44
233.945	504.44
234.179	489.44
234.413	508.44
234.647	509.44
234.881	518.44
235.115	526.44
235.349	554.44
235.583	526.44
235.817	591.44
236.051	617.44
236.285	617.44
236.519	625.44
236.753	722.44
236.987	913.44
237.221	1427.44
237.455	1560.44
237.689	925.44
237.922	759.44
238.156	737.44
238.39	699.44
238.624	665.44
238.858	666.44
239.091	653.44
239.325	680.44
239.559	677.44
239.793	713.44
240.027	764.44
240.26	935.44
240.494	967.44
240.728	974.44
240.961	930.44
241.195	838.44
241.429	774.44
241.662	796.44
241.896	767.44
242.13	769.44
242.363	778.44
242.597	803.44
242.83	830.44
243.064	822.44
243.298	812.44
243.531	801.44
243.765	825.44
243.998	836.44
244.232	844.44
244.465	891.44
244.699	914.44
244.932	927.44
245.166	900.44
245.399	910.44
245.633	896.44
245.866	879.44
246.099	924.44
246.333	953.44
246.566	942.44
246.8	959.44
247.033	1027.44
247.266	1048.44
247.5	1110.44
247.733	1171.44
247.966	1211.44
248.2	1135.44
248.433	1159.44
248.666	1226.44
248.899	1363.44
249.133	1483.44
249.366	1454.44
249.599	1323.44
249.832	1224.44
250.066	1181.44
250.299	1283.44
250.532	1303.44
250.765	1530.44
250.998	1712.44
251.231	1653.44
251.465	1514.44
251.698	1457.44
251.931	1435.44
252.164	1406.44
252.397	1443.44
252.63	1490.44
252.863	1570.44
253.096	1709.44
253.329	1793.44
253.562	1728.44
253.795	1569.44
254.028	1586.44
254.261	1648.44
254.494	1845.44
254.727	2258.44
254.96	2309.44
255.193	2058.44
255.426	1805.44
255.659	1644.44
255.892	1596.44
256.124	1539.44
256.357	1532.44
256.59	1527.44
256.823	1501.44
257.056	1506.44
257.289	1546.44
257.521	1529.44
257.754	1555.44
257.987	1537.44
258.22	1535.44
258.452	1570.44
258.685	1571.44
258.918	1617.44
259.151	1623.44
259.383	1705.44
259.616	1734.44
259.849	1815.44
260.081	1963.44
260.314	2121.44
260.547	2060.44
260.779	1882.44
261.012	1799.44
261.244	1703.44
261.477	1694.44
261.71	1723.44
261.942	1791.44
262.175	1820.44
262.407	1752.44
262.64	1669.44
262.872	1677.44
263.105	1660.44
263.337	1669.44
263.57	1681.44
263.802	1675.44
264.035	1690.44
264.267	1684.44
264.499	1651.44
264.732	1705.44
264.964	1714.44
265.197	1709.44
265.429	1725.44
265.661	1751.44
265.894	1727.44
266.126	1742.44
266.358	1745.44
266.591	1791.44
266.823	1862.44
267.055	1914.44
267.287	1883.44
267.52	1886.44
267.752	1839.44
267.984	1878.44
268.216	1903.44
268.448	1953.44
268.681	1994.44
268.913	2184.44
269.145	2392.44
269.377	2458.44
269.609	2358.44
269.841	2283.44
270.073	2408.44
270.306	2751.44
270.538	2957.44
270.77	2765.44
271.002	2573.44
271.234	2495.44
271.466	2717.44
271.698	2824.44
271.93	2843.44
272.162	2831.44
272.394	2730.44
272.626	2573.44
272.858	2421.44
273.09	2335.44
273.322	2337.44
273.553	2224.44
273.785	2288.44
274.017	2269.44
274.249	2250.44
274.481	2257.44
274.713	2306.44
274.945	2318.44
275.176	2338.44
275.408	2271.44
275.64	2278.44
275.872	2240.44
276.104	2321.44
276.335	2307.44
276.567	2415.44
276.799	2586.44
277.031	2819.44
277.262	2898.44
277.494	2811.44
277.726	2642.44
277.957	2501.44
278.189	2433.44
278.421	2360.44
278.652	2394.44
278.884	2363.44
279.115	2380.44
279.347	2376.44
279.579	2393.44
279.81	2350.44
280.042	2328.44
280.273	2400.44
280.505	2415.44
280.736	2397.44
280.968	2426.44
281.199	2420.44
281.431	2457.44
281.662	2434.44
281.894	2492.44
282.125	2562.44
282.356	2714.44
282.588	2848.44
282.819	2699.44
283.051	2547.44
283.282	2513.44
283.513	2562.44
283.745	2647.44
283.976	2677.44
284.207	2695.44
284.439	2656.44
284.67	2670.44
284.901	2644.44
285.132	2649.44
285.364	2680.44
285.595	2669.44
285.826	2685.44
286.057	2694.44
286.288	2651.44
286.52	2681.44
286.751	2649.44
286.982	2734.44
287.213	2787.44
287.444	2739.44
287.675	2841.44
287.906	2967.44
288.138	3009.44
288.369	2910.44
288.6	2940.44
288.831	2911.44
289.062	2862.44
289.293	2863.44
289.524	2803.44
289.755	2825.44
289.986	2807.44
290.217	2806.44
290.448	2791.44
290.679	2811.44
290.91	2795.44
291.141	2854.44
291.371	2822.44
291.602	2810.44
291.833	2800.44
292.064	2843.44
292.295	2873.44
292.526	2835.44
292.757	2864.44
292.987	2832.44
293.218	2826.44
293.449	2881.44
293.68	2826.44
293.91	2846.44
294.141	2851.44
294.372	2833.44
294.603	2913.44
294.833	2897.44
295.064	2884.44
295.295	2895.44
295.525	2876.44
295.756	2973.44
295.987	3046.44
296.217	3229.44
296.448	3116.44
296.679	2951.44
296.909	2966.44
297.14	2949.44
297.37	3042.44
297.601	3068.44
297.831	3085.44
298.062	3077.44
298.292	3122.44
298.523	3147.44
298.753	3174.44
298.984	3091.44
299.214	3145.44
299.445	3123.44
299.675	3169.44
299.905	3254.44
300.136	3138.44
300.366	3165.44
300.597	3243.44
300.827	3319.44
301.057	3363.44
301.288	3449.44
301.518	3357.44
301.748	3375.44
301.979	3411.44
302.209	3425.44
302.439	3416.44
302.669	3357.44
302.9	3315.44
303.13	3259.44
303.36	3361.44
303.59	3355.44
303.82	3459.44
304.051	3437.44
304.281	3320.44
304.511	3259.44
304.741	3313.44
304.971	3298.44
305.201	3249.44
305.431	3279.44
305.661	3305.44
305.891	3293.44
306.121	3298.44
306.352	3375.44
306.582	3337.44
306.812	3237.44
307.042	3336.44
307.272	3345.44
307.502	3273.44
307.731	3317.44
307.961	3238.44
308.191	3331.44
308.421	3321.44
308.651	3362.44
308.881	3340.44
309.111	3369.44
309.341	3437.44
309.571	3496.44
309.8	3554.44
310.03	3608.44
310.26	3641.44
310.49	3658.44
310.72	3744.44
310.949	3926.44
311.179	3829.44
311.409	3645.44
311.639	3627.44
311.868	3697.44
312.098	3727.44
312.328	3790.44
312.557	4008.44
312.787	4082.44
313.017	3995.44
313.246	3832.44
313.476	3793.44
313.706	3807.44
313.935	3926.44
314.165	3997.44
314.394	4055.44
314.624	3952.44
314.853	3885.44
315.083	3829.44
315.312	3800.44
315.542	3729.44
315.771	3721.44
316.001	3703.44
316.23	3697.44
316.46	3731.44
316.689	3780.44
316.919	3813.44
317.148	3835.44
317.377	3817.44
317.607	3741.44
317.836	3758.44
318.065	3746.44
318.295	3744.44
318.524	3741.44
318.753	3687.44
318.983	3710.44
319.212	3694.44
319.441	3755.44
319.67	3779.44
319.9	3710.44
320.129	3660.44
320.358	3754.44
320.587	3805.44
320.816	3884.44
321.046	3912.44
321.275	3921.44
321.504	3894.44
321.733	3898.44
321.962	3948.44
322.191	4073.44
322.42	4192.44
322.649	4240.44
322.878	4324.44
323.108	4385.44
323.337	4617.44
323.566	4783.44
323.795	5140.44
324.024	5837.44
324.253	7747.44
324.482	11764.44
324.71	15603.44
324.939	15603.44
325.168	13618.44
325.397	6809.44
325.626	5461.44
325.855	4972.44
326.084	4818.44
326.313	4818.44
326.542	5057.44
326.77	5793.44
326.999	7456.44
327.228	11053.44
327.457	14904.44
327.686	14107.44
327.914	7540.44
328.143	5993.44
328.372	5578.44
328.6	5367.44
328.829	5341.44
329.058	5503.44
329.287	5403.44
329.515	5013.44
329.744	4829.44
329.972	4781.44
330.201	4956.44
330.43	5201.44
330.658	5548.44
330.887	5915.44
331.115	5405.44
331.344	5048.44
331.572	5010.44
331.801	5058.44
332.03	5006.44
332.258	4969.44
332.486	5013.44
332.715	5053.44
332.943	5207.44
333.172	5279.44
333.4	5470.44
333.629	5520.44
333.857	5612.44
334.085	5550.44
334.314	5410.44
334.542	5366.44
334.771	5331.44
334.999	5302.44
335.227	5228.44
335.455	5214.44
335.684	5070.44
335.912	5141.44
336.14	4993.44
336.369	4994.44
336.597	5068.44
336.825	4982.44
337.053	4898.44
337.281	4841.44
337.51	4800.44
337.738	4752.44
337.966	4693.44
338.194	4752.44
338.422	4634.44
338.65	4584.44
338.878	4575.44
339.106	4638.44
339.334	4619.44
339.562	4550.44
339.79	4434.44
340.018	4483.44
340.246	4414.44
340.474	4529.44
340.702	4499.44
340.93	4447.44
341.158	4402.44
341.386	4530.44
341.614	4472.44
341.842	4399.44
342.07	4348.44
342.298	4338.44
342.526	4393.44
342.754	4365.44
342.981	4354.44
343.209	4458.44
343.437	4687.44
343.665	4938.44
343.893	5182.44
344.12	5191.44
344.348	4944.44
344.576	4887.44
344.804	4845.44
345.031	4825.44
345.259	4691.44
345.487	4510.44
345.714	4349.44
345.942	4218.44
346.17	4239.44
346.397	4236.44
346.625	4289.44
346.853	4247.44
347.08	4278.44
347.308	4314.44
347.535	4397.44
347.763	4397.44
347.99	4320.44
348.218	4347.44
348.445	4395.44
348.673	4346.44
348.9	4208.44
349.128	4184.44
349.355	4145.44
349.583	4112.44
349.81	4137.44
350.037	4114.44
350.265	4111.44
350.492	4104.44
350.72	4167.44
350.947	4207.44
351.174	4250.44
351.402	4242.44
351.629	4280.44
351.856	4265.44
352.083	4249.44
352.311	4341.44
352.538	4347.44
352.765	4294.44
352.992	4229.44
353.22	4202.44
353.447	4133.44
353.674	4053.44
353.901	4035.44
354.128	4017.44
354.355	4048.44
354.583	4066.44
354.81	3984.44
355.037	3986.44
355.264	4031.44
355.491	3984.44
355.718	3968.44
355.945	4001.44
356.172	3993.44
356.399	3994.44
356.626	4002.44
356.853	4042.44
357.08	4012.44
357.307	3982.44
357.534	4018.44
357.761	4003.44
357.988	3987.44
358.215	4019.44
358.441	4050.44
358.668	4063.44
358.895	4105.44
359.122	4159.44
359.349	4243.44
359.576	4381.44
359.802	4562.44
360.029	4683.44
360.256	4652.44
360.483	4516.44
360.709	4310.44
360.936	4259.44
361.163	4276.44
361.39	4320.44
361.616	4270.44
361.843	4302.44
362.07	4277.44
362.296	4229.44
362.523	4217.44
362.749	4248.44
362.976	4211.44
363.203	4147.44
363.429	4119.44
363.656	4168.44
363.882	4110.44
364.109	4103.44
364.335	4061.44
364.562	4115.44
364.788	4063.44
365.015	4090.44
365.241	4088.44
365.468	4102.44
365.694	4165.44
365.92	4175.44
366.147	4098.44
366.373	4076.44
366.599	4073.44
366.826	4020.44
367.052	4030.44
367.278	4095.44
367.505	4083.44
367.731	4170.44
367.957	4102.44
368.184	4189.44
368.41	4272.44
368.636	4279.44
368.862	4375.44
369.089	4221.44
369.315	4155.44
369.541	4153.44
369.767	4229.44
369.993	4211.44
370.219	4209.44
370.445	4221.44
370.672	4320.44
370.898	4340.44
371.124	4319.44
371.35	4381.44
371.576	4355.44
371.802	4315.44
372.028	4338.44
372.254	4353.44
372.48	4365.44
372.706	4506.44
372.932	4478.44
373.158	4468.44
373.384	4425.44
373.61	4359.44
373.835	4380.44
374.061	4398.44
374.287	4526.44
374.513	4574.44
374.739	4730.44
374.965	4806.44
375.191	4793.44
375.416	4691.44
375.642	4536.44
375.868	4530.44
376.094	4535.44
376.319	4412.44
376.545	4441.44
376.771	4422.44
376.997	4451.44
377.222	4456.44
377.448	4415.44
377.674	4341.44
377.899	4334.44
378.125	4327.44
378.35	4294.44
378.576	4294.44
378.802	4232.44
379.027	4385.44
379.253	4387.44
379.478	4335.44
379.704	4309.44
379.929	4385.44
380.155	4335.44
380.38	4349.44
380.606	4345.44
380.831	4413.44
381.057	4395.44
381.282	4386.44
381.507	4407.44
381.733	4433.44
381.958	4453.44
382.184	4500.44
382.409	4586.44
382.634	4587.44
382.86	4635.44
383.085	4656.44
383.31	4763.44
383.535	4770.44
383.761	4865.44
383.986	4909.44
384.211	5006.44
384.436	5042.44
384.662	5101.44
384.887	5212.44
385.112	5174.44
385.337	5220.44
385.562	5266.44
385.787	5292.44
386.013	5474.44
386.238	5359.44
386.463	5321.44
386.688	5351.44
386.913	5240.44
387.138	5233.44
387.363	5249.44
387.588	5143.44
387.813	5235.44
388.038	5176.44
388.263	5189.44
388.488	5210.44
388.713	5129.44
388.938	5229.44
389.163	5133.44
389.387	5163.44
389.612	5073.44
389.837	5166.44
390.062	5110.44
390.287	5228.44
390.512	5152.44
390.736	5171.44
390.961	5335.44
391.186	5308.44
391.411	5562.44
391.636	5663.44
391.86	5854.44
392.085	5768.44
392.31	5760.44
392.534	5634.44
392.759	5564.44
392.984	5471.44
393.208	5395.44
393.433	5360.44
393.658	5399.44
393.882	5445.44
394.107	5442.44
394.331	5482.44
394.556	5492.44
394.78	5566.44
395.005	5587.44
395.229	5568.44
395.454	5767.44
395.678	5938.44
395.903	5933.44
396.127	5994.44
396.352	5781.44
396.576	5620.44
396.801	5553.44
397.025	5624.44
397.249	5736.44
397.474	5825.44
397.698	5865.44
397.922	6048.44
398.147	6223.44
398.371	6242.44
398.595	6349.44
398.82	6632.44
399.044	7225.44
399.268	7982.44
399.492	9109.44
399.717	9615.44
399.941	9441.44
400.165	8862.44
400.389	8252.44
400.613	7334.44
400.837	6928.44
401.062	6824.44
401.286	6668.44
401.51	6583.44
401.734	6544.44
401.958	6743.44
402.182	6824.44
402.406	6979.44
402.63	7029.44
402.854	7001.44
403.078	7140.44
403.302	7381.44
403.526	7342.44
403.75	7443.44
403.974	7481.44
404.198	7519.44
404.422	7578.44
404.645	7474.44
404.869	7350.44
405.093	7437.44
405.317	7567.44
405.541	7617.44
405.765	7365.44
405.988	7262.44
406.212	7537.44
406.436	7655.44
406.66	7854.44
406.883	7866.44
407.107	8546.44
407.331	8951.44
407.555	9589.44
407.778	9233.44
408.002	8378.44
408.226	7962.44
408.449	7914.44
408.673	7707.44
408.896	7833.44
409.12	8067.44
409.344	7583.44
409.567	7289.44
409.791	7280.44
410.014	7116.44
410.238	6994.44
410.461	7069.44
410.685	7113.44
410.908	7203.44
411.132	7457.44
411.355	7466.44
411.578	7155.44
411.802	6813.44
412.025	6738.44
412.249	6814.44
412.472	6829.44
412.695	6607.44
412.919	6497.44
413.142	6514.44
413.365	6411.44
413.589	6532.44
413.812	6417.44
414.035	6369.44
414.258	6353.44
414.482	6440.44
414.705	6549.44
414.928	6565.44
415.151	6514.44
415.374	6517.44
415.597	6359.44
415.821	6341.44
416.044	6332.44
416.267	6293.44
416.49	6273.44
416.713	6327.44
416.936	6389.44
417.159	6393.44
417.382	6435.44
417.605	6435.44
417.828	6602.44
418.051	6665.44
418.274	6617.44
418.497	6421.44
418.72	6609.44
418.943	6530.44
419.166	7049.44
419.389	7367.44
419.611	7269.44
419.834	6896.44
420.057	6859.44
420.28	6624.44
420.503	6541.44
420.726	6459.44
420.948	6743.44
421.171	7138.44
421.394	7102.44
421.617	6704.44
421.839	6589.44
422.062	6616.44
422.285	6857.44
422.507	7490.44
422.73	8059.44
422.953	7465.44
423.175	7103.44
423.398	7054.44
423.621	7108.44
423.843	7461.44
424.066	7352.44
424.288	7225.44
424.511	7433.44
424.733	7947.44
424.956	8446.44
425.178	7968.44
425.401	8008.44
425.623	7957.44
425.846	6880.44
426.068	6836.44
426.291	6596.44
426.513	6609.44
426.735	6825.44
426.958	7370.44
427.18	8047.44
427.402	9183.44
427.625	9365.44
427.847	7697.44
428.069	6946.44
428.292	6526.44
428.514	6240.44
428.736	6071.44
428.958	6049.44
429.181	5907.44
429.403	5874.44
429.625	6096.44
429.847	6430.44
430.069	6969.44
430.292	6540.44
430.514	5974.44
430.736	5934.44
430.958	5848.44
431.18	5698.44
431.402	5746.44
431.624	5737.44
431.846	5782.44
432.068	5818.44
432.29	5894.44
432.512	5793.44
432.734	5938.44
432.956	5871.44
433.178	5978.44
433.4	5909.44
433.622	5734.44
433.844	5855.44
434.066	5806.44
434.287	5944.44
434.509	6203.44
434.731	6446.44
434.953	6636.44
435.175	6720.44
435.397	6751.44
435.618	6743.44
435.84	7159.44
436.062	8111.44
436.284	7883.44
436.505	6741.44
436.727	6418.44
436.949	6189.44
437.17	5980.44
437.392	5987.44
437.614	6077.44
437.835	6502.44
438.057	7553.44
438.278	8174.44
438.5	8121.44
438.721	8919.44
438.943	7857.44
439.165	6652.44
439.386	6338.44
439.608	6447.44
439.829	6476.44
440.05	6923.44
440.272	7187.44
440.493	6574.44
440.715	6285.44
440.936	6272.44
441.158	6291.44
441.379	6360.44
441.6	6725.44
441.822	7004.44
442.043	7418.44
442.264	8166.44
442.486	8012.44
442.707	7049.44
442.928	6941.44
443.149	7064.44
443.371	7229.44
443.592	7827.44
443.813	8873.44
444.034	8855.44
444.255	7745.44
444.476	7428.44
444.698	7661.44
444.919	7705.44
445.14	7551.44
445.361	7412.44
445.582	7548.44
445.803	8193.44
446.024	8926.44
446.245	8530.44
446.466	7602.44
446.687	6641.44
446.908	6367.44
447.129	5957.44
447.35	5716.44
447.571	5793.44
447.792	5643.44
448.013	5832.44
448.234	6010.44
448.455	6692.44
448.675	7991.44
448.896	8458.44
449.117	6972.44
449.338	7087.44
449.559	8543.44
449.779	8681.44
450	6726.44
450.221	5905.44
450.442	5704.44
450.662	5594.44
450.883	5755.44
451.104	5822.44
451.324	5637.44
451.545	5483.44
451.766	5306.44
451.986	5231.44
452.207	5197.44
452.428	5078.44
452.648	5112.44
452.869	5219.44
453.089	5309.44
453.31	5377.44
453.53	5245.44
453.751	5117.44
453.971	5145.44
454.192	5349.44
454.412	5074.44
454.633	4987.44
454.853	4990.44
455.073	5068.44
455.294	5451.44
455.514	6057.44
455.734	5536.44
455.955	4934.44
456.175	4777.44
456.395	4770.44
456.616	4693.44
456.836	4713.44
457.056	4689.44
457.276	4691.44
457.497	4825.44
457.717	4815.44
457.937	4821.44
458.157	4986.44
458.377	5085.44
458.598	5437.44
458.818	6203.44
459.038	7069.44
459.258	6830.44
459.478	5985.44
459.698	5857.44
459.918	5993.44
460.138	6123.44
460.358	6401.44
460.578	6311.44
460.798	6524.44
461.018	6444.44
461.238	6304.44
461.458	6295.44
461.678	6178.44
461.898	6456.44
462.118	6517.44
462.338	6828.44
462.558	6957.44
462.777	7195.44
462.997	7851.44
463.217	8171.44
463.437	7959.44
463.657	7395.44
463.876	7314.44
464.096	7279.44
464.316	7330.44
464.536	7279.44
464.755	7108.44
464.975	6974.44
465.195	7294.44
465.414	7291.44
465.634	6363.44
465.854	6050.44
466.073	5784.44
466.293	5614.44
466.512	5376.44
466.732	5271.44
466.951	5291.44
467.171	5257.44
467.391	5415.44
467.61	5384.44
467.829	5375.44
468.049	5263.44
468.268	5183.44
468.488	5051.44
468.707	5041.44
468.927	5035.44
469.146	5048.44
469.365	5109.44
469.585	5208.44
469.804	5389.44
470.023	5513.44
470.243	5474.44
470.462	5628.44
470.681	5721.44
470.901	5651.44
471.12	5484.44
471.339	5455.44
471.558	5327.44
471.777	5304.44
471.997	5126.44
472.216	5082.44
472.435	5072.44
472.654	5009.44
472.873	4979.44
473.092	5048.44
473.311	4965.44
473.53	5075.44
473.749	5217.44
473.968	5867.44
474.187	6925.44
474.406	6387.44
474.625	5395.44
474.844	5119.44
475.063	5044.44
475.282	5081.44
475.501	5177.44
475.72	5168.44
475.939	5286.44
476.158	5273.44
476.377	5250.44
476.596	5296.44
476.814	5431.44
477.033	5511.44
477.252	5560.44
477.471	5688.44
477.69	5810.44
477.908	5864.44
478.127	6002.44
478.346	6063.44
478.564	6130.44
478.783	6208.44
479.002	6390.44
479.22	6379.44
479.439	6464.44
479.658	6624.44
479.876	6675.44
480.095	6942.44
480.313	7294.44
480.532	7110.44
480.751	6991.44
480.969	6823.44
481.188	6695.44
481.406	6497.44
481.624	6366.44
481.843	6168.44
482.061	6029.44
482.28	6012.44
482.498	5971.44
482.717	5999.44
482.935	6022.44
483.153	5927.44
483.372	6009.44
483.59	5969.44
483.808	5957.44
484.027	5914.44
484.245	5953.44
484.463	6016.44
484.681	6169.44
484.9	6269.44
485.118	6266.44
485.336	6249.44
485.554	6314.44
485.772	6348.44
485.99	6349.44
486.209	6474.44
486.427	6407.44
486.645	6524.44
486.863	6602.44
487.081	6565.44
487.299	6418.44
487.517	6429.44
487.735	6343.44
487.953	6421.44
