Data from Uncirc_2007_H10_HRD10591_00090.txt Node
Date: Wed Jan 03 10:21:00 EST 2024
User: Yrep
Spectrometer: HR+D1059
Trigger mode: 1
Integration Time (sec): 1.000000E-1
Scans to average: 1
Electric dark correction enabled: true
Nonlinearity correction enabled: false
Boxcar width: 0
XAxis mode: Wavelengths
Number of Pixels in Spectrum: 2048
>>>>>Begin Spectral Data<<<<<
223.165	-22.5
223.4	-22.5
223.635	-22.5
223.869	-20.5
224.104	-11.5
224.338	-11.5
224.573	-11.5
224.808	-17.5
225.042	-17.5
225.277	-10.5
225.511	-5.5
225.746	9.5
225.98	19.5
226.215	0.5
226.449	9.5
226.683	30.5
226.918	28.5
227.152	30.5
227.387	21.5
227.621	40.5
227.856	54.5
228.09	46.5
228.324	58.5
228.559	70.5
228.793	65.5
229.027	77.5
229.262	73.5
229.496	78.5
229.73	78.5
229.964	72.5
230.199	74.5
230.433	83.5
230.667	70.5
230.901	96.5
231.136	92.5
231.37	82.5
231.604	92.5
231.838	80.5
232.072	76.5
232.306	85.5
232.541	79.5
232.775	94.5
233.009	94.5
233.243	91.5
233.477	78.5
233.711	98.5
233.945	80.5
234.179	74.5
234.413	72.5
234.647	73.5
234.881	77.5
235.115	73.5
235.349	85.5
235.583	83.5
235.817	65.5
236.051	77.5
236.285	73.5
236.519	77.5
236.753	71.5
236.987	64.5
237.221	77.5
237.455	86.5
237.689	77.5
237.922	64.5
238.156	78.5
238.39	78.5
238.624	67.5
238.858	72.5
239.091	81.5
239.325	79.5
239.559	74.5
239.793	86.5
240.027	86.5
240.26	84.5
240.494	86.5
240.728	85.5
240.961	84.5
241.195	82.5
241.429	94.5
241.662	71.5
241.896	85.5
242.13	81.5
242.363	85.5
242.597	69.5
242.83	74.5
243.064	77.5
243.298	80.5
243.531	70.5
243.765	76.5
243.998	95.5
244.232	84.5
244.465	86.5
244.699	86.5
244.932	84.5
245.166	92.5
245.399	77.5
245.633	68.5
245.866	77.5
246.099	73.5
246.333	84.5
246.566	74.5
246.8	77.5
247.033	87.5
247.266	70.5
247.5	85.5
247.733	72.5
247.966	81.5
248.2	76.5
248.433	89.5
248.666	75.5
248.899	86.5
249.133	77.5
249.366	116.5
249.599	107.5
249.832	99.5
250.066	72.5
250.299	70.5
250.532	74.5
250.765	79.5
250.998	73.5
251.231	85.5
251.465	76.5
251.698	81.5
251.931	77.5
252.164	73.5
252.397	89.5
252.63	89.5
252.863	84.5
253.096	79.5
253.329	86.5
253.562	85.5
253.795	83.5
254.028	86.5
254.261	83.5
254.494	84.5
254.727	74.5
254.96	93.5
255.193	81.5
255.426	90.5
255.659	76.5
255.892	81.5
256.124	91.5
256.357	81.5
256.59	106.5
256.823	97.5
257.056	85.5
257.289	72.5
257.521	79.5
257.754	83.5
257.987	82.5
258.22	94.5
258.452	76.5
258.685	81.5
258.918	93.5
259.151	85.5
259.383	94.5
259.616	88.5
259.849	80.5
260.081	91.5
260.314	81.5
260.547	67.5
260.779	81.5
261.012	80.5
261.244	90.5
261.477	85.5
261.71	102.5
261.942	117.5
262.175	129.5
262.407	83.5
262.64	77.5
262.872	75.5
263.105	91.5
263.337	107.5
263.57	90.5
263.802	78.5
264.035	83.5
264.267	84.5
264.499	77.5
264.732	81.5
264.964	69.5
265.197	80.5
265.429	100.5
265.661	75.5
265.894	90.5
266.126	79.5
266.358	86.5
266.591	78.5
266.823	86.5
267.055	80.5
267.287	83.5
267.52	83.5
267.752	83.5
267.984	83.5
268.216	88.5
268.448	93.5
268.681	82.5
268.913	85.5
269.145	90.5
269.377	91.5
269.609	73.5
269.841	89.5
270.073	77.5
270.306	89.5
270.538	88.5
270.77	82.5
271.002	92.5
271.234	82.5
271.466	84.5
271.698	87.5
271.93	94.5
272.162	82.5
272.394	88.5
272.626	89.5
272.858	83.5
273.09	100.5
273.322	99.5
273.553	82.5
273.785	95.5
274.017	75.5
274.249	76.5
274.481	86.5
274.713	69.5
274.945	81.5
275.176	96.5
275.408	97.5
275.64	82.5
275.872	74.5
276.104	85.5
276.335	86.5
276.567	102.5
276.799	107.5
277.031	106.5
277.262	86.5
277.494	87.5
277.726	96.5
277.957	90.5
278.189	86.5
278.421	87.5
278.652	95.5
278.884	84.5
279.115	87.5
279.347	91.5
279.579	95.5
279.81	79.5
280.042	83.5
280.273	81.5
280.505	87.5
280.736	94.5
280.968	83.5
281.199	84.5
281.431	79.5
281.662	78.5
281.894	109.5
282.125	91.5
282.356	116.5
282.588	144.5
282.819	113.5
283.051	83.5
283.282	74.5
283.513	74.5
283.745	84.5
283.976	86.5
284.207	88.5
284.439	86.5
284.67	90.5
284.901	70.5
285.132	94.5
285.364	86.5
285.595	84.5
285.826	96.5
286.057	96.5
286.288	94.5
286.52	81.5
286.751	87.5
286.982	97.5
287.213	76.5
287.444	86.5
287.675	90.5
287.906	86.5
288.138	97.5
288.369	101.5
288.6	92.5
288.831	81.5
289.062	81.5
289.293	84.5
289.524	88.5
289.755	79.5
289.986	82.5
290.217	83.5
290.448	90.5
290.679	79.5
290.91	101.5
291.141	97.5
291.371	99.5
291.602	98.5
291.833	100.5
292.064	92.5
292.295	94.5
292.526	87.5
292.757	81.5
292.987	95.5
293.218	85.5
293.449	78.5
293.68	83.5
293.91	86.5
294.141	97.5
294.372	93.5
294.603	83.5
294.833	83.5
295.064	90.5
295.295	93.5
295.525	77.5
295.756	98.5
295.987	116.5
296.217	143.5
296.448	130.5
296.679	108.5
296.909	93.5
297.14	100.5
297.37	100.5
297.601	92.5
297.831	86.5
298.062	107.5
298.292	81.5
298.523	95.5
298.753	99.5
298.984	92.5
299.214	79.5
299.445	105.5
299.675	91.5
299.905	106.5
300.136	99.5
300.366	94.5
300.597	99.5
300.827	106.5
301.057	99.5
301.288	114.5
301.518	107.5
301.748	81.5
301.979	92.5
302.209	80.5
302.439	96.5
302.669	89.5
302.9	85.5
303.13	81.5
303.36	95.5
303.59	90.5
303.82	95.5
304.051	114.5
304.281	90.5
304.511	102.5
304.741	93.5
304.971	85.5
305.201	98.5
305.431	81.5
305.661	100.5
305.891	78.5
306.121	96.5
306.352	97.5
306.582	105.5
306.812	99.5
307.042	84.5
307.272	96.5
307.502	107.5
307.731	101.5
307.961	90.5
308.191	98.5
308.421	100.5
308.651	80.5
308.881	90.5
309.111	97.5
309.341	98.5
309.571	98.5
309.8	92.5
310.03	95.5
310.26	97.5
310.49	93.5
310.72	108.5
310.949	113.5
311.179	102.5
311.409	98.5
311.639	89.5
311.868	73.5
312.098	85.5
312.328	85.5
312.557	101.5
312.787	108.5
313.017	110.5
313.246	94.5
313.476	93.5
313.706	81.5
313.935	93.5
314.165	93.5
314.394	95.5
314.624	92.5
314.853	82.5
315.083	111.5
315.312	89.5
315.542	91.5
315.771	95.5
316.001	89.5
316.23	86.5
316.46	97.5
316.689	88.5
316.919	84.5
317.148	105.5
317.377	91.5
317.607	105.5
317.836	94.5
318.065	89.5
318.295	95.5
318.524	102.5
318.753	89.5
318.983	103.5
319.212	95.5
319.441	106.5
319.67	115.5
319.9	91.5
320.129	90.5
320.358	98.5
320.587	94.5
320.816	101.5
321.046	95.5
321.275	100.5
321.504	82.5
321.733	98.5
321.962	106.5
322.191	95.5
322.42	100.5
322.649	114.5
322.878	114.5
323.108	113.5
323.337	135.5
323.566	144.5
323.795	149.5
324.024	233.5
324.253	442.5
324.482	924.5
324.71	1982.5
324.939	2567.5
325.168	905.5
325.397	267.5
325.626	147.5
325.855	127.5
326.084	132.5
326.313	151.5
326.542	166.5
326.77	255.5
326.999	511.5
327.228	1073.5
327.457	2004.5
327.686	1573.5
327.914	407.5
328.143	208.5
328.372	149.5
328.6	145.5
328.829	123.5
329.058	141.5
329.287	128.5
329.515	98.5
329.744	96.5
329.972	91.5
330.201	89.5
330.43	108.5
330.658	128.5
330.887	139.5
331.115	119.5
331.344	115.5
331.572	111.5
331.801	99.5
332.03	95.5
332.258	94.5
332.486	85.5
332.715	89.5
332.943	97.5
333.172	105.5
333.4	102.5
333.629	100.5
333.857	114.5
334.085	105.5
334.314	95.5
334.542	114.5
334.771	104.5
334.999	85.5
335.227	94.5
335.455	95.5
335.684	99.5
335.912	110.5
336.14	89.5
336.369	93.5
336.597	90.5
336.825	82.5
337.053	89.5
337.281	81.5
337.51	95.5
337.738	89.5
337.966	96.5
338.194	94.5
338.422	98.5
338.65	87.5
338.878	92.5
339.106	95.5
339.334	102.5
339.562	100.5
339.79	90.5
340.018	87.5
340.246	96.5
340.474	96.5
340.702	86.5
340.93	111.5
341.158	104.5
341.386	100.5
341.614	97.5
341.842	101.5
342.07	103.5
342.298	88.5
342.526	86.5
342.754	85.5
342.981	101.5
343.209	100.5
343.437	106.5
343.665	82.5
343.893	76.5
344.12	62.5
344.348	97.5
344.576	110.5
344.804	86.5
345.031	106.5
345.259	98.5
345.487	99.5
345.714	90.5
345.942	90.5
346.17	91.5
346.397	95.5
346.625	84.5
346.853	94.5
347.08	95.5
347.308	90.5
347.535	88.5
347.763	87.5
347.99	100.5
348.218	91.5
348.445	118.5
348.673	99.5
348.9	93.5
349.128	93.5
349.355	100.5
349.583	88.5
349.81	88.5
350.037	92.5
350.265	83.5
350.492	94.5
350.72	91.5
350.947	101.5
351.174	111.5
351.402	114.5
351.629	111.5
351.856	103.5
352.083	111.5
352.311	113.5
352.538	106.5
352.765	106.5
352.992	104.5
353.22	111.5
353.447	105.5
353.674	91.5
353.901	96.5
354.128	117.5
354.355	115.5
354.583	97.5
354.81	92.5
355.037	112.5
355.264	93.5
355.491	99.5
355.718	99.5
355.945	97.5
356.172	106.5
356.399	101.5
356.626	83.5
356.853	79.5
357.08	86.5
357.307	103.5
357.534	93.5
357.761	96.5
357.988	90.5
358.215	93.5
358.441	86.5
358.668	102.5
358.895	97.5
359.122	83.5
359.349	94.5
359.576	95.5
359.802	90.5
360.029	110.5
360.256	114.5
360.483	104.5
360.709	92.5
360.936	92.5
361.163	101.5
361.39	95.5
361.616	94.5
361.843	91.5
362.07	98.5
362.296	109.5
362.523	93.5
362.749	104.5
362.976	97.5
363.203	101.5
363.429	93.5
363.656	90.5
363.882	102.5
364.109	98.5
364.335	102.5
364.562	101.5
364.788	93.5
365.015	101.5
365.241	96.5
365.468	108.5
365.694	100.5
365.92	91.5
366.147	93.5
366.373	93.5
366.599	77.5
366.826	95.5
367.052	84.5
367.278	92.5
367.505	79.5
367.731	101.5
367.957	87.5
368.184	95.5
368.41	101.5
368.636	115.5
368.862	132.5
369.089	110.5
369.315	85.5
369.541	89.5
369.767	93.5
369.993	100.5
370.219	103.5
370.445	88.5
370.672	77.5
370.898	89.5
371.124	85.5
371.35	89.5
371.576	89.5
371.802	86.5
372.028	102.5
372.254	94.5
372.48	92.5
372.706	100.5
372.932	89.5
373.158	98.5
373.384	89.5
373.61	99.5
373.835	88.5
374.061	83.5
374.287	93.5
374.513	80.5
374.739	81.5
374.965	95.5
375.191	95.5
375.416	92.5
375.642	99.5
375.868	98.5
376.094	92.5
376.319	86.5
376.545	83.5
376.771	100.5
376.997	76.5
377.222	77.5
377.448	78.5
377.674	97.5
377.899	94.5
378.125	88.5
378.35	96.5
378.576	88.5
378.802	90.5
379.027	95.5
379.253	91.5
379.478	95.5
379.704	83.5
379.929	104.5
380.155	99.5
380.38	98.5
380.606	92.5
380.831	84.5
381.057	73.5
381.282	85.5
381.507	86.5
381.733	72.5
381.958	98.5
382.184	95.5
382.409	111.5
382.634	105.5
382.86	89.5
383.085	85.5
383.31	100.5
383.535	96.5
383.761	94.5
383.986	113.5
384.211	100.5
384.436	112.5
384.662	106.5
384.887	102.5
385.112	99.5
385.337	109.5
385.562	90.5
385.787	86.5
386.013	95.5
386.238	116.5
386.463	112.5
386.688	115.5
386.913	87.5
387.138	94.5
387.363	107.5
387.588	91.5
387.813	97.5
388.038	90.5
388.263	94.5
388.488	103.5
388.713	100.5
388.938	87.5
389.163	98.5
389.387	94.5
389.612	74.5
389.837	89.5
390.062	95.5
390.287	78.5
390.512	89.5
390.736	92.5
390.961	95.5
391.186	98.5
391.411	103.5
391.636	108.5
391.86	91.5
392.085	98.5
392.31	101.5
392.534	89.5
392.759	81.5
392.984	98.5
393.208	93.5
393.433	94.5
393.658	90.5
393.882	89.5
394.107	98.5
394.331	87.5
394.556	89.5
394.78	75.5
395.005	94.5
395.229	84.5
395.454	83.5
395.678	81.5
395.903	99.5
396.127	97.5
396.352	102.5
396.576	93.5
396.801	78.5
397.025	95.5
397.249	99.5
397.474	83.5
397.698	81.5
397.922	85.5
398.147	81.5
398.371	98.5
398.595	90.5
398.82	99.5
399.044	97.5
399.268	91.5
399.492	90.5
399.717	92.5
399.941	99.5
400.165	93.5
400.389	108.5
400.613	85.5
400.837	83.5
401.062	93.5
401.286	99.5
401.51	101.5
401.734	89.5
401.958	97.5
402.182	123.5
402.406	155.5
402.63	113.5
402.854	80.5
403.078	96.5
403.302	92.5
403.526	98.5
403.75	93.5
403.974	81.5
404.198	95.5
404.422	93.5
404.645	98.5
404.869	78.5
405.093	96.5
405.317	98.5
405.541	98.5
405.765	96.5
405.988	107.5
406.212	188.5
406.436	248.5
406.66	151.5
406.883	117.5
407.107	103.5
407.331	94.5
407.555	101.5
407.778	90.5
408.002	95.5
408.226	90.5
408.449	90.5
408.673	89.5
408.896	94.5
409.12	95.5
409.344	77.5
409.567	107.5
409.791	95.5
410.014	96.5
410.238	95.5
410.461	84.5
410.685	76.5
410.908	98.5
411.132	106.5
411.355	89.5
411.578	83.5
411.802	101.5
412.025	65.5
412.249	85.5
412.472	82.5
412.695	90.5
412.919	98.5
413.142	76.5
413.365	87.5
413.589	85.5
413.812	92.5
414.035	89.5
414.258	95.5
414.482	88.5
414.705	83.5
414.928	81.5
415.151	86.5
415.374	86.5
415.597	89.5
415.821	106.5
416.044	106.5
416.267	90.5
416.49	81.5
416.713	82.5
416.936	84.5
417.159	95.5
417.382	85.5
417.605	83.5
417.828	111.5
418.051	85.5
418.274	96.5
418.497	83.5
418.72	77.5
418.943	96.5
419.166	88.5
419.389	89.5
419.611	90.5
419.834	88.5
420.057	75.5
420.28	89.5
420.503	91.5
420.726	81.5
420.948	91.5
421.171	98.5
421.394	84.5
421.617	81.5
421.839	92.5
422.062	77.5
422.285	99.5
422.507	83.5
422.73	105.5
422.953	88.5
423.175	93.5
423.398	81.5
423.621	84.5
423.843	78.5
424.066	90.5
424.288	76.5
424.511	93.5
424.733	116.5
424.956	105.5
425.178	109.5
425.401	101.5
425.623	109.5
425.846	98.5
426.068	86.5
426.291	81.5
426.513	91.5
426.735	90.5
426.958	95.5
427.18	114.5
427.402	135.5
427.625	157.5
427.847	148.5
428.069	105.5
428.292	102.5
428.514	75.5
428.736	88.5
428.958	90.5
429.181	72.5
429.403	85.5
429.625	80.5
429.847	81.5
430.069	104.5
430.292	78.5
430.514	92.5
430.736	87.5
430.958	81.5
431.18	92.5
431.402	81.5
431.624	80.5
431.846	76.5
432.068	76.5
432.29	91.5
432.512	93.5
432.734	96.5
432.956	82.5
433.178	87.5
433.4	93.5
433.622	97.5
433.844	83.5
434.066	87.5
434.287	94.5
434.509	86.5
434.731	94.5
434.953	98.5
435.175	79.5
435.397	96.5
435.618	89.5
435.84	90.5
436.062	110.5
436.284	119.5
436.505	89.5
436.727	112.5
436.949	105.5
437.17	81.5
437.392	92.5
437.614	98.5
437.835	108.5
438.057	122.5
438.278	115.5
438.5	103.5
438.721	128.5
438.943	96.5
439.165	89.5
439.386	79.5
439.608	85.5
439.829	89.5
440.05	134.5
440.272	159.5
440.493	106.5
440.715	77.5
440.936	86.5
441.158	89.5
441.379	84.5
441.6	103.5
441.822	100.5
442.043	97.5
442.264	105.5
442.486	93.5
442.707	97.5
442.928	93.5
443.149	125.5
443.371	127.5
443.592	109.5
443.813	110.5
444.034	96.5
444.255	95.5
444.476	77.5
444.698	82.5
444.919	84.5
445.14	124.5
445.361	118.5
445.582	121.5
445.803	133.5
446.024	144.5
446.245	115.5
446.466	116.5
446.687	89.5
446.908	95.5
447.129	87.5
447.35	73.5
447.571	98.5
447.792	88.5
448.013	110.5
448.234	114.5
448.455	101.5
448.675	99.5
448.896	113.5
449.117	97.5
449.338	103.5
449.559	116.5
449.779	128.5
450	97.5
450.221	95.5
450.442	79.5
450.662	95.5
450.883	100.5
451.104	107.5
451.324	90.5
451.545	98.5
451.766	92.5
451.986	94.5
452.207	90.5
452.428	102.5
452.648	97.5
452.869	118.5
453.089	111.5
453.31	132.5
453.53	114.5
453.751	98.5
453.971	98.5
454.192	105.5
454.412	97.5
454.633	92.5
454.853	87.5
455.073	93.5
455.294	93.5
455.514	103.5
455.734	84.5
455.955	84.5
456.175	94.5
456.395	95.5
456.616	90.5
456.836	89.5
457.056	81.5
457.276	87.5
457.497	83.5
457.717	91.5
457.937	86.5
458.157	71.5
458.377	98.5
458.598	106.5
458.818	164.5
459.038	169.5
459.258	105.5
459.478	87.5
459.698	87.5
459.918	82.5
460.138	93.5
460.358	89.5
460.578	67.5
460.798	87.5
461.018	77.5
461.238	79.5
461.458	95.5
461.678	78.5
461.898	86.5
462.118	91.5
462.338	77.5
462.558	86.5
462.777	77.5
462.997	94.5
463.217	90.5
463.437	88.5
463.657	74.5
463.876	99.5
464.096	91.5
464.316	97.5
464.536	99.5
464.755	94.5
464.975	101.5
465.195	170.5
465.414	177.5
465.634	115.5
465.854	99.5
466.073	100.5
466.293	99.5
466.512	98.5
466.732	96.5
466.951	97.5
467.171	95.5
467.391	93.5
467.61	99.5
467.829	100.5
468.049	85.5
468.268	78.5
468.488	104.5
468.707	83.5
468.927	88.5
469.146	81.5
469.365	91.5
469.585	78.5
469.804	92.5
470.023	97.5
470.243	98.5
470.462	85.5
470.681	103.5
470.901	82.5
471.12	95.5
471.339	95.5
471.558	81.5
471.777	87.5
471.997	85.5
472.216	92.5
472.435	91.5
472.654	85.5
472.873	84.5
473.092	90.5
473.311	89.5
473.53	73.5
473.749	81.5
473.968	89.5
474.187	111.5
474.406	106.5
474.625	85.5
474.844	85.5
475.063	99.5
475.282	88.5
475.501	91.5
475.72	99.5
475.939	83.5
476.158	92.5
476.377	93.5
476.596	90.5
476.814	89.5
477.033	77.5
477.252	96.5
477.471	81.5
477.69	89.5
477.908	83.5
478.127	88.5
478.346	69.5
478.564	86.5
478.783	84.5
479.002	83.5
479.22	104.5
479.439	102.5
479.658	89.5
479.876	94.5
480.095	87.5
480.313	94.5
480.532	85.5
480.751	94.5
480.969	88.5
481.188	90.5
481.406	95.5
481.624	104.5
481.843	93.5
482.061	96.5
482.28	86.5
482.498	78.5
482.717	86.5
482.935	98.5
483.153	91.5
483.372	90.5
483.59	85.5
483.808	94.5
484.027	91.5
484.245	88.5
484.463	103.5
484.681	101.5
484.9	80.5
485.118	84.5
485.336	86.5
485.554	98.5
485.772	93.5
485.99	108.5
486.209	108.5
486.427	101.5
486.645	118.5
486.863	123.5
487.081	96.5
487.299	106.5
487.517	101.5
487.735	103.5
487.953	94.5
488.171	93.5
488.389	90.5
488.607	99.5
488.825	99.5
489.043	87.5
489.261	93.5
489.479	99.5
489.696	104.5
489.914	82.5
490.132	96.5
490.35	82.5
490.568	87.5
490.786	107.5
491.003	83.5
491.221	89.5
491.439	111.5
491.657	94.5
491.874	85.5
492.092	87.5
492.31	92.5
492.527	97.5
492.745	100.5
492.963	93.5
493.18	105.5
493.398	94.5
493.615	116.5
493.833	91.5
494.05	78.5
494.268	85.5
494.485	78.5
494.703	70.5
494.92	90.5
495.138	99.5
495.355	92.5
495.573	92.5
495.79	91.5
496.008	98.5
496.225	98.5
496.442	94.5
496.66	83.5
496.877	88.5
497.094	87.5
497.312	78.5
497.529	101.5
497.746	91.5
497.963	82.5
498.181	86.5
498.398	118.5
498.615	109.5
498.832	111.5
499.049	101.5
499.267	93.5
499.484	97.5
499.701	80.5
499.918	91.5
500.135	99.5
500.352	104.5
500.569	94.5
500.786	91.5
501.003	86.5
501.22	88.5
501.437	92.5
501.654	95.5
501.871	113.5
502.088	104.5
502.305	78.5
502.522	85.5
502.739	85.5
502.956	95.5
503.172	86.5
503.389	106.5
503.606	103.5
503.823	100.5
504.04	109.5
504.256	110.5
504.473	90.5
504.69	91.5
504.907	98.5
505.123	90.5
505.34	93.5
505.557	87.5
505.773	97.5
505.99	103.5
506.207	96.5
506.423	87.5
506.64	90.5
506.856	73.5
507.073	82.5
507.289	99.5
507.506	99.5
507.722	105.5
507.939	126.5
508.155	100.5
508.372	109.5
508.588	100.5
508.805	93.5
509.021	91.5
509.238	105.5
509.454	101.5
509.67	106.5
509.887	114.5
510.103	141.5
510.319	235.5
510.536	889.5
510.752	2921.5
510.968	785.5
511.184	187.5
511.401	116.5
511.617	94.5
511.833	98.5
512.049	97.5
512.265	93.5
512.481	82.5
512.698	105.5
512.914	104.5
513.13	100.5
513.346	108.5
513.562	101.5
513.778	91.5
513.994	75.5
514.21	110.5
514.426	125.5
514.642	140.5
514.858	131.5
515.074	185.5
515.29	536.5
515.506	1817.5
515.721	650.5
515.937	174.5
516.153	97.5
516.369	89.5
516.585	98.5
516.801	109.5
517.016	92.5
517.232	101.5
517.448	96.5
517.664	108.5
517.879	106.5
518.095	92.5
518.311	91.5
518.527	90.5
518.742	87.5
518.958	93.5
519.173	92.5
519.389	100.5
519.605	105.5
519.82	100.5
520.036	99.5
520.251	119.5
520.467	117.5
520.682	110.5
520.898	108.5
521.113	118.5
521.329	145.5
521.544	223.5
521.76	652.5
521.975	3017.5
522.19	1764.5
522.406	367.5
522.621	115.5
522.836	125.5
523.052	96.5
523.267	94.5
523.482	87.5
523.698	108.5
523.913	132.5
524.128	94.5
524.343	73.5
524.559	91.5
524.774	95.5
524.989	102.5
525.204	108.5
525.419	114.5
525.634	97.5
525.849	109.5
526.064	101.5
526.28	93.5
526.495	86.5
526.71	88.5
526.925	88.5
527.14	92.5
527.355	86.5
527.57	80.5
527.785	87.5
527.999	94.5
528.214	101.5
528.429	103.5
528.644	101.5
528.859	85.5
529.074	96.5
529.289	129.5
529.503	196.5
529.718	119.5
529.933	106.5
530.148	80.5
530.363	92.5
530.577	80.5
530.792	84.5
531.007	94.5
531.221	81.5
531.436	94.5
531.651	81.5
531.865	91.5
532.08	78.5
532.295	94.5
532.509	91.5
532.724	81.5
532.938	83.5
533.153	93.5
533.367	90.5
533.582	92.5
533.796	93.5
534.011	93.5
534.225	91.5
534.44	85.5
534.654	91.5
534.868	98.5
