Data from Uncirc_2007_H10_HRD10591_00014.txt Node
Date: Wed Jan 03 10:20:45 EST 2024
User: Yrep
Spectrometer: HR+D1059
Trigger mode: 1
Integration Time (sec): 1.000000E-1
Scans to average: 1
Electric dark correction enabled: true
Nonlinearity correction enabled: false
Boxcar width: 0
XAxis mode: Wavelengths
Number of Pixels in Spectrum: 2048
>>>>>Begin Spectral Data<<<<<
223.165	-16.56
223.4	-16.56
223.635	-16.56
223.869	-5.56
224.104	-21.56
224.338	-11.56
224.573	-4.56
224.808	-19.56
225.042	-19.56
225.277	3.44
225.511	2.44
225.746	1.44
225.98	10.44
226.215	2.44
226.449	5.44
226.683	15.44
226.918	29.44
227.152	28.44
227.387	36.44
227.621	33.44
227.856	39.44
228.09	60.44
228.324	51.44
228.559	48.44
228.793	51.44
229.027	54.44
229.262	55.44
229.496	62.44
229.73	95.44
229.964	87.44
230.199	67.44
230.433	74.44
230.667	76.44
230.901	82.44
231.136	94.44
231.37	86.44
231.604	75.44
231.838	92.44
232.072	97.44
232.306	90.44
232.541	87.44
232.775	72.44
233.009	71.44
233.243	73.44
233.477	74.44
233.711	83.44
233.945	75.44
234.179	91.44
234.413	96.44
234.647	85.44
234.881	90.44
235.115	75.44
235.349	90.44
235.583	88.44
235.817	72.44
236.051	94.44
236.285	82.44
236.519	67.44
236.753	79.44
236.987	78.44
237.221	86.44
237.455	99.44
237.689	78.44
237.922	91.44
238.156	82.44
238.39	75.44
238.624	75.44
238.858	80.44
239.091	83.44
239.325	77.44
239.559	84.44
239.793	75.44
240.027	89.44
240.26	81.44
240.494	86.44
240.728	80.44
240.961	83.44
241.195	71.44
241.429	85.44
241.662	70.44
241.896	74.44
242.13	76.44
242.363	84.44
242.597	91.44
242.83	91.44
243.064	88.44
243.298	85.44
243.531	78.44
243.765	76.44
243.998	90.44
244.232	79.44
244.465	87.44
244.699	84.44
244.932	97.44
245.166	76.44
245.399	70.44
245.633	81.44
245.866	72.44
246.099	77.44
246.333	84.44
246.566	88.44
246.8	63.44
247.033	89.44
247.266	81.44
247.5	64.44
247.733	85.44
247.966	85.44
248.2	80.44
248.433	83.44
248.666	86.44
248.899	80.44
249.133	76.44
249.366	95.44
249.599	97.44
249.832	83.44
250.066	77.44
250.299	82.44
250.532	82.44
250.765	90.44
250.998	88.44
251.231	97.44
251.465	88.44
251.698	81.44
251.931	92.44
252.164	78.44
252.397	74.44
252.63	81.44
252.863	88.44
253.096	76.44
253.329	78.44
253.562	80.44
253.795	95.44
254.028	81.44
254.261	74.44
254.494	80.44
254.727	93.44
254.96	88.44
255.193	88.44
255.426	84.44
255.659	81.44
255.892	82.44
256.124	82.44
256.357	88.44
256.59	86.44
256.823	83.44
257.056	89.44
257.289	77.44
257.521	83.44
257.754	98.44
257.987	85.44
258.22	94.44
258.452	95.44
258.685	86.44
258.918	69.44
259.151	92.44
259.383	102.44
259.616	91.44
259.849	85.44
260.081	93.44
260.314	87.44
260.547	90.44
260.779	80.44
261.012	100.44
261.244	87.44
261.477	87.44
261.71	103.44
261.942	117.44
262.175	117.44
262.407	98.44
262.64	92.44
262.872	100.44
263.105	78.44
263.337	100.44
263.57	80.44
263.802	89.44
264.035	82.44
264.267	74.44
264.499	76.44
264.732	96.44
264.964	86.44
265.197	93.44
265.429	92.44
265.661	97.44
265.894	82.44
266.126	90.44
266.358	93.44
266.591	89.44
266.823	79.44
267.055	82.44
267.287	87.44
267.52	84.44
267.752	80.44
267.984	83.44
268.216	91.44
268.448	85.44
268.681	80.44
268.913	79.44
269.145	95.44
269.377	98.44
269.609	88.44
269.841	84.44
270.073	95.44
270.306	89.44
270.538	90.44
270.77	87.44
271.002	82.44
271.234	111.44
271.466	86.44
271.698	88.44
271.93	82.44
272.162	91.44
272.394	95.44
272.626	103.44
272.858	91.44
273.09	81.44
273.322	92.44
273.553	82.44
273.785	80.44
274.017	83.44
274.249	91.44
274.481	99.44
274.713	90.44
274.945	97.44
275.176	90.44
275.408	92.44
275.64	87.44
275.872	95.44
276.104	75.44
276.335	82.44
276.567	95.44
276.799	111.44
277.031	104.44
277.262	98.44
277.494	105.44
277.726	85.44
277.957	87.44
278.189	72.44
278.421	77.44
278.652	93.44
278.884	92.44
279.115	91.44
279.347	96.44
279.579	79.44
279.81	83.44
280.042	90.44
280.273	86.44
280.505	83.44
280.736	99.44
280.968	104.44
281.199	111.44
281.431	88.44
281.662	86.44
281.894	97.44
282.125	106.44
282.356	131.44
282.588	143.44
282.819	117.44
283.051	85.44
283.282	99.44
283.513	88.44
283.745	87.44
283.976	77.44
284.207	65.44
284.439	98.44
284.67	102.44
284.901	96.44
285.132	94.44
285.364	91.44
285.595	97.44
285.826	98.44
286.057	94.44
286.288	95.44
286.52	84.44
286.751	92.44
286.982	88.44
287.213	92.44
287.444	80.44
287.675	110.44
287.906	94.44
288.138	80.44
288.369	109.44
288.6	95.44
288.831	88.44
289.062	94.44
289.293	92.44
289.524	81.44
289.755	96.44
289.986	94.44
290.217	93.44
290.448	88.44
290.679	92.44
290.91	97.44
291.141	88.44
291.371	91.44
291.602	91.44
291.833	98.44
292.064	91.44
292.295	103.44
292.526	102.44
292.757	98.44
292.987	101.44
293.218	99.44
293.449	110.44
293.68	96.44
293.91	96.44
294.141	86.44
294.372	84.44
294.603	104.44
294.833	92.44
295.064	86.44
295.295	87.44
295.525	85.44
295.756	98.44
295.987	123.44
296.217	136.44
296.448	120.44
296.679	98.44
296.909	99.44
297.14	85.44
297.37	101.44
297.601	102.44
297.831	93.44
298.062	89.44
298.292	79.44
298.523	89.44
298.753	100.44
298.984	99.44
299.214	90.44
299.445	109.44
299.675	90.44
299.905	100.44
300.136	100.44
300.366	91.44
300.597	101.44
300.827	112.44
301.057	117.44
301.288	102.44
301.518	106.44
301.748	88.44
301.979	105.44
302.209	99.44
302.439	104.44
302.669	109.44
302.9	94.44
303.13	103.44
303.36	112.44
303.59	101.44
303.82	111.44
304.051	90.44
304.281	93.44
304.511	99.44
304.741	86.44
304.971	96.44
305.201	100.44
305.431	102.44
305.661	88.44
305.891	92.44
306.121	97.44
306.352	111.44
306.582	117.44
306.812	111.44
307.042	91.44
307.272	96.44
307.502	107.44
307.731	91.44
307.961	90.44
308.191	96.44
308.421	106.44
308.651	102.44
308.881	98.44
309.111	98.44
309.341	101.44
309.571	97.44
309.8	77.44
310.03	89.44
310.26	92.44
310.49	102.44
310.72	98.44
310.949	112.44
311.179	102.44
311.409	96.44
311.639	103.44
311.868	88.44
312.098	107.44
312.328	94.44
312.557	109.44
312.787	114.44
313.017	122.44
313.246	92.44
313.476	101.44
313.706	91.44
313.935	96.44
314.165	113.44
314.394	101.44
314.624	109.44
314.853	99.44
315.083	105.44
315.312	96.44
315.542	82.44
315.771	99.44
316.001	92.44
316.23	94.44
316.46	98.44
316.689	89.44
316.919	94.44
317.148	86.44
317.377	100.44
317.607	98.44
317.836	91.44
318.065	95.44
318.295	96.44
318.524	93.44
318.753	90.44
318.983	96.44
319.212	112.44
319.441	118.44
319.67	91.44
319.9	88.44
320.129	106.44
320.358	101.44
320.587	103.44
320.816	128.44
321.046	108.44
321.275	99.44
321.504	102.44
321.733	109.44
321.962	112.44
322.191	104.44
322.42	115.44
322.649	128.44
322.878	136.44
323.108	127.44
323.337	144.44
323.566	132.44
323.795	170.44
324.024	227.44
324.253	442.44
324.482	970.44
324.71	1954.44
324.939	2653.44
325.168	938.44
325.397	262.44
325.626	170.44
325.855	132.44
326.084	135.44
326.313	143.44
326.542	158.44
326.77	258.44
326.999	536.44
327.228	1082.44
327.457	1980.44
327.686	1579.44
327.914	404.44
328.143	184.44
328.372	161.44
328.6	120.44
328.829	135.44
329.058	137.44
329.287	139.44
329.515	120.44
329.744	107.44
329.972	90.44
330.201	103.44
330.43	115.44
330.658	134.44
330.887	152.44
331.115	132.44
331.344	103.44
331.572	102.44
331.801	122.44
332.03	117.44
332.258	93.44
332.486	90.44
332.715	97.44
332.943	99.44
333.172	93.44
333.4	106.44
333.629	122.44
333.857	125.44
334.085	110.44
334.314	99.44
334.542	103.44
334.771	95.44
334.999	111.44
335.227	97.44
335.455	101.44
335.684	100.44
335.912	94.44
336.14	92.44
336.369	101.44
336.597	109.44
336.825	107.44
337.053	107.44
337.281	92.44
337.51	88.44
337.738	96.44
337.966	96.44
338.194	103.44
338.422	103.44
338.65	95.44
338.878	93.44
339.106	104.44
339.334	99.44
339.562	87.44
339.79	111.44
340.018	102.44
340.246	100.44
340.474	106.44
340.702	91.44
340.93	90.44
341.158	95.44
341.386	101.44
341.614	93.44
341.842	96.44
342.07	92.44
342.298	97.44
342.526	91.44
342.754	95.44
342.981	96.44
343.209	79.44
343.437	104.44
343.665	102.44
343.893	102.44
344.12	89.44
344.348	93.44
344.576	111.44
344.804	92.44
345.031	92.44
345.259	107.44
345.487	88.44
345.714	99.44
345.942	92.44
346.17	97.44
346.397	92.44
346.625	90.44
346.853	108.44
347.08	100.44
347.308	102.44
347.535	96.44
347.763	103.44
347.99	113.44
348.218	96.44
348.445	126.44
348.673	109.44
348.9	84.44
349.128	94.44
349.355	107.44
349.583	88.44
349.81	98.44
350.037	96.44
350.265	101.44
350.492	103.44
350.72	112.44
350.947	100.44
351.174	125.44
351.402	107.44
351.629	118.44
351.856	99.44
352.083	100.44
352.311	103.44
352.538	111.44
352.765	118.44
352.992	116.44
353.22	122.44
353.447	97.44
353.674	108.44
353.901	106.44
354.128	110.44
354.355	91.44
354.583	104.44
354.81	106.44
355.037	107.44
355.264	106.44
355.491	99.44
355.718	87.44
355.945	93.44
356.172	106.44
356.399	106.44
356.626	99.44
356.853	85.44
357.08	102.44
357.307	91.44
357.534	90.44
357.761	87.44
357.988	113.44
358.215	74.44
358.441	105.44
358.668	92.44
358.895	95.44
359.122	92.44
359.349	92.44
359.576	82.44
359.802	111.44
360.029	120.44
360.256	108.44
360.483	110.44
360.709	87.44
360.936	92.44
361.163	91.44
361.39	97.44
361.616	110.44
361.843	98.44
362.07	93.44
362.296	103.44
362.523	85.44
362.749	103.44
362.976	93.44
363.203	86.44
363.429	98.44
363.656	100.44
363.882	84.44
364.109	92.44
364.335	85.44
364.562	100.44
364.788	80.44
365.015	100.44
365.241	95.44
365.468	108.44
365.694	109.44
365.92	109.44
366.147	83.44
366.373	99.44
366.599	81.44
366.826	97.44
367.052	97.44
367.278	103.44
367.505	96.44
367.731	106.44
367.957	97.44
368.184	104.44
368.41	113.44
368.636	122.44
368.862	121.44
369.089	111.44
369.315	110.44
369.541	95.44
369.767	88.44
369.993	84.44
370.219	103.44
370.445	92.44
370.672	86.44
370.898	86.44
371.124	92.44
371.35	92.44
371.576	95.44
371.802	80.44
372.028	86.44
372.254	110.44
372.48	91.44
372.706	82.44
372.932	99.44
373.158	91.44
373.384	92.44
373.61	88.44
373.835	90.44
374.061	98.44
374.287	108.44
374.513	98.44
374.739	88.44
374.965	86.44
375.191	94.44
375.416	95.44
375.642	99.44
375.868	101.44
376.094	86.44
376.319	107.44
376.545	86.44
376.771	89.44
376.997	96.44
377.222	83.44
377.448	86.44
377.674	89.44
377.899	94.44
378.125	106.44
378.35	95.44
378.576	94.44
378.802	90.44
379.027	101.44
379.253	96.44
379.478	90.44
379.704	90.44
379.929	91.44
380.155	97.44
380.38	87.44
380.606	101.44
380.831	108.44
381.057	101.44
381.282	100.44
381.507	105.44
381.733	98.44
381.958	96.44
382.184	101.44
382.409	95.44
382.634	107.44
382.86	101.44
383.085	104.44
383.31	110.44
383.535	101.44
383.761	91.44
383.986	91.44
384.211	98.44
384.436	98.44
384.662	99.44
384.887	101.44
385.112	101.44
385.337	98.44
385.562	110.44
385.787	119.44
386.013	128.44
386.238	119.44
386.463	116.44
386.688	108.44
386.913	98.44
387.138	98.44
387.363	114.44
387.588	92.44
387.813	104.44
388.038	105.44
388.263	107.44
388.488	100.44
388.713	102.44
388.938	117.44
389.163	114.44
389.387	101.44
389.612	99.44
389.837	89.44
390.062	95.44
390.287	98.44
390.512	104.44
390.736	111.44
390.961	103.44
391.186	103.44
391.411	85.44
391.636	91.44
391.86	85.44
392.085	71.44
392.31	92.44
392.534	83.44
392.759	90.44
392.984	82.44
393.208	92.44
393.433	80.44
393.658	95.44
393.882	83.44
394.107	86.44
394.331	77.44
394.556	95.44
394.78	86.44
395.005	70.44
395.229	82.44
395.454	86.44
395.678	83.44
395.903	93.44
396.127	96.44
396.352	99.44
396.576	83.44
396.801	104.44
397.025	92.44
397.249	97.44
397.474	93.44
397.698	101.44
397.922	97.44
398.147	87.44
398.371	76.44
398.595	100.44
398.82	94.44
399.044	87.44
399.268	92.44
399.492	99.44
399.717	87.44
399.941	96.44
400.165	94.44
400.389	94.44
400.613	88.44
400.837	93.44
401.062	99.44
401.286	97.44
401.51	101.44
401.734	91.44
401.958	99.44
402.182	139.44
402.406	158.44
402.63	127.44
402.854	84.44
403.078	96.44
403.302	82.44
403.526	90.44
403.75	66.44
403.974	99.44
404.198	97.44
404.422	94.44
404.645	96.44
404.869	96.44
405.093	100.44
405.317	101.44
405.541	90.44
405.765	108.44
405.988	132.44
406.212	196.44
406.436	256.44
406.66	158.44
406.883	122.44
407.107	106.44
407.331	99.44
407.555	95.44
407.778	102.44
408.002	92.44
408.226	77.44
408.449	86.44
408.673	97.44
408.896	94.44
409.12	92.44
409.344	101.44
409.567	88.44
409.791	101.44
410.014	88.44
410.238	100.44
410.461	97.44
410.685	100.44
410.908	109.44
411.132	109.44
411.355	104.44
411.578	86.44
411.802	93.44
412.025	85.44
412.249	92.44
412.472	97.44
412.695	77.44
412.919	80.44
413.142	87.44
413.365	88.44
413.589	77.44
413.812	106.44
414.035	94.44
414.258	95.44
414.482	98.44
414.705	78.44
414.928	102.44
415.151	84.44
415.374	78.44
415.597	92.44
415.821	98.44
416.044	89.44
416.267	87.44
416.49	87.44
416.713	86.44
416.936	102.44
417.159	107.44
417.382	81.44
417.605	90.44
417.828	100.44
418.051	98.44
418.274	88.44
418.497	93.44
418.72	94.44
418.943	98.44
419.166	90.44
419.389	98.44
419.611	85.44
419.834	85.44
420.057	89.44
420.28	90.44
420.503	100.44
420.726	79.44
420.948	83.44
421.171	97.44
421.394	102.44
421.617	98.44
421.839	82.44
422.062	98.44
422.285	104.44
422.507	111.44
422.73	109.44
422.953	104.44
423.175	108.44
423.398	88.44
423.621	91.44
423.843	83.44
424.066	90.44
424.288	77.44
424.511	78.44
424.733	112.44
424.956	109.44
425.178	97.44
425.401	103.44
425.623	109.44
425.846	85.44
426.068	101.44
426.291	91.44
426.513	95.44
426.735	96.44
426.958	102.44
427.18	109.44
427.402	157.44
427.625	174.44
427.847	128.44
428.069	104.44
428.292	96.44
428.514	84.44
428.736	103.44
428.958	80.44
429.181	100.44
429.403	86.44
429.625	76.44
429.847	86.44
430.069	113.44
430.292	93.44
430.514	91.44
430.736	86.44
430.958	87.44
431.18	88.44
431.402	99.44
431.624	92.44
431.846	77.44
432.068	88.44
432.29	87.44
432.512	101.44
432.734	92.44
432.956	111.44
433.178	107.44
433.4	93.44
433.622	98.44
433.844	83.44
434.066	104.44
434.287	92.44
434.509	88.44
434.731	87.44
434.953	80.44
435.175	80.44
435.397	76.44
435.618	101.44
435.84	108.44
436.062	117.44
436.284	122.44
436.505	97.44
436.727	109.44
436.949	86.44
437.17	87.44
437.392	91.44
437.614	103.44
437.835	104.44
438.057	120.44
438.278	122.44
438.5	88.44
438.721	136.44
438.943	106.44
439.165	93.44
439.386	91.44
439.608	93.44
439.829	107.44
440.05	132.44
440.272	161.44
440.493	107.44
440.715	84.44
440.936	88.44
441.158	99.44
441.379	82.44
441.6	110.44
441.822	104.44
442.043	103.44
442.264	115.44
442.486	117.44
442.707	87.44
442.928	128.44
443.149	139.44
443.371	154.44
443.592	111.44
443.813	115.44
444.034	106.44
444.255	87.44
444.476	90.44
444.698	87.44
444.919	88.44
445.14	134.44
445.361	122.44
445.582	130.44
445.803	157.44
446.024	154.44
446.245	156.44
446.466	126.44
446.687	95.44
446.908	94.44
447.129	90.44
447.35	87.44
447.571	100.44
447.792	103.44
448.013	109.44
448.234	119.44
448.455	104.44
448.675	111.44
448.896	137.44
449.117	101.44
449.338	112.44
449.559	138.44
449.779	145.44
450	100.44
450.221	102.44
450.442	104.44
450.662	100.44
450.883	112.44
451.104	111.44
451.324	83.44
451.545	88.44
451.766	94.44
451.986	97.44
452.207	98.44
452.428	96.44
452.648	88.44
452.869	111.44
453.089	109.44
453.31	127.44
453.53	117.44
453.751	111.44
453.971	105.44
454.192	119.44
454.412	94.44
454.633	86.44
454.853	90.44
455.073	91.44
455.294	92.44
455.514	98.44
455.734	84.44
455.955	76.44
456.175	81.44
456.395	93.44
456.616	96.44
456.836	90.44
457.056	75.44
457.276	95.44
457.497	83.44
457.717	78.44
457.937	92.44
458.157	84.44
458.377	106.44
458.598	116.44
458.818	161.44
459.038	175.44
459.258	112.44
459.478	82.44
459.698	91.44
459.918	97.44
460.138	99.44
460.358	76.44
460.578	95.44
460.798	94.44
461.018	85.44
461.238	96.44
461.458	84.44
461.678	87.44
461.898	93.44
462.118	84.44
462.338	85.44
462.558	89.44
462.777	91.44
462.997	93.44
463.217	84.44
463.437	83.44
463.657	87.44
463.876	95.44
464.096	95.44
464.316	89.44
464.536	106.44
464.755	95.44
464.975	109.44
465.195	187.44
465.414	198.44
465.634	105.44
465.854	85.44
466.073	91.44
466.293	94.44
466.512	88.44
466.732	93.44
466.951	85.44
467.171	81.44
467.391	113.44
467.61	114.44
467.829	97.44
468.049	107.44
468.268	86.44
468.488	92.44
468.707	93.44
468.927	89.44
469.146	86.44
469.365	81.44
469.585	96.44
469.804	104.44
470.023	106.44
470.243	91.44
470.462	93.44
470.681	112.44
470.901	94.44
471.12	99.44
471.339	96.44
471.558	80.44
471.777	91.44
471.997	75.44
472.216	86.44
472.435	87.44
472.654	101.44
472.873	88.44
473.092	93.44
473.311	88.44
473.53	96.44
473.749	83.44
473.968	98.44
474.187	108.44
474.406	109.44
474.625	77.44
474.844	86.44
475.063	82.44
475.282	89.44
475.501	99.44
475.72	84.44
475.939	93.44
476.158	97.44
476.377	90.44
476.596	98.44
476.814	95.44
477.033	109.44
477.252	103.44
477.471	87.44
477.69	83.44
477.908	86.44
478.127	101.44
478.346	107.44
478.564	87.44
478.783	103.44
479.002	87.44
479.22	82.44
479.439	101.44
479.658	104.44
479.876	96.44
480.095	86.44
480.313	100.44
480.532	101.44
480.751	81.44
480.969	86.44
481.188	101.44
481.406	110.44
481.624	88.44
481.843	82.44
482.061	90.44
482.28	87.44
482.498	103.44
482.717	97.44
482.935	101.44
483.153	94.44
483.372	96.44
483.59	100.44
483.808	88.44
484.027	102.44
484.245	88.44
484.463	101.44
484.681	98.44
484.9	104.44
485.118	108.44
485.336	102.44
485.554	102.44
485.772	97.44
485.99	95.44
486.209	109.44
486.427	100.44
486.645	110.44
486.863	115.44
487.081	101.44
487.299	87.44
487.517	98.44
487.735	95.44
487.953	84.44
488.171	103.44
488.389	87.44
488.607	94.44
488.825	90.44
489.043	92.44
489.261	98.44
489.479	92.44
489.696	87.44
489.914	96.44
490.132	96.44
490.35	95.44
490.568	92.44
490.786	78.44
491.003	96.44
491.221	80.44
491.439	102.44
491.657	101.44
491.874	92.44
492.092	92.44
492.31	78.44
492.527	79.44
492.745	86.44
492.963	87.44
493.18	94.44
493.398	81.44
493.615	91.44
493.833	86.44
494.05	85.44
494.268	85.44
494.485	95.44
494.703	101.44
494.92	93.44
495.138	82.44
495.355	99.44
495.573	92.44
495.79	98.44
496.008	83.44
496.225	98.44
496.442	80.44
496.66	92.44
496.877	85.44
497.094	98.44
497.312	87.44
497.529	100.44
497.746	84.44
497.963	86.44
498.181	107.44
498.398	110.44
498.615	132.44
498.832	114.44
499.049	91.44
499.267	93.44
499.484	92.44
499.701	81.44
499.918	92.44
500.135	109.44
500.352	97.44
500.569	95.44
500.786	96.44
501.003	88.44
501.22	84.44
501.437	94.44
501.654	93.44
501.871	108.44
502.088	87.44
502.305	87.44
502.522	82.44
502.739	91.44
502.956	85.44
503.172	93.44
503.389	106.44
503.606	110.44
503.823	88.44
504.04	86.44
504.256	93.44
504.473	68.44
504.69	94.44
504.907	99.44
505.123	103.44
505.34	93.44
505.557	99.44
505.773	92.44
505.99	96.44
506.207	84.44
506.423	96.44
506.64	95.44
506.856	80.44
507.073	96.44
507.289	97.44
507.506	92.44
507.722	116.44
507.939	113.44
508.155	104.44
508.372	101.44
508.588	95.44
508.805	92.44
509.021	106.44
509.238	103.44
509.454	104.44
509.67	107.44
509.887	107.44
510.103	134.44
510.319	245.44
510.536	888.44
510.752	2871.44
510.968	780.44
511.184	172.44
511.401	127.44
511.617	97.44
511.833	100.44
512.049	105.44
512.265	110.44
512.481	83.44
512.698	91.44
512.914	98.44
513.13	95.44
513.346	97.44
513.562	109.44
513.778	98.44
513.994	105.44
