Data from Uncirc_2007_H10_HRD10591_00077.txt Node
Date: Wed Jan 03 10:20:58 EST 2024
User: Yrep
Spectrometer: HR+D1059
Trigger mode: 1
Integration Time (sec): 1.000000E-1
Scans to average: 1
Electric dark correction enabled: true
Nonlinearity correction enabled: false
Boxcar width: 0
XAxis mode: Wavelengths
Number of Pixels in Spectrum: 2048
>>>>>Begin Spectral Data<<<<<
223.165	-15.44
223.4	-15.44
223.635	-15.44
223.869	-18.44
224.104	-16.44
224.338	-20.44
224.573	-21.44
224.808	-8.44
225.042	6.56
225.277	4.56
225.511	-10.44
225.746	5.56
225.98	-1.44
226.215	4.56
226.449	10.56
226.683	22.56
226.918	29.56
227.152	28.56
227.387	34.56
227.621	43.56
227.856	43.56
228.09	48.56
228.324	51.56
228.559	67.56
228.793	51.56
229.027	58.56
229.262	61.56
229.496	75.56
229.73	86.56
229.964	87.56
230.199	71.56
230.433	85.56
230.667	84.56
230.901	79.56
231.136	77.56
231.37	76.56
231.604	74.56
231.838	83.56
232.072	74.56
232.306	86.56
232.541	93.56
232.775	83.56
233.009	69.56
233.243	79.56
233.477	84.56
233.711	96.56
233.945	79.56
234.179	78.56
234.413	77.56
234.647	71.56
234.881	85.56
235.115	93.56
235.349	72.56
235.583	74.56
235.817	86.56
236.051	62.56
236.285	78.56
236.519	76.56
236.753	70.56
236.987	66.56
237.221	84.56
237.455	93.56
237.689	95.56
237.922	82.56
238.156	75.56
238.39	82.56
238.624	82.56
238.858	79.56
239.091	69.56
239.325	70.56
239.559	69.56
239.793	75.56
240.027	92.56
240.26	91.56
240.494	80.56
240.728	76.56
240.961	73.56
241.195	72.56
241.429	84.56
241.662	67.56
241.896	83.56
242.13	48.56
242.363	86.56
242.597	69.56
242.83	84.56
243.064	91.56
243.298	67.56
243.531	83.56
243.765	79.56
243.998	71.56
244.232	80.56
244.465	88.56
244.699	86.56
244.932	60.56
245.166	78.56
245.399	86.56
245.633	82.56
245.866	84.56
246.099	76.56
246.333	74.56
246.566	67.56
246.8	70.56
247.033	80.56
247.266	93.56
247.5	79.56
247.733	72.56
247.966	78.56
248.2	94.56
248.433	81.56
248.666	85.56
248.899	85.56
249.133	104.56
249.366	96.56
249.599	91.56
249.832	77.56
250.066	78.56
250.299	73.56
250.532	77.56
250.765	83.56
250.998	88.56
251.231	72.56
251.465	77.56
251.698	85.56
251.931	81.56
252.164	88.56
252.397	79.56
252.63	90.56
252.863	89.56
253.096	97.56
253.329	80.56
253.562	73.56
253.795	79.56
254.028	71.56
254.261	90.56
254.494	73.56
254.727	63.56
254.96	69.56
255.193	85.56
255.426	81.56
255.659	92.56
255.892	90.56
256.124	72.56
256.357	79.56
256.59	80.56
256.823	76.56
257.056	84.56
257.289	83.56
257.521	82.56
257.754	85.56
257.987	72.56
258.22	97.56
258.452	74.56
258.685	92.56
258.918	88.56
259.151	88.56
259.383	74.56
259.616	83.56
259.849	80.56
260.081	75.56
260.314	94.56
260.547	74.56
260.779	76.56
261.012	85.56
261.244	80.56
261.477	75.56
261.71	89.56
261.942	109.56
262.175	126.56
262.407	93.56
262.64	75.56
262.872	76.56
263.105	98.56
263.337	78.56
263.57	89.56
263.802	92.56
264.035	84.56
264.267	98.56
264.499	84.56
264.732	94.56
264.964	91.56
265.197	79.56
265.429	87.56
265.661	81.56
265.894	78.56
266.126	77.56
266.358	90.56
266.591	84.56
266.823	94.56
267.055	85.56
267.287	93.56
267.52	92.56
267.752	85.56
267.984	90.56
268.216	76.56
268.448	92.56
268.681	94.56
268.913	70.56
269.145	94.56
269.377	75.56
269.609	81.56
269.841	77.56
270.073	97.56
270.306	83.56
270.538	86.56
270.77	89.56
271.002	85.56
271.234	89.56
271.466	84.56
271.698	86.56
271.93	86.56
272.162	100.56
272.394	91.56
272.626	86.56
272.858	87.56
273.09	94.56
273.322	82.56
273.553	88.56
273.785	69.56
274.017	75.56
274.249	81.56
274.481	91.56
274.713	77.56
274.945	90.56
275.176	95.56
275.408	98.56
275.64	80.56
275.872	91.56
276.104	85.56
276.335	101.56
276.567	86.56
276.799	108.56
277.031	100.56
277.262	85.56
277.494	82.56
277.726	82.56
277.957	92.56
278.189	111.56
278.421	88.56
278.652	84.56
278.884	85.56
279.115	93.56
279.347	84.56
279.579	87.56
279.81	88.56
280.042	100.56
280.273	81.56
280.505	77.56
280.736	89.56
280.968	75.56
281.199	90.56
281.431	92.56
281.662	88.56
281.894	86.56
282.125	114.56
282.356	110.56
282.588	148.56
282.819	122.56
283.051	86.56
283.282	97.56
283.513	80.56
283.745	77.56
283.976	81.56
284.207	72.56
284.439	70.56
284.67	72.56
284.901	85.56
285.132	93.56
285.364	90.56
285.595	90.56
285.826	83.56
286.057	85.56
286.288	89.56
286.52	94.56
286.751	91.56
286.982	70.56
287.213	78.56
287.444	97.56
287.675	94.56
287.906	96.56
288.138	80.56
288.369	104.56
288.6	102.56
288.831	77.56
289.062	91.56
289.293	102.56
289.524	79.56
289.755	86.56
289.986	86.56
290.217	77.56
290.448	87.56
290.679	86.56
290.91	85.56
291.141	85.56
291.371	91.56
291.602	86.56
291.833	77.56
292.064	94.56
292.295	98.56
292.526	96.56
292.757	84.56
292.987	92.56
293.218	76.56
293.449	97.56
293.68	77.56
293.91	89.56
294.141	96.56
294.372	83.56
294.603	90.56
294.833	96.56
295.064	93.56
295.295	87.56
295.525	91.56
295.756	111.56
295.987	101.56
296.217	138.56
296.448	136.56
296.679	94.56
296.909	94.56
297.14	96.56
297.37	82.56
297.601	72.56
297.831	88.56
298.062	99.56
298.292	91.56
298.523	91.56
298.753	99.56
298.984	85.56
299.214	95.56
299.445	97.56
299.675	86.56
299.905	101.56
300.136	92.56
300.366	84.56
300.597	94.56
300.827	83.56
301.057	87.56
301.288	113.56
301.518	92.56
301.748	88.56
301.979	91.56
302.209	105.56
302.439	98.56
302.669	102.56
302.9	84.56
303.13	93.56
303.36	93.56
303.59	89.56
303.82	117.56
304.051	94.56
304.281	71.56
304.511	91.56
304.741	89.56
304.971	88.56
305.201	94.56
305.431	90.56
305.661	92.56
305.891	80.56
306.121	102.56
306.352	113.56
306.582	104.56
306.812	90.56
307.042	104.56
307.272	72.56
307.502	89.56
307.731	79.56
307.961	84.56
308.191	82.56
308.421	99.56
308.651	85.56
308.881	84.56
309.111	94.56
309.341	90.56
309.571	94.56
309.8	99.56
310.03	87.56
310.26	107.56
310.49	102.56
310.72	91.56
310.949	109.56
311.179	111.56
311.409	102.56
311.639	83.56
311.868	98.56
312.098	105.56
312.328	100.56
312.557	103.56
312.787	111.56
313.017	89.56
313.246	95.56
313.476	91.56
313.706	102.56
313.935	96.56
314.165	103.56
314.394	87.56
314.624	100.56
314.853	101.56
315.083	100.56
315.312	91.56
315.542	97.56
315.771	109.56
316.001	93.56
316.23	92.56
316.46	105.56
316.689	96.56
316.919	94.56
317.148	89.56
317.377	85.56
317.607	93.56
317.836	97.56
318.065	84.56
318.295	82.56
318.524	98.56
318.753	98.56
318.983	98.56
319.212	102.56
319.441	125.56
319.67	110.56
319.9	97.56
320.129	82.56
320.358	94.56
320.587	104.56
320.816	104.56
321.046	87.56
321.275	93.56
321.504	100.56
321.733	107.56
321.962	104.56
322.191	98.56
322.42	118.56
322.649	101.56
322.878	120.56
323.108	111.56
323.337	140.56
323.566	140.56
323.795	174.56
324.024	226.56
324.253	444.56
324.482	964.56
324.71	2044.56
324.939	2718.56
325.168	957.56
325.397	274.56
325.626	168.56
325.855	138.56
326.084	125.56
326.313	133.56
326.542	188.56
326.77	264.56
326.999	512.56
327.228	1123.56
327.457	2088.56
327.686	1611.56
327.914	426.56
328.143	217.56
328.372	141.56
328.6	138.56
328.829	113.56
329.058	128.56
329.287	127.56
329.515	118.56
329.744	106.56
329.972	103.56
330.201	95.56
330.43	112.56
330.658	122.56
330.887	155.56
331.115	113.56
331.344	109.56
331.572	89.56
331.801	111.56
332.03	109.56
332.258	106.56
332.486	96.56
332.715	85.56
332.943	102.56
333.172	94.56
333.4	98.56
333.629	93.56
333.857	108.56
334.085	110.56
334.314	90.56
334.542	105.56
334.771	100.56
334.999	91.56
335.227	101.56
335.455	76.56
335.684	100.56
335.912	83.56
336.14	82.56
336.369	101.56
336.597	99.56
336.825	86.56
337.053	98.56
337.281	81.56
337.51	90.56
337.738	94.56
337.966	101.56
338.194	101.56
338.422	100.56
338.65	92.56
338.878	87.56
339.106	95.56
339.334	84.56
339.562	86.56
339.79	84.56
340.018	84.56
340.246	84.56
340.474	82.56
340.702	100.56
340.93	86.56
341.158	105.56
341.386	78.56
341.614	82.56
341.842	97.56
342.07	102.56
342.298	86.56
342.526	92.56
342.754	107.56
342.981	87.56
343.209	90.56
343.437	86.56
343.665	100.56
343.893	95.56
344.12	86.56
344.348	86.56
344.576	83.56
344.804	72.56
345.031	86.56
345.259	89.56
345.487	93.56
345.714	80.56
345.942	90.56
346.17	87.56
346.397	92.56
346.625	90.56
346.853	88.56
347.08	101.56
347.308	93.56
347.535	93.56
347.763	97.56
347.99	105.56
348.218	99.56
348.445	94.56
348.673	94.56
348.9	93.56
349.128	105.56
349.355	93.56
349.583	91.56
349.81	98.56
350.037	96.56
350.265	97.56
350.492	83.56
350.72	97.56
350.947	93.56
351.174	100.56
351.402	109.56
351.629	96.56
351.856	94.56
352.083	108.56
352.311	117.56
352.538	97.56
352.765	107.56
352.992	117.56
353.22	110.56
353.447	99.56
353.674	96.56
353.901	98.56
354.128	104.56
354.355	97.56
354.583	107.56
354.81	99.56
355.037	96.56
355.264	97.56
355.491	100.56
355.718	86.56
355.945	94.56
356.172	81.56
356.399	84.56
356.626	94.56
356.853	105.56
357.08	94.56
357.307	100.56
357.534	96.56
357.761	93.56
357.988	91.56
358.215	95.56
358.441	89.56
358.668	86.56
358.895	110.56
359.122	82.56
359.349	79.56
359.576	101.56
359.802	100.56
360.029	99.56
360.256	113.56
360.483	95.56
360.709	92.56
360.936	92.56
361.163	86.56
361.39	101.56
361.616	93.56
361.843	81.56
362.07	92.56
362.296	85.56
362.523	85.56
362.749	85.56
362.976	105.56
363.203	104.56
363.429	89.56
363.656	103.56
363.882	78.56
364.109	89.56
364.335	94.56
364.562	93.56
364.788	100.56
365.015	106.56
365.241	109.56
365.468	105.56
365.694	95.56
365.92	97.56
366.147	82.56
366.373	91.56
366.599	91.56
366.826	103.56
367.052	98.56
367.278	96.56
367.505	93.56
367.731	92.56
367.957	103.56
368.184	85.56
368.41	122.56
368.636	110.56
368.862	132.56
369.089	109.56
369.315	99.56
369.541	101.56
369.767	73.56
369.993	92.56
370.219	75.56
370.445	99.56
370.672	81.56
370.898	94.56
371.124	100.56
371.35	97.56
371.576	77.56
371.802	102.56
372.028	85.56
372.254	76.56
372.48	94.56
372.706	93.56
372.932	81.56
373.158	93.56
373.384	95.56
373.61	98.56
373.835	110.56
374.061	88.56
374.287	84.56
374.513	89.56
374.739	89.56
374.965	90.56
375.191	92.56
375.416	83.56
375.642	91.56
375.868	84.56
376.094	80.56
376.319	79.56
376.545	84.56
376.771	84.56
376.997	105.56
377.222	100.56
377.448	94.56
377.674	93.56
377.899	86.56
378.125	89.56
378.35	83.56
378.576	86.56
378.802	91.56
379.027	88.56
379.253	92.56
379.478	101.56
379.704	87.56
379.929	84.56
380.155	97.56
380.38	91.56
380.606	95.56
380.831	103.56
381.057	87.56
381.282	100.56
381.507	99.56
381.733	96.56
381.958	91.56
382.184	93.56
382.409	95.56
382.634	97.56
382.86	85.56
383.085	105.56
383.31	106.56
383.535	95.56
383.761	92.56
383.986	108.56
384.211	105.56
384.436	97.56
384.662	109.56
384.887	106.56
385.112	109.56
385.337	98.56
385.562	104.56
385.787	106.56
386.013	116.56
386.238	107.56
386.463	99.56
386.688	93.56
386.913	106.56
387.138	109.56
387.363	104.56
387.588	87.56
387.813	96.56
388.038	122.56
388.263	114.56
388.488	104.56
388.713	97.56
388.938	101.56
389.163	85.56
389.387	90.56
389.612	83.56
389.837	97.56
390.062	106.56
390.287	106.56
390.512	93.56
390.736	110.56
390.961	94.56
391.186	85.56
391.411	100.56
391.636	93.56
391.86	88.56
392.085	92.56
392.31	85.56
392.534	82.56
392.759	83.56
392.984	85.56
393.208	89.56
393.433	72.56
393.658	99.56
393.882	95.56
394.107	83.56
394.331	99.56
394.556	81.56
394.78	96.56
395.005	84.56
395.229	84.56
395.454	85.56
395.678	102.56
395.903	105.56
396.127	100.56
396.352	89.56
396.576	77.56
396.801	91.56
397.025	82.56
397.249	82.56
397.474	101.56
397.698	93.56
397.922	90.56
398.147	82.56
398.371	80.56
398.595	88.56
398.82	100.56
399.044	89.56
399.268	69.56
399.492	92.56
399.717	75.56
399.941	85.56
400.165	107.56
400.389	95.56
400.613	93.56
400.837	90.56
401.062	72.56
401.286	104.56
401.51	93.56
401.734	76.56
401.958	99.56
402.182	128.56
402.406	170.56
402.63	130.56
402.854	100.56
403.078	96.56
403.302	86.56
403.526	87.56
403.75	84.56
403.974	85.56
404.198	79.56
404.422	93.56
404.645	97.56
404.869	83.56
405.093	93.56
405.317	95.56
405.541	104.56
405.765	105.56
405.988	122.56
406.212	174.56
406.436	244.56
406.66	148.56
406.883	90.56
407.107	89.56
407.331	95.56
407.555	96.56
407.778	102.56
408.002	96.56
408.226	90.56
408.449	88.56
408.673	96.56
408.896	85.56
409.12	96.56
409.344	92.56
409.567	98.56
409.791	85.56
410.014	102.56
410.238	85.56
410.461	99.56
410.685	97.56
410.908	116.56
411.132	106.56
411.355	98.56
411.578	93.56
411.802	81.56
412.025	89.56
412.249	104.56
412.472	94.56
412.695	78.56
412.919	89.56
413.142	94.56
413.365	91.56
413.589	74.56
413.812	89.56
414.035	98.56
414.258	89.56
414.482	74.56
414.705	89.56
414.928	83.56
415.151	94.56
415.374	103.56
415.597	107.56
415.821	89.56
416.044	82.56
416.267	90.56
416.49	92.56
416.713	96.56
416.936	79.56
417.159	82.56
417.382	80.56
417.605	94.56
417.828	78.56
418.051	92.56
418.274	85.56
418.497	80.56
418.72	83.56
418.943	85.56
419.166	99.56
419.389	91.56
419.611	92.56
419.834	97.56
420.057	98.56
420.28	79.56
420.503	86.56
420.726	78.56
420.948	86.56
421.171	88.56
421.394	89.56
421.617	100.56
421.839	98.56
422.062	90.56
422.285	96.56
422.507	92.56
422.73	112.56
422.953	98.56
423.175	92.56
423.398	86.56
423.621	90.56
423.843	85.56
424.066	97.56
424.288	93.56
424.511	92.56
424.733	84.56
424.956	129.56
425.178	94.56
425.401	102.56
425.623	118.56
425.846	97.56
426.068	99.56
426.291	80.56
426.513	95.56
426.735	81.56
426.958	85.56
427.18	100.56
427.402	147.56
427.625	182.56
427.847	133.56
428.069	94.56
428.292	86.56
428.514	78.56
428.736	80.56
428.958	78.56
429.181	81.56
429.403	90.56
429.625	84.56
429.847	86.56
430.069	95.56
430.292	95.56
430.514	72.56
430.736	81.56
430.958	86.56
431.18	65.56
431.402	93.56
431.624	85.56
431.846	89.56
432.068	78.56
432.29	87.56
432.512	75.56
432.734	97.56
432.956	105.56
433.178	104.56
433.4	79.56
433.622	98.56
433.844	95.56
434.066	96.56
434.287	89.56
434.509	100.56
434.731	87.56
434.953	84.56
435.175	97.56
435.397	97.56
435.618	100.56
435.84	101.56
436.062	113.56
436.284	124.56
436.505	96.56
436.727	109.56
436.949	101.56
437.17	94.56
437.392	96.56
437.614	93.56
437.835	110.56
438.057	125.56
438.278	110.56
438.5	101.56
438.721	120.56
438.943	115.56
439.165	85.56
439.386	83.56
439.608	91.56
439.829	104.56
440.05	114.56
440.272	155.56
440.493	101.56
440.715	86.56
440.936	99.56
441.158	84.56
441.379	101.56
441.6	93.56
441.822	85.56
442.043	99.56
442.264	102.56
442.486	108.56
442.707	99.56
442.928	105.56
443.149	142.56
443.371	146.56
443.592	121.56
443.813	113.56
444.034	118.56
444.255	95.56
444.476	75.56
444.698	101.56
444.919	76.56
445.14	117.56
445.361	130.56
445.582	112.56
445.803	157.56
446.024	154.56
446.245	123.56
446.466	108.56
446.687	90.56
446.908	96.56
447.129	96.56
447.35	87.56
447.571	97.56
447.792	91.56
448.013	79.56
448.234	102.56
448.455	105.56
448.675	107.56
448.896	119.56
449.117	107.56
449.338	93.56
449.559	126.56
449.779	137.56
450	104.56
450.221	100.56
450.442	94.56
450.662	89.56
450.883	106.56
451.104	111.56
451.324	86.56
451.545	90.56
451.766	85.56
451.986	90.56
452.207	92.56
452.428	108.56
452.648	94.56
452.869	109.56
453.089	115.56
453.31	121.56
453.53	107.56
453.751	95.56
453.971	105.56
454.192	111.56
454.412	102.56
454.633	100.56
454.853	85.56
455.073	100.56
455.294	97.56
455.514	91.56
455.734	105.56
455.955	95.56
456.175	80.56
456.395	76.56
456.616	78.56
456.836	87.56
457.056	84.56
457.276	87.56
457.497	85.56
457.717	78.56
457.937	98.56
458.157	93.56
458.377	94.56
458.598	108.56
458.818	147.56
459.038	168.56
459.258	115.56
459.478	98.56
459.698	87.56
459.918	83.56
460.138	89.56
460.358	89.56
460.578	82.56
460.798	90.56
461.018	82.56
461.238	101.56
461.458	87.56
461.678	82.56
461.898	88.56
462.118	78.56
462.338	91.56
462.558	80.56
462.777	84.56
462.997	85.56
463.217	81.56
463.437	80.56
463.657	88.56
463.876	92.56
464.096	104.56
464.316	100.56
464.536	91.56
464.755	95.56
464.975	101.56
465.195	160.56
465.414	164.56
465.634	95.56
465.854	88.56
466.073	99.56
466.293	82.56
466.512	79.56
466.732	80.56
466.951	72.56
467.171	87.56
467.391	89.56
467.61	106.56
467.829	99.56
468.049	89.56
468.268	86.56
468.488	96.56
468.707	86.56
468.927	94.56
469.146	95.56
469.365	89.56
469.585	106.56
469.804	102.56
470.023	110.56
470.243	95.56
470.462	98.56
470.681	121.56
470.901	92.56
471.12	86.56
471.339	84.56
471.558	90.56
471.777	85.56
471.997	80.56
472.216	86.56
472.435	91.56
472.654	112.56
472.873	73.56
473.092	90.56
473.311	68.56
473.53	91.56
473.749	100.56
473.968	86.56
474.187	99.56
474.406	91.56
474.625	91.56
474.844	85.56
475.063	82.56
475.282	94.56
475.501	84.56
475.72	95.56
475.939	75.56
476.158	82.56
476.377	90.56
476.596	90.56
476.814	90.56
477.033	103.56
477.252	79.56
477.471	85.56
477.69	95.56
477.908	88.56
478.127	75.56
478.346	89.56
478.564	81.56
478.783	91.56
479.002	74.56
479.22	89.56
479.439	103.56
479.658	101.56
479.876	92.56
480.095	73.56
480.313	95.56
480.532	91.56
480.751	90.56
480.969	88.56
481.188	89.56
481.406	86.56
481.624	90.56
481.843	90.56
482.061	99.56
482.28	107.56
482.498	81.56
482.717	89.56
482.935	101.56
483.153	99.56
483.372	76.56
483.59	97.56
483.808	75.56
484.027	90.56
484.245	89.56
484.463	85.56
484.681	86.56
484.9	84.56
485.118	94.56
485.336	86.56
485.554	92.56
485.772	107.56
485.99	93.56
486.209	94.56
486.427	108.56
486.645	109.56
486.863	109.56
487.081	93.56
487.299	99.56
487.517	96.56
487.735	91.56
487.953	100.56
488.171	81.56
488.389	97.56
488.607	100.56
488.825	93.56
489.043	99.56
489.261	97.56
489.479	89.56
489.696	89.56
489.914	95.56
490.132	96.56
490.35	86.56
490.568	95.56
490.786	88.56
491.003	95.56
491.221	79.56
491.439	82.56
491.657	100.56
491.874	87.56
492.092	92.56
492.31	97.56
492.527	90.56
492.745	75.56
492.963	84.56
493.18	83.56
493.398	91.56
493.615	94.56
493.833	111.56
494.05	91.56
494.268	89.56
494.485	91.56
494.703	87.56
494.92	92.56
495.138	80.56
495.355	81.56
495.573	76.56
495.79	86.56
496.008	97.56
496.225	95.56
496.442	90.56
496.66	94.56
496.877	82.56
497.094	87.56
497.312	99.56
497.529	94.56
497.746	77.56
497.963	101.56
498.181	87.56
498.398	97.56
498.615	100.56
498.832	95.56
499.049	93.56
499.267	82.56
499.484	92.56
499.701	88.56
499.918	93.56
500.135	90.56
500.352	106.56
500.569	86.56
500.786	81.56
501.003	104.56
501.22	106.56
501.437	92.56
501.654	84.56
501.871	118.56
502.088	81.56
502.305	95.56
502.522	89.56
502.739	94.56
502.956	93.56
503.172	102.56
503.389	94.56
503.606	101.56
503.823	96.56
504.04	89.56
504.256	95.56
504.473	77.56
504.69	104.56
504.907	85.56
505.123	101.56
505.34	102.56
505.557	97.56
505.773	93.56
505.99	84.56
506.207	81.56
506.423	75.56
506.64	93.56
506.856	79.56
507.073	85.56
507.289	91.56
507.506	98.56
507.722	124.56
507.939	116.56
508.155	85.56
508.372	87.56
508.588	83.56
508.805	94.56
509.021	100.56
509.238	104.56
509.454	81.56
509.67	103.56
509.887	108.56
510.103	156.56
510.319	227.56
510.536	836.56
510.752	2828.56
510.968	783.56
511.184	170.56
511.401	122.56
511.617	106.56
511.833	94.56
512.049	105.56
512.265	101.56
512.481	96.56
512.698	101.56
512.914	95.56
513.13	98.56
513.346	107.56
513.562	107.56
513.778	93.56
513.994	90.56
514.21	105.56
514.426	133.56
514.642	140.56
514.858	131.56
515.074	192.56
515.29	518.56
