Data from Uncirc_2007_H10_HRD10591_00074.txt Node
Date: Wed Jan 03 10:20:57 EST 2024
User: Yrep
Spectrometer: HR+D1059
Trigger mode: 1
Integration Time (sec): 1.000000E-1
Scans to average: 1
Electric dark correction enabled: true
Nonlinearity correction enabled: false
Boxcar width: 0
XAxis mode: Wavelengths
Number of Pixels in Spectrum: 2048
>>>>>Begin Spectral Data<<<<<
223.165	-8.88
223.4	-8.88
223.635	-8.88
223.869	-14.88
224.104	1.12
224.338	-2.88
224.573	-10.88
224.808	-20.88
225.042	-19.88
225.277	-4.88
225.511	-12.88
225.746	-4.88
225.98	3.12
226.215	8.12
226.449	1.12
226.683	31.12
226.918	21.12
227.152	35.12
227.387	35.12
227.621	14.12
227.856	49.12
228.09	43.12
228.324	50.12
228.559	51.12
228.793	56.12
229.027	57.12
229.262	77.12
229.496	78.12
229.73	78.12
229.964	79.12
230.199	60.12
230.433	68.12
230.667	87.12
230.901	79.12
231.136	75.12
231.37	68.12
231.604	73.12
231.838	77.12
232.072	63.12
232.306	91.12
232.541	69.12
232.775	79.12
233.009	84.12
233.243	61.12
233.477	77.12
233.711	83.12
233.945	72.12
234.179	81.12
234.413	81.12
234.647	89.12
234.881	72.12
235.115	69.12
235.349	70.12
235.583	77.12
235.817	81.12
236.051	74.12
236.285	77.12
236.519	85.12
236.753	60.12
236.987	82.12
237.221	80.12
237.455	72.12
237.689	76.12
237.922	75.12
238.156	82.12
238.39	58.12
238.624	76.12
238.858	83.12
239.091	92.12
239.325	71.12
239.559	68.12
239.793	74.12
240.027	64.12
240.26	72.12
240.494	76.12
240.728	75.12
240.961	76.12
241.195	85.12
241.429	69.12
241.662	63.12
241.896	72.12
242.13	77.12
242.363	76.12
242.597	68.12
242.83	69.12
243.064	77.12
243.298	72.12
243.531	87.12
243.765	85.12
243.998	74.12
244.232	71.12
244.465	76.12
244.699	79.12
244.932	64.12
245.166	81.12
245.399	80.12
245.633	67.12
245.866	74.12
246.099	81.12
246.333	67.12
246.566	75.12
246.8	75.12
247.033	92.12
247.266	77.12
247.5	85.12
247.733	82.12
247.966	91.12
248.2	75.12
248.433	76.12
248.666	84.12
248.899	72.12
249.133	86.12
249.366	100.12
249.599	95.12
249.832	80.12
250.066	65.12
250.299	77.12
250.532	85.12
250.765	77.12
250.998	60.12
251.231	84.12
251.465	84.12
251.698	66.12
251.931	71.12
252.164	84.12
252.397	89.12
252.63	75.12
252.863	59.12
253.096	86.12
253.329	90.12
253.562	95.12
253.795	87.12
254.028	80.12
254.261	82.12
254.494	77.12
254.727	79.12
254.96	81.12
255.193	71.12
255.426	75.12
255.659	69.12
255.892	83.12
256.124	79.12
256.357	90.12
256.59	77.12
256.823	75.12
257.056	89.12
257.289	76.12
257.521	59.12
257.754	81.12
257.987	74.12
258.22	80.12
258.452	78.12
258.685	80.12
258.918	80.12
259.151	68.12
259.383	75.12
259.616	76.12
259.849	85.12
260.081	85.12
260.314	92.12
260.547	81.12
260.779	85.12
261.012	87.12
261.244	76.12
261.477	87.12
261.71	96.12
261.942	104.12
262.175	112.12
262.407	92.12
262.64	84.12
262.872	84.12
263.105	82.12
263.337	80.12
263.57	83.12
263.802	81.12
264.035	91.12
264.267	74.12
264.499	66.12
264.732	89.12
264.964	80.12
265.197	76.12
265.429	76.12
265.661	93.12
265.894	85.12
266.126	101.12
266.358	79.12
266.591	69.12
266.823	79.12
267.055	85.12
267.287	87.12
267.52	76.12
267.752	85.12
267.984	73.12
268.216	77.12
268.448	79.12
268.681	88.12
268.913	69.12
269.145	88.12
269.377	84.12
269.609	73.12
269.841	76.12
270.073	65.12
270.306	78.12
270.538	91.12
270.77	86.12
271.002	83.12
271.234	99.12
271.466	84.12
271.698	92.12
271.93	68.12
272.162	82.12
272.394	83.12
272.626	84.12
272.858	83.12
273.09	73.12
273.322	81.12
273.553	90.12
273.785	86.12
274.017	86.12
274.249	85.12
274.481	88.12
274.713	87.12
274.945	80.12
275.176	72.12
275.408	79.12
275.64	81.12
275.872	88.12
276.104	92.12
276.335	92.12
276.567	93.12
276.799	97.12
277.031	93.12
277.262	96.12
277.494	72.12
277.726	69.12
277.957	95.12
278.189	82.12
278.421	86.12
278.652	77.12
278.884	85.12
279.115	96.12
279.347	81.12
279.579	66.12
279.81	81.12
280.042	87.12
280.273	65.12
280.505	84.12
280.736	73.12
280.968	89.12
281.199	84.12
281.431	84.12
281.662	73.12
281.894	83.12
282.125	104.12
282.356	116.12
282.588	152.12
282.819	114.12
283.051	72.12
283.282	74.12
283.513	79.12
283.745	80.12
283.976	80.12
284.207	85.12
284.439	95.12
284.67	74.12
284.901	77.12
285.132	84.12
285.364	80.12
285.595	79.12
285.826	82.12
286.057	84.12
286.288	77.12
286.52	87.12
286.751	93.12
286.982	89.12
287.213	85.12
287.444	84.12
287.675	84.12
287.906	74.12
288.138	79.12
288.369	91.12
288.6	72.12
288.831	90.12
289.062	78.12
289.293	83.12
289.524	89.12
289.755	83.12
289.986	88.12
290.217	85.12
290.448	92.12
290.679	85.12
290.91	116.12
291.141	86.12
291.371	87.12
291.602	80.12
291.833	75.12
292.064	91.12
292.295	89.12
292.526	91.12
292.757	85.12
292.987	78.12
293.218	79.12
293.449	84.12
293.68	91.12
293.91	94.12
294.141	92.12
294.372	98.12
294.603	86.12
294.833	77.12
295.064	87.12
295.295	92.12
295.525	81.12
295.756	96.12
295.987	108.12
296.217	136.12
296.448	135.12
296.679	88.12
296.909	78.12
297.14	92.12
297.37	74.12
297.601	88.12
297.831	86.12
298.062	89.12
298.292	89.12
298.523	82.12
298.753	103.12
298.984	85.12
299.214	96.12
299.445	99.12
299.675	88.12
299.905	91.12
300.136	98.12
300.366	83.12
300.597	86.12
300.827	89.12
301.057	99.12
301.288	97.12
301.518	91.12
301.748	92.12
301.979	101.12
302.209	92.12
302.439	89.12
302.669	99.12
302.9	84.12
303.13	90.12
303.36	75.12
303.59	98.12
303.82	104.12
304.051	89.12
304.281	99.12
304.511	94.12
304.741	88.12
304.971	80.12
305.201	82.12
305.431	88.12
305.661	85.12
305.891	87.12
306.121	90.12
306.352	89.12
306.582	97.12
306.812	91.12
307.042	93.12
307.272	85.12
307.502	106.12
307.731	75.12
307.961	83.12
308.191	90.12
308.421	86.12
308.651	96.12
308.881	90.12
309.111	93.12
309.341	83.12
309.571	90.12
309.8	102.12
310.03	95.12
310.26	104.12
310.49	83.12
310.72	93.12
310.949	100.12
311.179	99.12
311.409	79.12
311.639	86.12
311.868	92.12
312.098	91.12
312.328	86.12
312.557	107.12
312.787	105.12
313.017	107.12
313.246	73.12
313.476	95.12
313.706	88.12
313.935	82.12
314.165	108.12
314.394	100.12
314.624	101.12
314.853	84.12
315.083	97.12
315.312	96.12
315.542	98.12
315.771	90.12
316.001	98.12
316.23	86.12
316.46	97.12
316.689	95.12
316.919	94.12
317.148	88.12
317.377	88.12
317.607	94.12
317.836	80.12
318.065	91.12
318.295	99.12
318.524	90.12
318.753	97.12
318.983	92.12
319.212	92.12
319.441	107.12
319.67	88.12
319.9	85.12
320.129	90.12
320.358	96.12
320.587	100.12
320.816	78.12
321.046	105.12
321.275	100.12
321.504	90.12
321.733	103.12
321.962	96.12
322.191	94.12
322.42	105.12
322.649	111.12
322.878	114.12
323.108	119.12
323.337	126.12
323.566	125.12
323.795	169.12
324.024	213.12
324.253	410.12
324.482	917.12
324.71	1950.12
324.939	2540.12
325.168	897.12
325.397	249.12
325.626	167.12
325.855	124.12
326.084	115.12
326.313	130.12
326.542	167.12
326.77	242.12
326.999	487.12
327.228	1092.12
327.457	1977.12
327.686	1511.12
327.914	400.12
328.143	193.12
328.372	140.12
328.6	138.12
328.829	120.12
329.058	124.12
329.287	132.12
329.515	117.12
329.744	108.12
329.972	100.12
330.201	94.12
330.43	96.12
330.658	111.12
330.887	140.12
331.115	114.12
331.344	98.12
331.572	100.12
331.801	101.12
332.03	111.12
332.258	92.12
332.486	93.12
332.715	97.12
332.943	94.12
333.172	76.12
333.4	103.12
333.629	96.12
333.857	119.12
334.085	84.12
334.314	80.12
334.542	96.12
334.771	96.12
334.999	82.12
335.227	90.12
335.455	93.12
335.684	87.12
335.912	96.12
336.14	96.12
336.369	105.12
336.597	100.12
336.825	93.12
337.053	97.12
337.281	95.12
337.51	87.12
337.738	83.12
337.966	98.12
338.194	96.12
338.422	96.12
338.65	83.12
338.878	91.12
339.106	88.12
339.334	103.12
339.562	83.12
339.79	89.12
340.018	92.12
340.246	91.12
340.474	91.12
340.702	93.12
340.93	103.12
341.158	91.12
341.386	83.12
341.614	103.12
341.842	94.12
342.07	75.12
342.298	82.12
342.526	86.12
342.754	83.12
342.981	88.12
343.209	85.12
343.437	100.12
343.665	90.12
343.893	92.12
344.12	90.12
344.348	88.12
344.576	103.12
344.804	81.12
345.031	93.12
345.259	91.12
345.487	89.12
345.714	92.12
345.942	88.12
346.17	77.12
346.397	90.12
346.625	97.12
346.853	79.12
347.08	77.12
347.308	82.12
347.535	94.12
347.763	113.12
347.99	88.12
348.218	97.12
348.445	106.12
348.673	101.12
348.9	94.12
349.128	93.12
349.355	98.12
349.583	97.12
349.81	91.12
350.037	95.12
350.265	89.12
350.492	84.12
350.72	107.12
350.947	105.12
351.174	111.12
351.402	104.12
351.629	103.12
351.856	95.12
352.083	104.12
352.311	93.12
352.538	99.12
352.765	97.12
352.992	114.12
353.22	101.12
353.447	115.12
353.674	98.12
353.901	98.12
354.128	93.12
354.355	101.12
354.583	95.12
354.81	86.12
355.037	100.12
355.264	106.12
355.491	103.12
355.718	93.12
355.945	97.12
356.172	97.12
356.399	98.12
356.626	90.12
356.853	88.12
357.08	94.12
357.307	81.12
357.534	95.12
357.761	88.12
357.988	100.12
358.215	96.12
358.441	95.12
358.668	82.12
358.895	91.12
359.122	84.12
359.349	88.12
359.576	81.12
359.802	99.12
360.029	103.12
360.256	112.12
360.483	85.12
360.709	81.12
360.936	95.12
361.163	105.12
361.39	107.12
361.616	80.12
361.843	91.12
362.07	93.12
362.296	101.12
362.523	89.12
362.749	85.12
362.976	99.12
363.203	93.12
363.429	81.12
363.656	100.12
363.882	83.12
364.109	105.12
364.335	104.12
364.562	80.12
364.788	91.12
365.015	90.12
365.241	103.12
365.468	91.12
365.694	114.12
365.92	102.12
366.147	97.12
366.373	78.12
366.599	73.12
366.826	88.12
367.052	83.12
367.278	108.12
367.505	96.12
367.731	83.12
367.957	85.12
368.184	83.12
368.41	94.12
368.636	108.12
368.862	120.12
369.089	93.12
369.315	97.12
369.541	95.12
369.767	99.12
369.993	90.12
370.219	97.12
370.445	87.12
370.672	83.12
370.898	89.12
371.124	93.12
371.35	96.12
371.576	81.12
371.802	89.12
372.028	80.12
372.254	85.12
372.48	101.12
372.706	88.12
372.932	85.12
373.158	98.12
373.384	87.12
373.61	87.12
373.835	97.12
374.061	97.12
374.287	75.12
374.513	82.12
374.739	89.12
374.965	82.12
375.191	89.12
375.416	89.12
375.642	93.12
375.868	97.12
376.094	91.12
376.319	72.12
376.545	69.12
376.771	82.12
376.997	87.12
377.222	92.12
377.448	80.12
377.674	89.12
377.899	90.12
378.125	90.12
378.35	88.12
378.576	84.12
378.802	97.12
379.027	77.12
379.253	105.12
379.478	99.12
379.704	90.12
379.929	100.12
380.155	106.12
380.38	93.12
380.606	88.12
380.831	100.12
381.057	96.12
381.282	104.12
381.507	89.12
381.733	97.12
381.958	93.12
382.184	106.12
382.409	96.12
382.634	98.12
382.86	98.12
383.085	101.12
383.31	87.12
383.535	104.12
383.761	106.12
383.986	93.12
384.211	111.12
384.436	95.12
384.662	93.12
384.887	96.12
385.112	101.12
385.337	108.12
385.562	111.12
385.787	121.12
386.013	88.12
386.238	100.12
386.463	105.12
386.688	108.12
386.913	95.12
387.138	91.12
387.363	107.12
387.588	106.12
387.813	94.12
388.038	106.12
388.263	119.12
388.488	119.12
388.713	110.12
388.938	93.12
389.163	101.12
389.387	101.12
389.612	104.12
389.837	99.12
390.062	89.12
390.287	87.12
390.512	101.12
390.736	95.12
390.961	78.12
391.186	83.12
391.411	81.12
391.636	86.12
391.86	84.12
392.085	87.12
392.31	92.12
392.534	78.12
392.759	78.12
392.984	85.12
393.208	86.12
393.433	84.12
393.658	92.12
393.882	95.12
394.107	87.12
394.331	92.12
394.556	99.12
394.78	87.12
395.005	85.12
395.229	82.12
395.454	89.12
395.678	82.12
395.903	89.12
396.127	95.12
396.352	89.12
396.576	75.12
396.801	91.12
397.025	92.12
397.249	94.12
397.474	101.12
397.698	91.12
397.922	92.12
398.147	93.12
398.371	91.12
398.595	86.12
398.82	92.12
399.044	79.12
399.268	79.12
399.492	83.12
399.717	84.12
399.941	98.12
400.165	91.12
400.389	93.12
400.613	75.12
400.837	89.12
401.062	80.12
401.286	115.12
401.51	87.12
401.734	93.12
401.958	92.12
402.182	130.12
402.406	160.12
402.63	120.12
402.854	92.12
403.078	90.12
403.302	86.12
403.526	92.12
403.75	104.12
403.974	87.12
404.198	77.12
404.422	95.12
404.645	79.12
404.869	90.12
405.093	87.12
405.317	88.12
405.541	86.12
405.765	110.12
405.988	109.12
406.212	180.12
406.436	237.12
406.66	146.12
406.883	105.12
407.107	97.12
407.331	111.12
407.555	110.12
407.778	95.12
408.002	90.12
408.226	87.12
408.449	92.12
408.673	76.12
408.896	96.12
409.12	103.12
409.344	86.12
409.567	100.12
409.791	94.12
410.014	93.12
410.238	89.12
410.461	98.12
410.685	92.12
410.908	96.12
411.132	105.12
411.355	90.12
411.578	90.12
411.802	92.12
412.025	76.12
412.249	91.12
412.472	78.12
412.695	92.12
412.919	88.12
413.142	81.12
413.365	67.12
413.589	84.12
413.812	98.12
414.035	95.12
414.258	74.12
414.482	98.12
414.705	91.12
414.928	85.12
415.151	87.12
415.374	93.12
415.597	77.12
415.821	95.12
416.044	99.12
416.267	77.12
416.49	91.12
416.713	85.12
416.936	86.12
417.159	87.12
417.382	96.12
417.605	91.12
417.828	91.12
418.051	84.12
418.274	84.12
418.497	86.12
418.72	77.12
418.943	81.12
419.166	82.12
419.389	91.12
419.611	87.12
419.834	90.12
420.057	88.12
420.28	76.12
420.503	99.12
420.726	85.12
420.948	88.12
421.171	103.12
421.394	93.12
421.617	89.12
421.839	81.12
422.062	84.12
422.285	99.12
422.507	92.12
422.73	109.12
422.953	96.12
423.175	81.12
423.398	86.12
423.621	91.12
423.843	80.12
424.066	85.12
424.288	91.12
424.511	80.12
424.733	101.12
424.956	103.12
425.178	92.12
425.401	89.12
425.623	95.12
425.846	82.12
426.068	84.12
426.291	91.12
426.513	101.12
426.735	104.12
426.958	96.12
427.18	100.12
427.402	139.12
427.625	156.12
427.847	121.12
428.069	98.12
428.292	77.12
428.514	87.12
428.736	76.12
428.958	92.12
429.181	97.12
429.403	105.12
429.625	87.12
429.847	101.12
430.069	97.12
430.292	112.12
430.514	77.12
430.736	82.12
430.958	71.12
431.18	91.12
431.402	72.12
431.624	84.12
431.846	83.12
432.068	96.12
432.29	82.12
432.512	94.12
432.734	91.12
432.956	78.12
433.178	95.12
433.4	98.12
433.622	81.12
433.844	88.12
434.066	71.12
434.287	76.12
434.509	91.12
434.731	98.12
434.953	94.12
435.175	98.12
435.397	81.12
435.618	89.12
435.84	92.12
436.062	132.12
436.284	117.12
436.505	103.12
436.727	105.12
436.949	93.12
437.17	85.12
437.392	75.12
437.614	89.12
437.835	110.12
438.057	111.12
438.278	97.12
438.5	98.12
438.721	127.12
438.943	110.12
439.165	81.12
439.386	79.12
439.608	100.12
439.829	100.12
440.05	129.12
440.272	145.12
440.493	96.12
440.715	75.12
440.936	89.12
441.158	93.12
441.379	93.12
441.6	83.12
441.822	100.12
442.043	94.12
442.264	106.12
442.486	91.12
442.707	101.12
442.928	105.12
443.149	129.12
443.371	126.12
443.592	96.12
443.813	99.12
444.034	113.12
444.255	80.12
444.476	82.12
444.698	84.12
444.919	85.12
445.14	116.12
445.361	123.12
445.582	103.12
445.803	135.12
446.024	132.12
446.245	129.12
446.466	113.12
446.687	89.12
446.908	108.12
447.129	89.12
447.35	93.12
447.571	77.12
447.792	81.12
448.013	88.12
448.234	99.12
448.455	103.12
448.675	113.12
448.896	120.12
449.117	106.12
449.338	105.12
449.559	141.12
449.779	125.12
450	99.12
450.221	94.12
450.442	84.12
450.662	85.12
450.883	103.12
451.104	100.12
451.324	99.12
451.545	87.12
451.766	84.12
451.986	90.12
452.207	91.12
452.428	101.12
452.648	97.12
452.869	111.12
453.089	114.12
453.31	124.12
453.53	94.12
453.751	90.12
453.971	106.12
454.192	114.12
454.412	91.12
454.633	99.12
454.853	85.12
455.073	92.12
455.294	92.12
455.514	94.12
455.734	79.12
455.955	80.12
456.175	81.12
456.395	89.12
456.616	85.12
456.836	87.12
457.056	73.12
457.276	72.12
457.497	84.12
457.717	78.12
457.937	82.12
458.157	95.12
458.377	90.12
458.598	100.12
458.818	145.12
459.038	146.12
459.258	124.12
459.478	88.12
459.698	86.12
459.918	82.12
460.138	82.12
460.358	78.12
460.578	99.12
460.798	89.12
461.018	83.12
461.238	80.12
461.458	84.12
461.678	92.12
461.898	82.12
462.118	91.12
462.338	81.12
462.558	83.12
462.777	95.12
462.997	89.12
463.217	73.12
463.437	78.12
463.657	78.12
463.876	76.12
464.096	94.12
464.316	90.12
464.536	86.12
464.755	98.12
464.975	100.12
465.195	164.12
465.414	167.12
465.634	102.12
465.854	88.12
466.073	75.12
466.293	78.12
466.512	66.12
466.732	79.12
466.951	79.12
467.171	82.12
467.391	100.12
467.61	101.12
467.829	99.12
468.049	101.12
468.268	98.12
468.488	92.12
468.707	81.12
468.927	87.12
469.146	90.12
469.365	81.12
469.585	84.12
469.804	102.12
470.023	83.12
470.243	85.12
470.462	84.12
470.681	113.12
470.901	87.12
471.12	84.12
471.339	85.12
471.558	76.12
471.777	83.12
471.997	84.12
472.216	87.12
472.435	86.12
472.654	86.12
472.873	98.12
473.092	80.12
473.311	75.12
473.53	84.12
473.749	86.12
473.968	80.12
474.187	101.12
474.406	103.12
474.625	85.12
474.844	98.12
475.063	84.12
475.282	89.12
475.501	87.12
475.72	89.12
475.939	94.12
476.158	79.12
476.377	80.12
476.596	89.12
476.814	84.12
477.033	96.12
477.252	84.12
477.471	82.12
477.69	88.12
477.908	92.12
478.127	82.12
478.346	95.12
478.564	78.12
478.783	97.12
479.002	92.12
479.22	90.12
479.439	102.12
479.658	95.12
479.876	90.12
480.095	95.12
480.313	87.12
480.532	88.12
480.751	85.12
480.969	88.12
481.188	84.12
481.406	84.12
481.624	80.12
481.843	83.12
482.061	82.12
482.28	74.12
482.498	71.12
482.717	79.12
482.935	90.12
483.153	78.12
483.372	93.12
483.59	88.12
483.808	87.12
484.027	80.12
484.245	85.12
484.463	77.12
484.681	80.12
484.9	90.12
485.118	93.12
485.336	89.12
485.554	104.12
485.772	99.12
485.99	107.12
486.209	102.12
486.427	112.12
486.645	103.12
486.863	107.12
487.081	100.12
487.299	85.12
487.517	87.12
487.735	98.12
487.953	75.12
488.171	83.12
488.389	77.12
488.607	101.12
488.825	88.12
489.043	83.12
489.261	87.12
489.479	90.12
489.696	94.12
489.914	81.12
490.132	91.12
490.35	69.12
490.568	88.12
490.786	85.12
491.003	85.12
491.221	90.12
491.439	81.12
491.657	94.12
491.874	88.12
492.092	85.12
492.31	92.12
492.527	99.12
492.745	82.12
492.963	85.12
493.18	84.12
493.398	97.12
493.615	90.12
493.833	94.12
494.05	91.12
494.268	104.12
494.485	87.12
494.703	89.12
494.92	93.12
495.138	100.12
495.355	91.12
495.573	98.12
495.79	71.12
496.008	95.12
496.225	83.12
496.442	101.12
496.66	94.12
496.877	91.12
497.094	85.12
497.312	86.12
497.529	99.12
497.746	76.12
497.963	102.12
498.181	95.12
498.398	88.12
498.615	94.12
498.832	98.12
499.049	85.12
499.267	74.12
499.484	84.12
499.701	99.12
499.918	100.12
500.135	80.12
500.352	95.12
500.569	86.12
500.786	88.12
501.003	99.12
501.22	85.12
501.437	91.12
501.654	97.12
501.871	99.12
502.088	103.12
502.305	89.12
502.522	96.12
502.739	76.12
502.956	91.12
503.172	83.12
503.389	91.12
503.606	98.12
503.823	97.12
504.04	104.12
504.256	96.12
504.473	84.12
504.69	90.12
504.907	90.12
505.123	96.12
505.34	82.12
505.557	100.12
505.773	87.12
505.99	84.12
506.207	87.12
506.423	93.12
506.64	88.12
506.856	92.12
507.073	88.12
507.289	97.12
507.506	95.12
507.722	105.12
507.939	88.12
508.155	75.12
508.372	81.12
508.588	91.12
508.805	96.12
509.021	79.12
509.238	96.12
509.454	87.12
509.67	99.12
509.887	107.12
510.103	128.12
510.319	227.12
510.536	783.12
510.752	2577.12
510.968	735.12
511.184	161.12
511.401	102.12
511.617	103.12
511.833	101.12
512.049	78.12
512.265	87.12
512.481	91.12
512.698	81.12
512.914	91.12
513.13	96.12
513.346	84.12
513.562	91.12
513.778	88.12
513.994	96.12
514.21	110.12
514.426	111.12
514.642	107.12
514.858	122.12
515.074	180.12
515.29	467.12
515.506	1593.12
515.721	581.12
515.937	152.12
516.153	110.12
516.369	91.12
