Data from Uncirc_2007_H10_HRD10591_00089.txt Node
Date: Wed Jan 03 10:21:00 EST 2024
User: Yrep
Spectrometer: HR+D1059
Trigger mode: 1
Integration Time (sec): 1.000000E-1
Scans to average: 1
Electric dark correction enabled: true
Nonlinearity correction enabled: false
Boxcar width: 0
XAxis mode: Wavelengths
Number of Pixels in Spectrum: 2048
>>>>>Begin Spectral Data<<<<<
223.165	-34.5
223.4	-34.5
223.635	-34.5
223.869	-19.5
224.104	-18.5
224.338	-4.5
224.573	3.5
224.808	-12.5
225.042	-6.5
225.277	5.5
225.511	-2.5
225.746	11.5
225.98	7.5
226.215	3.5
226.449	10.5
226.683	14.5
226.918	20.5
227.152	21.5
227.387	34.5
227.621	31.5
227.856	50.5
228.09	46.5
228.324	60.5
228.559	52.5
228.793	56.5
229.027	65.5
229.262	71.5
229.496	78.5
229.73	83.5
229.964	88.5
230.199	64.5
230.433	66.5
230.667	76.5
230.901	77.5
231.136	72.5
231.37	77.5
231.604	69.5
231.838	83.5
232.072	77.5
232.306	84.5
232.541	83.5
232.775	78.5
233.009	87.5
233.243	83.5
233.477	65.5
233.711	80.5
233.945	73.5
234.179	78.5
234.413	73.5
234.647	79.5
234.881	72.5
235.115	86.5
235.349	75.5
235.583	74.5
235.817	77.5
236.051	67.5
236.285	80.5
236.519	69.5
236.753	66.5
236.987	80.5
237.221	78.5
237.455	81.5
237.689	80.5
237.922	72.5
238.156	81.5
238.39	54.5
238.624	61.5
238.858	71.5
239.091	76.5
239.325	64.5
239.559	79.5
239.793	70.5
240.027	73.5
240.26	59.5
240.494	68.5
240.728	79.5
240.961	74.5
241.195	71.5
241.429	58.5
241.662	81.5
241.896	70.5
242.13	79.5
242.363	81.5
242.597	79.5
242.83	65.5
243.064	82.5
243.298	77.5
243.531	69.5
243.765	73.5
243.998	75.5
244.232	79.5
244.465	78.5
244.699	69.5
244.932	65.5
245.166	71.5
245.399	81.5
245.633	71.5
245.866	70.5
246.099	71.5
246.333	82.5
246.566	76.5
246.8	81.5
247.033	75.5
247.266	75.5
247.5	76.5
247.733	63.5
247.966	84.5
248.2	77.5
248.433	59.5
248.666	71.5
248.899	79.5
249.133	72.5
249.366	81.5
249.599	91.5
249.832	68.5
250.066	81.5
250.299	72.5
250.532	82.5
250.765	80.5
250.998	81.5
251.231	69.5
251.465	71.5
251.698	81.5
251.931	67.5
252.164	78.5
252.397	65.5
252.63	78.5
252.863	75.5
253.096	71.5
253.329	80.5
253.562	67.5
253.795	86.5
254.028	83.5
254.261	73.5
254.494	80.5
254.727	69.5
254.96	72.5
255.193	79.5
255.426	79.5
255.659	75.5
255.892	72.5
256.124	70.5
256.357	77.5
256.59	85.5
256.823	67.5
257.056	94.5
257.289	88.5
257.521	89.5
257.754	78.5
257.987	83.5
258.22	83.5
258.452	71.5
258.685	75.5
258.918	78.5
259.151	80.5
259.383	83.5
259.616	87.5
259.849	73.5
260.081	86.5
260.314	94.5
260.547	82.5
260.779	69.5
261.012	86.5
261.244	80.5
261.477	89.5
261.71	93.5
261.942	102.5
262.175	111.5
262.407	95.5
262.64	63.5
262.872	86.5
263.105	77.5
263.337	84.5
263.57	77.5
263.802	88.5
264.035	78.5
264.267	79.5
264.499	93.5
264.732	75.5
264.964	88.5
265.197	95.5
265.429	92.5
265.661	81.5
265.894	85.5
266.126	83.5
266.358	86.5
266.591	89.5
266.823	83.5
267.055	76.5
267.287	79.5
267.52	104.5
267.752	69.5
267.984	75.5
268.216	84.5
268.448	79.5
268.681	84.5
268.913	86.5
269.145	66.5
269.377	79.5
269.609	85.5
269.841	85.5
270.073	90.5
270.306	96.5
270.538	77.5
270.77	89.5
271.002	77.5
271.234	83.5
271.466	83.5
271.698	83.5
271.93	77.5
272.162	83.5
272.394	77.5
272.626	90.5
272.858	95.5
273.09	88.5
273.322	85.5
273.553	75.5
273.785	92.5
274.017	77.5
274.249	81.5
274.481	92.5
274.713	81.5
274.945	87.5
275.176	79.5
275.408	73.5
275.64	78.5
275.872	89.5
276.104	91.5
276.335	99.5
276.567	104.5
276.799	101.5
277.031	79.5
277.262	88.5
277.494	87.5
277.726	60.5
277.957	96.5
278.189	85.5
278.421	89.5
278.652	83.5
278.884	86.5
279.115	83.5
279.347	74.5
279.579	82.5
279.81	78.5
280.042	89.5
280.273	81.5
280.505	75.5
280.736	83.5
280.968	93.5
281.199	79.5
281.431	83.5
281.662	87.5
281.894	78.5
282.125	100.5
282.356	107.5
282.588	126.5
282.819	119.5
283.051	92.5
283.282	79.5
283.513	87.5
283.745	90.5
283.976	80.5
284.207	97.5
284.439	93.5
284.67	83.5
284.901	81.5
285.132	93.5
285.364	85.5
285.595	89.5
285.826	91.5
286.057	81.5
286.288	78.5
286.52	81.5
286.751	76.5
286.982	94.5
287.213	89.5
287.444	82.5
287.675	70.5
287.906	89.5
288.138	95.5
288.369	92.5
288.6	88.5
288.831	84.5
289.062	71.5
289.293	87.5
289.524	90.5
289.755	84.5
289.986	75.5
290.217	93.5
290.448	77.5
290.679	77.5
290.91	67.5
291.141	89.5
291.371	81.5
291.602	92.5
291.833	87.5
292.064	66.5
292.295	77.5
292.526	92.5
292.757	81.5
292.987	88.5
293.218	97.5
293.449	73.5
293.68	93.5
293.91	71.5
294.141	92.5
294.372	81.5
294.603	79.5
294.833	93.5
295.064	88.5
295.295	96.5
295.525	94.5
295.756	100.5
295.987	111.5
296.217	137.5
296.448	124.5
296.679	91.5
296.909	77.5
297.14	83.5
297.37	94.5
297.601	87.5
297.831	69.5
298.062	92.5
298.292	93.5
298.523	87.5
298.753	96.5
298.984	94.5
299.214	80.5
299.445	100.5
299.675	83.5
299.905	84.5
300.136	98.5
300.366	82.5
300.597	89.5
300.827	83.5
301.057	105.5
301.288	109.5
301.518	103.5
301.748	94.5
301.979	94.5
302.209	93.5
302.439	88.5
302.669	86.5
302.9	83.5
303.13	80.5
303.36	100.5
303.59	96.5
303.82	93.5
304.051	90.5
304.281	82.5
304.511	88.5
304.741	88.5
304.971	74.5
305.201	87.5
305.431	87.5
305.661	97.5
305.891	82.5
306.121	96.5
306.352	114.5
306.582	87.5
306.812	89.5
307.042	90.5
307.272	90.5
307.502	99.5
307.731	78.5
307.961	79.5
308.191	94.5
308.421	86.5
308.651	94.5
308.881	80.5
309.111	96.5
309.341	95.5
309.571	108.5
309.8	98.5
310.03	96.5
310.26	93.5
310.49	94.5
310.72	89.5
310.949	86.5
311.179	98.5
311.409	99.5
311.639	92.5
311.868	84.5
312.098	91.5
312.328	102.5
312.557	93.5
312.787	102.5
313.017	102.5
313.246	90.5
313.476	89.5
313.706	97.5
313.935	93.5
314.165	107.5
314.394	105.5
314.624	87.5
314.853	97.5
315.083	99.5
315.312	78.5
315.542	81.5
315.771	96.5
316.001	86.5
316.23	84.5
316.46	87.5
316.689	99.5
316.919	82.5
317.148	91.5
317.377	75.5
317.607	97.5
317.836	91.5
318.065	81.5
318.295	87.5
318.524	85.5
318.753	99.5
318.983	90.5
319.212	92.5
319.441	106.5
319.67	105.5
319.9	96.5
320.129	101.5
320.358	85.5
320.587	91.5
320.816	92.5
321.046	90.5
321.275	90.5
321.504	80.5
321.733	88.5
321.962	91.5
322.191	93.5
322.42	104.5
322.649	102.5
322.878	114.5
323.108	113.5
323.337	131.5
323.566	139.5
323.795	148.5
324.024	220.5
324.253	426.5
324.482	898.5
324.71	1870.5
324.939	2537.5
325.168	928.5
325.397	256.5
325.626	144.5
325.855	135.5
326.084	122.5
326.313	142.5
326.542	166.5
326.77	250.5
326.999	498.5
327.228	1082.5
327.457	1963.5
327.686	1509.5
327.914	389.5
328.143	184.5
328.372	148.5
328.6	138.5
328.829	127.5
329.058	135.5
329.287	118.5
329.515	112.5
329.744	102.5
329.972	101.5
330.201	96.5
330.43	102.5
330.658	110.5
330.887	148.5
331.115	113.5
331.344	83.5
331.572	95.5
331.801	97.5
332.03	85.5
332.258	103.5
332.486	90.5
332.715	93.5
332.943	103.5
333.172	90.5
333.4	77.5
333.629	100.5
333.857	112.5
334.085	97.5
334.314	88.5
334.542	89.5
334.771	89.5
334.999	94.5
335.227	95.5
335.455	89.5
335.684	93.5
335.912	97.5
336.14	82.5
336.369	103.5
336.597	98.5
336.825	83.5
337.053	82.5
337.281	89.5
337.51	86.5
337.738	94.5
337.966	81.5
338.194	102.5
338.422	101.5
338.65	95.5
338.878	101.5
339.106	82.5
339.334	93.5
339.562	95.5
339.79	99.5
340.018	85.5
340.246	95.5
340.474	94.5
340.702	82.5
340.93	70.5
341.158	73.5
341.386	93.5
341.614	89.5
341.842	87.5
342.07	98.5
342.298	91.5
342.526	87.5
342.754	79.5
342.981	84.5
343.209	78.5
343.437	88.5
343.665	83.5
343.893	102.5
344.12	88.5
344.348	91.5
344.576	90.5
344.804	89.5
345.031	93.5
345.259	105.5
345.487	102.5
345.714	86.5
345.942	105.5
346.17	103.5
346.397	103.5
346.625	88.5
346.853	89.5
347.08	85.5
347.308	87.5
347.535	92.5
347.763	102.5
347.99	95.5
348.218	107.5
348.445	93.5
348.673	106.5
348.9	86.5
349.128	95.5
349.355	92.5
349.583	83.5
349.81	91.5
350.037	91.5
350.265	81.5
350.492	97.5
350.72	88.5
350.947	100.5
351.174	108.5
351.402	102.5
351.629	95.5
351.856	106.5
352.083	90.5
352.311	103.5
352.538	96.5
352.765	113.5
352.992	109.5
353.22	118.5
353.447	98.5
353.674	89.5
353.901	97.5
354.128	100.5
354.355	98.5
354.583	94.5
354.81	89.5
355.037	83.5
355.264	95.5
355.491	93.5
355.718	88.5
355.945	97.5
356.172	92.5
356.399	88.5
356.626	88.5
356.853	90.5
357.08	84.5
357.307	106.5
357.534	78.5
357.761	82.5
357.988	81.5
358.215	101.5
358.441	93.5
358.668	84.5
358.895	90.5
359.122	90.5
359.349	91.5
359.576	93.5
359.802	90.5
360.029	104.5
360.256	111.5
360.483	82.5
360.709	73.5
360.936	83.5
361.163	87.5
361.39	85.5
361.616	82.5
361.843	89.5
362.07	84.5
362.296	84.5
362.523	86.5
362.749	91.5
362.976	89.5
363.203	85.5
363.429	90.5
363.656	78.5
363.882	94.5
364.109	91.5
364.335	101.5
364.562	86.5
364.788	85.5
365.015	91.5
365.241	92.5
365.468	108.5
365.694	112.5
365.92	93.5
366.147	81.5
366.373	81.5
366.599	82.5
366.826	73.5
367.052	88.5
367.278	79.5
367.505	70.5
367.731	91.5
367.957	92.5
368.184	102.5
368.41	108.5
368.636	102.5
368.862	107.5
369.089	105.5
369.315	92.5
369.541	74.5
369.767	89.5
369.993	93.5
370.219	78.5
370.445	85.5
370.672	84.5
370.898	86.5
371.124	83.5
371.35	86.5
371.576	84.5
371.802	82.5
372.028	94.5
372.254	102.5
372.48	76.5
372.706	91.5
372.932	69.5
373.158	91.5
373.384	89.5
373.61	86.5
373.835	89.5
374.061	89.5
374.287	82.5
374.513	92.5
374.739	77.5
374.965	93.5
375.191	69.5
375.416	73.5
375.642	95.5
375.868	91.5
376.094	85.5
376.319	91.5
376.545	83.5
376.771	97.5
376.997	80.5
377.222	83.5
377.448	93.5
377.674	90.5
377.899	90.5
378.125	84.5
378.35	90.5
378.576	92.5
378.802	73.5
379.027	84.5
379.253	97.5
379.478	89.5
379.704	91.5
379.929	90.5
380.155	86.5
380.38	82.5
380.606	82.5
380.831	92.5
381.057	90.5
381.282	85.5
381.507	83.5
381.733	90.5
381.958	83.5
382.184	96.5
382.409	98.5
382.634	97.5
382.86	88.5
383.085	86.5
383.31	108.5
383.535	88.5
383.761	89.5
383.986	107.5
384.211	89.5
384.436	89.5
384.662	91.5
384.887	102.5
385.112	94.5
385.337	97.5
385.562	87.5
385.787	99.5
386.013	101.5
386.238	99.5
386.463	92.5
386.688	83.5
386.913	92.5
387.138	96.5
387.363	101.5
387.588	99.5
387.813	80.5
388.038	98.5
388.263	102.5
388.488	102.5
388.713	88.5
388.938	94.5
389.163	87.5
389.387	87.5
389.612	71.5
389.837	101.5
390.062	97.5
390.287	86.5
390.512	75.5
390.736	71.5
390.961	94.5
391.186	88.5
391.411	96.5
391.636	94.5
391.86	83.5
392.085	73.5
392.31	90.5
392.534	87.5
392.759	98.5
392.984	81.5
393.208	90.5
393.433	78.5
393.658	86.5
393.882	79.5
394.107	69.5
394.331	88.5
394.556	85.5
394.78	92.5
395.005	83.5
395.229	73.5
395.454	85.5
395.678	85.5
395.903	79.5
396.127	86.5
396.352	81.5
396.576	93.5
396.801	83.5
397.025	79.5
397.249	89.5
397.474	80.5
397.698	86.5
397.922	82.5
398.147	87.5
398.371	85.5
398.595	87.5
398.82	80.5
399.044	73.5
399.268	78.5
399.492	80.5
399.717	80.5
399.941	85.5
400.165	102.5
400.389	89.5
400.613	86.5
400.837	90.5
401.062	88.5
401.286	89.5
401.51	83.5
401.734	91.5
401.958	107.5
402.182	117.5
402.406	138.5
402.63	121.5
402.854	105.5
403.078	85.5
403.302	81.5
403.526	73.5
403.75	85.5
403.974	74.5
404.198	92.5
404.422	82.5
404.645	61.5
404.869	83.5
405.093	97.5
405.317	94.5
405.541	81.5
405.765	109.5
405.988	108.5
406.212	166.5
406.436	232.5
406.66	157.5
406.883	103.5
407.107	82.5
407.331	89.5
407.555	104.5
407.778	92.5
408.002	80.5
408.226	90.5
408.449	83.5
408.673	87.5
408.896	91.5
409.12	98.5
409.344	88.5
409.567	95.5
409.791	79.5
410.014	72.5
410.238	86.5
410.461	85.5
410.685	101.5
410.908	89.5
411.132	98.5
411.355	109.5
411.578	91.5
411.802	92.5
412.025	89.5
412.249	79.5
412.472	88.5
412.695	91.5
412.919	90.5
413.142	91.5
413.365	78.5
413.589	90.5
413.812	93.5
414.035	90.5
414.258	82.5
414.482	84.5
414.705	85.5
414.928	80.5
415.151	83.5
415.374	92.5
415.597	91.5
415.821	89.5
416.044	96.5
416.267	90.5
416.49	86.5
416.713	98.5
416.936	81.5
417.159	69.5
417.382	75.5
417.605	83.5
417.828	88.5
418.051	87.5
418.274	86.5
418.497	83.5
418.72	82.5
418.943	93.5
419.166	77.5
419.389	81.5
419.611	81.5
419.834	73.5
420.057	82.5
420.28	91.5
420.503	74.5
420.726	76.5
420.948	87.5
421.171	86.5
421.394	77.5
421.617	85.5
421.839	86.5
422.062	78.5
422.285	101.5
422.507	95.5
422.73	81.5
422.953	100.5
423.175	87.5
423.398	69.5
423.621	65.5
423.843	91.5
424.066	82.5
424.288	96.5
424.511	86.5
424.733	94.5
424.956	95.5
425.178	103.5
425.401	97.5
425.623	101.5
425.846	94.5
426.068	86.5
426.291	83.5
426.513	96.5
426.735	98.5
426.958	102.5
427.18	93.5
427.402	151.5
427.625	170.5
427.847	119.5
428.069	89.5
428.292	78.5
428.514	98.5
428.736	82.5
428.958	74.5
429.181	81.5
429.403	89.5
429.625	83.5
429.847	94.5
430.069	92.5
430.292	82.5
430.514	75.5
430.736	75.5
430.958	98.5
431.18	82.5
431.402	75.5
431.624	83.5
431.846	83.5
432.068	88.5
432.29	88.5
432.512	79.5
432.734	76.5
432.956	84.5
433.178	103.5
433.4	111.5
433.622	85.5
433.844	97.5
434.066	86.5
434.287	83.5
434.509	63.5
434.731	83.5
434.953	86.5
435.175	79.5
435.397	97.5
435.618	92.5
435.84	111.5
436.062	118.5
436.284	107.5
436.505	100.5
436.727	97.5
436.949	86.5
437.17	78.5
437.392	89.5
437.614	93.5
437.835	90.5
438.057	107.5
438.278	96.5
438.5	104.5
438.721	136.5
438.943	91.5
439.165	89.5
439.386	78.5
439.608	85.5
439.829	97.5
440.05	135.5
440.272	147.5
440.493	113.5
440.715	83.5
440.936	86.5
441.158	91.5
441.379	77.5
441.6	78.5
441.822	81.5
442.043	85.5
442.264	94.5
442.486	84.5
442.707	98.5
442.928	104.5
443.149	128.5
443.371	123.5
443.592	104.5
443.813	121.5
444.034	112.5
444.255	89.5
444.476	79.5
444.698	77.5
444.919	81.5
445.14	131.5
445.361	119.5
445.582	119.5
445.803	132.5
446.024	143.5
446.245	136.5
446.466	108.5
446.687	92.5
446.908	92.5
447.129	87.5
447.35	84.5
447.571	85.5
447.792	91.5
448.013	93.5
448.234	98.5
448.455	102.5
448.675	113.5
448.896	106.5
449.117	97.5
449.338	97.5
449.559	127.5
449.779	126.5
450	100.5
450.221	90.5
450.442	91.5
450.662	104.5
450.883	95.5
451.104	106.5
451.324	87.5
451.545	83.5
451.766	91.5
451.986	66.5
452.207	85.5
452.428	90.5
452.648	93.5
452.869	93.5
453.089	113.5
453.31	105.5
453.53	83.5
453.751	93.5
453.971	109.5
454.192	119.5
454.412	77.5
454.633	90.5
454.853	90.5
455.073	89.5
455.294	79.5
455.514	97.5
455.734	82.5
455.955	71.5
456.175	78.5
456.395	93.5
456.616	74.5
456.836	75.5
457.056	87.5
457.276	82.5
457.497	70.5
457.717	80.5
457.937	86.5
458.157	89.5
458.377	81.5
458.598	106.5
458.818	157.5
459.038	160.5
459.258	125.5
459.478	75.5
459.698	78.5
459.918	94.5
460.138	96.5
460.358	78.5
460.578	81.5
460.798	70.5
461.018	77.5
461.238	86.5
461.458	86.5
461.678	69.5
461.898	98.5
462.118	80.5
462.338	97.5
462.558	93.5
462.777	79.5
462.997	83.5
463.217	88.5
463.437	83.5
463.657	83.5
463.876	83.5
464.096	89.5
464.316	87.5
464.536	95.5
464.755	99.5
464.975	100.5
465.195	178.5
465.414	147.5
465.634	91.5
465.854	82.5
466.073	80.5
466.293	95.5
466.512	87.5
466.732	77.5
466.951	76.5
467.171	92.5
467.391	84.5
467.61	94.5
467.829	96.5
468.049	77.5
468.268	93.5
468.488	82.5
468.707	78.5
468.927	82.5
469.146	84.5
469.365	81.5
469.585	83.5
469.804	95.5
470.023	83.5
470.243	83.5
470.462	96.5
470.681	99.5
470.901	85.5
471.12	92.5
471.339	79.5
471.558	66.5
471.777	87.5
471.997	92.5
472.216	99.5
472.435	80.5
472.654	82.5
472.873	80.5
473.092	82.5
473.311	91.5
473.53	77.5
473.749	82.5
473.968	92.5
474.187	103.5
474.406	114.5
474.625	87.5
474.844	89.5
475.063	93.5
475.282	83.5
475.501	76.5
475.72	90.5
475.939	102.5
476.158	86.5
476.377	82.5
476.596	103.5
476.814	79.5
477.033	105.5
477.252	83.5
477.471	69.5
477.69	87.5
477.908	89.5
478.127	84.5
478.346	80.5
478.564	79.5
478.783	93.5
479.002	74.5
479.22	91.5
479.439	112.5
479.658	110.5
479.876	91.5
480.095	101.5
480.313	80.5
480.532	94.5
480.751	91.5
480.969	72.5
481.188	94.5
481.406	91.5
481.624	95.5
481.843	81.5
482.061	93.5
482.28	85.5
482.498	92.5
482.717	73.5
482.935	96.5
483.153	81.5
483.372	87.5
483.59	83.5
483.808	94.5
484.027	81.5
484.245	85.5
484.463	100.5
484.681	81.5
484.9	81.5
485.118	98.5
485.336	91.5
485.554	93.5
485.772	102.5
485.99	98.5
486.209	94.5
486.427	104.5
486.645	112.5
486.863	103.5
487.081	84.5
487.299	91.5
487.517	97.5
487.735	83.5
487.953	87.5
488.171	92.5
488.389	101.5
488.607	103.5
488.825	77.5
489.043	74.5
489.261	95.5
489.479	80.5
489.696	84.5
489.914	83.5
490.132	86.5
490.35	84.5
490.568	82.5
490.786	91.5
491.003	84.5
491.221	100.5
491.439	90.5
491.657	88.5
491.874	91.5
492.092	87.5
492.31	94.5
492.527	80.5
492.745	82.5
492.963	104.5
493.18	86.5
493.398	87.5
493.615	94.5
493.833	79.5
494.05	100.5
494.268	78.5
494.485	83.5
494.703	73.5
494.92	84.5
495.138	86.5
495.355	79.5
495.573	87.5
495.79	86.5
496.008	81.5
496.225	73.5
496.442	82.5
496.66	100.5
496.877	76.5
497.094	82.5
497.312	91.5
497.529	82.5
497.746	95.5
497.963	88.5
498.181	91.5
498.398	94.5
498.615	110.5
498.832	89.5
499.049	83.5
499.267	78.5
499.484	81.5
499.701	93.5
499.918	93.5
500.135	83.5
500.352	91.5
500.569	86.5
500.786	98.5
501.003	86.5
501.22	80.5
501.437	81.5
501.654	83.5
501.871	107.5
502.088	87.5
502.305	87.5
502.522	85.5
502.739	88.5
502.956	95.5
503.172	98.5
503.389	97.5
503.606	97.5
503.823	101.5
504.04	95.5
504.256	87.5
504.473	72.5
504.69	90.5
504.907	93.5
505.123	89.5
505.34	73.5
505.557	93.5
505.773	80.5
505.99	83.5
506.207	75.5
506.423	86.5
506.64	82.5
506.856	82.5
507.073	81.5
507.289	89.5
507.506	97.5
507.722	120.5
507.939	118.5
508.155	98.5
508.372	95.5
508.588	93.5
508.805	96.5
509.021	85.5
509.238	102.5
509.454	101.5
509.67	113.5
509.887	100.5
510.103	140.5
510.319	216.5
510.536	813.5
510.752	2662.5
510.968	719.5
511.184	157.5
511.401	118.5
511.617	99.5
511.833	99.5
512.049	81.5
512.265	95.5
512.481	73.5
512.698	101.5
512.914	86.5
513.13	81.5
513.346	90.5
513.562	78.5
513.778	87.5
513.994	95.5
514.21	95.5
514.426	108.5
514.642	139.5
514.858	128.5
515.074	167.5
515.29	503.5
515.506	1605.5
515.721	585.5
515.937	162.5
516.153	112.5
516.369	96.5
516.585	87.5
516.801	96.5
517.016	90.5
517.232	89.5
517.448	92.5
517.664	77.5
517.879	102.5
518.095	87.5
518.311	90.5
518.527	95.5
518.742	93.5
518.958	89.5
519.173	91.5
519.389	65.5
519.605	85.5
519.82	95.5
520.036	98.5
520.251	94.5
520.467	114.5
520.682	96.5
520.898	117.5
521.113	104.5
521.329	140.5
521.544	215.5
521.76	625.5
521.975	2666.5
522.19	1607.5
522.406	348.5
522.621	123.5
522.836	92.5
523.052	93.5
523.267	105.5
523.482	90.5
523.698	106.5
523.913	118.5
524.128	83.5
524.343	88.5
524.559	80.5
524.774	97.5
524.989	90.5
525.204	108.5
525.419	101.5
525.634	97.5
525.849	83.5
526.064	94.5
526.28	90.5
526.495	83.5
526.71	81.5
526.925	84.5
527.14	89.5
527.355	89.5
527.57	87.5
527.785	80.5
527.999	89.5
528.214	89.5
528.429	96.5
528.644	94.5
528.859	95.5
529.074	102.5
529.289	124.5
529.503	173.5
529.718	99.5
529.933	110.5
530.148	88.5
530.363	78.5
530.577	81.5
530.792	85.5
531.007	83.5
531.221	83.5
531.436	93.5
531.651	97.5
531.865	98.5
532.08	86.5
532.295	90.5
532.509	90.5
532.724	97.5
532.938	90.5
533.153	97.5
533.367	98.5
533.582	97.5
533.796	96.5
534.011	90.5
534.225	86.5
534.44	71.5
534.654	79.5
534.868	87.5
535.083	90.5
535.297	91.5
535.511	98.5
535.726	90.5
535.94	85.5
536.154	89.5
536.369	90.5
536.583	87.5
536.797	86.5
