Data from Uncirc_2007_H10_HRD10591_00100.txt Node
Date: Wed Jan 03 10:21:02 EST 2024
User: Yrep
Spectrometer: HR+D1059
Trigger mode: 1
Integration Time (sec): 1.000000E-1
Scans to average: 1
Electric dark correction enabled: true
Nonlinearity correction enabled: false
Boxcar width: 0
XAxis mode: Wavelengths
Number of Pixels in Spectrum: 2048
>>>>>Begin Spectral Data<<<<<
223.165	-16.88
223.4	-16.88
223.635	-16.88
223.869	-27.88
224.104	-15.88
224.338	-13.88
224.573	-5.88
224.808	-21.88
225.042	-8.88
225.277	-5.88
225.511	13.12
225.746	3.12
225.98	7.12
226.215	10.12
226.449	1.12
226.683	14.12
226.918	31.12
227.152	37.12
227.387	49.12
227.621	38.12
227.856	42.12
228.09	49.12
228.324	43.12
228.559	38.12
228.793	48.12
229.027	51.12
229.262	64.12
229.496	84.12
229.73	90.12
229.964	83.12
230.199	77.12
230.433	79.12
230.667	76.12
230.901	67.12
231.136	77.12
231.37	84.12
231.604	83.12
231.838	79.12
232.072	73.12
232.306	92.12
232.541	71.12
232.775	83.12
233.009	69.12
233.243	77.12
233.477	86.12
233.711	74.12
233.945	82.12
234.179	90.12
234.413	86.12
234.647	70.12
234.881	73.12
235.115	68.12
235.349	71.12
235.583	66.12
235.817	78.12
236.051	69.12
236.285	67.12
236.519	80.12
236.753	76.12
236.987	77.12
237.221	80.12
237.455	86.12
237.689	75.12
237.922	60.12
238.156	83.12
238.39	76.12
238.624	63.12
238.858	79.12
239.091	75.12
239.325	72.12
239.559	91.12
239.793	87.12
240.027	77.12
240.26	87.12
240.494	72.12
240.728	85.12
240.961	75.12
241.195	76.12
241.429	73.12
241.662	66.12
241.896	84.12
242.13	65.12
242.363	68.12
242.597	79.12
242.83	71.12
243.064	74.12
243.298	67.12
243.531	85.12
243.765	85.12
243.998	81.12
244.232	81.12
244.465	89.12
244.699	74.12
244.932	82.12
245.166	62.12
245.399	68.12
245.633	64.12
245.866	92.12
246.099	72.12
246.333	72.12
246.566	75.12
246.8	79.12
247.033	71.12
247.266	75.12
247.5	77.12
247.733	86.12
247.966	81.12
248.2	93.12
248.433	78.12
248.666	68.12
248.899	82.12
249.133	75.12
249.366	91.12
249.599	102.12
249.832	91.12
250.066	72.12
250.299	89.12
250.532	78.12
250.765	80.12
250.998	78.12
251.231	65.12
251.465	91.12
251.698	84.12
251.931	74.12
252.164	84.12
252.397	84.12
252.63	88.12
252.863	82.12
253.096	76.12
253.329	76.12
253.562	72.12
253.795	83.12
254.028	76.12
254.261	76.12
254.494	92.12
254.727	86.12
254.96	80.12
255.193	80.12
255.426	66.12
255.659	82.12
255.892	83.12
256.124	74.12
256.357	79.12
256.59	79.12
256.823	69.12
257.056	82.12
257.289	89.12
257.521	81.12
257.754	72.12
257.987	82.12
258.22	97.12
258.452	85.12
258.685	85.12
258.918	70.12
259.151	70.12
259.383	73.12
259.616	84.12
259.849	82.12
260.081	91.12
260.314	86.12
260.547	81.12
260.779	82.12
261.012	77.12
261.244	83.12
261.477	89.12
261.71	98.12
261.942	103.12
262.175	116.12
262.407	110.12
262.64	81.12
262.872	84.12
263.105	71.12
263.337	77.12
263.57	85.12
263.802	79.12
264.035	81.12
264.267	76.12
264.499	85.12
264.732	77.12
264.964	79.12
265.197	80.12
265.429	83.12
265.661	92.12
265.894	63.12
266.126	92.12
266.358	75.12
266.591	88.12
266.823	87.12
267.055	85.12
267.287	84.12
267.52	66.12
267.752	69.12
267.984	92.12
268.216	97.12
268.448	80.12
268.681	79.12
268.913	84.12
269.145	75.12
269.377	74.12
269.609	82.12
269.841	77.12
270.073	79.12
270.306	82.12
270.538	84.12
270.77	84.12
271.002	91.12
271.234	77.12
271.466	86.12
271.698	89.12
271.93	96.12
272.162	80.12
272.394	79.12
272.626	92.12
272.858	85.12
273.09	86.12
273.322	82.12
273.553	87.12
273.785	89.12
274.017	83.12
274.249	91.12
274.481	81.12
274.713	80.12
274.945	94.12
275.176	79.12
275.408	96.12
275.64	77.12
275.872	75.12
276.104	94.12
276.335	102.12
276.567	113.12
276.799	104.12
277.031	99.12
277.262	96.12
277.494	100.12
277.726	89.12
277.957	79.12
278.189	68.12
278.421	66.12
278.652	90.12
278.884	84.12
279.115	72.12
279.347	76.12
279.579	81.12
279.81	81.12
280.042	91.12
280.273	78.12
280.505	79.12
280.736	88.12
280.968	99.12
281.199	80.12
281.431	86.12
281.662	102.12
281.894	81.12
282.125	103.12
282.356	134.12
282.588	141.12
282.819	122.12
283.051	83.12
283.282	85.12
283.513	80.12
283.745	92.12
283.976	86.12
284.207	90.12
284.439	80.12
284.67	71.12
284.901	88.12
285.132	86.12
285.364	76.12
285.595	85.12
285.826	91.12
286.057	84.12
286.288	81.12
286.52	88.12
286.751	78.12
286.982	80.12
287.213	85.12
287.444	88.12
287.675	88.12
287.906	88.12
288.138	76.12
288.369	94.12
288.6	81.12
288.831	79.12
289.062	81.12
289.293	99.12
289.524	87.12
289.755	86.12
289.986	78.12
290.217	89.12
290.448	93.12
290.679	78.12
290.91	83.12
291.141	85.12
291.371	97.12
291.602	87.12
291.833	89.12
292.064	87.12
292.295	86.12
292.526	93.12
292.757	98.12
292.987	80.12
293.218	90.12
293.449	77.12
293.68	99.12
293.91	89.12
294.141	100.12
294.372	92.12
294.603	89.12
294.833	84.12
295.064	85.12
295.295	83.12
295.525	85.12
295.756	97.12
295.987	123.12
296.217	135.12
296.448	121.12
296.679	94.12
296.909	81.12
297.14	84.12
297.37	86.12
297.601	98.12
297.831	92.12
298.062	84.12
298.292	83.12
298.523	96.12
298.753	102.12
298.984	96.12
299.214	97.12
299.445	91.12
299.675	89.12
299.905	93.12
300.136	100.12
300.366	79.12
300.597	96.12
300.827	95.12
301.057	87.12
301.288	110.12
301.518	96.12
301.748	92.12
301.979	88.12
302.209	85.12
302.439	93.12
302.669	81.12
302.9	79.12
303.13	96.12
303.36	84.12
303.59	107.12
303.82	107.12
304.051	101.12
304.281	100.12
304.511	89.12
304.741	86.12
304.971	95.12
305.201	73.12
305.431	104.12
305.661	93.12
305.891	85.12
306.121	93.12
306.352	103.12
306.582	109.12
306.812	85.12
307.042	97.12
307.272	92.12
307.502	98.12
307.731	95.12
307.961	85.12
308.191	94.12
308.421	89.12
308.651	91.12
308.881	88.12
309.111	93.12
309.341	98.12
309.571	105.12
309.8	89.12
310.03	106.12
310.26	92.12
310.49	97.12
310.72	83.12
310.949	99.12
311.179	95.12
311.409	112.12
311.639	105.12
311.868	103.12
312.098	89.12
312.328	89.12
312.557	107.12
312.787	117.12
313.017	95.12
313.246	91.12
313.476	87.12
313.706	112.12
313.935	96.12
314.165	95.12
314.394	100.12
314.624	93.12
314.853	85.12
315.083	100.12
315.312	83.12
315.542	87.12
315.771	103.12
316.001	90.12
316.23	89.12
316.46	87.12
316.689	85.12
316.919	90.12
317.148	99.12
317.377	82.12
317.607	84.12
317.836	95.12
318.065	99.12
318.295	91.12
318.524	98.12
318.753	100.12
318.983	108.12
319.212	112.12
319.441	103.12
319.67	121.12
319.9	79.12
320.129	87.12
320.358	88.12
320.587	105.12
320.816	94.12
321.046	107.12
321.275	110.12
321.504	107.12
321.733	93.12
321.962	115.12
322.191	97.12
322.42	110.12
322.649	108.12
322.878	109.12
323.108	116.12
323.337	129.12
323.566	140.12
323.795	156.12
324.024	224.12
324.253	461.12
324.482	971.12
324.71	2089.12
324.939	2727.12
325.168	1012.12
325.397	263.12
325.626	157.12
325.855	139.12
326.084	132.12
326.313	145.12
326.542	165.12
326.77	254.12
326.999	545.12
327.228	1144.12
327.457	2139.12
327.686	1635.12
327.914	417.12
328.143	205.12
328.372	145.12
328.6	139.12
328.829	115.12
329.058	135.12
329.287	125.12
329.515	103.12
329.744	107.12
329.972	94.12
330.201	94.12
330.43	117.12
330.658	112.12
330.887	153.12
331.115	121.12
331.344	94.12
331.572	97.12
331.801	114.12
332.03	94.12
332.258	99.12
332.486	104.12
332.715	89.12
332.943	105.12
333.172	97.12
333.4	108.12
333.629	108.12
333.857	115.12
334.085	100.12
334.314	80.12
334.542	107.12
334.771	95.12
334.999	93.12
335.227	95.12
335.455	96.12
335.684	99.12
335.912	99.12
336.14	99.12
336.369	88.12
336.597	99.12
336.825	92.12
337.053	91.12
337.281	87.12
337.51	80.12
337.738	90.12
337.966	101.12
338.194	84.12
338.422	95.12
338.65	96.12
338.878	88.12
339.106	94.12
339.334	82.12
339.562	84.12
339.79	84.12
340.018	92.12
340.246	91.12
340.474	93.12
340.702	85.12
340.93	81.12
341.158	80.12
341.386	106.12
341.614	102.12
341.842	102.12
342.07	88.12
342.298	92.12
342.526	78.12
342.754	95.12
342.981	93.12
343.209	102.12
343.437	102.12
343.665	95.12
343.893	95.12
344.12	92.12
344.348	84.12
344.576	99.12
344.804	90.12
345.031	101.12
345.259	106.12
345.487	88.12
345.714	95.12
345.942	93.12
346.17	87.12
346.397	83.12
346.625	99.12
346.853	87.12
347.08	105.12
347.308	95.12
347.535	99.12
347.763	93.12
347.99	103.12
348.218	104.12
348.445	103.12
348.673	97.12
348.9	100.12
349.128	106.12
349.355	84.12
349.583	86.12
349.81	96.12
350.037	105.12
350.265	101.12
350.492	88.12
350.72	105.12
350.947	111.12
351.174	124.12
351.402	114.12
351.629	113.12
351.856	113.12
352.083	98.12
352.311	107.12
352.538	111.12
352.765	119.12
352.992	118.12
353.22	109.12
353.447	111.12
353.674	110.12
353.901	104.12
354.128	94.12
354.355	95.12
354.583	93.12
354.81	107.12
355.037	98.12
355.264	85.12
355.491	98.12
355.718	101.12
355.945	88.12
356.172	82.12
356.399	68.12
356.626	99.12
356.853	81.12
357.08	100.12
357.307	95.12
357.534	89.12
357.761	92.12
357.988	91.12
358.215	96.12
358.441	93.12
358.668	88.12
358.895	92.12
359.122	96.12
359.349	101.12
359.576	72.12
359.802	100.12
360.029	120.12
360.256	129.12
360.483	99.12
360.709	84.12
360.936	93.12
361.163	94.12
361.39	95.12
361.616	100.12
361.843	90.12
362.07	95.12
362.296	97.12
362.523	83.12
362.749	109.12
362.976	82.12
363.203	82.12
363.429	88.12
363.656	97.12
363.882	93.12
364.109	99.12
364.335	93.12
364.562	103.12
364.788	97.12
365.015	97.12
365.241	107.12
365.468	113.12
365.694	116.12
365.92	112.12
366.147	82.12
366.373	75.12
366.599	80.12
366.826	88.12
367.052	84.12
367.278	106.12
367.505	88.12
367.731	81.12
367.957	88.12
368.184	96.12
368.41	98.12
368.636	108.12
368.862	112.12
369.089	99.12
369.315	98.12
369.541	101.12
369.767	106.12
369.993	88.12
370.219	80.12
370.445	91.12
370.672	92.12
370.898	91.12
371.124	89.12
371.35	89.12
371.576	85.12
371.802	82.12
372.028	98.12
372.254	91.12
372.48	91.12
372.706	85.12
372.932	83.12
373.158	92.12
373.384	106.12
373.61	93.12
373.835	94.12
374.061	98.12
374.287	95.12
374.513	93.12
374.739	92.12
374.965	99.12
375.191	90.12
375.416	84.12
375.642	80.12
375.868	86.12
376.094	89.12
376.319	96.12
376.545	92.12
376.771	96.12
376.997	83.12
377.222	81.12
377.448	94.12
377.674	97.12
377.899	89.12
378.125	74.12
378.35	97.12
378.576	95.12
378.802	84.12
379.027	93.12
379.253	83.12
379.478	84.12
379.704	98.12
379.929	96.12
380.155	89.12
380.38	100.12
380.606	98.12
380.831	81.12
381.057	92.12
381.282	93.12
381.507	100.12
381.733	97.12
381.958	107.12
382.184	92.12
382.409	90.12
382.634	93.12
382.86	92.12
383.085	102.12
383.31	99.12
383.535	97.12
383.761	100.12
383.986	115.12
384.211	95.12
384.436	99.12
384.662	91.12
384.887	120.12
385.112	109.12
385.337	108.12
385.562	91.12
385.787	93.12
386.013	111.12
386.238	125.12
386.463	105.12
386.688	126.12
386.913	95.12
387.138	98.12
387.363	93.12
387.588	94.12
387.813	111.12
388.038	108.12
388.263	107.12
388.488	87.12
388.713	104.12
388.938	95.12
389.163	103.12
389.387	96.12
389.612	83.12
389.837	91.12
390.062	87.12
390.287	101.12
390.512	85.12
390.736	96.12
390.961	95.12
391.186	93.12
391.411	92.12
391.636	99.12
391.86	98.12
392.085	88.12
392.31	83.12
392.534	75.12
392.759	107.12
392.984	92.12
393.208	80.12
393.433	72.12
393.658	84.12
393.882	88.12
394.107	90.12
394.331	97.12
394.556	96.12
394.78	80.12
395.005	95.12
395.229	77.12
395.454	82.12
395.678	77.12
395.903	77.12
396.127	93.12
396.352	76.12
396.576	90.12
396.801	101.12
397.025	81.12
397.249	77.12
397.474	100.12
397.698	93.12
397.922	96.12
398.147	83.12
398.371	92.12
398.595	103.12
398.82	93.12
399.044	88.12
399.268	93.12
399.492	92.12
399.717	90.12
399.941	96.12
400.165	111.12
400.389	101.12
400.613	86.12
400.837	95.12
401.062	90.12
401.286	91.12
401.51	101.12
401.734	97.12
401.958	106.12
402.182	124.12
402.406	172.12
402.63	121.12
402.854	92.12
403.078	91.12
403.302	87.12
403.526	95.12
403.75	99.12
403.974	92.12
404.198	104.12
404.422	94.12
404.645	88.12
404.869	89.12
405.093	98.12
405.317	101.12
405.541	96.12
405.765	105.12
405.988	109.12
406.212	195.12
406.436	243.12
406.66	151.12
406.883	99.12
407.107	90.12
407.331	100.12
407.555	91.12
407.778	103.12
408.002	98.12
408.226	91.12
408.449	101.12
408.673	92.12
408.896	79.12
409.12	95.12
409.344	81.12
409.567	95.12
409.791	90.12
410.014	96.12
410.238	107.12
410.461	88.12
410.685	91.12
410.908	94.12
411.132	89.12
411.355	96.12
411.578	110.12
411.802	91.12
412.025	91.12
412.249	90.12
412.472	96.12
412.695	89.12
412.919	85.12
413.142	93.12
413.365	93.12
413.589	91.12
413.812	93.12
414.035	77.12
414.258	101.12
414.482	86.12
414.705	89.12
414.928	67.12
415.151	95.12
415.374	95.12
415.597	93.12
415.821	88.12
416.044	76.12
416.267	93.12
416.49	79.12
416.713	91.12
416.936	102.12
417.159	97.12
417.382	101.12
417.605	93.12
417.828	102.12
418.051	94.12
418.274	97.12
418.497	83.12
418.72	91.12
418.943	81.12
419.166	95.12
419.389	80.12
419.611	96.12
419.834	83.12
420.057	97.12
420.28	103.12
420.503	83.12
420.726	79.12
420.948	96.12
421.171	96.12
421.394	92.12
421.617	97.12
421.839	97.12
422.062	81.12
422.285	98.12
422.507	106.12
422.73	93.12
422.953	88.12
423.175	75.12
423.398	85.12
423.621	85.12
423.843	75.12
424.066	71.12
424.288	78.12
424.511	98.12
424.733	89.12
424.956	100.12
425.178	104.12
425.401	94.12
425.623	115.12
425.846	85.12
426.068	92.12
426.291	100.12
426.513	92.12
426.735	95.12
426.958	97.12
427.18	98.12
427.402	152.12
427.625	175.12
427.847	128.12
428.069	100.12
428.292	81.12
428.514	79.12
428.736	79.12
428.958	85.12
429.181	90.12
429.403	88.12
429.625	91.12
429.847	94.12
430.069	114.12
430.292	98.12
430.514	85.12
430.736	79.12
430.958	83.12
431.18	85.12
431.402	76.12
431.624	96.12
431.846	95.12
432.068	77.12
432.29	99.12
432.512	88.12
432.734	90.12
432.956	103.12
433.178	102.12
433.4	116.12
433.622	83.12
433.844	84.12
434.066	85.12
434.287	85.12
434.509	84.12
434.731	95.12
434.953	82.12
435.175	87.12
435.397	74.12
435.618	93.12
435.84	98.12
436.062	115.12
436.284	125.12
436.505	108.12
436.727	95.12
436.949	99.12
437.17	91.12
437.392	87.12
437.614	76.12
437.835	119.12
438.057	140.12
438.278	111.12
438.5	106.12
438.721	132.12
438.943	103.12
439.165	97.12
439.386	82.12
439.608	88.12
439.829	106.12
440.05	127.12
440.272	146.12
440.493	106.12
440.715	85.12
440.936	97.12
441.158	95.12
441.379	99.12
441.6	88.12
441.822	95.12
442.043	94.12
442.264	113.12
442.486	103.12
442.707	88.12
442.928	101.12
443.149	138.12
443.371	129.12
443.592	122.12
443.813	119.12
444.034	110.12
444.255	81.12
444.476	85.12
444.698	85.12
444.919	97.12
445.14	135.12
445.361	135.12
445.582	107.12
445.803	145.12
446.024	155.12
446.245	123.12
446.466	115.12
446.687	92.12
446.908	88.12
447.129	89.12
447.35	78.12
447.571	92.12
447.792	86.12
448.013	91.12
448.234	116.12
448.455	104.12
448.675	110.12
448.896	116.12
449.117	110.12
449.338	104.12
449.559	133.12
449.779	145.12
450	93.12
450.221	96.12
450.442	84.12
450.662	97.12
450.883	100.12
451.104	108.12
451.324	87.12
451.545	78.12
451.766	89.12
451.986	86.12
452.207	102.12
452.428	96.12
452.648	105.12
452.869	115.12
453.089	99.12
453.31	113.12
453.53	100.12
453.751	88.12
453.971	100.12
454.192	116.12
454.412	95.12
454.633	80.12
454.853	87.12
455.073	84.12
455.294	88.12
455.514	101.12
455.734	83.12
455.955	84.12
456.175	96.12
456.395	85.12
456.616	81.12
456.836	89.12
457.056	87.12
457.276	76.12
457.497	85.12
457.717	87.12
457.937	98.12
458.157	86.12
458.377	83.12
458.598	124.12
458.818	156.12
459.038	158.12
459.258	114.12
459.478	98.12
459.698	93.12
459.918	97.12
460.138	85.12
460.358	79.12
460.578	80.12
460.798	87.12
461.018	82.12
461.238	81.12
461.458	88.12
461.678	87.12
461.898	81.12
462.118	77.12
462.338	89.12
462.558	68.12
462.777	81.12
462.997	88.12
463.217	90.12
463.437	81.12
463.657	80.12
463.876	78.12
464.096	85.12
464.316	90.12
464.536	85.12
464.755	97.12
464.975	103.12
465.195	164.12
465.414	177.12
465.634	107.12
465.854	94.12
466.073	82.12
466.293	86.12
466.512	76.12
466.732	81.12
466.951	88.12
467.171	95.12
467.391	91.12
467.61	103.12
467.829	109.12
468.049	82.12
468.268	97.12
468.488	75.12
468.707	82.12
468.927	85.12
469.146	96.12
469.365	81.12
469.585	83.12
469.804	102.12
470.023	74.12
470.243	93.12
470.462	91.12
470.681	111.12
470.901	77.12
471.12	92.12
471.339	92.12
471.558	97.12
471.777	93.12
471.997	93.12
472.216	76.12
472.435	90.12
472.654	96.12
472.873	90.12
473.092	90.12
473.311	88.12
473.53	78.12
473.749	96.12
473.968	93.12
474.187	108.12
474.406	98.12
474.625	86.12
474.844	92.12
475.063	91.12
475.282	88.12
475.501	84.12
475.72	74.12
475.939	85.12
476.158	88.12
476.377	82.12
476.596	77.12
476.814	90.12
477.033	95.12
477.252	80.12
477.471	85.12
477.69	96.12
477.908	96.12
478.127	84.12
478.346	94.12
478.564	91.12
478.783	75.12
479.002	100.12
479.22	92.12
479.439	98.12
479.658	109.12
479.876	104.12
480.095	82.12
480.313	99.12
480.532	83.12
480.751	81.12
480.969	103.12
481.188	103.12
481.406	91.12
481.624	82.12
481.843	80.12
482.061	75.12
482.28	81.12
482.498	106.12
482.717	104.12
482.935	85.12
483.153	90.12
483.372	84.12
483.59	96.12
483.808	78.12
484.027	99.12
484.245	104.12
484.463	95.12
484.681	85.12
484.9	104.12
485.118	98.12
485.336	84.12
485.554	91.12
485.772	100.12
485.99	104.12
486.209	90.12
486.427	106.12
486.645	115.12
486.863	106.12
487.081	103.12
487.299	94.12
487.517	92.12
487.735	102.12
487.953	99.12
488.171	95.12
488.389	96.12
488.607	82.12
488.825	80.12
489.043	93.12
489.261	84.12
489.479	82.12
489.696	96.12
489.914	80.12
490.132	88.12
490.35	85.12
490.568	75.12
490.786	95.12
491.003	89.12
491.221	89.12
491.439	88.12
491.657	90.12
491.874	103.12
492.092	77.12
492.31	96.12
492.527	84.12
492.745	82.12
492.963	70.12
493.18	75.12
493.398	104.12
493.615	96.12
493.833	96.12
494.05	91.12
494.268	88.12
494.485	82.12
494.703	85.12
494.92	96.12
495.138	95.12
495.355	76.12
495.573	100.12
495.79	81.12
496.008	109.12
496.225	85.12
496.442	98.12
496.66	86.12
496.877	77.12
497.094	94.12
497.312	84.12
497.529	97.12
497.746	83.12
497.963	96.12
498.181	96.12
498.398	91.12
498.615	91.12
498.832	89.12
499.049	86.12
499.267	101.12
499.484	78.12
499.701	99.12
499.918	87.12
500.135	101.12
500.352	113.12
500.569	90.12
500.786	83.12
501.003	91.12
501.22	75.12
501.437	100.12
501.654	98.12
501.871	96.12
502.088	84.12
502.305	83.12
502.522	81.12
502.739	98.12
502.956	95.12
503.172	110.12
503.389	86.12
503.606	108.12
503.823	101.12
504.04	84.12
504.256	98.12
504.473	84.12
504.69	83.12
504.907	92.12
505.123	108.12
505.34	87.12
505.557	81.12
505.773	90.12
505.99	93.12
506.207	87.12
506.423	85.12
506.64	87.12
506.856	83.12
507.073	89.12
507.289	109.12
507.506	93.12
507.722	109.12
507.939	106.12
508.155	111.12
508.372	112.12
508.588	90.12
508.805	106.12
509.021	104.12
509.238	99.12
509.454	104.12
509.67	95.12
509.887	108.12
510.103	155.12
510.319	230.12
510.536	823.12
510.752	2837.12
510.968	785.12
511.184	152.12
511.401	97.12
511.617	102.12
511.833	97.12
512.049	94.12
512.265	90.12
512.481	96.12
512.698	85.12
512.914	85.12
513.13	89.12
513.346	96.12
513.562	98.12
513.778	99.12
513.994	110.12
514.21	106.12
514.426	121.12
514.642	129.12
514.858	125.12
515.074	180.12
515.29	533.12
515.506	1717.12
