Data from Uncirc_2007_H10_HRD10591_00060.txt Node
Date: Wed Jan 03 10:20:54 EST 2024
User: Yrep
Spectrometer: HR+D1059
Trigger mode: 1
Integration Time (sec): 1.000000E-1
Scans to average: 1
Electric dark correction enabled: true
Nonlinearity correction enabled: false
Boxcar width: 0
XAxis mode: Wavelengths
Number of Pixels in Spectrum: 2048
>>>>>Begin Spectral Data<<<<<
223.165	-21.56
223.4	-21.56
223.635	-21.56
223.869	-19.56
224.104	-12.56
224.338	-19.56
224.573	-12.56
224.808	-16.56
225.042	-9.56
225.277	-10.56
225.511	3.44
225.746	17.44
225.98	3.44
226.215	14.44
226.449	6.44
226.683	6.44
226.918	33.44
227.152	37.44
227.387	43.44
227.621	41.44
227.856	56.44
228.09	30.44
228.324	43.44
228.559	55.44
228.793	50.44
229.027	60.44
229.262	74.44
229.496	59.44
229.73	89.44
229.964	94.44
230.199	69.44
230.433	64.44
230.667	75.44
230.901	92.44
231.136	74.44
231.37	85.44
231.604	78.44
231.838	79.44
232.072	82.44
232.306	87.44
232.541	74.44
232.775	81.44
233.009	96.44
233.243	82.44
233.477	89.44
233.711	77.44
233.945	68.44
234.179	76.44
234.413	72.44
234.647	83.44
234.881	76.44
235.115	85.44
235.349	83.44
235.583	86.44
235.817	96.44
236.051	79.44
236.285	89.44
236.519	75.44
236.753	81.44
236.987	70.44
237.221	94.44
237.455	83.44
237.689	74.44
237.922	83.44
238.156	68.44
238.39	78.44
238.624	71.44
238.858	84.44
239.091	74.44
239.325	81.44
239.559	76.44
239.793	76.44
240.027	77.44
240.26	85.44
240.494	81.44
240.728	76.44
240.961	75.44
241.195	84.44
241.429	75.44
241.662	82.44
241.896	83.44
242.13	85.44
242.363	81.44
242.597	80.44
242.83	76.44
243.064	69.44
243.298	97.44
243.531	76.44
243.765	68.44
243.998	64.44
244.232	86.44
244.465	74.44
244.699	82.44
244.932	78.44
245.166	81.44
245.399	87.44
245.633	85.44
245.866	81.44
246.099	88.44
246.333	97.44
246.566	96.44
246.8	69.44
247.033	82.44
247.266	84.44
247.5	77.44
247.733	85.44
247.966	88.44
248.2	71.44
248.433	84.44
248.666	76.44
248.899	91.44
249.133	76.44
249.366	98.44
249.599	99.44
249.832	88.44
250.066	96.44
250.299	82.44
250.532	77.44
250.765	94.44
250.998	90.44
251.231	79.44
251.465	95.44
251.698	86.44
251.931	72.44
252.164	69.44
252.397	68.44
252.63	91.44
252.863	67.44
253.096	80.44
253.329	83.44
253.562	89.44
253.795	82.44
254.028	73.44
254.261	82.44
254.494	86.44
254.727	83.44
254.96	94.44
255.193	72.44
255.426	75.44
255.659	94.44
255.892	90.44
256.124	80.44
256.357	96.44
256.59	73.44
256.823	72.44
257.056	92.44
257.289	86.44
257.521	90.44
257.754	88.44
257.987	69.44
258.22	86.44
258.452	80.44
258.685	64.44
258.918	89.44
259.151	78.44
259.383	78.44
259.616	91.44
259.849	80.44
260.081	85.44
260.314	93.44
260.547	81.44
260.779	83.44
261.012	75.44
261.244	97.44
261.477	94.44
261.71	87.44
261.942	106.44
262.175	127.44
262.407	84.44
262.64	70.44
262.872	93.44
263.105	77.44
263.337	91.44
263.57	90.44
263.802	79.44
264.035	78.44
264.267	80.44
264.499	84.44
264.732	94.44
264.964	87.44
265.197	98.44
265.429	85.44
265.661	97.44
265.894	86.44
266.126	82.44
266.358	89.44
266.591	73.44
266.823	83.44
267.055	81.44
267.287	81.44
267.52	76.44
267.752	80.44
267.984	69.44
268.216	80.44
268.448	84.44
268.681	92.44
268.913	95.44
269.145	86.44
269.377	89.44
269.609	89.44
269.841	91.44
270.073	98.44
270.306	77.44
270.538	81.44
270.77	72.44
271.002	97.44
271.234	79.44
271.466	91.44
271.698	87.44
271.93	88.44
272.162	76.44
272.394	69.44
272.626	78.44
272.858	75.44
273.09	90.44
273.322	82.44
273.553	76.44
273.785	86.44
274.017	92.44
274.249	81.44
274.481	74.44
274.713	90.44
274.945	96.44
275.176	93.44
275.408	92.44
275.64	83.44
275.872	81.44
276.104	87.44
276.335	105.44
276.567	86.44
276.799	99.44
277.031	95.44
277.262	83.44
277.494	89.44
277.726	84.44
277.957	92.44
278.189	89.44
278.421	96.44
278.652	82.44
278.884	81.44
279.115	86.44
279.347	82.44
279.579	73.44
279.81	90.44
280.042	95.44
280.273	83.44
280.505	83.44
280.736	86.44
280.968	74.44
281.199	95.44
281.431	66.44
281.662	99.44
281.894	93.44
282.125	104.44
282.356	100.44
282.588	117.44
282.819	105.44
283.051	96.44
283.282	91.44
283.513	84.44
283.745	90.44
283.976	94.44
284.207	95.44
284.439	90.44
284.67	96.44
284.901	93.44
285.132	85.44
285.364	82.44
285.595	88.44
285.826	98.44
286.057	94.44
286.288	89.44
286.52	73.44
286.751	79.44
286.982	89.44
287.213	93.44
287.444	90.44
287.675	84.44
287.906	89.44
288.138	81.44
288.369	92.44
288.6	90.44
288.831	78.44
289.062	92.44
289.293	75.44
289.524	93.44
289.755	86.44
289.986	82.44
290.217	91.44
290.448	96.44
290.679	82.44
290.91	87.44
291.141	91.44
291.371	91.44
291.602	88.44
291.833	91.44
292.064	85.44
292.295	69.44
292.526	88.44
292.757	84.44
292.987	90.44
293.218	78.44
293.449	88.44
293.68	100.44
293.91	90.44
294.141	91.44
294.372	89.44
294.603	84.44
294.833	87.44
295.064	75.44
295.295	75.44
295.525	87.44
295.756	97.44
295.987	111.44
296.217	131.44
296.448	124.44
296.679	98.44
296.909	84.44
297.14	102.44
297.37	90.44
297.601	86.44
297.831	84.44
298.062	85.44
298.292	80.44
298.523	87.44
298.753	92.44
298.984	91.44
299.214	89.44
299.445	76.44
299.675	93.44
299.905	92.44
300.136	84.44
300.366	76.44
300.597	78.44
300.827	88.44
301.057	101.44
301.288	90.44
301.518	85.44
301.748	99.44
301.979	100.44
302.209	77.44
302.439	80.44
302.669	84.44
302.9	95.44
303.13	84.44
303.36	98.44
303.59	105.44
303.82	112.44
304.051	94.44
304.281	88.44
304.511	96.44
304.741	97.44
304.971	82.44
305.201	85.44
305.431	88.44
305.661	94.44
305.891	72.44
306.121	86.44
306.352	97.44
306.582	99.44
306.812	100.44
307.042	100.44
307.272	89.44
307.502	98.44
307.731	92.44
307.961	89.44
308.191	89.44
308.421	94.44
308.651	87.44
308.881	92.44
309.111	113.44
309.341	108.44
309.571	102.44
309.8	97.44
310.03	100.44
310.26	98.44
310.49	96.44
310.72	107.44
310.949	99.44
311.179	102.44
311.409	97.44
311.639	97.44
311.868	90.44
312.098	115.44
312.328	101.44
312.557	100.44
312.787	101.44
313.017	101.44
313.246	106.44
313.476	86.44
313.706	81.44
313.935	91.44
314.165	96.44
314.394	97.44
314.624	98.44
314.853	92.44
315.083	88.44
315.312	91.44
315.542	90.44
315.771	89.44
316.001	85.44
316.23	76.44
316.46	81.44
316.689	78.44
316.919	95.44
317.148	83.44
317.377	104.44
317.607	93.44
317.836	74.44
318.065	88.44
318.295	81.44
318.524	93.44
318.753	91.44
318.983	89.44
319.212	104.44
319.441	103.44
319.67	110.44
319.9	96.44
320.129	94.44
320.358	88.44
320.587	82.44
320.816	83.44
321.046	96.44
321.275	92.44
321.504	101.44
321.733	93.44
321.962	98.44
322.191	94.44
322.42	89.44
322.649	112.44
322.878	102.44
323.108	117.44
323.337	127.44
323.566	126.44
323.795	144.44
324.024	220.44
324.253	390.44
324.482	882.44
324.71	1813.44
324.939	2392.44
325.168	880.44
325.397	257.44
325.626	150.44
325.855	141.44
326.084	148.44
326.313	136.44
326.542	142.44
326.77	235.44
326.999	492.44
327.228	1039.44
327.457	1878.44
327.686	1461.44
327.914	373.44
328.143	188.44
328.372	162.44
328.6	131.44
328.829	109.44
329.058	107.44
329.287	125.44
329.515	100.44
329.744	102.44
329.972	107.44
330.201	91.44
330.43	101.44
330.658	114.44
330.887	139.44
331.115	123.44
331.344	110.44
331.572	105.44
331.801	116.44
332.03	108.44
332.258	84.44
332.486	106.44
332.715	111.44
332.943	100.44
333.172	91.44
333.4	96.44
333.629	117.44
333.857	100.44
334.085	93.44
334.314	98.44
334.542	92.44
334.771	92.44
334.999	104.44
335.227	106.44
335.455	99.44
335.684	99.44
335.912	82.44
336.14	100.44
336.369	100.44
336.597	84.44
336.825	103.44
337.053	95.44
337.281	104.44
337.51	83.44
337.738	104.44
337.966	86.44
338.194	96.44
338.422	101.44
338.65	92.44
338.878	88.44
339.106	87.44
339.334	90.44
339.562	83.44
339.79	94.44
340.018	99.44
340.246	90.44
340.474	85.44
340.702	91.44
340.93	99.44
341.158	88.44
341.386	99.44
341.614	99.44
341.842	98.44
342.07	87.44
342.298	81.44
342.526	95.44
342.754	94.44
342.981	88.44
343.209	91.44
343.437	92.44
343.665	84.44
343.893	79.44
344.12	95.44
344.348	92.44
344.576	98.44
344.804	104.44
345.031	103.44
345.259	113.44
345.487	99.44
345.714	85.44
345.942	89.44
346.17	101.44
346.397	99.44
346.625	87.44
346.853	92.44
347.08	93.44
347.308	88.44
347.535	111.44
347.763	96.44
347.99	100.44
348.218	85.44
348.445	93.44
348.673	100.44
348.9	90.44
349.128	102.44
349.355	97.44
349.583	98.44
349.81	85.44
350.037	79.44
350.265	92.44
350.492	100.44
350.72	103.44
350.947	92.44
351.174	123.44
351.402	113.44
351.629	94.44
351.856	111.44
352.083	95.44
352.311	110.44
352.538	101.44
352.765	111.44
352.992	117.44
353.22	109.44
353.447	93.44
353.674	106.44
353.901	93.44
354.128	101.44
354.355	91.44
354.583	93.44
354.81	93.44
355.037	96.44
355.264	95.44
355.491	90.44
355.718	92.44
355.945	86.44
356.172	97.44
356.399	102.44
356.626	109.44
356.853	90.44
357.08	86.44
357.307	91.44
357.534	91.44
357.761	92.44
357.988	92.44
358.215	107.44
358.441	82.44
358.668	109.44
358.895	96.44
359.122	84.44
359.349	93.44
359.576	88.44
359.802	99.44
360.029	113.44
360.256	119.44
360.483	89.44
360.709	103.44
360.936	89.44
361.163	91.44
361.39	99.44
361.616	85.44
361.843	87.44
362.07	87.44
362.296	97.44
362.523	92.44
362.749	80.44
362.976	81.44
363.203	96.44
363.429	90.44
363.656	86.44
363.882	84.44
364.109	88.44
364.335	91.44
364.562	89.44
364.788	100.44
365.015	91.44
365.241	88.44
365.468	107.44
365.694	93.44
365.92	92.44
366.147	101.44
366.373	85.44
366.599	86.44
366.826	89.44
367.052	85.44
367.278	92.44
367.505	100.44
367.731	93.44
367.957	88.44
368.184	96.44
368.41	104.44
368.636	123.44
368.862	126.44
369.089	104.44
369.315	93.44
369.541	85.44
369.767	92.44
369.993	72.44
370.219	93.44
370.445	96.44
370.672	83.44
370.898	80.44
371.124	83.44
371.35	87.44
371.576	106.44
371.802	100.44
372.028	91.44
372.254	99.44
372.48	85.44
372.706	99.44
372.932	82.44
373.158	104.44
373.384	91.44
373.61	85.44
373.835	98.44
374.061	77.44
374.287	94.44
374.513	86.44
374.739	86.44
374.965	82.44
375.191	76.44
375.416	78.44
375.642	85.44
375.868	92.44
376.094	96.44
376.319	84.44
376.545	92.44
376.771	90.44
376.997	75.44
377.222	86.44
377.448	94.44
377.674	76.44
377.899	90.44
378.125	82.44
378.35	90.44
378.576	87.44
378.802	90.44
379.027	92.44
379.253	80.44
379.478	77.44
379.704	86.44
379.929	87.44
380.155	96.44
380.38	89.44
380.606	97.44
380.831	87.44
381.057	77.44
381.282	96.44
381.507	94.44
381.733	99.44
381.958	90.44
382.184	100.44
382.409	100.44
382.634	110.44
382.86	97.44
383.085	91.44
383.31	92.44
383.535	88.44
383.761	103.44
383.986	93.44
384.211	96.44
384.436	105.44
384.662	92.44
384.887	100.44
385.112	95.44
385.337	106.44
385.562	108.44
385.787	93.44
386.013	107.44
386.238	113.44
386.463	109.44
386.688	92.44
386.913	102.44
387.138	108.44
387.363	95.44
387.588	101.44
387.813	95.44
388.038	102.44
388.263	108.44
388.488	98.44
388.713	91.44
388.938	83.44
389.163	105.44
389.387	110.44
389.612	101.44
389.837	90.44
390.062	78.44
390.287	82.44
390.512	85.44
390.736	89.44
390.961	90.44
391.186	95.44
391.411	78.44
391.636	86.44
391.86	84.44
392.085	97.44
392.31	82.44
392.534	89.44
392.759	86.44
392.984	93.44
393.208	95.44
393.433	81.44
393.658	87.44
393.882	96.44
394.107	86.44
394.331	72.44
394.556	94.44
394.78	75.44
395.005	88.44
395.229	84.44
395.454	93.44
395.678	89.44
395.903	83.44
396.127	97.44
396.352	83.44
396.576	76.44
396.801	87.44
397.025	69.44
397.249	82.44
397.474	86.44
397.698	88.44
397.922	90.44
398.147	91.44
398.371	73.44
398.595	74.44
398.82	93.44
399.044	87.44
399.268	90.44
399.492	93.44
399.717	82.44
399.941	83.44
400.165	95.44
400.389	84.44
400.613	81.44
400.837	99.44
401.062	106.44
401.286	85.44
401.51	98.44
401.734	101.44
401.958	102.44
402.182	132.44
402.406	157.44
402.63	130.44
402.854	93.44
403.078	86.44
403.302	106.44
403.526	87.44
403.75	83.44
403.974	93.44
404.198	84.44
404.422	82.44
404.645	80.44
404.869	86.44
405.093	91.44
405.317	91.44
405.541	96.44
405.765	94.44
405.988	110.44
406.212	164.44
406.436	231.44
406.66	134.44
406.883	121.44
407.107	98.44
407.331	100.44
407.555	92.44
407.778	103.44
408.002	99.44
408.226	91.44
408.449	83.44
408.673	81.44
408.896	89.44
409.12	82.44
409.344	79.44
409.567	95.44
409.791	82.44
410.014	97.44
410.238	104.44
410.461	78.44
410.685	101.44
410.908	84.44
411.132	108.44
411.355	95.44
411.578	78.44
411.802	71.44
412.025	80.44
412.249	102.44
412.472	84.44
412.695	90.44
412.919	98.44
413.142	101.44
413.365	85.44
413.589	83.44
413.812	76.44
414.035	79.44
414.258	103.44
414.482	92.44
414.705	92.44
414.928	92.44
415.151	108.44
415.374	104.44
415.597	77.44
415.821	84.44
416.044	77.44
416.267	83.44
416.49	100.44
416.713	78.44
416.936	80.44
417.159	81.44
417.382	78.44
417.605	75.44
417.828	88.44
418.051	99.44
418.274	81.44
418.497	85.44
418.72	90.44
418.943	85.44
419.166	107.44
419.389	84.44
419.611	87.44
419.834	91.44
420.057	95.44
420.28	94.44
420.503	75.44
420.726	101.44
420.948	92.44
421.171	87.44
421.394	82.44
421.617	97.44
421.839	79.44
422.062	105.44
422.285	98.44
422.507	98.44
422.73	86.44
422.953	83.44
423.175	83.44
423.398	84.44
423.621	98.44
423.843	92.44
424.066	82.44
424.288	83.44
424.511	67.44
424.733	106.44
424.956	99.44
425.178	94.44
425.401	101.44
425.623	101.44
425.846	106.44
426.068	108.44
426.291	89.44
426.513	92.44
426.735	94.44
426.958	90.44
427.18	106.44
427.402	138.44
427.625	158.44
427.847	121.44
428.069	101.44
428.292	72.44
428.514	96.44
428.736	82.44
428.958	85.44
429.181	82.44
429.403	81.44
429.625	93.44
429.847	86.44
430.069	98.44
430.292	108.44
430.514	90.44
430.736	84.44
430.958	88.44
431.18	85.44
431.402	80.44
431.624	88.44
431.846	79.44
432.068	88.44
432.29	93.44
432.512	86.44
432.734	92.44
432.956	76.44
433.178	88.44
433.4	112.44
433.622	95.44
433.844	93.44
434.066	89.44
434.287	99.44
434.509	86.44
434.731	83.44
434.953	84.44
435.175	89.44
435.397	88.44
435.618	102.44
435.84	113.44
436.062	120.44
436.284	116.44
436.505	110.44
436.727	101.44
436.949	90.44
437.17	85.44
437.392	90.44
437.614	100.44
437.835	104.44
438.057	115.44
438.278	109.44
438.5	104.44
438.721	122.44
438.943	101.44
439.165	80.44
439.386	92.44
439.608	104.44
439.829	115.44
440.05	107.44
440.272	139.44
440.493	99.44
440.715	84.44
440.936	78.44
441.158	88.44
441.379	93.44
441.6	92.44
441.822	110.44
442.043	90.44
442.264	98.44
442.486	97.44
442.707	83.44
442.928	110.44
443.149	141.44
443.371	124.44
443.592	92.44
443.813	106.44
444.034	101.44
444.255	93.44
444.476	93.44
444.698	93.44
444.919	81.44
445.14	113.44
445.361	124.44
445.582	116.44
445.803	151.44
446.024	153.44
446.245	118.44
446.466	103.44
446.687	98.44
446.908	82.44
447.129	90.44
447.35	90.44
447.571	91.44
447.792	105.44
448.013	94.44
448.234	107.44
448.455	103.44
448.675	104.44
448.896	113.44
449.117	100.44
449.338	107.44
449.559	120.44
449.779	132.44
450	92.44
450.221	85.44
450.442	89.44
450.662	89.44
450.883	91.44
451.104	104.44
451.324	102.44
451.545	82.44
451.766	85.44
451.986	85.44
452.207	84.44
452.428	94.44
452.648	101.44
452.869	108.44
453.089	107.44
453.31	113.44
453.53	91.44
453.751	84.44
453.971	116.44
454.192	108.44
454.412	96.44
454.633	84.44
454.853	95.44
455.073	77.44
455.294	94.44
455.514	101.44
455.734	88.44
455.955	89.44
456.175	86.44
456.395	93.44
456.616	91.44
456.836	82.44
457.056	89.44
457.276	75.44
457.497	66.44
457.717	68.44
457.937	104.44
458.157	77.44
458.377	101.44
458.598	102.44
458.818	146.44
459.038	148.44
459.258	130.44
459.478	96.44
459.698	86.44
459.918	100.44
460.138	89.44
460.358	99.44
460.578	85.44
460.798	83.44
461.018	85.44
461.238	93.44
461.458	82.44
461.678	83.44
461.898	88.44
462.118	102.44
462.338	90.44
462.558	76.44
462.777	95.44
462.997	80.44
463.217	96.44
463.437	92.44
463.657	91.44
463.876	85.44
464.096	85.44
464.316	89.44
464.536	105.44
464.755	91.44
464.975	101.44
465.195	162.44
465.414	147.44
465.634	97.44
465.854	92.44
466.073	100.44
466.293	78.44
466.512	84.44
466.732	92.44
466.951	90.44
467.171	82.44
467.391	89.44
467.61	101.44
467.829	79.44
468.049	103.44
468.268	86.44
468.488	85.44
468.707	90.44
468.927	71.44
469.146	70.44
469.365	91.44
469.585	93.44
469.804	96.44
470.023	103.44
470.243	90.44
470.462	99.44
470.681	109.44
470.901	100.44
471.12	81.44
471.339	82.44
471.558	79.44
471.777	82.44
471.997	90.44
472.216	97.44
472.435	96.44
472.654	97.44
472.873	86.44
473.092	92.44
473.311	94.44
473.53	83.44
473.749	86.44
473.968	104.44
474.187	112.44
474.406	91.44
474.625	87.44
474.844	96.44
475.063	80.44
475.282	91.44
475.501	92.44
475.72	89.44
475.939	93.44
476.158	88.44
476.377	80.44
476.596	97.44
476.814	86.44
477.033	112.44
477.252	96.44
477.471	87.44
477.69	90.44
477.908	97.44
478.127	84.44
478.346	99.44
478.564	85.44
478.783	86.44
479.002	91.44
479.22	94.44
479.439	99.44
479.658	100.44
479.876	88.44
480.095	88.44
480.313	80.44
480.532	93.44
480.751	83.44
480.969	88.44
481.188	90.44
481.406	98.44
481.624	80.44
481.843	103.44
482.061	80.44
482.28	84.44
482.498	81.44
482.717	87.44
482.935	99.44
483.153	78.44
483.372	85.44
483.59	95.44
483.808	80.44
484.027	85.44
484.245	81.44
484.463	92.44
484.681	86.44
484.9	87.44
485.118	86.44
485.336	94.44
485.554	86.44
485.772	104.44
485.99	92.44
486.209	108.44
486.427	91.44
486.645	100.44
486.863	104.44
487.081	105.44
487.299	94.44
487.517	88.44
487.735	86.44
487.953	87.44
488.171	84.44
488.389	92.44
488.607	95.44
488.825	86.44
489.043	87.44
489.261	92.44
489.479	91.44
489.696	93.44
489.914	89.44
490.132	93.44
490.35	89.44
490.568	92.44
490.786	89.44
491.003	88.44
491.221	98.44
491.439	101.44
491.657	92.44
491.874	83.44
492.092	83.44
492.31	101.44
492.527	101.44
492.745	93.44
492.963	99.44
493.18	106.44
493.398	102.44
493.615	97.44
493.833	75.44
494.05	98.44
494.268	98.44
494.485	91.44
494.703	101.44
494.92	99.44
495.138	102.44
495.355	100.44
495.573	98.44
495.79	88.44
496.008	80.44
496.225	75.44
496.442	104.44
496.66	108.44
496.877	106.44
497.094	90.44
497.312	88.44
497.529	86.44
497.746	93.44
497.963	104.44
498.181	85.44
498.398	98.44
498.615	99.44
498.832	91.44
499.049	83.44
499.267	92.44
499.484	86.44
499.701	111.44
499.918	93.44
500.135	94.44
500.352	99.44
500.569	102.44
500.786	84.44
501.003	83.44
501.22	89.44
501.437	98.44
501.654	89.44
501.871	106.44
502.088	107.44
502.305	99.44
502.522	83.44
502.739	86.44
502.956	92.44
503.172	103.44
503.389	92.44
503.606	104.44
503.823	90.44
504.04	89.44
504.256	92.44
504.473	74.44
504.69	77.44
504.907	79.44
505.123	80.44
505.34	90.44
505.557	85.44
505.773	94.44
505.99	76.44
506.207	80.44
506.423	91.44
506.64	97.44
506.856	90.44
507.073	91.44
507.289	92.44
507.506	93.44
507.722	108.44
507.939	125.44
508.155	98.44
508.372	81.44
508.588	89.44
508.805	85.44
509.021	104.44
509.238	92.44
509.454	94.44
509.67	95.44
509.887	112.44
510.103	131.44
510.319	202.44
510.536	737.44
510.752	2437.44
510.968	693.44
511.184	156.44
511.401	102.44
511.617	87.44
511.833	93.44
512.049	87.44
512.265	86.44
512.481	92.44
512.698	88.44
512.914	93.44
513.13	101.44
513.346	96.44
513.562	76.44
513.778	91.44
513.994	89.44
514.21	111.44
514.426	111.44
514.642	139.44
514.858	125.44
515.074	169.44
515.29	442.44
515.506	1502.44
515.721	576.44
