Data from Uncirc_2007_H10_HRD10591_00058.txt Node
Date: Wed Jan 03 10:20:54 EST 2024
User: Yrep
Spectrometer: HR+D1059
Trigger mode: 1
Integration Time (sec): 1.000000E-1
Scans to average: 1
Electric dark correction enabled: true
Nonlinearity correction enabled: false
Boxcar width: 0
XAxis mode: Wavelengths
Number of Pixels in Spectrum: 2048
>>>>>Begin Spectral Data<<<<<
223.165	-16.56
223.4	-16.56
223.635	-16.56
223.869	-21.56
224.104	-25.56
224.338	-12.56
224.573	-10.56
224.808	2.44
225.042	-7.56
225.277	-13.56
225.511	-2.56
225.746	1.44
225.98	10.44
226.215	14.44
226.449	9.44
226.683	24.44
226.918	21.44
227.152	26.44
227.387	26.44
227.621	41.44
227.856	39.44
228.09	41.44
228.324	40.44
228.559	44.44
228.793	51.44
229.027	57.44
229.262	58.44
229.496	68.44
229.73	89.44
229.964	80.44
230.199	79.44
230.433	57.44
230.667	77.44
230.901	66.44
231.136	59.44
231.37	90.44
231.604	69.44
231.838	73.44
232.072	83.44
232.306	73.44
232.541	71.44
232.775	67.44
233.009	72.44
233.243	89.44
233.477	83.44
233.711	81.44
233.945	83.44
234.179	73.44
234.413	81.44
234.647	69.44
234.881	80.44
235.115	85.44
235.349	78.44
235.583	77.44
235.817	76.44
236.051	66.44
236.285	74.44
236.519	76.44
236.753	80.44
236.987	77.44
237.221	86.44
237.455	88.44
237.689	75.44
237.922	80.44
238.156	65.44
238.39	65.44
238.624	73.44
238.858	65.44
239.091	58.44
239.325	79.44
239.559	68.44
239.793	73.44
240.027	77.44
240.26	73.44
240.494	66.44
240.728	66.44
240.961	75.44
241.195	77.44
241.429	74.44
241.662	74.44
241.896	68.44
242.13	74.44
242.363	82.44
242.597	74.44
242.83	89.44
243.064	83.44
243.298	73.44
243.531	61.44
243.765	70.44
243.998	80.44
244.232	72.44
244.465	71.44
244.699	81.44
244.932	74.44
245.166	54.44
245.399	77.44
245.633	82.44
245.866	77.44
246.099	58.44
246.333	86.44
246.566	83.44
246.8	82.44
247.033	71.44
247.266	84.44
247.5	57.44
247.733	70.44
247.966	69.44
248.2	77.44
248.433	73.44
248.666	63.44
248.899	79.44
249.133	86.44
249.366	99.44
249.599	94.44
249.832	82.44
250.066	90.44
250.299	67.44
250.532	68.44
250.765	70.44
250.998	73.44
251.231	79.44
251.465	81.44
251.698	79.44
251.931	65.44
252.164	82.44
252.397	73.44
252.63	66.44
252.863	82.44
253.096	70.44
253.329	89.44
253.562	81.44
253.795	70.44
254.028	75.44
254.261	74.44
254.494	65.44
254.727	71.44
254.96	84.44
255.193	75.44
255.426	78.44
255.659	79.44
255.892	79.44
256.124	69.44
256.357	81.44
256.59	80.44
256.823	83.44
257.056	95.44
257.289	86.44
257.521	76.44
257.754	74.44
257.987	84.44
258.22	75.44
258.452	79.44
258.685	85.44
258.918	78.44
259.151	74.44
259.383	80.44
259.616	89.44
259.849	81.44
260.081	62.44
260.314	71.44
260.547	77.44
260.779	82.44
261.012	80.44
261.244	85.44
261.477	97.44
261.71	89.44
261.942	110.44
262.175	105.44
262.407	90.44
262.64	81.44
262.872	83.44
263.105	69.44
263.337	67.44
263.57	77.44
263.802	77.44
264.035	81.44
264.267	83.44
264.499	93.44
264.732	83.44
264.964	76.44
265.197	84.44
265.429	77.44
265.661	74.44
265.894	85.44
266.126	73.44
266.358	74.44
266.591	73.44
266.823	77.44
267.055	75.44
267.287	82.44
267.52	93.44
267.752	91.44
267.984	81.44
268.216	74.44
268.448	80.44
268.681	102.44
268.913	69.44
269.145	79.44
269.377	83.44
269.609	85.44
269.841	72.44
270.073	89.44
270.306	94.44
270.538	86.44
270.77	77.44
271.002	86.44
271.234	77.44
271.466	75.44
271.698	73.44
271.93	80.44
272.162	75.44
272.394	90.44
272.626	73.44
272.858	89.44
273.09	83.44
273.322	72.44
273.553	88.44
273.785	91.44
274.017	91.44
274.249	77.44
274.481	84.44
274.713	89.44
274.945	86.44
275.176	75.44
275.408	85.44
275.64	78.44
275.872	78.44
276.104	84.44
276.335	80.44
276.567	94.44
276.799	112.44
277.031	103.44
277.262	91.44
277.494	90.44
277.726	92.44
277.957	90.44
278.189	71.44
278.421	91.44
278.652	93.44
278.884	80.44
279.115	87.44
279.347	88.44
279.579	82.44
279.81	77.44
280.042	73.44
280.273	71.44
280.505	75.44
280.736	79.44
280.968	79.44
281.199	85.44
281.431	79.44
281.662	70.44
281.894	82.44
282.125	97.44
282.356	113.44
282.588	132.44
282.819	111.44
283.051	87.44
283.282	78.44
283.513	73.44
283.745	87.44
283.976	81.44
284.207	100.44
284.439	85.44
284.67	88.44
284.901	90.44
285.132	81.44
285.364	85.44
285.595	79.44
285.826	75.44
286.057	79.44
286.288	74.44
286.52	82.44
286.751	88.44
286.982	80.44
287.213	89.44
287.444	80.44
287.675	82.44
287.906	84.44
288.138	80.44
288.369	99.44
288.6	95.44
288.831	91.44
289.062	71.44
289.293	97.44
289.524	85.44
289.755	71.44
289.986	96.44
290.217	63.44
290.448	73.44
290.679	83.44
290.91	83.44
291.141	68.44
291.371	92.44
291.602	81.44
291.833	89.44
292.064	94.44
292.295	89.44
292.526	79.44
292.757	94.44
292.987	77.44
293.218	79.44
293.449	93.44
293.68	82.44
293.91	79.44
294.141	96.44
294.372	79.44
294.603	78.44
294.833	86.44
295.064	90.44
295.295	90.44
295.525	59.44
295.756	101.44
295.987	110.44
296.217	123.44
296.448	133.44
296.679	83.44
296.909	87.44
297.14	87.44
297.37	85.44
297.601	91.44
297.831	91.44
298.062	91.44
298.292	86.44
298.523	86.44
298.753	73.44
298.984	85.44
299.214	80.44
299.445	71.44
299.675	85.44
299.905	77.44
300.136	75.44
300.366	86.44
300.597	89.44
300.827	82.44
301.057	101.44
301.288	100.44
301.518	93.44
301.748	86.44
301.979	89.44
302.209	107.44
302.439	109.44
302.669	79.44
302.9	81.44
303.13	89.44
303.36	73.44
303.59	87.44
303.82	103.44
304.051	97.44
304.281	72.44
304.511	86.44
304.741	81.44
304.971	85.44
305.201	93.44
305.431	93.44
305.661	97.44
305.891	94.44
306.121	88.44
306.352	93.44
306.582	99.44
306.812	105.44
307.042	106.44
307.272	75.44
307.502	91.44
307.731	89.44
307.961	83.44
308.191	79.44
308.421	98.44
308.651	112.44
308.881	90.44
309.111	86.44
309.341	84.44
309.571	88.44
309.8	99.44
310.03	78.44
310.26	97.44
310.49	88.44
310.72	87.44
310.949	92.44
311.179	95.44
311.409	82.44
311.639	82.44
311.868	94.44
312.098	81.44
312.328	89.44
312.557	87.44
312.787	104.44
313.017	87.44
313.246	91.44
313.476	80.44
313.706	91.44
313.935	89.44
314.165	104.44
314.394	109.44
314.624	92.44
314.853	90.44
315.083	90.44
315.312	90.44
315.542	98.44
315.771	90.44
316.001	70.44
316.23	85.44
316.46	82.44
316.689	77.44
316.919	90.44
317.148	108.44
317.377	86.44
317.607	101.44
317.836	81.44
318.065	75.44
318.295	73.44
318.524	97.44
318.753	81.44
318.983	85.44
319.212	99.44
319.441	103.44
319.67	109.44
319.9	92.44
320.129	88.44
320.358	88.44
320.587	90.44
320.816	109.44
321.046	111.44
321.275	95.44
321.504	94.44
321.733	92.44
321.962	77.44
322.191	102.44
322.42	101.44
322.649	123.44
322.878	109.44
323.108	126.44
323.337	117.44
323.566	128.44
323.795	148.44
324.024	210.44
324.253	401.44
324.482	894.44
324.71	1838.44
324.939	2402.44
325.168	871.44
325.397	236.44
325.626	153.44
325.855	137.44
326.084	126.44
326.313	133.44
326.542	167.44
326.77	242.44
326.999	501.44
327.228	1061.44
327.457	1893.44
327.686	1504.44
327.914	395.44
328.143	190.44
328.372	141.44
328.6	121.44
328.829	111.44
329.058	132.44
329.287	114.44
329.515	109.44
329.744	116.44
329.972	95.44
330.201	107.44
330.43	95.44
330.658	122.44
330.887	148.44
331.115	130.44
331.344	101.44
331.572	100.44
331.801	93.44
332.03	101.44
332.258	91.44
332.486	91.44
332.715	94.44
332.943	89.44
333.172	102.44
333.4	94.44
333.629	107.44
333.857	113.44
334.085	102.44
334.314	107.44
334.542	87.44
334.771	91.44
334.999	108.44
335.227	98.44
335.455	97.44
335.684	103.44
335.912	89.44
336.14	90.44
336.369	111.44
336.597	109.44
336.825	82.44
337.053	95.44
337.281	101.44
337.51	79.44
337.738	88.44
337.966	91.44
338.194	89.44
338.422	96.44
338.65	88.44
338.878	100.44
339.106	92.44
339.334	96.44
339.562	77.44
339.79	91.44
340.018	80.44
340.246	102.44
340.474	89.44
340.702	105.44
340.93	94.44
341.158	86.44
341.386	91.44
341.614	98.44
341.842	89.44
342.07	83.44
342.298	96.44
342.526	78.44
342.754	89.44
342.981	88.44
343.209	89.44
343.437	95.44
343.665	104.44
343.893	82.44
344.12	102.44
344.348	89.44
344.576	90.44
344.804	90.44
345.031	91.44
345.259	95.44
345.487	111.44
345.714	108.44
345.942	97.44
346.17	102.44
346.397	89.44
346.625	108.44
346.853	85.44
347.08	90.44
347.308	101.44
347.535	107.44
347.763	94.44
347.99	93.44
348.218	91.44
348.445	97.44
348.673	95.44
348.9	90.44
349.128	92.44
349.355	102.44
349.583	84.44
349.81	73.44
350.037	98.44
350.265	88.44
350.492	97.44
350.72	95.44
350.947	101.44
351.174	114.44
351.402	114.44
351.629	103.44
351.856	107.44
352.083	97.44
352.311	104.44
352.538	106.44
352.765	114.44
352.992	112.44
353.22	99.44
353.447	96.44
353.674	94.44
353.901	113.44
354.128	97.44
354.355	86.44
354.583	92.44
354.81	93.44
355.037	103.44
355.264	74.44
355.491	90.44
355.718	80.44
355.945	106.44
356.172	93.44
356.399	89.44
356.626	105.44
356.853	82.44
357.08	84.44
357.307	90.44
357.534	96.44
357.761	82.44
357.988	97.44
358.215	102.44
358.441	85.44
358.668	89.44
358.895	88.44
359.122	98.44
359.349	98.44
359.576	106.44
359.802	102.44
360.029	107.44
360.256	114.44
360.483	105.44
360.709	92.44
360.936	92.44
361.163	87.44
361.39	100.44
361.616	113.44
361.843	94.44
362.07	69.44
362.296	106.44
362.523	90.44
362.749	87.44
362.976	94.44
363.203	83.44
363.429	87.44
363.656	86.44
363.882	94.44
364.109	91.44
364.335	91.44
364.562	83.44
364.788	85.44
365.015	92.44
365.241	97.44
365.468	117.44
365.694	100.44
365.92	101.44
366.147	83.44
366.373	94.44
366.599	96.44
366.826	81.44
367.052	77.44
367.278	86.44
367.505	86.44
367.731	87.44
367.957	94.44
368.184	82.44
368.41	104.44
368.636	95.44
368.862	111.44
369.089	89.44
369.315	93.44
369.541	78.44
369.767	86.44
369.993	86.44
370.219	89.44
370.445	93.44
370.672	89.44
370.898	92.44
371.124	99.44
371.35	87.44
371.576	84.44
371.802	90.44
372.028	90.44
372.254	89.44
372.48	89.44
372.706	96.44
372.932	90.44
373.158	83.44
373.384	87.44
373.61	82.44
373.835	91.44
374.061	96.44
374.287	77.44
374.513	92.44
374.739	75.44
374.965	81.44
375.191	98.44
375.416	82.44
375.642	74.44
375.868	90.44
376.094	83.44
376.319	84.44
376.545	81.44
376.771	91.44
376.997	83.44
377.222	78.44
377.448	88.44
377.674	83.44
377.899	93.44
378.125	101.44
378.35	89.44
378.576	92.44
378.802	110.44
379.027	98.44
379.253	97.44
379.478	83.44
379.704	90.44
379.929	85.44
380.155	96.44
380.38	87.44
380.606	71.44
380.831	97.44
381.057	94.44
381.282	89.44
381.507	94.44
381.733	87.44
381.958	83.44
382.184	98.44
382.409	101.44
382.634	103.44
382.86	100.44
383.085	90.44
383.31	100.44
383.535	81.44
383.761	96.44
383.986	91.44
384.211	97.44
384.436	102.44
384.662	104.44
384.887	110.44
385.112	105.44
385.337	102.44
385.562	97.44
385.787	108.44
386.013	110.44
386.238	91.44
386.463	88.44
386.688	93.44
386.913	89.44
387.138	106.44
387.363	95.44
387.588	110.44
387.813	89.44
388.038	101.44
388.263	96.44
388.488	93.44
388.713	93.44
388.938	89.44
389.163	93.44
389.387	84.44
389.612	95.44
389.837	99.44
390.062	99.44
390.287	89.44
390.512	79.44
390.736	96.44
390.961	86.44
391.186	92.44
391.411	91.44
391.636	87.44
391.86	88.44
392.085	83.44
392.31	74.44
392.534	88.44
392.759	89.44
392.984	94.44
393.208	87.44
393.433	83.44
393.658	77.44
393.882	94.44
394.107	81.44
394.331	78.44
394.556	81.44
394.78	85.44
395.005	87.44
395.229	79.44
395.454	87.44
395.678	82.44
395.903	86.44
396.127	92.44
396.352	99.44
396.576	92.44
396.801	82.44
397.025	93.44
397.249	93.44
397.474	104.44
397.698	85.44
397.922	95.44
398.147	79.44
398.371	87.44
398.595	94.44
398.82	97.44
399.044	92.44
399.268	81.44
399.492	87.44
399.717	95.44
399.941	83.44
400.165	107.44
400.389	91.44
400.613	87.44
400.837	81.44
401.062	75.44
401.286	75.44
401.51	94.44
401.734	103.44
401.958	78.44
402.182	115.44
402.406	147.44
402.63	118.44
402.854	94.44
403.078	86.44
403.302	78.44
403.526	86.44
403.75	97.44
403.974	83.44
404.198	87.44
404.422	89.44
404.645	93.44
404.869	87.44
405.093	106.44
405.317	88.44
405.541	105.44
405.765	101.44
405.988	94.44
406.212	165.44
406.436	223.44
406.66	148.44
406.883	99.44
407.107	92.44
407.331	78.44
407.555	109.44
407.778	95.44
408.002	91.44
408.226	82.44
408.449	90.44
408.673	77.44
408.896	101.44
409.12	109.44
409.344	93.44
409.567	94.44
409.791	97.44
410.014	109.44
410.238	86.44
410.461	94.44
410.685	79.44
410.908	92.44
411.132	94.44
411.355	108.44
411.578	81.44
411.802	82.44
412.025	98.44
412.249	100.44
412.472	95.44
412.695	93.44
412.919	89.44
413.142	91.44
413.365	89.44
413.589	80.44
413.812	90.44
414.035	89.44
414.258	89.44
414.482	104.44
414.705	78.44
414.928	86.44
415.151	97.44
415.374	98.44
415.597	92.44
415.821	89.44
416.044	90.44
416.267	92.44
416.49	96.44
416.713	92.44
416.936	83.44
417.159	80.44
417.382	84.44
417.605	80.44
417.828	89.44
418.051	76.44
418.274	100.44
418.497	87.44
418.72	71.44
418.943	95.44
419.166	80.44
419.389	93.44
419.611	88.44
419.834	83.44
420.057	93.44
420.28	87.44
420.503	88.44
420.726	78.44
420.948	88.44
421.171	83.44
421.394	85.44
421.617	76.44
421.839	101.44
422.062	84.44
422.285	104.44
422.507	93.44
422.73	107.44
422.953	97.44
423.175	87.44
423.398	90.44
423.621	82.44
423.843	90.44
424.066	102.44
424.288	93.44
424.511	96.44
424.733	118.44
424.956	98.44
425.178	107.44
425.401	98.44
425.623	93.44
425.846	98.44
426.068	95.44
426.291	104.44
426.513	89.44
426.735	78.44
426.958	85.44
427.18	81.44
427.402	141.44
427.625	170.44
427.847	124.44
428.069	100.44
428.292	77.44
428.514	98.44
428.736	87.44
428.958	78.44
429.181	80.44
429.403	81.44
429.625	95.44
429.847	92.44
430.069	97.44
430.292	98.44
430.514	75.44
430.736	87.44
430.958	97.44
431.18	82.44
431.402	83.44
431.624	77.44
431.846	86.44
432.068	77.44
432.29	75.44
432.512	85.44
432.734	86.44
432.956	86.44
433.178	95.44
433.4	96.44
433.622	83.44
433.844	72.44
434.066	79.44
434.287	79.44
434.509	90.44
434.731	79.44
434.953	89.44
435.175	89.44
435.397	80.44
435.618	88.44
435.84	99.44
436.062	121.44
436.284	105.44
436.505	98.44
436.727	99.44
436.949	91.44
437.17	83.44
437.392	94.44
437.614	87.44
437.835	100.44
438.057	110.44
438.278	111.44
438.5	106.44
438.721	107.44
438.943	96.44
439.165	78.44
439.386	74.44
439.608	98.44
439.829	97.44
440.05	117.44
440.272	136.44
440.493	106.44
440.715	68.44
440.936	83.44
441.158	91.44
441.379	86.44
441.6	85.44
441.822	101.44
442.043	101.44
442.264	112.44
442.486	92.44
442.707	81.44
442.928	89.44
443.149	124.44
443.371	121.44
443.592	106.44
443.813	110.44
444.034	106.44
444.255	98.44
444.476	85.44
444.698	89.44
444.919	85.44
445.14	143.44
445.361	131.44
445.582	120.44
445.803	146.44
446.024	149.44
446.245	123.44
446.466	117.44
446.687	92.44
446.908	85.44
447.129	77.44
447.35	95.44
447.571	86.44
447.792	77.44
448.013	82.44
448.234	91.44
448.455	102.44
448.675	113.44
448.896	123.44
449.117	91.44
449.338	117.44
449.559	133.44
449.779	131.44
450	106.44
450.221	94.44
450.442	77.44
450.662	102.44
450.883	114.44
451.104	106.44
451.324	101.44
451.545	82.44
451.766	96.44
451.986	80.44
452.207	78.44
452.428	96.44
452.648	95.44
452.869	117.44
453.089	112.44
453.31	126.44
453.53	89.44
453.751	89.44
453.971	100.44
454.192	99.44
454.412	94.44
454.633	90.44
454.853	92.44
455.073	83.44
455.294	102.44
455.514	95.44
455.734	94.44
455.955	64.44
456.175	77.44
456.395	85.44
456.616	81.44
456.836	71.44
457.056	84.44
457.276	72.44
457.497	75.44
457.717	66.44
457.937	72.44
458.157	87.44
458.377	98.44
458.598	111.44
458.818	139.44
459.038	151.44
459.258	120.44
459.478	99.44
459.698	89.44
459.918	76.44
460.138	85.44
460.358	74.44
460.578	95.44
460.798	87.44
461.018	91.44
461.238	82.44
461.458	89.44
461.678	82.44
461.898	73.44
462.118	96.44
462.338	99.44
462.558	73.44
462.777	87.44
462.997	73.44
463.217	71.44
463.437	75.44
463.657	78.44
463.876	95.44
464.096	87.44
464.316	79.44
464.536	80.44
464.755	89.44
464.975	115.44
465.195	162.44
465.414	150.44
465.634	96.44
465.854	69.44
466.073	82.44
466.293	94.44
466.512	82.44
466.732	81.44
466.951	89.44
467.171	79.44
467.391	95.44
467.61	93.44
467.829	93.44
468.049	84.44
468.268	82.44
468.488	82.44
468.707	71.44
468.927	79.44
469.146	90.44
469.365	78.44
469.585	76.44
469.804	98.44
470.023	90.44
470.243	81.44
470.462	106.44
470.681	109.44
470.901	91.44
471.12	82.44
471.339	90.44
471.558	74.44
471.777	76.44
471.997	87.44
472.216	94.44
472.435	77.44
472.654	77.44
472.873	78.44
473.092	80.44
473.311	81.44
473.53	89.44
473.749	86.44
473.968	96.44
474.187	110.44
474.406	104.44
474.625	91.44
474.844	88.44
475.063	83.44
475.282	85.44
475.501	90.44
475.72	64.44
475.939	85.44
476.158	86.44
476.377	85.44
476.596	79.44
476.814	97.44
477.033	88.44
477.252	91.44
477.471	94.44
477.69	92.44
477.908	89.44
478.127	98.44
478.346	87.44
478.564	73.44
478.783	97.44
479.002	92.44
479.22	93.44
479.439	95.44
479.658	98.44
479.876	71.44
480.095	91.44
480.313	85.44
480.532	86.44
480.751	73.44
480.969	78.44
481.188	89.44
481.406	104.44
481.624	97.44
481.843	87.44
482.061	78.44
482.28	107.44
482.498	86.44
482.717	102.44
482.935	85.44
483.153	86.44
483.372	85.44
483.59	86.44
483.808	83.44
484.027	82.44
484.245	97.44
484.463	71.44
484.681	98.44
484.9	86.44
485.118	87.44
485.336	80.44
485.554	105.44
485.772	106.44
485.99	90.44
486.209	102.44
486.427	103.44
486.645	105.44
486.863	115.44
487.081	97.44
487.299	97.44
487.517	97.44
487.735	86.44
487.953	84.44
488.171	97.44
488.389	103.44
488.607	101.44
488.825	87.44
489.043	91.44
489.261	95.44
489.479	87.44
489.696	98.44
489.914	77.44
490.132	89.44
490.35	85.44
490.568	89.44
490.786	81.44
491.003	79.44
491.221	89.44
491.439	86.44
491.657	82.44
491.874	101.44
492.092	80.44
492.31	94.44
492.527	94.44
492.745	86.44
492.963	94.44
493.18	93.44
493.398	86.44
493.615	89.44
493.833	83.44
494.05	79.44
494.268	88.44
494.485	81.44
494.703	77.44
494.92	66.44
495.138	73.44
495.355	94.44
495.573	96.44
495.79	80.44
496.008	77.44
496.225	87.44
496.442	93.44
496.66	88.44
496.877	89.44
497.094	92.44
497.312	92.44
497.529	76.44
497.746	82.44
497.963	96.44
498.181	83.44
498.398	87.44
498.615	107.44
498.832	107.44
499.049	89.44
499.267	74.44
499.484	73.44
499.701	87.44
499.918	102.44
500.135	88.44
500.352	82.44
500.569	92.44
500.786	82.44
501.003	80.44
501.22	88.44
501.437	92.44
501.654	95.44
501.871	99.44
502.088	89.44
502.305	92.44
502.522	76.44
502.739	88.44
502.956	82.44
503.172	81.44
503.389	104.44
503.606	106.44
503.823	87.44
504.04	101.44
504.256	83.44
504.473	87.44
504.69	79.44
504.907	93.44
505.123	91.44
505.34	76.44
505.557	82.44
505.773	90.44
505.99	101.44
506.207	96.44
506.423	89.44
506.64	92.44
506.856	85.44
507.073	96.44
507.289	78.44
507.506	96.44
507.722	110.44
507.939	109.44
508.155	87.44
508.372	82.44
508.588	73.44
508.805	85.44
509.021	104.44
509.238	91.44
509.454	101.44
509.67	92.44
509.887	112.44
510.103	136.44
510.319	209.44
510.536	791.44
510.752	2490.44
510.968	681.44
511.184	164.44
511.401	110.44
511.617	107.44
511.833	98.44
512.049	94.44
512.265	100.44
512.481	95.44
512.698	86.44
512.914	91.44
513.13	80.44
513.346	85.44
513.562	90.44
513.778	99.44
513.994	94.44
514.21	103.44
514.426	95.44
514.642	123.44
514.858	121.44
515.074	153.44
515.29	446.44
515.506	1506.44
515.721	551.44
515.937	161.44
516.153	120.44
516.369	82.44
