Data from Uncirc_2007_H10_HRD10591_00067.txt Node
Date: Wed Jan 03 10:20:56 EST 2024
User: Yrep
Spectrometer: HR+D1059
Trigger mode: 1
Integration Time (sec): 1.000000E-1
Scans to average: 1
Electric dark correction enabled: true
Nonlinearity correction enabled: false
Boxcar width: 0
XAxis mode: Wavelengths
Number of Pixels in Spectrum: 2048
>>>>>Begin Spectral Data<<<<<
223.165	-5.75
223.4	-5.75
223.635	-5.75
223.869	-23.75
224.104	-15.75
224.338	-11.75
224.573	-17.75
224.808	-7.75
225.042	4.25
225.277	-20.75
225.511	0.25
225.746	6.25
225.98	4.25
226.215	4.25
226.449	4.25
226.683	25.25
226.918	27.25
227.152	27.25
227.387	27.25
227.621	46.25
227.856	40.25
228.09	43.25
228.324	49.25
228.559	64.25
228.793	59.25
229.027	61.25
229.262	61.25
229.496	69.25
229.73	82.25
229.964	88.25
230.199	60.25
230.433	75.25
230.667	73.25
230.901	89.25
231.136	77.25
231.37	90.25
231.604	81.25
231.838	73.25
232.072	85.25
232.306	77.25
232.541	89.25
232.775	84.25
233.009	70.25
233.243	86.25
233.477	88.25
233.711	93.25
233.945	76.25
234.179	88.25
234.413	70.25
234.647	85.25
234.881	71.25
235.115	91.25
235.349	87.25
235.583	95.25
235.817	68.25
236.051	74.25
236.285	77.25
236.519	76.25
236.753	93.25
236.987	78.25
237.221	90.25
237.455	89.25
237.689	81.25
237.922	80.25
238.156	71.25
238.39	93.25
238.624	90.25
238.858	83.25
239.091	91.25
239.325	80.25
239.559	81.25
239.793	82.25
240.027	70.25
240.26	74.25
240.494	65.25
240.728	64.25
240.961	69.25
241.195	68.25
241.429	68.25
241.662	76.25
241.896	80.25
242.13	76.25
242.363	78.25
242.597	78.25
242.83	75.25
243.064	81.25
243.298	86.25
243.531	86.25
243.765	78.25
243.998	76.25
244.232	92.25
244.465	82.25
244.699	86.25
244.932	73.25
245.166	75.25
245.399	74.25
245.633	77.25
245.866	81.25
246.099	84.25
246.333	84.25
246.566	70.25
246.8	77.25
247.033	74.25
247.266	73.25
247.5	66.25
247.733	78.25
247.966	77.25
248.2	80.25
248.433	66.25
248.666	83.25
248.899	70.25
249.133	85.25
249.366	100.25
249.599	94.25
249.832	95.25
250.066	81.25
250.299	63.25
250.532	78.25
250.765	76.25
250.998	88.25
251.231	81.25
251.465	81.25
251.698	87.25
251.931	74.25
252.164	93.25
252.397	86.25
252.63	83.25
252.863	81.25
253.096	89.25
253.329	75.25
253.562	67.25
253.795	76.25
254.028	78.25
254.261	80.25
254.494	83.25
254.727	82.25
254.96	78.25
255.193	94.25
255.426	71.25
255.659	83.25
255.892	90.25
256.124	80.25
256.357	86.25
256.59	81.25
256.823	68.25
257.056	89.25
257.289	76.25
257.521	83.25
257.754	85.25
257.987	73.25
258.22	75.25
258.452	78.25
258.685	73.25
258.918	71.25
259.151	88.25
259.383	82.25
259.616	82.25
259.849	70.25
260.081	93.25
260.314	85.25
260.547	84.25
260.779	93.25
261.012	84.25
261.244	79.25
261.477	95.25
261.71	91.25
261.942	103.25
262.175	120.25
262.407	84.25
262.64	76.25
262.872	76.25
263.105	76.25
263.337	97.25
263.57	87.25
263.802	84.25
264.035	86.25
264.267	88.25
264.499	82.25
264.732	83.25
264.964	81.25
265.197	85.25
265.429	79.25
265.661	90.25
265.894	86.25
266.126	76.25
266.358	96.25
266.591	80.25
266.823	79.25
267.055	80.25
267.287	79.25
267.52	81.25
267.752	75.25
267.984	84.25
268.216	60.25
268.448	84.25
268.681	90.25
268.913	69.25
269.145	85.25
269.377	80.25
269.609	81.25
269.841	85.25
270.073	95.25
270.306	64.25
270.538	78.25
270.77	85.25
271.002	76.25
271.234	73.25
271.466	84.25
271.698	72.25
271.93	81.25
272.162	85.25
272.394	81.25
272.626	91.25
272.858	90.25
273.09	75.25
273.322	82.25
273.553	87.25
273.785	82.25
274.017	75.25
274.249	76.25
274.481	85.25
274.713	77.25
274.945	97.25
275.176	87.25
275.408	96.25
275.64	80.25
275.872	97.25
276.104	90.25
276.335	86.25
276.567	94.25
276.799	96.25
277.031	96.25
277.262	94.25
277.494	90.25
277.726	72.25
277.957	95.25
278.189	79.25
278.421	72.25
278.652	85.25
278.884	71.25
279.115	94.25
279.347	95.25
279.579	86.25
279.81	89.25
280.042	88.25
280.273	67.25
280.505	98.25
280.736	92.25
280.968	75.25
281.199	92.25
281.431	94.25
281.662	94.25
281.894	83.25
282.125	97.25
282.356	97.25
282.588	138.25
282.819	110.25
283.051	93.25
283.282	80.25
283.513	88.25
283.745	86.25
283.976	86.25
284.207	90.25
284.439	79.25
284.67	81.25
284.901	101.25
285.132	94.25
285.364	85.25
285.595	100.25
285.826	75.25
286.057	81.25
286.288	81.25
286.52	90.25
286.751	88.25
286.982	96.25
287.213	97.25
287.444	83.25
287.675	83.25
287.906	91.25
288.138	65.25
288.369	88.25
288.6	85.25
288.831	91.25
289.062	99.25
289.293	88.25
289.524	93.25
289.755	97.25
289.986	88.25
290.217	83.25
290.448	82.25
290.679	84.25
290.91	100.25
291.141	93.25
291.371	84.25
291.602	95.25
291.833	98.25
292.064	98.25
292.295	93.25
292.526	86.25
292.757	91.25
292.987	95.25
293.218	89.25
293.449	92.25
293.68	84.25
293.91	90.25
294.141	80.25
294.372	83.25
294.603	72.25
294.833	87.25
295.064	93.25
295.295	73.25
295.525	94.25
295.756	100.25
295.987	105.25
296.217	150.25
296.448	115.25
296.679	97.25
296.909	90.25
297.14	81.25
297.37	94.25
297.601	86.25
297.831	96.25
298.062	84.25
298.292	86.25
298.523	96.25
298.753	96.25
298.984	105.25
299.214	90.25
299.445	86.25
299.675	86.25
299.905	89.25
300.136	92.25
300.366	94.25
300.597	97.25
300.827	101.25
301.057	83.25
301.288	99.25
301.518	92.25
301.748	90.25
301.979	104.25
302.209	86.25
302.439	81.25
302.669	72.25
302.9	83.25
303.13	103.25
303.36	91.25
303.59	84.25
303.82	105.25
304.051	101.25
304.281	81.25
304.511	82.25
304.741	104.25
304.971	79.25
305.201	88.25
305.431	81.25
305.661	87.25
305.891	98.25
306.121	88.25
306.352	82.25
306.582	88.25
306.812	89.25
307.042	95.25
307.272	88.25
307.502	122.25
307.731	91.25
307.961	83.25
308.191	93.25
308.421	92.25
308.651	94.25
308.881	91.25
309.111	92.25
309.341	95.25
309.571	92.25
309.8	94.25
310.03	94.25
310.26	93.25
310.49	93.25
310.72	99.25
310.949	97.25
311.179	111.25
311.409	98.25
311.639	88.25
311.868	99.25
312.098	96.25
312.328	107.25
312.557	109.25
312.787	98.25
313.017	110.25
313.246	86.25
313.476	102.25
313.706	77.25
313.935	93.25
314.165	88.25
314.394	91.25
314.624	102.25
314.853	83.25
315.083	87.25
315.312	98.25
315.542	89.25
315.771	91.25
316.001	90.25
316.23	93.25
316.46	93.25
316.689	96.25
316.919	94.25
317.148	83.25
317.377	109.25
317.607	97.25
317.836	96.25
318.065	94.25
318.295	67.25
318.524	85.25
318.753	84.25
318.983	94.25
319.212	98.25
319.441	97.25
319.67	102.25
319.9	78.25
320.129	101.25
320.358	81.25
320.587	111.25
320.816	108.25
321.046	108.25
321.275	103.25
321.504	101.25
321.733	88.25
321.962	81.25
322.191	98.25
322.42	103.25
322.649	106.25
322.878	117.25
323.108	114.25
323.337	121.25
323.566	144.25
323.795	170.25
324.024	221.25
324.253	416.25
324.482	916.25
324.71	1904.25
324.939	2494.25
325.168	884.25
325.397	262.25
325.626	168.25
325.855	142.25
326.084	117.25
326.313	133.25
326.542	165.25
326.77	238.25
326.999	497.25
327.228	1050.25
327.457	1869.25
327.686	1501.25
327.914	385.25
328.143	199.25
328.372	137.25
328.6	124.25
328.829	114.25
329.058	143.25
329.287	124.25
329.515	100.25
329.744	101.25
329.972	95.25
330.201	107.25
330.43	117.25
330.658	120.25
330.887	149.25
331.115	126.25
331.344	102.25
331.572	90.25
331.801	86.25
332.03	101.25
332.258	92.25
332.486	95.25
332.715	96.25
332.943	96.25
333.172	101.25
333.4	97.25
333.629	106.25
333.857	97.25
334.085	95.25
334.314	81.25
334.542	101.25
334.771	85.25
334.999	95.25
335.227	95.25
335.455	77.25
335.684	101.25
335.912	89.25
336.14	92.25
336.369	78.25
336.597	116.25
336.825	106.25
337.053	102.25
337.281	81.25
337.51	67.25
337.738	98.25
337.966	86.25
338.194	87.25
338.422	88.25
338.65	101.25
338.878	100.25
339.106	85.25
339.334	95.25
339.562	93.25
339.79	92.25
340.018	93.25
340.246	97.25
340.474	109.25
340.702	93.25
340.93	91.25
341.158	95.25
341.386	110.25
341.614	94.25
341.842	93.25
342.07	85.25
342.298	97.25
342.526	94.25
342.754	95.25
342.981	85.25
343.209	84.25
343.437	94.25
343.665	93.25
343.893	98.25
344.12	86.25
344.348	92.25
344.576	86.25
344.804	83.25
345.031	111.25
345.259	94.25
345.487	86.25
345.714	100.25
345.942	95.25
346.17	92.25
346.397	102.25
346.625	107.25
346.853	83.25
347.08	81.25
347.308	91.25
347.535	87.25
347.763	101.25
347.99	86.25
348.218	101.25
348.445	102.25
348.673	77.25
348.9	104.25
349.128	92.25
349.355	93.25
349.583	101.25
349.81	94.25
350.037	86.25
350.265	89.25
350.492	98.25
350.72	100.25
350.947	107.25
351.174	96.25
351.402	105.25
351.629	101.25
351.856	98.25
352.083	106.25
352.311	117.25
352.538	102.25
352.765	98.25
352.992	120.25
353.22	113.25
353.447	111.25
353.674	98.25
353.901	85.25
354.128	106.25
354.355	89.25
354.583	97.25
354.81	93.25
355.037	94.25
355.264	109.25
355.491	84.25
355.718	85.25
355.945	103.25
356.172	89.25
356.399	96.25
356.626	100.25
356.853	84.25
357.08	96.25
357.307	93.25
357.534	81.25
357.761	94.25
357.988	86.25
358.215	97.25
358.441	98.25
358.668	80.25
358.895	85.25
359.122	81.25
359.349	97.25
359.576	90.25
359.802	106.25
360.029	107.25
360.256	103.25
360.483	92.25
360.709	100.25
360.936	92.25
361.163	92.25
361.39	105.25
361.616	98.25
361.843	95.25
362.07	90.25
362.296	102.25
362.523	81.25
362.749	88.25
362.976	99.25
363.203	91.25
363.429	89.25
363.656	94.25
363.882	88.25
364.109	96.25
364.335	87.25
364.562	103.25
364.788	83.25
365.015	86.25
365.241	78.25
365.468	116.25
365.694	96.25
365.92	93.25
366.147	86.25
366.373	77.25
366.599	83.25
366.826	101.25
367.052	90.25
367.278	91.25
367.505	97.25
367.731	83.25
367.957	95.25
368.184	82.25
368.41	108.25
368.636	105.25
368.862	128.25
369.089	124.25
369.315	94.25
369.541	83.25
369.767	93.25
369.993	92.25
370.219	92.25
370.445	100.25
370.672	94.25
370.898	84.25
371.124	88.25
371.35	78.25
371.576	83.25
371.802	88.25
372.028	87.25
372.254	88.25
372.48	86.25
372.706	88.25
372.932	72.25
373.158	92.25
373.384	94.25
373.61	94.25
373.835	90.25
374.061	90.25
374.287	87.25
374.513	91.25
374.739	81.25
374.965	78.25
375.191	70.25
375.416	97.25
375.642	103.25
375.868	98.25
376.094	95.25
376.319	97.25
376.545	85.25
376.771	85.25
376.997	73.25
377.222	95.25
377.448	96.25
377.674	88.25
377.899	100.25
378.125	101.25
378.35	90.25
378.576	91.25
378.802	85.25
379.027	91.25
379.253	87.25
379.478	85.25
379.704	92.25
379.929	111.25
380.155	99.25
380.38	95.25
380.606	83.25
380.831	89.25
381.057	95.25
381.282	86.25
381.507	90.25
381.733	99.25
381.958	92.25
382.184	102.25
382.409	92.25
382.634	94.25
382.86	83.25
383.085	79.25
383.31	93.25
383.535	95.25
383.761	102.25
383.986	95.25
384.211	107.25
384.436	89.25
384.662	100.25
384.887	90.25
385.112	89.25
385.337	98.25
385.562	95.25
385.787	96.25
386.013	86.25
386.238	104.25
386.463	100.25
386.688	94.25
386.913	102.25
387.138	132.25
387.363	111.25
387.588	85.25
387.813	84.25
388.038	106.25
388.263	101.25
388.488	98.25
388.713	88.25
388.938	85.25
389.163	92.25
389.387	99.25
389.612	78.25
389.837	92.25
390.062	100.25
390.287	93.25
390.512	92.25
390.736	80.25
390.961	80.25
391.186	84.25
391.411	93.25
391.636	94.25
391.86	92.25
392.085	93.25
392.31	86.25
392.534	96.25
392.759	92.25
392.984	92.25
393.208	94.25
393.433	83.25
393.658	81.25
393.882	86.25
394.107	90.25
394.331	89.25
394.556	92.25
394.78	86.25
395.005	93.25
395.229	85.25
395.454	90.25
395.678	69.25
395.903	81.25
396.127	87.25
396.352	93.25
396.576	87.25
396.801	94.25
397.025	94.25
397.249	81.25
397.474	96.25
397.698	81.25
397.922	78.25
398.147	81.25
398.371	76.25
398.595	93.25
398.82	89.25
399.044	77.25
399.268	91.25
399.492	73.25
399.717	90.25
399.941	99.25
400.165	105.25
400.389	92.25
400.613	92.25
400.837	85.25
401.062	105.25
401.286	88.25
401.51	96.25
401.734	89.25
401.958	103.25
402.182	114.25
402.406	161.25
402.63	115.25
402.854	104.25
403.078	90.25
403.302	84.25
403.526	74.25
403.75	96.25
403.974	79.25
404.198	98.25
404.422	91.25
404.645	90.25
404.869	86.25
405.093	97.25
405.317	101.25
405.541	96.25
405.765	103.25
405.988	110.25
406.212	178.25
406.436	237.25
406.66	144.25
406.883	107.25
407.107	89.25
407.331	95.25
407.555	92.25
407.778	85.25
408.002	88.25
408.226	82.25
408.449	69.25
408.673	98.25
408.896	96.25
409.12	108.25
409.344	98.25
409.567	85.25
409.791	92.25
410.014	82.25
410.238	104.25
410.461	97.25
410.685	100.25
410.908	102.25
411.132	108.25
411.355	101.25
411.578	92.25
411.802	83.25
412.025	93.25
412.249	80.25
412.472	93.25
412.695	87.25
412.919	84.25
413.142	76.25
413.365	77.25
413.589	85.25
413.812	85.25
414.035	72.25
414.258	74.25
414.482	97.25
414.705	90.25
414.928	95.25
415.151	94.25
415.374	88.25
415.597	99.25
415.821	83.25
416.044	95.25
416.267	82.25
416.49	82.25
416.713	83.25
416.936	81.25
417.159	93.25
417.382	90.25
417.605	98.25
417.828	96.25
418.051	90.25
418.274	95.25
418.497	100.25
418.72	73.25
418.943	90.25
419.166	94.25
419.389	94.25
419.611	103.25
419.834	83.25
420.057	88.25
420.28	86.25
420.503	99.25
420.726	84.25
420.948	104.25
421.171	78.25
421.394	80.25
421.617	92.25
421.839	82.25
422.062	98.25
422.285	82.25
422.507	99.25
422.73	102.25
422.953	94.25
423.175	90.25
423.398	93.25
423.621	85.25
423.843	96.25
424.066	83.25
424.288	103.25
424.511	88.25
424.733	94.25
424.956	95.25
425.178	86.25
425.401	91.25
425.623	106.25
425.846	92.25
426.068	98.25
426.291	105.25
426.513	88.25
426.735	96.25
426.958	102.25
427.18	102.25
427.402	126.25
427.625	154.25
427.847	128.25
428.069	89.25
428.292	104.25
428.514	85.25
428.736	83.25
428.958	83.25
429.181	96.25
429.403	87.25
429.625	89.25
429.847	93.25
430.069	102.25
430.292	87.25
430.514	65.25
430.736	82.25
430.958	83.25
431.18	70.25
431.402	82.25
431.624	85.25
431.846	87.25
432.068	84.25
432.29	86.25
432.512	89.25
432.734	83.25
432.956	89.25
433.178	90.25
433.4	98.25
433.622	79.25
433.844	98.25
434.066	93.25
434.287	81.25
434.509	103.25
434.731	77.25
434.953	84.25
435.175	90.25
435.397	112.25
435.618	101.25
435.84	106.25
436.062	117.25
436.284	126.25
436.505	106.25
436.727	87.25
436.949	90.25
437.17	82.25
437.392	103.25
437.614	86.25
437.835	112.25
438.057	114.25
438.278	109.25
438.5	93.25
438.721	117.25
438.943	96.25
439.165	101.25
439.386	88.25
439.608	97.25
439.829	99.25
440.05	118.25
440.272	141.25
440.493	94.25
440.715	83.25
440.936	82.25
441.158	78.25
441.379	82.25
441.6	97.25
441.822	95.25
442.043	95.25
442.264	99.25
442.486	87.25
442.707	74.25
442.928	106.25
443.149	135.25
443.371	122.25
443.592	97.25
443.813	107.25
444.034	108.25
444.255	84.25
444.476	80.25
444.698	93.25
444.919	88.25
445.14	121.25
445.361	117.25
445.582	113.25
445.803	141.25
446.024	134.25
446.245	120.25
446.466	107.25
446.687	104.25
446.908	92.25
447.129	101.25
447.35	97.25
447.571	98.25
447.792	86.25
448.013	99.25
448.234	100.25
448.455	104.25
448.675	112.25
448.896	123.25
449.117	102.25
449.338	107.25
449.559	121.25
449.779	143.25
450	99.25
450.221	85.25
450.442	86.25
450.662	87.25
450.883	106.25
451.104	116.25
451.324	94.25
451.545	88.25
451.766	78.25
451.986	91.25
452.207	80.25
452.428	83.25
452.648	97.25
452.869	113.25
453.089	117.25
453.31	134.25
453.53	91.25
453.751	88.25
453.971	93.25
454.192	101.25
454.412	87.25
454.633	94.25
454.853	86.25
455.073	79.25
455.294	100.25
455.514	93.25
455.734	83.25
455.955	89.25
456.175	79.25
456.395	92.25
456.616	78.25
456.836	87.25
457.056	76.25
457.276	81.25
457.497	87.25
457.717	81.25
457.937	88.25
458.157	86.25
458.377	85.25
458.598	109.25
458.818	167.25
459.038	172.25
459.258	98.25
459.478	97.25
459.698	76.25
459.918	82.25
460.138	77.25
460.358	98.25
460.578	93.25
460.798	92.25
461.018	84.25
461.238	73.25
461.458	68.25
461.678	86.25
461.898	85.25
462.118	84.25
462.338	83.25
462.558	92.25
462.777	93.25
462.997	90.25
463.217	87.25
463.437	97.25
463.657	81.25
463.876	97.25
464.096	90.25
464.316	88.25
464.536	101.25
464.755	101.25
464.975	93.25
465.195	165.25
465.414	159.25
465.634	91.25
465.854	84.25
466.073	97.25
466.293	87.25
466.512	89.25
466.732	84.25
466.951	80.25
467.171	90.25
467.391	90.25
467.61	103.25
467.829	93.25
468.049	94.25
468.268	100.25
468.488	88.25
468.707	79.25
468.927	85.25
469.146	83.25
469.365	86.25
469.585	93.25
469.804	97.25
470.023	99.25
470.243	88.25
470.462	94.25
470.681	99.25
470.901	91.25
471.12	88.25
471.339	85.25
471.558	92.25
471.777	89.25
471.997	70.25
472.216	92.25
472.435	101.25
472.654	75.25
472.873	95.25
473.092	78.25
473.311	96.25
473.53	94.25
473.749	87.25
473.968	89.25
474.187	93.25
474.406	83.25
474.625	85.25
474.844	78.25
475.063	83.25
475.282	95.25
475.501	99.25
475.72	80.25
475.939	76.25
476.158	96.25
476.377	80.25
476.596	90.25
476.814	83.25
477.033	73.25
477.252	86.25
477.471	96.25
477.69	88.25
477.908	91.25
478.127	82.25
478.346	98.25
478.564	93.25
478.783	81.25
479.002	85.25
479.22	90.25
479.439	97.25
479.658	109.25
479.876	89.25
480.095	93.25
480.313	105.25
480.532	83.25
480.751	84.25
480.969	97.25
481.188	100.25
481.406	86.25
481.624	82.25
481.843	83.25
482.061	81.25
482.28	96.25
482.498	83.25
482.717	85.25
482.935	105.25
483.153	104.25
483.372	86.25
483.59	89.25
483.808	98.25
484.027	71.25
484.245	107.25
484.463	97.25
484.681	86.25
484.9	98.25
485.118	97.25
485.336	109.25
485.554	92.25
485.772	87.25
485.99	92.25
486.209	94.25
486.427	118.25
486.645	104.25
486.863	107.25
487.081	105.25
487.299	96.25
487.517	95.25
487.735	109.25
487.953	78.25
488.171	106.25
488.389	100.25
488.607	98.25
488.825	95.25
489.043	91.25
489.261	85.25
489.479	82.25
489.696	101.25
489.914	91.25
490.132	90.25
490.35	95.25
490.568	83.25
490.786	82.25
491.003	90.25
491.221	98.25
491.439	81.25
491.657	85.25
491.874	95.25
492.092	96.25
492.31	92.25
492.527	105.25
492.745	106.25
492.963	83.25
493.18	88.25
493.398	76.25
493.615	95.25
493.833	96.25
494.05	80.25
494.268	104.25
494.485	83.25
494.703	96.25
494.92	74.25
495.138	89.25
495.355	92.25
495.573	95.25
495.79	87.25
496.008	81.25
496.225	88.25
496.442	84.25
496.66	92.25
496.877	84.25
497.094	97.25
497.312	84.25
497.529	97.25
497.746	84.25
497.963	95.25
498.181	89.25
498.398	117.25
498.615	121.25
498.832	106.25
499.049	87.25
499.267	92.25
499.484	83.25
499.701	92.25
499.918	97.25
500.135	96.25
500.352	98.25
500.569	91.25
500.786	94.25
501.003	85.25
501.22	87.25
501.437	93.25
501.654	91.25
501.871	106.25
502.088	93.25
502.305	91.25
502.522	102.25
502.739	101.25
502.956	93.25
503.172	83.25
503.389	101.25
503.606	114.25
503.823	84.25
504.04	93.25
504.256	81.25
504.473	94.25
504.69	78.25
504.907	72.25
505.123	85.25
505.34	95.25
505.557	81.25
505.773	87.25
505.99	85.25
506.207	98.25
506.423	88.25
506.64	81.25
506.856	95.25
507.073	84.25
507.289	86.25
507.506	86.25
507.722	120.25
507.939	106.25
508.155	95.25
508.372	87.25
508.588	104.25
508.805	99.25
509.021	110.25
509.238	92.25
509.454	97.25
509.67	120.25
509.887	101.25
510.103	132.25
510.319	225.25
510.536	778.25
510.752	2629.25
510.968	734.25
511.184	166.25
511.401	114.25
511.617	91.25
511.833	86.25
512.049	96.25
512.265	93.25
512.481	94.25
512.698	107.25
512.914	88.25
513.13	101.25
513.346	90.25
513.562	103.25
513.778	86.25
513.994	104.25
514.21	101.25
514.426	115.25
514.642	143.25
514.858	123.25
515.074	161.25
515.29	474.25
515.506	1576.25
515.721	593.25
515.937	152.25
516.153	103.25
