Data from Uncirc_2007_H10_HRD10591_00083.txt Node
Date: Wed Jan 03 10:20:59 EST 2024
User: Yrep
Spectrometer: HR+D1059
Trigger mode: 1
Integration Time (sec): 1.000000E-1
Scans to average: 1
Electric dark correction enabled: true
Nonlinearity correction enabled: false
Boxcar width: 0
XAxis mode: Wavelengths
Number of Pixels in Spectrum: 2048
>>>>>Begin Spectral Data<<<<<
223.165	-24.12
223.4	-24.12
223.635	-24.12
223.869	-20.12
224.104	-21.12
224.338	-18.12
224.573	-15.12
224.808	-19.12
225.042	-11.12
225.277	1.88
225.511	3.88
225.746	9.88
225.98	5.88
226.215	7.88
226.449	23.88
226.683	19.88
226.918	35.88
227.152	19.88
227.387	44.88
227.621	47.88
227.856	39.88
228.09	42.88
228.324	48.88
228.559	42.88
228.793	174.88
229.027	473.88
229.262	565.88
229.496	655.88
229.73	873.88
229.964	862.88
230.199	577.88
230.433	523.88
230.667	489.88
230.901	469.88
231.136	464.88
231.37	460.88
231.604	464.88
231.838	440.88
232.072	460.88
232.306	475.88
232.541	456.88
232.775	481.88
233.009	492.88
233.243	492.88
233.477	472.88
233.711	515.88
233.945	527.88
234.179	519.88
234.413	523.88
234.647	518.88
234.881	507.88
235.115	548.88
235.349	551.88
235.583	587.88
235.817	604.88
236.051	658.88
236.285	639.88
236.519	640.88
236.753	737.88
236.987	980.88
237.221	1483.88
237.455	1659.88
237.689	958.88
237.922	780.88
238.156	768.88
238.39	724.88
238.624	671.88
238.858	671.88
239.091	683.88
239.325	685.88
239.559	698.88
239.793	727.88
240.027	805.88
240.26	943.88
240.494	1037.88
240.728	1004.88
240.961	960.88
241.195	845.88
241.429	819.88
241.662	782.88
241.896	797.88
242.13	791.88
242.363	802.88
242.597	814.88
242.83	850.88
243.064	820.88
243.298	816.88
243.531	843.88
243.765	849.88
243.998	866.88
244.232	871.88
244.465	927.88
244.699	927.88
244.932	925.88
245.166	907.88
245.399	937.88
245.633	918.88
245.866	928.88
246.099	962.88
246.333	972.88
246.566	968.88
246.8	975.88
247.033	1025.88
247.266	1103.88
247.5	1122.88
247.733	1198.88
247.966	1185.88
248.2	1172.88
248.433	1179.88
248.666	1257.88
248.899	1436.88
249.133	1535.88
249.366	1487.88
249.599	1346.88
249.832	1256.88
250.066	1234.88
250.299	1291.88
250.532	1357.88
250.765	1557.88
250.998	1819.88
251.231	1725.88
251.465	1543.88
251.698	1449.88
251.931	1443.88
252.164	1412.88
252.397	1448.88
252.63	1516.88
252.863	1611.88
253.096	1746.88
253.329	1850.88
253.562	1741.88
253.795	1614.88
254.028	1618.88
254.261	1663.88
254.494	1913.88
254.727	2292.88
254.96	2397.88
255.193	2089.88
255.426	1771.88
255.659	1665.88
255.892	1643.88
256.124	1536.88
256.357	1563.88
256.59	1548.88
256.823	1561.88
257.056	1521.88
257.289	1535.88
257.521	1596.88
257.754	1561.88
257.987	1602.88
258.22	1577.88
258.452	1548.88
258.685	1589.88
258.918	1666.88
259.151	1640.88
259.383	1790.88
259.616	1768.88
259.849	1886.88
260.081	2028.88
260.314	2227.88
260.547	2145.88
260.779	1927.88
261.012	1805.88
261.244	1803.88
261.477	1721.88
261.71	1763.88
261.942	1819.88
262.175	1875.88
262.407	1773.88
262.64	1677.88
262.872	1699.88
263.105	1691.88
263.337	1679.88
263.57	1677.88
263.802	1707.88
264.035	1697.88
264.267	1745.88
264.499	1714.88
264.732	1718.88
264.964	1715.88
265.197	1754.88
265.429	1755.88
265.661	1724.88
265.894	1748.88
266.126	1766.88
266.358	1837.88
266.591	1840.88
266.823	1945.88
267.055	1952.88
267.287	1917.88
267.52	1891.88
267.752	1916.88
267.984	1919.88
268.216	1952.88
268.448	1954.88
268.681	2114.88
268.913	2247.88
269.145	2418.88
269.377	2479.88
269.609	2408.88
269.841	2371.88
270.073	2484.88
270.306	2845.88
270.538	3032.88
270.77	2827.88
271.002	2660.88
271.234	2573.88
271.466	2716.88
271.698	2938.88
271.93	2871.88
272.162	2852.88
272.394	2832.88
272.626	2619.88
272.858	2463.88
273.09	2433.88
273.322	2337.88
273.553	2311.88
273.785	2333.88
274.017	2302.88
274.249	2363.88
274.481	2333.88
274.713	2345.88
274.945	2380.88
275.176	2323.88
275.408	2350.88
275.64	2333.88
275.872	2353.88
276.104	2375.88
276.335	2370.88
276.567	2500.88
276.799	2684.88
277.031	2908.88
277.262	3073.88
277.494	2897.88
277.726	2703.88
277.957	2592.88
278.189	2548.88
278.421	2453.88
278.652	2479.88
278.884	2422.88
279.115	2427.88
279.347	2416.88
279.579	2450.88
279.81	2423.88
280.042	2404.88
280.273	2472.88
280.505	2456.88
280.736	2465.88
280.968	2463.88
281.199	2455.88
281.431	2490.88
281.662	2569.88
281.894	2556.88
282.125	2637.88
282.356	2740.88
282.588	2921.88
282.819	2747.88
283.051	2593.88
283.282	2598.88
283.513	2607.88
283.745	2693.88
283.976	2765.88
284.207	2726.88
284.439	2689.88
284.67	2699.88
284.901	2743.88
285.132	2645.88
285.364	2673.88
285.595	2635.88
285.826	2699.88
286.057	2671.88
286.288	2733.88
286.52	2713.88
286.751	2745.88
286.982	2760.88
287.213	2768.88
287.444	2842.88
287.675	2891.88
287.906	2973.88
288.138	3043.88
288.369	3018.88
288.6	3020.88
288.831	2968.88
289.062	2909.88
289.293	2910.88
289.524	2867.88
289.755	2849.88
289.986	2915.88
290.217	2850.88
290.448	2879.88
290.679	2908.88
290.91	2857.88
291.141	2857.88
291.371	2869.88
291.602	2908.88
291.833	2883.88
292.064	2855.88
292.295	2877.88
292.526	2867.88
292.757	2871.88
292.987	2827.88
293.218	2867.88
293.449	2927.88
293.68	2922.88
293.91	2846.88
294.141	2885.88
294.372	2888.88
294.603	2932.88
294.833	2936.88
295.064	2979.88
295.295	2989.88
295.525	2933.88
295.756	3003.88
295.987	3139.88
296.217	3305.88
296.448	3184.88
296.679	3006.88
296.909	2991.88
297.14	3042.88
297.37	3108.88
297.601	3135.88
297.831	3101.88
298.062	3120.88
298.292	3166.88
298.523	3145.88
298.753	3225.88
298.984	3192.88
299.214	3200.88
299.445	3162.88
299.675	3203.88
299.905	3239.88
300.136	3200.88
300.366	3212.88
300.597	3287.88
300.827	3383.88
301.057	3463.88
301.288	3419.88
301.518	3414.88
301.748	3402.88
301.979	3452.88
302.209	3463.88
302.439	3455.88
302.669	3450.88
302.9	3373.88
303.13	3346.88
303.36	3391.88
303.59	3475.88
303.82	3473.88
304.051	3448.88
304.281	3372.88
304.511	3321.88
304.741	3319.88
304.971	3383.88
305.201	3301.88
305.431	3354.88
305.661	3293.88
305.891	3346.88
306.121	3357.88
306.352	3395.88
306.582	3377.88
306.812	3325.88
307.042	3452.88
307.272	3359.88
307.502	3292.88
307.731	3321.88
307.961	3353.88
308.191	3349.88
308.421	3388.88
308.651	3422.88
308.881	3389.88
309.111	3447.88
309.341	3517.88
309.571	3539.88
309.8	3667.88
310.03	3713.88
310.26	3762.88
310.49	3728.88
310.72	3890.88
310.949	3879.88
311.179	3852.88
311.409	3779.88
311.639	3775.88
311.868	3796.88
312.098	3824.88
312.328	3880.88
312.557	4051.88
312.787	4180.88
313.017	3988.88
313.246	3858.88
313.476	3836.88
313.706	3920.88
313.935	4032.88
314.165	4067.88
314.394	4052.88
314.624	4051.88
314.853	3892.88
315.083	3869.88
315.312	3869.88
315.542	3796.88
315.771	3791.88
316.001	3780.88
316.23	3743.88
316.46	3804.88
316.689	3847.88
316.919	3927.88
317.148	3872.88
317.377	3917.88
317.607	3844.88
317.836	3833.88
318.065	3738.88
318.295	3754.88
318.524	3768.88
318.753	3791.88
318.983	3765.88
319.212	3771.88
319.441	3855.88
319.67	3847.88
319.9	3857.88
320.129	3821.88
320.358	3863.88
320.587	3853.88
320.816	3907.88
321.046	3987.88
321.275	3886.88
321.504	3938.88
321.733	3999.88
321.962	4074.88
322.191	4107.88
322.42	4300.88
322.649	4356.88
322.878	4411.88
323.108	4474.88
323.337	4747.88
323.566	4929.88
323.795	5335.88
324.024	5983.88
324.253	8081.88
324.482	12329.88
324.71	15605.88
324.939	15605.88
325.168	13921.88
325.397	7045.88
325.626	5551.88
325.855	5049.88
326.084	4890.88
326.313	4941.88
326.542	5156.88
326.77	5911.88
326.999	7660.88
327.228	11637.88
327.457	15304.88
327.686	14578.88
327.914	7885.88
328.143	6177.88
328.372	5757.88
328.6	5427.88
328.829	5531.88
329.058	5672.88
329.287	5642.88
329.515	5160.88
329.744	4905.88
329.972	4904.88
330.201	5041.88
330.43	5323.88
330.658	5730.88
330.887	6122.88
331.115	5610.88
331.344	5186.88
331.572	5034.88
331.801	5215.88
332.03	5172.88
332.258	5064.88
332.486	5101.88
332.715	5108.88
332.943	5323.88
333.172	5479.88
333.4	5591.88
333.629	5618.88
333.857	5712.88
334.085	5585.88
334.314	5460.88
334.542	5465.88
334.771	5538.88
334.999	5365.88
335.227	5375.88
335.455	5175.88
335.684	5202.88
335.912	5139.88
336.14	5067.88
336.369	4962.88
336.597	5141.88
336.825	5065.88
337.053	4972.88
337.281	4881.88
337.51	4858.88
337.738	4945.88
337.966	4832.88
338.194	4875.88
338.422	4767.88
338.65	4693.88
338.878	4675.88
339.106	4677.88
339.334	4631.88
339.562	4607.88
339.79	4517.88
340.018	4458.88
340.246	4507.88
340.474	4537.88
340.702	4596.88
340.93	4574.88
341.158	4592.88
341.386	4494.88
341.614	4563.88
341.842	4492.88
342.07	4487.88
342.298	4426.88
342.526	4443.88
342.754	4426.88
342.981	4435.88
343.209	4546.88
343.437	4731.88
343.665	5107.88
343.893	5322.88
344.12	5319.88
344.348	5083.88
344.576	4847.88
344.804	4868.88
345.031	4769.88
345.259	4829.88
345.487	4603.88
345.714	4504.88
345.942	4415.88
346.17	4399.88
346.397	4339.88
346.625	4335.88
346.853	4298.88
347.08	4372.88
347.308	4373.88
347.535	4443.88
347.763	4431.88
347.99	4421.88
348.218	4458.88
348.445	4440.88
348.673	4386.88
348.9	4268.88
349.128	4289.88
349.355	4187.88
349.583	4207.88
349.81	4210.88
350.037	4203.88
350.265	4110.88
350.492	4151.88
350.72	4178.88
350.947	4229.88
351.174	4307.88
351.402	4452.88
351.629	4303.88
351.856	4345.88
352.083	4448.88
352.311	4437.88
352.538	4370.88
352.765	4378.88
352.992	4319.88
353.22	4182.88
353.447	4234.88
353.674	4139.88
353.901	4127.88
354.128	4103.88
354.355	4100.88
354.583	4083.88
354.81	4075.88
355.037	4101.88
355.264	4078.88
355.491	4051.88
355.718	3995.88
355.945	4015.88
356.172	4068.88
356.399	4053.88
356.626	4098.88
356.853	4076.88
357.08	4012.88
357.307	4031.88
357.534	4028.88
357.761	4076.88
357.988	4056.88
358.215	4051.88
358.441	4119.88
358.668	4071.88
358.895	4127.88
359.122	4222.88
359.349	4283.88
359.576	4471.88
359.802	4716.88
360.029	4817.88
360.256	4833.88
360.483	4583.88
360.709	4391.88
360.936	4351.88
361.163	4354.88
361.39	4371.88
361.616	4346.88
361.843	4287.88
362.07	4331.88
362.296	4346.88
362.523	4281.88
362.749	4340.88
362.976	4206.88
363.203	4188.88
363.429	4199.88
363.656	4217.88
363.882	4164.88
364.109	4104.88
364.335	4145.88
364.562	4163.88
364.788	4155.88
365.015	4147.88
365.241	4189.88
365.468	4213.88
365.694	4224.88
365.92	4270.88
366.147	4210.88
366.373	4148.88
366.599	4187.88
366.826	4091.88
367.052	4082.88
367.278	4151.88
367.505	4121.88
367.731	4216.88
367.957	4179.88
368.184	4229.88
368.41	4306.88
368.636	4386.88
368.862	4347.88
369.089	4317.88
369.315	4285.88
369.541	4241.88
369.767	4279.88
369.993	4328.88
370.219	4299.88
370.445	4332.88
370.672	4283.88
370.898	4287.88
371.124	4359.88
371.35	4418.88
371.576	4376.88
371.802	4334.88
372.028	4363.88
372.254	4404.88
372.48	4472.88
372.706	4608.88
372.932	4577.88
373.158	4525.88
373.384	4437.88
373.61	4445.88
373.835	4457.88
374.061	4530.88
374.287	4559.88
374.513	4676.88
374.739	4727.88
374.965	4875.88
375.191	4842.88
375.416	4812.88
375.642	4622.88
375.868	4691.88
376.094	4518.88
376.319	4411.88
376.545	4561.88
376.771	4451.88
376.997	4489.88
377.222	4423.88
377.448	4403.88
377.674	4459.88
377.899	4356.88
378.125	4438.88
378.35	4406.88
378.576	4331.88
378.802	4386.88
379.027	4372.88
379.253	4416.88
379.478	4358.88
379.704	4373.88
379.929	4444.88
380.155	4437.88
380.38	4386.88
380.606	4458.88
380.831	4439.88
381.057	4461.88
381.282	4448.88
381.507	4525.88
381.733	4496.88
381.958	4591.88
382.184	4572.88
382.409	4656.88
382.634	4643.88
382.86	4643.88
383.085	4761.88
383.31	4868.88
383.535	4909.88
383.761	4877.88
383.986	5036.88
384.211	5109.88
384.436	5213.88
384.662	5187.88
384.887	5312.88
385.112	5253.88
385.337	5325.88
385.562	5313.88
385.787	5377.88
386.013	5523.88
386.238	5485.88
386.463	5368.88
386.688	5396.88
386.913	5227.88
387.138	5282.88
387.363	5324.88
387.588	5219.88
387.813	5236.88
388.038	5259.88
388.263	5284.88
388.488	5319.88
388.713	5328.88
388.938	5298.88
389.163	5246.88
389.387	5207.88
389.612	5111.88
389.837	5193.88
390.062	5133.88
390.287	5237.88
390.512	5212.88
390.736	5220.88
390.961	5449.88
391.186	5457.88
391.411	5619.88
391.636	5803.88
391.86	6003.88
392.085	5943.88
392.31	5828.88
392.534	5638.88
392.759	5629.88
392.984	5475.88
393.208	5476.88
393.433	5553.88
393.658	5458.88
393.882	5477.88
394.107	5579.88
394.331	5539.88
394.556	5516.88
394.78	5634.88
395.005	5668.88
395.229	5725.88
395.454	5818.88
395.678	6036.88
395.903	5967.88
396.127	6111.88
396.352	5800.88
396.576	5616.88
396.801	5540.88
397.025	5723.88
397.249	5819.88
397.474	6005.88
397.698	5930.88
397.922	6111.88
398.147	6306.88
398.371	6307.88
398.595	6444.88
398.82	6679.88
399.044	7293.88
399.268	8081.88
399.492	9139.88
399.717	9783.88
399.941	9625.88
400.165	9036.88
400.389	8355.88
400.613	7550.88
400.837	7019.88
401.062	6912.88
401.286	6726.88
401.51	6670.88
401.734	6650.88
401.958	6819.88
402.182	6927.88
402.406	6920.88
402.63	7136.88
402.854	7110.88
403.078	7244.88
403.302	7404.88
403.526	7513.88
403.75	7589.88
403.974	7563.88
404.198	7586.88
404.422	7633.88
404.645	7604.88
404.869	7456.88
405.093	7543.88
405.317	7615.88
405.541	7750.88
405.765	7497.88
405.988	7322.88
406.212	7615.88
406.436	7897.88
406.66	8017.88
406.883	7907.88
407.107	8515.88
407.331	9104.88
407.555	9737.88
407.778	9354.88
408.002	8548.88
408.226	8145.88
408.449	8041.88
408.673	7891.88
408.896	8106.88
409.12	8219.88
409.344	7683.88
409.567	7401.88
409.791	7319.88
410.014	7239.88
410.238	7194.88
410.461	7152.88
410.685	7245.88
410.908	7316.88
411.132	7652.88
411.355	7708.88
411.578	7208.88
411.802	6929.88
412.025	6903.88
412.249	6977.88
412.472	6903.88
412.695	6799.88
412.919	6581.88
413.142	6508.88
413.365	6545.88
413.589	6586.88
413.812	6521.88
414.035	6479.88
414.258	6539.88
414.482	6479.88
414.705	6656.88
414.928	6616.88
415.151	6573.88
415.374	6613.88
415.597	6581.88
415.821	6410.88
416.044	6451.88
416.267	6481.88
416.49	6368.88
416.713	6323.88
416.936	6456.88
417.159	6447.88
417.382	6509.88
417.605	6513.88
417.828	6639.88
418.051	6872.88
418.274	6727.88
418.497	6605.88
418.72	6757.88
418.943	6618.88
419.166	7031.88
419.389	7578.88
419.611	7325.88
419.834	7068.88
420.057	7028.88
420.28	6866.88
420.503	6557.88
420.726	6623.88
420.948	6913.88
421.171	7322.88
421.394	7287.88
421.617	6845.88
421.839	6736.88
422.062	6828.88
422.285	6986.88
422.507	7723.88
422.73	8281.88
422.953	7659.88
423.175	7294.88
423.398	7275.88
423.621	7141.88
423.843	7485.88
424.066	7471.88
424.288	7389.88
424.511	7621.88
424.733	8233.88
424.956	8765.88
425.178	8143.88
425.401	8327.88
425.623	8118.88
425.846	7034.88
426.068	6919.88
426.291	6799.88
426.513	6816.88
426.735	6885.88
426.958	7484.88
427.18	8313.88
427.402	9635.88
427.625	9682.88
427.847	7995.88
428.069	6983.88
428.292	6611.88
428.514	6319.88
428.736	6224.88
428.958	6173.88
429.181	5986.88
429.403	6028.88
429.625	6200.88
429.847	6524.88
430.069	7196.88
430.292	6746.88
430.514	6067.88
430.736	5987.88
430.958	5972.88
431.18	5867.88
431.402	5905.88
431.624	5838.88
431.846	5813.88
432.068	5900.88
432.29	6073.88
432.512	5965.88
432.734	6035.88
432.956	5971.88
433.178	5984.88
433.4	6053.88
433.622	5906.88
433.844	6011.88
434.066	5968.88
434.287	6015.88
434.509	6292.88
434.731	6501.88
434.953	6689.88
435.175	6864.88
435.397	6996.88
435.618	6929.88
435.84	7289.88
436.062	8352.88
436.284	8265.88
436.505	6925.88
436.727	6587.88
436.949	6212.88
437.17	6007.88
437.392	5994.88
437.614	6175.88
437.835	6709.88
438.057	7786.88
438.278	8475.88
438.5	8463.88
438.721	9348.88
438.943	8127.88
439.165	6811.88
439.386	6556.88
439.608	6575.88
439.829	6677.88
440.05	7047.88
440.272	7412.88
440.493	6744.88
440.715	6450.88
440.936	6336.88
441.158	6304.88
441.379	6461.88
441.6	6849.88
441.822	7146.88
442.043	7614.88
442.264	8484.88
442.486	8282.88
442.707	7214.88
442.928	7106.88
443.149	7269.88
443.371	7560.88
443.592	8099.88
443.813	9205.88
444.034	9113.88
444.255	7898.88
444.476	7608.88
444.698	7757.88
444.919	7889.88
445.14	7711.88
445.361	7634.88
445.582	7770.88
445.803	8427.88
446.024	9380.88
446.245	8881.88
446.466	7867.88
446.687	6850.88
446.908	6424.88
447.129	6071.88
447.35	5885.88
447.571	5881.88
447.792	5768.88
448.013	5949.88
448.234	6213.88
448.455	6867.88
448.675	8285.88
448.896	8787.88
449.117	7179.88
449.338	7444.88
449.559	8895.88
449.779	9115.88
450	6839.88
450.221	6028.88
450.442	5775.88
450.662	5650.88
450.883	5772.88
451.104	5900.88
451.324	5689.88
451.545	5481.88
451.766	5396.88
451.986	5280.88
452.207	5260.88
452.428	5228.88
452.648	5265.88
452.869	5334.88
453.089	5416.88
453.31	5444.88
453.53	5277.88
453.751	5179.88
453.971	5252.88
454.192	5389.88
454.412	5181.88
454.633	5080.88
454.853	5068.88
455.073	5159.88
455.294	5550.88
455.514	6311.88
455.734	5584.88
455.955	4992.88
456.175	4867.88
456.395	4864.88
456.616	4802.88
456.836	4748.88
457.056	4800.88
457.276	4649.88
457.497	4980.88
457.717	4913.88
457.937	4936.88
458.157	5054.88
458.377	5164.88
458.598	5541.88
458.818	6375.88
459.038	7147.88
459.258	7008.88
459.478	6196.88
459.698	5979.88
459.918	5987.88
460.138	6215.88
460.358	6435.88
460.578	6406.88
460.798	6529.88
461.018	6562.88
461.238	6442.88
461.458	6434.88
461.678	6435.88
461.898	6491.88
462.118	6582.88
462.338	6960.88
462.558	6979.88
462.777	7303.88
462.997	7931.88
463.217	8252.88
463.437	8088.88
463.657	7524.88
463.876	7314.88
464.096	7383.88
464.316	7375.88
464.536	7472.88
464.755	7101.88
464.975	7136.88
465.195	7320.88
465.414	7308.88
465.634	6491.88
465.854	6093.88
466.073	5803.88
466.293	5593.88
466.512	5529.88
466.732	5379.88
466.951	5385.88
467.171	5367.88
467.391	5487.88
467.61	5510.88
467.829	5427.88
468.049	5372.88
468.268	5182.88
468.488	5168.88
468.707	5096.88
468.927	5166.88
469.146	5091.88
469.365	5178.88
469.585	5193.88
469.804	5448.88
470.023	5581.88
470.243	5557.88
470.462	5703.88
470.681	5848.88
470.901	5740.88
471.12	5606.88
471.339	5484.88
471.558	5474.88
471.777	5370.88
471.997	5237.88
472.216	5167.88
472.435	5132.88
472.654	5024.88
472.873	5039.88
473.092	5086.88
473.311	5105.88
473.53	5114.88
473.749	5275.88
473.968	5923.88
474.187	7073.88
474.406	6603.88
474.625	5489.88
474.844	5243.88
475.063	5171.88
475.282	5174.88
475.501	5220.88
475.72	5268.88
475.939	5323.88
476.158	5334.88
476.377	5390.88
476.596	5289.88
476.814	5590.88
477.033	5584.88
477.252	5627.88
477.471	5673.88
477.69	5869.88
477.908	5972.88
478.127	6045.88
478.346	6148.88
478.564	6251.88
478.783	6397.88
479.002	6447.88
479.22	6561.88
479.439	6647.88
479.658	6666.88
479.876	6781.88
480.095	7024.88
480.313	7423.88
480.532	7241.88
480.751	7098.88
480.969	6940.88
481.188	6843.88
481.406	6590.88
481.624	6362.88
481.843	6271.88
482.061	6207.88
482.28	6130.88
482.498	6057.88
482.717	6036.88
482.935	6042.88
483.153	6073.88
483.372	6076.88
483.59	6024.88
483.808	5979.88
484.027	5997.88
484.245	6088.88
484.463	6177.88
484.681	6253.88
484.9	6295.88
485.118	6358.88
485.336	6414.88
485.554	6450.88
485.772	6466.88
485.99	6487.88
486.209	6480.88
486.427	6545.88
486.645	6615.88
486.863	6680.88
487.081	6639.88
487.299	6508.88
487.517	6561.88
487.735	6487.88
