Data from Uncirc_2007_H10_HRD10591_00013.txt Node
Date: Wed Jan 03 10:20:45 EST 2024
User: Yrep
Spectrometer: HR+D1059
Trigger mode: 1
Integration Time (sec): 1.000000E-1
Scans to average: 1
Electric dark correction enabled: true
Nonlinearity correction enabled: false
Boxcar width: 0
XAxis mode: Wavelengths
Number of Pixels in Spectrum: 2048
>>>>>Begin Spectral Data<<<<<
223.165	-11.5
223.4	-11.5
223.635	-11.5
223.869	-10.5
224.104	-22.5
224.338	-19.5
224.573	-5.5
224.808	-11.5
225.042	-8.5
225.277	-3.5
225.511	3.5
225.746	-11.5
225.98	4.5
226.215	2.5
226.449	23.5
226.683	23.5
226.918	19.5
227.152	27.5
227.387	52.5
227.621	23.5
227.856	43.5
228.09	46.5
228.324	52.5
228.559	49.5
228.793	70.5
229.027	75.5
229.262	76.5
229.496	68.5
229.73	92.5
229.964	71.5
230.199	59.5
230.433	78.5
230.667	93.5
230.901	83.5
231.136	76.5
231.37	81.5
231.604	85.5
231.838	84.5
232.072	85.5
232.306	75.5
232.541	70.5
232.775	96.5
233.009	83.5
233.243	82.5
233.477	83.5
233.711	90.5
233.945	80.5
234.179	86.5
234.413	86.5
234.647	93.5
234.881	77.5
235.115	86.5
235.349	85.5
235.583	76.5
235.817	77.5
236.051	75.5
236.285	78.5
236.519	80.5
236.753	80.5
236.987	84.5
237.221	82.5
237.455	78.5
237.689	87.5
237.922	61.5
238.156	85.5
238.39	76.5
238.624	79.5
238.858	73.5
239.091	66.5
239.325	64.5
239.559	77.5
239.793	82.5
240.027	70.5
240.26	75.5
240.494	80.5
240.728	59.5
240.961	76.5
241.195	73.5
241.429	78.5
241.662	79.5
241.896	76.5
242.13	79.5
242.363	84.5
242.597	73.5
242.83	83.5
243.064	79.5
243.298	70.5
243.531	67.5
243.765	77.5
243.998	93.5
244.232	87.5
244.465	75.5
244.699	93.5
244.932	80.5
245.166	83.5
245.399	93.5
245.633	86.5
245.866	70.5
246.099	77.5
246.333	74.5
246.566	84.5
246.8	91.5
247.033	84.5
247.266	88.5
247.5	80.5
247.733	88.5
247.966	89.5
248.2	77.5
248.433	77.5
248.666	78.5
248.899	86.5
249.133	77.5
249.366	70.5
249.599	101.5
249.832	70.5
250.066	83.5
250.299	73.5
250.532	67.5
250.765	88.5
250.998	72.5
251.231	81.5
251.465	87.5
251.698	69.5
251.931	73.5
252.164	83.5
252.397	78.5
252.63	92.5
252.863	79.5
253.096	70.5
253.329	93.5
253.562	80.5
253.795	91.5
254.028	81.5
254.261	94.5
254.494	86.5
254.727	89.5
254.96	72.5
255.193	70.5
255.426	76.5
255.659	83.5
255.892	75.5
256.124	82.5
256.357	76.5
256.59	90.5
256.823	91.5
257.056	86.5
257.289	87.5
257.521	87.5
257.754	86.5
257.987	80.5
258.22	76.5
258.452	77.5
258.685	92.5
258.918	84.5
259.151	83.5
259.383	89.5
259.616	82.5
259.849	90.5
260.081	81.5
260.314	90.5
260.547	83.5
260.779	66.5
261.012	79.5
261.244	87.5
261.477	80.5
261.71	82.5
261.942	100.5
262.175	85.5
262.407	89.5
262.64	88.5
262.872	86.5
263.105	77.5
263.337	91.5
263.57	77.5
263.802	87.5
264.035	73.5
264.267	81.5
264.499	80.5
264.732	91.5
264.964	89.5
265.197	84.5
265.429	89.5
265.661	75.5
265.894	74.5
266.126	80.5
266.358	69.5
266.591	81.5
266.823	90.5
267.055	93.5
267.287	92.5
267.52	83.5
267.752	97.5
267.984	80.5
268.216	85.5
268.448	93.5
268.681	81.5
268.913	78.5
269.145	80.5
269.377	70.5
269.609	87.5
269.841	86.5
270.073	81.5
270.306	89.5
270.538	85.5
270.77	81.5
271.002	84.5
271.234	97.5
271.466	97.5
271.698	87.5
271.93	78.5
272.162	79.5
272.394	77.5
272.626	91.5
272.858	92.5
273.09	97.5
273.322	80.5
273.553	76.5
273.785	84.5
274.017	85.5
274.249	74.5
274.481	89.5
274.713	77.5
274.945	83.5
275.176	81.5
275.408	85.5
275.64	81.5
275.872	72.5
276.104	92.5
276.335	104.5
276.567	95.5
276.799	99.5
277.031	82.5
277.262	82.5
277.494	81.5
277.726	73.5
277.957	77.5
278.189	89.5
278.421	75.5
278.652	91.5
278.884	95.5
279.115	98.5
279.347	94.5
279.579	94.5
279.81	93.5
280.042	91.5
280.273	73.5
280.505	80.5
280.736	82.5
280.968	81.5
281.199	92.5
281.431	92.5
281.662	113.5
281.894	84.5
282.125	61.5
282.356	110.5
282.588	121.5
282.819	103.5
283.051	97.5
283.282	95.5
283.513	94.5
283.745	93.5
283.976	74.5
284.207	85.5
284.439	91.5
284.67	75.5
284.901	83.5
285.132	75.5
285.364	84.5
285.595	92.5
285.826	85.5
286.057	79.5
286.288	97.5
286.52	84.5
286.751	85.5
286.982	94.5
287.213	97.5
287.444	83.5
287.675	95.5
287.906	86.5
288.138	93.5
288.369	97.5
288.6	91.5
288.831	94.5
289.062	95.5
289.293	82.5
289.524	91.5
289.755	76.5
289.986	81.5
290.217	95.5
290.448	91.5
290.679	95.5
290.91	98.5
291.141	84.5
291.371	87.5
291.602	87.5
291.833	94.5
292.064	86.5
292.295	95.5
292.526	88.5
292.757	80.5
292.987	104.5
293.218	84.5
293.449	85.5
293.68	87.5
293.91	96.5
294.141	74.5
294.372	86.5
294.603	75.5
294.833	92.5
295.064	74.5
295.295	77.5
295.525	86.5
295.756	90.5
295.987	104.5
296.217	126.5
296.448	106.5
296.679	87.5
296.909	92.5
297.14	94.5
297.37	81.5
297.601	89.5
297.831	82.5
298.062	86.5
298.292	75.5
298.523	97.5
298.753	91.5
298.984	89.5
299.214	81.5
299.445	95.5
299.675	106.5
299.905	95.5
300.136	92.5
300.366	90.5
300.597	90.5
300.827	97.5
301.057	97.5
301.288	113.5
301.518	89.5
301.748	91.5
301.979	82.5
302.209	78.5
302.439	91.5
302.669	94.5
302.9	95.5
303.13	70.5
303.36	87.5
303.59	114.5
303.82	94.5
304.051	87.5
304.281	95.5
304.511	89.5
304.741	82.5
304.971	86.5
305.201	98.5
305.431	94.5
305.661	84.5
305.891	101.5
306.121	89.5
306.352	93.5
306.582	106.5
306.812	91.5
307.042	97.5
307.272	85.5
307.502	86.5
307.731	85.5
307.961	94.5
308.191	93.5
308.421	95.5
308.651	86.5
308.881	76.5
309.111	99.5
309.341	87.5
309.571	106.5
309.8	89.5
310.03	78.5
310.26	85.5
310.49	89.5
310.72	85.5
310.949	94.5
311.179	106.5
311.409	95.5
311.639	83.5
311.868	87.5
312.098	96.5
312.328	86.5
312.557	86.5
312.787	81.5
313.017	96.5
313.246	93.5
313.476	82.5
313.706	89.5
313.935	81.5
314.165	103.5
314.394	88.5
314.624	89.5
314.853	90.5
315.083	82.5
315.312	96.5
315.542	80.5
315.771	86.5
316.001	84.5
316.23	80.5
316.46	87.5
316.689	98.5
316.919	97.5
317.148	87.5
317.377	97.5
317.607	99.5
317.836	80.5
318.065	87.5
318.295	80.5
318.524	96.5
318.753	85.5
318.983	87.5
319.212	101.5
319.441	103.5
319.67	92.5
319.9	79.5
320.129	95.5
320.358	78.5
320.587	100.5
320.816	81.5
321.046	100.5
321.275	97.5
321.504	85.5
321.733	86.5
321.962	94.5
322.191	87.5
322.42	85.5
322.649	103.5
322.878	87.5
323.108	108.5
323.337	101.5
323.566	110.5
323.795	119.5
324.024	146.5
324.253	238.5
324.482	416.5
324.71	777.5
324.939	1025.5
325.168	455.5
325.397	158.5
325.626	125.5
325.855	112.5
326.084	98.5
326.313	107.5
326.542	107.5
326.77	135.5
326.999	246.5
327.228	443.5
327.457	735.5
327.686	595.5
327.914	219.5
328.143	147.5
328.372	117.5
328.6	105.5
328.829	105.5
329.058	111.5
329.287	104.5
329.515	83.5
329.744	95.5
329.972	75.5
330.201	89.5
330.43	94.5
330.658	99.5
330.887	103.5
331.115	99.5
331.344	78.5
331.572	97.5
331.801	86.5
332.03	92.5
332.258	105.5
332.486	83.5
332.715	86.5
332.943	108.5
333.172	80.5
333.4	92.5
333.629	99.5
333.857	109.5
334.085	99.5
334.314	84.5
334.542	99.5
334.771	88.5
334.999	99.5
335.227	93.5
335.455	81.5
335.684	92.5
335.912	96.5
336.14	87.5
336.369	99.5
336.597	99.5
336.825	103.5
337.053	82.5
337.281	92.5
337.51	116.5
337.738	93.5
337.966	91.5
338.194	79.5
338.422	81.5
338.65	91.5
338.878	95.5
339.106	91.5
339.334	86.5
339.562	81.5
339.79	93.5
340.018	75.5
340.246	97.5
340.474	81.5
340.702	94.5
340.93	77.5
341.158	85.5
341.386	80.5
341.614	104.5
341.842	84.5
342.07	98.5
342.298	93.5
342.526	86.5
342.754	79.5
342.981	80.5
343.209	89.5
343.437	94.5
343.665	86.5
343.893	93.5
344.12	82.5
344.348	90.5
344.576	94.5
344.804	99.5
345.031	97.5
345.259	84.5
345.487	94.5
345.714	84.5
345.942	88.5
346.17	81.5
346.397	82.5
346.625	82.5
346.853	72.5
347.08	84.5
347.308	87.5
347.535	90.5
347.763	93.5
347.99	83.5
348.218	89.5
348.445	89.5
348.673	93.5
348.9	94.5
349.128	90.5
349.355	76.5
349.583	93.5
349.81	79.5
350.037	85.5
350.265	82.5
350.492	98.5
350.72	97.5
350.947	89.5
351.174	95.5
351.402	88.5
351.629	94.5
351.856	92.5
352.083	101.5
352.311	90.5
352.538	88.5
352.765	103.5
352.992	106.5
353.22	98.5
353.447	81.5
353.674	90.5
353.901	97.5
354.128	94.5
354.355	81.5
354.583	92.5
354.81	100.5
355.037	82.5
355.264	95.5
355.491	78.5
355.718	78.5
355.945	80.5
356.172	81.5
356.399	84.5
356.626	88.5
356.853	87.5
357.08	87.5
357.307	73.5
357.534	89.5
357.761	82.5
357.988	100.5
358.215	74.5
358.441	92.5
358.668	87.5
358.895	81.5
359.122	82.5
359.349	79.5
359.576	89.5
359.802	94.5
360.029	95.5
360.256	98.5
360.483	98.5
360.709	105.5
360.936	84.5
361.163	89.5
361.39	89.5
361.616	86.5
361.843	77.5
362.07	105.5
362.296	86.5
362.523	88.5
362.749	91.5
362.976	106.5
363.203	85.5
363.429	87.5
363.656	96.5
363.882	83.5
364.109	87.5
364.335	83.5
364.562	98.5
364.788	85.5
365.015	94.5
365.241	85.5
365.468	105.5
365.694	90.5
365.92	92.5
366.147	81.5
366.373	79.5
366.599	94.5
366.826	93.5
367.052	68.5
367.278	100.5
367.505	85.5
367.731	86.5
367.957	84.5
368.184	93.5
368.41	96.5
368.636	106.5
368.862	125.5
369.089	91.5
369.315	89.5
369.541	89.5
369.767	92.5
369.993	78.5
370.219	97.5
370.445	83.5
370.672	86.5
370.898	92.5
371.124	96.5
371.35	77.5
371.576	81.5
371.802	85.5
372.028	106.5
372.254	100.5
372.48	79.5
372.706	80.5
372.932	86.5
373.158	90.5
373.384	79.5
373.61	90.5
373.835	84.5
374.061	91.5
374.287	87.5
374.513	92.5
374.739	85.5
374.965	71.5
375.191	82.5
375.416	70.5
375.642	87.5
375.868	91.5
376.094	75.5
376.319	85.5
376.545	90.5
376.771	82.5
376.997	83.5
377.222	89.5
377.448	86.5
377.674	82.5
377.899	59.5
378.125	73.5
378.35	68.5
378.576	86.5
378.802	82.5
379.027	77.5
379.253	76.5
379.478	76.5
379.704	78.5
379.929	92.5
380.155	77.5
380.38	79.5
380.606	73.5
380.831	98.5
381.057	94.5
381.282	86.5
381.507	92.5
381.733	95.5
381.958	95.5
382.184	100.5
382.409	77.5
382.634	81.5
382.86	93.5
383.085	89.5
383.31	87.5
383.535	90.5
383.761	84.5
383.986	91.5
384.211	87.5
384.436	81.5
384.662	81.5
384.887	84.5
385.112	83.5
385.337	90.5
385.562	87.5
385.787	91.5
386.013	89.5
386.238	92.5
386.463	102.5
386.688	100.5
386.913	90.5
387.138	85.5
387.363	89.5
387.588	84.5
387.813	88.5
388.038	86.5
388.263	83.5
388.488	76.5
388.713	87.5
388.938	75.5
389.163	87.5
389.387	88.5
389.612	92.5
389.837	97.5
390.062	110.5
390.287	65.5
390.512	93.5
390.736	92.5
390.961	87.5
391.186	92.5
391.411	93.5
391.636	85.5
391.86	92.5
392.085	73.5
392.31	86.5
392.534	95.5
392.759	74.5
392.984	82.5
393.208	94.5
393.433	100.5
393.658	84.5
393.882	78.5
394.107	84.5
394.331	81.5
394.556	75.5
394.78	98.5
395.005	98.5
395.229	85.5
395.454	82.5
395.678	89.5
395.903	81.5
396.127	85.5
396.352	90.5
396.576	91.5
396.801	87.5
397.025	82.5
397.249	80.5
397.474	91.5
397.698	84.5
397.922	89.5
398.147	85.5
398.371	84.5
398.595	88.5
398.82	84.5
399.044	87.5
399.268	83.5
399.492	83.5
399.717	81.5
399.941	79.5
400.165	78.5
400.389	82.5
400.613	84.5
400.837	87.5
401.062	85.5
401.286	91.5
401.51	81.5
401.734	83.5
401.958	93.5
402.182	113.5
402.406	145.5
402.63	104.5
402.854	86.5
403.078	83.5
403.302	91.5
403.526	86.5
403.75	93.5
403.974	70.5
404.198	78.5
404.422	81.5
404.645	92.5
404.869	93.5
405.093	83.5
405.317	91.5
405.541	87.5
405.765	101.5
405.988	110.5
406.212	148.5
406.436	187.5
406.66	141.5
406.883	109.5
407.107	81.5
407.331	80.5
407.555	92.5
407.778	74.5
408.002	93.5
408.226	86.5
408.449	85.5
408.673	73.5
408.896	94.5
409.12	75.5
409.344	82.5
409.567	84.5
409.791	76.5
410.014	72.5
410.238	82.5
410.461	86.5
410.685	89.5
410.908	80.5
411.132	106.5
411.355	92.5
411.578	83.5
411.802	79.5
412.025	81.5
412.249	93.5
412.472	80.5
412.695	95.5
412.919	85.5
413.142	86.5
413.365	80.5
413.589	85.5
413.812	80.5
414.035	75.5
414.258	80.5
414.482	70.5
414.705	84.5
414.928	81.5
415.151	81.5
415.374	72.5
415.597	74.5
415.821	93.5
416.044	78.5
416.267	93.5
416.49	90.5
416.713	69.5
416.936	76.5
417.159	91.5
417.382	87.5
417.605	83.5
417.828	75.5
418.051	84.5
418.274	82.5
418.497	92.5
418.72	76.5
418.943	91.5
419.166	78.5
419.389	73.5
419.611	81.5
419.834	84.5
420.057	90.5
420.28	83.5
420.503	91.5
420.726	78.5
420.948	83.5
421.171	77.5
421.394	73.5
421.617	94.5
421.839	79.5
422.062	80.5
422.285	87.5
422.507	83.5
422.73	83.5
422.953	83.5
423.175	79.5
423.398	83.5
423.621	83.5
423.843	83.5
424.066	83.5
424.288	101.5
424.511	96.5
424.733	85.5
424.956	94.5
425.178	95.5
425.401	91.5
425.623	98.5
425.846	94.5
426.068	87.5
426.291	99.5
426.513	87.5
426.735	93.5
426.958	92.5
427.18	86.5
427.402	99.5
427.625	116.5
427.847	96.5
428.069	98.5
428.292	78.5
428.514	81.5
428.736	71.5
428.958	85.5
429.181	74.5
429.403	92.5
429.625	91.5
429.847	75.5
430.069	81.5
430.292	86.5
430.514	84.5
430.736	84.5
430.958	95.5
431.18	94.5
431.402	73.5
431.624	85.5
431.846	79.5
432.068	85.5
432.29	75.5
432.512	71.5
432.734	89.5
432.956	83.5
433.178	84.5
433.4	82.5
433.622	79.5
433.844	89.5
434.066	79.5
434.287	88.5
434.509	88.5
434.731	85.5
434.953	85.5
435.175	84.5
435.397	79.5
435.618	98.5
435.84	88.5
436.062	94.5
436.284	95.5
436.505	85.5
436.727	77.5
436.949	85.5
437.17	85.5
437.392	88.5
437.614	92.5
437.835	94.5
438.057	100.5
438.278	98.5
438.5	85.5
438.721	84.5
438.943	70.5
439.165	88.5
439.386	85.5
439.608	88.5
439.829	81.5
440.05	101.5
440.272	93.5
440.493	93.5
440.715	93.5
440.936	84.5
441.158	91.5
441.379	94.5
441.6	80.5
441.822	93.5
442.043	84.5
442.264	79.5
442.486	97.5
442.707	83.5
442.928	90.5
443.149	98.5
443.371	86.5
443.592	86.5
443.813	87.5
444.034	87.5
444.255	84.5
444.476	90.5
444.698	91.5
444.919	99.5
445.14	132.5
445.361	95.5
445.582	101.5
445.803	87.5
446.024	91.5
446.245	94.5
446.466	107.5
446.687	87.5
446.908	83.5
447.129	78.5
447.35	92.5
447.571	87.5
447.792	77.5
448.013	91.5
448.234	92.5
448.455	101.5
448.675	83.5
448.896	81.5
449.117	87.5
449.338	83.5
449.559	87.5
449.779	101.5
450	83.5
450.221	82.5
450.442	90.5
450.662	83.5
450.883	95.5
451.104	104.5
451.324	106.5
451.545	79.5
451.766	100.5
451.986	70.5
452.207	83.5
452.428	91.5
452.648	92.5
452.869	109.5
453.089	108.5
453.31	95.5
453.53	85.5
453.751	96.5
453.971	102.5
454.192	98.5
454.412	85.5
454.633	94.5
454.853	99.5
455.073	90.5
455.294	83.5
455.514	85.5
455.734	89.5
455.955	87.5
456.175	81.5
456.395	91.5
456.616	88.5
456.836	86.5
457.056	78.5
457.276	81.5
457.497	102.5
457.717	77.5
457.937	69.5
458.157	95.5
458.377	103.5
458.598	98.5
458.818	125.5
459.038	121.5
459.258	113.5
459.478	84.5
459.698	62.5
459.918	87.5
460.138	81.5
460.358	91.5
460.578	83.5
460.798	94.5
461.018	90.5
461.238	70.5
461.458	82.5
461.678	73.5
461.898	97.5
462.118	84.5
462.338	86.5
462.558	86.5
462.777	98.5
462.997	86.5
463.217	103.5
463.437	84.5
463.657	91.5
463.876	79.5
464.096	81.5
464.316	92.5
464.536	75.5
464.755	91.5
464.975	86.5
465.195	136.5
465.414	125.5
465.634	91.5
465.854	99.5
466.073	84.5
466.293	92.5
466.512	95.5
466.732	85.5
466.951	81.5
467.171	100.5
467.391	72.5
467.61	74.5
467.829	86.5
468.049	91.5
468.268	78.5
468.488	96.5
468.707	75.5
468.927	78.5
469.146	96.5
469.365	84.5
469.585	88.5
469.804	86.5
470.023	90.5
470.243	95.5
470.462	89.5
470.681	100.5
470.901	83.5
471.12	89.5
471.339	83.5
471.558	75.5
471.777	84.5
471.997	85.5
472.216	68.5
472.435	78.5
472.654	97.5
472.873	79.5
473.092	97.5
473.311	85.5
473.53	86.5
473.749	95.5
473.968	91.5
474.187	86.5
474.406	75.5
474.625	81.5
474.844	74.5
475.063	96.5
475.282	92.5
475.501	75.5
475.72	85.5
475.939	76.5
476.158	87.5
476.377	86.5
476.596	94.5
476.814	89.5
477.033	81.5
477.252	73.5
477.471	82.5
477.69	91.5
477.908	82.5
478.127	71.5
478.346	87.5
478.564	84.5
478.783	78.5
479.002	98.5
479.22	85.5
479.439	95.5
479.658	93.5
479.876	96.5
480.095	82.5
480.313	68.5
480.532	70.5
480.751	80.5
480.969	87.5
481.188	77.5
481.406	91.5
481.624	89.5
481.843	87.5
482.061	73.5
482.28	76.5
482.498	76.5
482.717	86.5
482.935	89.5
483.153	97.5
483.372	98.5
483.59	86.5
483.808	100.5
484.027	87.5
484.245	82.5
484.463	91.5
484.681	98.5
484.9	84.5
485.118	84.5
485.336	91.5
485.554	85.5
485.772	103.5
485.99	87.5
486.209	81.5
486.427	87.5
486.645	104.5
486.863	97.5
487.081	82.5
487.299	90.5
487.517	90.5
487.735	86.5
487.953	93.5
488.171	104.5
488.389	88.5
488.607	82.5
488.825	83.5
489.043	80.5
489.261	86.5
489.479	99.5
489.696	75.5
489.914	75.5
490.132	90.5
490.35	83.5
490.568	90.5
490.786	92.5
491.003	87.5
491.221	93.5
491.439	89.5
491.657	95.5
491.874	76.5
492.092	96.5
492.31	92.5
492.527	107.5
492.745	81.5
492.963	86.5
493.18	83.5
493.398	85.5
493.615	92.5
493.833	88.5
494.05	78.5
494.268	81.5
494.485	92.5
494.703	87.5
494.92	95.5
495.138	83.5
495.355	73.5
495.573	84.5
495.79	88.5
496.008	104.5
496.225	85.5
496.442	91.5
496.66	104.5
496.877	86.5
497.094	83.5
497.312	76.5
497.529	86.5
497.746	85.5
497.963	88.5
498.181	92.5
498.398	75.5
498.615	94.5
498.832	101.5
499.049	91.5
499.267	87.5
499.484	96.5
499.701	103.5
499.918	100.5
500.135	76.5
500.352	93.5
500.569	85.5
500.786	92.5
501.003	74.5
501.22	100.5
501.437	77.5
501.654	87.5
501.871	102.5
502.088	87.5
502.305	87.5
502.522	72.5
502.739	86.5
502.956	93.5
503.172	80.5
503.389	93.5
503.606	96.5
503.823	94.5
504.04	108.5
504.256	103.5
504.473	82.5
504.69	79.5
504.907	85.5
505.123	84.5
505.34	81.5
505.557	78.5
505.773	88.5
505.99	73.5
506.207	90.5
506.423	83.5
506.64	81.5
506.856	71.5
507.073	90.5
507.289	96.5
507.506	82.5
507.722	85.5
507.939	101.5
508.155	84.5
508.372	91.5
508.588	99.5
508.805	90.5
509.021	89.5
509.238	93.5
509.454	99.5
509.67	96.5
509.887	105.5
510.103	113.5
510.319	171.5
510.536	609.5
510.752	1965.5
510.968	561.5
511.184	133.5
511.401	90.5
511.617	100.5
511.833	86.5
512.049	83.5
512.265	90.5
512.481	82.5
512.698	106.5
512.914	96.5
513.13	102.5
513.346	103.5
513.562	115.5
513.778	78.5
513.994	84.5
514.21	97.5
514.426	99.5
514.642	112.5
514.858	126.5
515.074	138.5
515.29	372.5
515.506	1245.5
515.721	490.5
515.937	153.5
516.153	89.5
516.369	96.5
516.585	77.5
516.801	91.5
517.016	89.5
517.232	86.5
517.448	97.5
517.664	84.5
517.879	79.5
518.095	94.5
518.311	99.5
518.527	73.5
518.742	107.5
518.958	77.5
519.173	108.5
519.389	85.5
519.605	84.5
519.82	74.5
520.036	101.5
520.251	124.5
520.467	96.5
520.682	90.5
520.898	94.5
521.113	109.5
521.329	121.5
521.544	171.5
521.76	456.5
521.975	1974.5
522.19	1247.5
522.406	285.5
522.621	116.5
522.836	92.5
523.052	95.5
523.267	99.5
523.482	82.5
523.698	89.5
523.913	114.5
524.128	101.5
524.343	88.5
524.559	102.5
524.774	93.5
524.989	91.5
525.204	102.5
525.419	99.5
525.634	78.5
525.849	83.5
526.064	85.5
526.28	76.5
526.495	91.5
526.71	88.5
526.925	79.5
527.14	98.5
527.355	100.5
527.57	95.5
527.785	99.5
527.999	95.5
528.214	86.5
528.429	76.5
528.644	81.5
528.859	79.5
529.074	88.5
529.289	114.5
529.503	147.5
529.718	100.5
529.933	84.5
530.148	104.5
530.363	89.5
530.577	100.5
530.792	85.5
531.007	84.5
531.221	85.5
531.436	80.5
531.651	86.5
531.865	94.5
532.08	80.5
532.295	98.5
532.509	87.5
532.724	86.5
532.938	84.5
533.153	93.5
533.367	94.5
533.582	96.5
533.796	78.5
534.011	91.5
534.225	78.5
534.44	90.5
534.654	96.5
534.868	80.5
535.083	84.5
535.297	101.5
535.511	89.5
535.726	106.5
535.94	104.5
536.154	92.5
536.369	91.5
536.583	95.5
536.797	89.5
537.011	97.5
537.225	85.5
537.44	102.5
537.654	79.5
537.868	78.5
