Data from Uncirc_2007_H10_HRD10591_00020.txt Node
Date: Wed Jan 03 10:20:46 EST 2024
User: Yrep
Spectrometer: HR+D1059
Trigger mode: 1
Integration Time (sec): 1.000000E-1
Scans to average: 1
Electric dark correction enabled: true
Nonlinearity correction enabled: false
Boxcar width: 0
XAxis mode: Wavelengths
Number of Pixels in Spectrum: 2048
>>>>>Begin Spectral Data<<<<<
223.165	-31.25
223.4	-31.25
223.635	-31.25
223.869	-21.25
224.104	-11.25
224.338	-10.25
224.573	-16.25
224.808	-4.25
225.042	-6.25
225.277	-10.25
225.511	-6.25
225.746	7.75
225.98	13.75
226.215	16.75
226.449	16.75
226.683	10.75
226.918	16.75
227.152	34.75
227.387	22.75
227.621	31.75
227.856	36.75
228.09	47.75
228.324	40.75
228.559	43.75
228.793	50.75
229.027	62.75
229.262	67.75
229.496	73.75
229.73	77.75
229.964	90.75
230.199	66.75
230.433	64.75
230.667	86.75
230.901	58.75
231.136	62.75
231.37	80.75
231.604	68.75
231.838	88.75
232.072	65.75
232.306	78.75
232.541	88.75
232.775	93.75
233.009	68.75
233.243	77.75
233.477	85.75
233.711	84.75
233.945	67.75
234.179	69.75
234.413	64.75
234.647	75.75
234.881	77.75
235.115	76.75
235.349	59.75
235.583	86.75
235.817	76.75
236.051	72.75
236.285	80.75
236.519	75.75
236.753	54.75
236.987	70.75
237.221	71.75
237.455	86.75
237.689	64.75
237.922	62.75
238.156	70.75
238.39	64.75
238.624	84.75
238.858	75.75
239.091	55.75
239.325	90.75
239.559	79.75
239.793	80.75
240.027	80.75
240.26	68.75
240.494	57.75
240.728	66.75
240.961	69.75
241.195	54.75
241.429	74.75
241.662	70.75
241.896	63.75
242.13	62.75
242.363	76.75
242.597	81.75
242.83	74.75
243.064	75.75
243.298	76.75
243.531	78.75
243.765	66.75
243.998	58.75
244.232	66.75
244.465	77.75
244.699	79.75
244.932	64.75
245.166	76.75
245.399	66.75
245.633	75.75
245.866	74.75
246.099	77.75
246.333	74.75
246.566	77.75
246.8	79.75
247.033	60.75
247.266	86.75
247.5	88.75
247.733	62.75
247.966	74.75
248.2	82.75
248.433	76.75
248.666	73.75
248.899	87.75
249.133	85.75
249.366	78.75
249.599	79.75
249.832	80.75
250.066	83.75
250.299	73.75
250.532	79.75
250.765	73.75
250.998	74.75
251.231	84.75
251.465	78.75
251.698	80.75
251.931	77.75
252.164	74.75
252.397	71.75
252.63	87.75
252.863	68.75
253.096	58.75
253.329	73.75
253.562	78.75
253.795	73.75
254.028	69.75
254.261	80.75
254.494	85.75
254.727	85.75
254.96	80.75
255.193	76.75
255.426	69.75
255.659	75.75
255.892	84.75
256.124	66.75
256.357	70.75
256.59	63.75
256.823	66.75
257.056	68.75
257.289	87.75
257.521	91.75
257.754	83.75
257.987	64.75
258.22	73.75
258.452	79.75
258.685	83.75
258.918	75.75
259.151	70.75
259.383	86.75
259.616	69.75
259.849	74.75
260.081	82.75
260.314	76.75
260.547	75.75
260.779	74.75
261.012	93.75
261.244	70.75
261.477	84.75
261.71	79.75
261.942	94.75
262.175	111.75
262.407	86.75
262.64	80.75
262.872	87.75
263.105	86.75
263.337	88.75
263.57	90.75
263.802	80.75
264.035	70.75
264.267	80.75
264.499	66.75
264.732	75.75
264.964	80.75
265.197	96.75
265.429	87.75
265.661	85.75
265.894	63.75
266.126	63.75
266.358	68.75
266.591	69.75
266.823	74.75
267.055	88.75
267.287	84.75
267.52	89.75
267.752	76.75
267.984	85.75
268.216	94.75
268.448	63.75
268.681	76.75
268.913	67.75
269.145	70.75
269.377	81.75
269.609	68.75
269.841	70.75
270.073	85.75
270.306	71.75
270.538	74.75
270.77	94.75
271.002	95.75
271.234	68.75
271.466	80.75
271.698	82.75
271.93	72.75
272.162	85.75
272.394	76.75
272.626	70.75
272.858	72.75
273.09	88.75
273.322	83.75
273.553	70.75
273.785	86.75
274.017	64.75
274.249	72.75
274.481	78.75
274.713	78.75
274.945	74.75
275.176	84.75
275.408	61.75
275.64	82.75
275.872	80.75
276.104	74.75
276.335	68.75
276.567	90.75
276.799	98.75
277.031	81.75
277.262	91.75
277.494	85.75
277.726	78.75
277.957	81.75
278.189	65.75
278.421	86.75
278.652	87.75
278.884	83.75
279.115	73.75
279.347	77.75
279.579	92.75
279.81	73.75
280.042	79.75
280.273	83.75
280.505	79.75
280.736	78.75
280.968	68.75
281.199	68.75
281.431	102.75
281.662	94.75
281.894	73.75
282.125	88.75
282.356	99.75
282.588	125.75
282.819	107.75
283.051	80.75
283.282	76.75
283.513	90.75
283.745	93.75
283.976	80.75
284.207	79.75
284.439	71.75
284.67	90.75
284.901	84.75
285.132	80.75
285.364	84.75
285.595	87.75
285.826	88.75
286.057	92.75
286.288	72.75
286.52	75.75
286.751	81.75
286.982	83.75
287.213	76.75
287.444	85.75
287.675	97.75
287.906	87.75
288.138	90.75
288.369	83.75
288.6	70.75
288.831	80.75
289.062	94.75
289.293	74.75
289.524	81.75
289.755	78.75
289.986	97.75
290.217	83.75
290.448	79.75
290.679	78.75
290.91	75.75
291.141	67.75
291.371	87.75
291.602	83.75
291.833	94.75
292.064	86.75
292.295	69.75
292.526	83.75
292.757	79.75
292.987	84.75
293.218	80.75
293.449	97.75
293.68	73.75
293.91	96.75
294.141	79.75
294.372	85.75
294.603	90.75
294.833	85.75
295.064	86.75
295.295	77.75
295.525	91.75
295.756	86.75
295.987	96.75
296.217	139.75
296.448	124.75
296.679	95.75
296.909	81.75
297.14	76.75
297.37	99.75
297.601	88.75
297.831	71.75
298.062	92.75
298.292	84.75
298.523	93.75
298.753	78.75
298.984	75.75
299.214	80.75
299.445	88.75
299.675	80.75
299.905	89.75
300.136	91.75
300.366	71.75
300.597	75.75
300.827	86.75
301.057	77.75
301.288	89.75
301.518	88.75
301.748	82.75
301.979	102.75
302.209	87.75
302.439	78.75
302.669	84.75
302.9	90.75
303.13	79.75
303.36	86.75
303.59	92.75
303.82	93.75
304.051	82.75
304.281	85.75
304.511	101.75
304.741	85.75
304.971	96.75
305.201	86.75
305.431	87.75
305.661	86.75
305.891	80.75
306.121	85.75
306.352	99.75
306.582	90.75
306.812	96.75
307.042	86.75
307.272	95.75
307.502	83.75
307.731	84.75
307.961	77.75
308.191	90.75
308.421	83.75
308.651	81.75
308.881	88.75
309.111	75.75
309.341	88.75
309.571	83.75
309.8	100.75
310.03	91.75
310.26	99.75
310.49	77.75
310.72	89.75
310.949	109.75
311.179	93.75
311.409	88.75
311.639	103.75
311.868	78.75
312.098	76.75
312.328	93.75
312.557	86.75
312.787	81.75
313.017	110.75
313.246	83.75
313.476	81.75
313.706	93.75
313.935	84.75
314.165	72.75
314.394	95.75
314.624	83.75
314.853	84.75
315.083	91.75
315.312	94.75
315.542	90.75
315.771	106.75
316.001	72.75
316.23	67.75
316.46	76.75
316.689	82.75
316.919	87.75
317.148	88.75
317.377	72.75
317.607	78.75
317.836	80.75
318.065	90.75
318.295	77.75
318.524	85.75
318.753	102.75
318.983	86.75
319.212	86.75
319.441	105.75
319.67	94.75
319.9	101.75
320.129	92.75
320.358	77.75
320.587	87.75
320.816	95.75
321.046	109.75
321.275	92.75
321.504	81.75
321.733	100.75
321.962	70.75
322.191	94.75
322.42	107.75
322.649	111.75
322.878	105.75
323.108	111.75
323.337	113.75
323.566	130.75
323.795	153.75
324.024	214.75
324.253	406.75
324.482	835.75
324.71	1759.75
324.939	2222.75
325.168	829.75
325.397	239.75
325.626	130.75
325.855	115.75
326.084	124.75
326.313	126.75
326.542	135.75
326.77	228.75
326.999	474.75
327.228	998.75
327.457	1796.75
327.686	1404.75
327.914	371.75
328.143	172.75
328.372	138.75
328.6	127.75
328.829	106.75
329.058	111.75
329.287	111.75
329.515	102.75
329.744	103.75
329.972	95.75
330.201	100.75
330.43	104.75
330.658	114.75
330.887	119.75
331.115	99.75
331.344	92.75
331.572	99.75
331.801	85.75
332.03	79.75
332.258	94.75
332.486	91.75
332.715	83.75
332.943	86.75
333.172	80.75
333.4	96.75
333.629	101.75
333.857	101.75
334.085	112.75
334.314	80.75
334.542	79.75
334.771	94.75
334.999	104.75
335.227	107.75
335.455	84.75
335.684	96.75
335.912	84.75
336.14	96.75
336.369	87.75
336.597	87.75
336.825	81.75
337.053	82.75
337.281	86.75
337.51	85.75
337.738	100.75
337.966	100.75
338.194	95.75
338.422	86.75
338.65	80.75
338.878	87.75
339.106	88.75
339.334	103.75
339.562	90.75
339.79	70.75
340.018	89.75
340.246	84.75
340.474	91.75
340.702	84.75
340.93	78.75
341.158	89.75
341.386	86.75
341.614	98.75
341.842	86.75
342.07	86.75
342.298	92.75
342.526	83.75
342.754	80.75
342.981	84.75
343.209	87.75
343.437	97.75
343.665	80.75
343.893	92.75
344.12	98.75
344.348	77.75
344.576	73.75
344.804	79.75
345.031	84.75
345.259	95.75
345.487	91.75
345.714	71.75
345.942	84.75
346.17	86.75
346.397	79.75
346.625	87.75
346.853	85.75
347.08	90.75
347.308	93.75
347.535	100.75
347.763	88.75
347.99	92.75
348.218	111.75
348.445	113.75
348.673	91.75
348.9	89.75
349.128	88.75
349.355	85.75
349.583	80.75
349.81	98.75
350.037	98.75
350.265	79.75
350.492	85.75
350.72	100.75
350.947	102.75
351.174	85.75
351.402	100.75
351.629	97.75
351.856	79.75
352.083	101.75
352.311	100.75
352.538	105.75
352.765	101.75
352.992	107.75
353.22	114.75
353.447	98.75
353.674	111.75
353.901	98.75
354.128	102.75
354.355	87.75
354.583	85.75
354.81	80.75
355.037	104.75
355.264	106.75
355.491	89.75
355.718	95.75
355.945	97.75
356.172	82.75
356.399	80.75
356.626	99.75
356.853	78.75
357.08	95.75
357.307	91.75
357.534	85.75
357.761	90.75
357.988	83.75
358.215	76.75
358.441	79.75
358.668	83.75
358.895	89.75
359.122	105.75
359.349	91.75
359.576	86.75
359.802	94.75
360.029	100.75
360.256	104.75
360.483	105.75
360.709	82.75
360.936	82.75
361.163	72.75
361.39	97.75
361.616	86.75
361.843	84.75
362.07	89.75
362.296	97.75
362.523	88.75
362.749	82.75
362.976	90.75
363.203	92.75
363.429	88.75
363.656	94.75
363.882	83.75
364.109	87.75
364.335	89.75
364.562	79.75
364.788	84.75
365.015	95.75
365.241	68.75
365.468	102.75
365.694	95.75
365.92	88.75
366.147	96.75
366.373	94.75
366.599	86.75
366.826	78.75
367.052	85.75
367.278	83.75
367.505	80.75
367.731	84.75
367.957	89.75
368.184	78.75
368.41	93.75
368.636	99.75
368.862	99.75
369.089	80.75
369.315	90.75
369.541	70.75
369.767	72.75
369.993	85.75
370.219	82.75
370.445	79.75
370.672	84.75
370.898	77.75
371.124	77.75
371.35	77.75
371.576	86.75
371.802	75.75
372.028	80.75
372.254	92.75
372.48	78.75
372.706	80.75
372.932	91.75
373.158	74.75
373.384	98.75
373.61	76.75
373.835	103.75
374.061	90.75
374.287	91.75
374.513	92.75
374.739	85.75
374.965	95.75
375.191	80.75
375.416	68.75
375.642	79.75
375.868	94.75
376.094	90.75
376.319	87.75
376.545	85.75
376.771	82.75
376.997	84.75
377.222	87.75
377.448	99.75
377.674	87.75
377.899	84.75
378.125	76.75
378.35	82.75
378.576	81.75
378.802	82.75
379.027	95.75
379.253	87.75
379.478	83.75
379.704	84.75
379.929	88.75
380.155	98.75
380.38	101.75
380.606	79.75
380.831	104.75
381.057	94.75
381.282	91.75
381.507	81.75
381.733	96.75
381.958	93.75
382.184	99.75
382.409	97.75
382.634	84.75
382.86	98.75
383.085	101.75
383.31	96.75
383.535	95.75
383.761	81.75
383.986	101.75
384.211	88.75
384.436	103.75
384.662	87.75
384.887	85.75
385.112	99.75
385.337	89.75
385.562	106.75
385.787	99.75
386.013	101.75
386.238	114.75
386.463	108.75
386.688	105.75
386.913	89.75
387.138	92.75
387.363	88.75
387.588	88.75
387.813	104.75
388.038	91.75
388.263	101.75
388.488	89.75
388.713	91.75
388.938	89.75
389.163	95.75
389.387	95.75
389.612	102.75
389.837	90.75
390.062	79.75
390.287	94.75
390.512	86.75
390.736	92.75
390.961	89.75
391.186	77.75
391.411	101.75
391.636	91.75
391.86	91.75
392.085	78.75
392.31	90.75
392.534	84.75
392.759	86.75
392.984	71.75
393.208	77.75
393.433	77.75
393.658	87.75
393.882	87.75
394.107	87.75
394.331	84.75
394.556	75.75
394.78	93.75
395.005	86.75
395.229	99.75
395.454	79.75
395.678	92.75
395.903	79.75
396.127	85.75
396.352	84.75
396.576	75.75
396.801	80.75
397.025	83.75
397.249	76.75
397.474	85.75
397.698	78.75
397.922	77.75
398.147	97.75
398.371	78.75
398.595	69.75
398.82	79.75
399.044	86.75
399.268	74.75
399.492	84.75
399.717	88.75
399.941	79.75
400.165	88.75
400.389	85.75
400.613	89.75
400.837	80.75
401.062	77.75
401.286	71.75
401.51	94.75
401.734	78.75
401.958	85.75
402.182	115.75
402.406	140.75
402.63	106.75
402.854	79.75
403.078	88.75
403.302	74.75
403.526	90.75
403.75	79.75
403.974	78.75
404.198	89.75
404.422	70.75
404.645	81.75
404.869	79.75
405.093	71.75
405.317	79.75
405.541	91.75
405.765	98.75
405.988	112.75
406.212	179.75
406.436	211.75
406.66	144.75
406.883	94.75
407.107	84.75
407.331	87.75
407.555	92.75
407.778	90.75
408.002	91.75
408.226	74.75
408.449	75.75
408.673	78.75
408.896	80.75
409.12	80.75
409.344	91.75
409.567	87.75
409.791	94.75
410.014	86.75
410.238	86.75
410.461	86.75
410.685	85.75
410.908	90.75
411.132	102.75
411.355	97.75
411.578	79.75
411.802	83.75
412.025	74.75
412.249	85.75
412.472	77.75
412.695	81.75
412.919	70.75
413.142	77.75
413.365	69.75
413.589	80.75
413.812	73.75
414.035	83.75
414.258	80.75
414.482	92.75
414.705	87.75
414.928	83.75
415.151	82.75
415.374	78.75
415.597	80.75
415.821	87.75
416.044	81.75
416.267	103.75
416.49	91.75
416.713	82.75
416.936	100.75
417.159	82.75
417.382	83.75
417.605	68.75
417.828	94.75
418.051	84.75
418.274	85.75
418.497	80.75
418.72	70.75
418.943	81.75
419.166	78.75
419.389	87.75
419.611	83.75
419.834	78.75
420.057	86.75
420.28	75.75
420.503	95.75
420.726	99.75
420.948	99.75
421.171	99.75
421.394	93.75
421.617	75.75
421.839	85.75
422.062	87.75
422.285	88.75
422.507	106.75
422.73	96.75
422.953	80.75
423.175	87.75
423.398	81.75
423.621	76.75
423.843	92.75
424.066	82.75
424.288	76.75
424.511	94.75
424.733	102.75
424.956	102.75
425.178	98.75
425.401	101.75
425.623	91.75
425.846	71.75
426.068	82.75
426.291	91.75
426.513	97.75
426.735	82.75
426.958	79.75
427.18	95.75
427.402	115.75
427.625	152.75
427.847	118.75
428.069	96.75
428.292	87.75
428.514	84.75
428.736	76.75
428.958	72.75
429.181	81.75
429.403	83.75
429.625	77.75
429.847	93.75
430.069	93.75
430.292	81.75
430.514	81.75
430.736	77.75
430.958	78.75
431.18	62.75
431.402	90.75
431.624	70.75
431.846	80.75
432.068	98.75
432.29	91.75
432.512	86.75
432.734	92.75
432.956	90.75
433.178	98.75
433.4	100.75
433.622	92.75
433.844	89.75
434.066	76.75
434.287	102.75
434.509	87.75
434.731	85.75
434.953	87.75
435.175	77.75
435.397	96.75
435.618	98.75
435.84	92.75
436.062	119.75
436.284	123.75
436.505	95.75
436.727	86.75
436.949	94.75
437.17	86.75
437.392	78.75
437.614	88.75
437.835	108.75
438.057	106.75
438.278	82.75
438.5	87.75
438.721	127.75
438.943	100.75
439.165	89.75
439.386	78.75
439.608	78.75
439.829	95.75
440.05	120.75
440.272	134.75
440.493	80.75
440.715	78.75
440.936	68.75
441.158	79.75
441.379	79.75
441.6	91.75
441.822	105.75
442.043	89.75
442.264	89.75
442.486	104.75
442.707	101.75
442.928	107.75
443.149	120.75
443.371	117.75
443.592	104.75
443.813	103.75
444.034	91.75
444.255	76.75
444.476	93.75
444.698	77.75
444.919	84.75
445.14	128.75
445.361	106.75
445.582	110.75
445.803	119.75
446.024	130.75
446.245	134.75
446.466	95.75
446.687	88.75
446.908	83.75
447.129	86.75
447.35	83.75
447.571	75.75
447.792	93.75
448.013	99.75
448.234	96.75
448.455	105.75
448.675	95.75
448.896	108.75
449.117	99.75
449.338	95.75
449.559	126.75
449.779	121.75
450	87.75
450.221	66.75
450.442	81.75
450.662	102.75
450.883	104.75
451.104	120.75
451.324	98.75
451.545	79.75
451.766	89.75
451.986	74.75
452.207	78.75
452.428	85.75
452.648	86.75
452.869	100.75
453.089	93.75
453.31	106.75
453.53	93.75
453.751	99.75
453.971	98.75
454.192	96.75
454.412	84.75
454.633	84.75
454.853	75.75
455.073	79.75
455.294	75.75
455.514	84.75
455.734	90.75
455.955	78.75
456.175	73.75
456.395	87.75
456.616	82.75
456.836	86.75
457.056	89.75
457.276	79.75
457.497	81.75
457.717	90.75
457.937	77.75
458.157	86.75
458.377	98.75
458.598	109.75
458.818	119.75
459.038	141.75
459.258	105.75
459.478	85.75
459.698	92.75
459.918	95.75
460.138	83.75
460.358	88.75
460.578	84.75
460.798	92.75
461.018	77.75
461.238	87.75
461.458	92.75
461.678	81.75
461.898	92.75
462.118	98.75
462.338	83.75
462.558	86.75
462.777	73.75
462.997	66.75
463.217	80.75
463.437	87.75
463.657	85.75
463.876	85.75
464.096	75.75
464.316	95.75
464.536	98.75
464.755	86.75
464.975	105.75
465.195	141.75
465.414	162.75
465.634	85.75
465.854	78.75
466.073	73.75
466.293	74.75
466.512	75.75
466.732	79.75
466.951	87.75
467.171	72.75
467.391	91.75
467.61	94.75
467.829	85.75
468.049	87.75
468.268	85.75
468.488	88.75
468.707	77.75
468.927	78.75
469.146	70.75
469.365	93.75
469.585	78.75
469.804	86.75
470.023	88.75
470.243	103.75
470.462	85.75
470.681	84.75
470.901	93.75
471.12	84.75
471.339	83.75
471.558	94.75
471.777	101.75
471.997	87.75
472.216	91.75
472.435	88.75
472.654	77.75
472.873	84.75
473.092	80.75
473.311	93.75
473.53	86.75
473.749	89.75
473.968	89.75
474.187	90.75
474.406	101.75
474.625	84.75
474.844	90.75
475.063	87.75
475.282	74.75
475.501	84.75
475.72	80.75
475.939	90.75
476.158	90.75
476.377	84.75
476.596	82.75
476.814	81.75
477.033	71.75
477.252	85.75
477.471	78.75
477.69	79.75
477.908	79.75
478.127	76.75
478.346	76.75
478.564	74.75
478.783	87.75
479.002	86.75
479.22	80.75
479.439	93.75
479.658	87.75
479.876	77.75
480.095	91.75
480.313	92.75
480.532	81.75
480.751	83.75
480.969	89.75
481.188	77.75
481.406	86.75
481.624	84.75
481.843	75.75
482.061	88.75
482.28	84.75
482.498	89.75
482.717	81.75
482.935	79.75
483.153	72.75
483.372	87.75
483.59	84.75
483.808	84.75
484.027	72.75
484.245	102.75
484.463	86.75
484.681	92.75
484.9	87.75
485.118	95.75
485.336	86.75
485.554	99.75
485.772	93.75
485.99	102.75
486.209	104.75
486.427	97.75
486.645	94.75
486.863	110.75
487.081	81.75
487.299	85.75
487.517	92.75
487.735	84.75
487.953	83.75
488.171	90.75
488.389	83.75
488.607	95.75
488.825	85.75
489.043	91.75
489.261	89.75
489.479	92.75
489.696	103.75
489.914	83.75
490.132	92.75
490.35	98.75
490.568	89.75
490.786	82.75
491.003	95.75
491.221	80.75
491.439	94.75
491.657	70.75
491.874	68.75
492.092	88.75
492.31	88.75
492.527	96.75
492.745	106.75
492.963	98.75
493.18	97.75
493.398	95.75
493.615	84.75
493.833	88.75
494.05	91.75
494.268	75.75
494.485	98.75
494.703	86.75
494.92	85.75
495.138	76.75
495.355	79.75
495.573	87.75
495.79	80.75
496.008	85.75
496.225	84.75
496.442	74.75
496.66	79.75
496.877	90.75
497.094	99.75
497.312	87.75
497.529	91.75
497.746	84.75
497.963	84.75
498.181	103.75
498.398	88.75
498.615	109.75
498.832	97.75
499.049	91.75
499.267	94.75
499.484	80.75
499.701	91.75
499.918	94.75
500.135	80.75
500.352	82.75
500.569	84.75
500.786	89.75
501.003	81.75
501.22	82.75
501.437	86.75
501.654	72.75
501.871	93.75
502.088	95.75
502.305	90.75
502.522	86.75
502.739	86.75
502.956	89.75
503.172	92.75
503.389	90.75
503.606	95.75
503.823	79.75
504.04	84.75
504.256	97.75
504.473	75.75
504.69	95.75
504.907	77.75
505.123	89.75
505.34	95.75
505.557	78.75
505.773	92.75
505.99	93.75
506.207	94.75
506.423	99.75
506.64	84.75
506.856	87.75
507.073	99.75
507.289	85.75
507.506	83.75
507.722	108.75
507.939	102.75
508.155	95.75
508.372	82.75
508.588	80.75
508.805	98.75
509.021	93.75
509.238	82.75
509.454	103.75
509.67	112.75
509.887	120.75
510.103	125.75
510.319	186.75
510.536	699.75
510.752	2275.75
510.968	635.75
511.184	152.75
511.401	111.75
511.617	90.75
511.833	87.75
512.049	69.75
512.265	88.75
512.481	93.75
512.698	94.75
512.914	102.75
513.13	84.75
513.346	100.75
513.562	87.75
513.778	98.75
513.994	94.75
514.21	86.75
514.426	111.75
514.642	128.75
514.858	120.75
515.074	147.75
515.29	438.75
515.506	1376.75
515.721	525.75
515.937	139.75
516.153	94.75
516.369	94.75
516.585	86.75
516.801	96.75
517.016	90.75
517.232	95.75
517.448	77.75
