Data from Uncirc_2007_H10_HRD10591_00038.txt Node
Date: Wed Jan 03 10:20:50 EST 2024
User: Yrep
Spectrometer: HR+D1059
Trigger mode: 1
Integration Time (sec): 1.000000E-1
Scans to average: 1
Electric dark correction enabled: true
Nonlinearity correction enabled: false
Boxcar width: 0
XAxis mode: Wavelengths
Number of Pixels in Spectrum: 2048
>>>>>Begin Spectral Data<<<<<
223.165	-10.25
223.4	-10.25
223.635	-10.25
223.869	-17.25
224.104	-8.25
224.338	-7.25
224.573	-17.25
224.808	-15.25
225.042	-1.25
225.277	-0.25
225.511	-3.25
225.746	-10.25
225.98	-11.25
226.215	4.75
226.449	15.75
226.683	16.75
226.918	33.75
227.152	30.75
227.387	20.75
227.621	34.75
227.856	51.75
228.09	36.75
228.324	44.75
228.559	51.75
228.793	63.75
229.027	67.75
229.262	76.75
229.496	79.75
229.73	71.75
229.964	73.75
230.199	76.75
230.433	69.75
230.667	84.75
230.901	83.75
231.136	83.75
231.37	78.75
231.604	85.75
231.838	76.75
232.072	79.75
232.306	92.75
232.541	83.75
232.775	75.75
233.009	79.75
233.243	78.75
233.477	73.75
233.711	79.75
233.945	84.75
234.179	79.75
234.413	84.75
234.647	71.75
234.881	76.75
235.115	81.75
235.349	108.75
235.583	91.75
235.817	84.75
236.051	78.75
236.285	85.75
236.519	67.75
236.753	75.75
236.987	83.75
237.221	80.75
237.455	91.75
237.689	78.75
237.922	82.75
238.156	81.75
238.39	83.75
238.624	79.75
238.858	74.75
239.091	84.75
239.325	73.75
239.559	73.75
239.793	71.75
240.027	84.75
240.26	89.75
240.494	67.75
240.728	76.75
240.961	84.75
241.195	82.75
241.429	71.75
241.662	73.75
241.896	65.75
242.13	78.75
242.363	83.75
242.597	82.75
242.83	78.75
243.064	76.75
243.298	80.75
243.531	72.75
243.765	65.75
243.998	90.75
244.232	79.75
244.465	82.75
244.699	80.75
244.932	77.75
245.166	76.75
245.399	66.75
245.633	86.75
245.866	65.75
246.099	75.75
246.333	85.75
246.566	81.75
246.8	83.75
247.033	80.75
247.266	89.75
247.5	82.75
247.733	84.75
247.966	76.75
248.2	74.75
248.433	83.75
248.666	87.75
248.899	82.75
249.133	95.75
249.366	89.75
249.599	93.75
249.832	101.75
250.066	85.75
250.299	90.75
250.532	80.75
250.765	80.75
250.998	74.75
251.231	79.75
251.465	72.75
251.698	82.75
251.931	86.75
252.164	87.75
252.397	89.75
252.63	79.75
252.863	69.75
253.096	67.75
253.329	77.75
253.562	82.75
253.795	68.75
254.028	96.75
254.261	71.75
254.494	74.75
254.727	88.75
254.96	81.75
255.193	81.75
255.426	81.75
255.659	82.75
255.892	81.75
256.124	82.75
256.357	71.75
256.59	83.75
256.823	80.75
257.056	79.75
257.289	80.75
257.521	77.75
257.754	79.75
257.987	87.75
258.22	84.75
258.452	75.75
258.685	83.75
258.918	87.75
259.151	67.75
259.383	62.75
259.616	79.75
259.849	95.75
260.081	85.75
260.314	91.75
260.547	89.75
260.779	65.75
261.012	80.75
261.244	74.75
261.477	87.75
261.71	96.75
261.942	111.75
262.175	112.75
262.407	90.75
262.64	95.75
262.872	84.75
263.105	81.75
263.337	91.75
263.57	98.75
263.802	93.75
264.035	87.75
264.267	74.75
264.499	83.75
264.732	80.75
264.964	81.75
265.197	94.75
265.429	80.75
265.661	91.75
265.894	100.75
266.126	91.75
266.358	84.75
266.591	67.75
266.823	80.75
267.055	95.75
267.287	88.75
267.52	79.75
267.752	76.75
267.984	92.75
268.216	90.75
268.448	86.75
268.681	71.75
268.913	83.75
269.145	92.75
269.377	76.75
269.609	88.75
269.841	79.75
270.073	77.75
270.306	90.75
270.538	89.75
270.77	92.75
271.002	89.75
271.234	93.75
271.466	90.75
271.698	93.75
271.93	78.75
272.162	82.75
272.394	84.75
272.626	75.75
272.858	84.75
273.09	83.75
273.322	88.75
273.553	82.75
273.785	91.75
274.017	86.75
274.249	74.75
274.481	73.75
274.713	82.75
274.945	92.75
275.176	97.75
275.408	89.75
275.64	80.75
275.872	78.75
276.104	96.75
276.335	79.75
276.567	97.75
276.799	96.75
277.031	96.75
277.262	93.75
277.494	99.75
277.726	78.75
277.957	75.75
278.189	86.75
278.421	82.75
278.652	82.75
278.884	88.75
279.115	73.75
279.347	72.75
279.579	86.75
279.81	73.75
280.042	91.75
280.273	71.75
280.505	75.75
280.736	80.75
280.968	84.75
281.199	80.75
281.431	79.75
281.662	82.75
281.894	87.75
282.125	89.75
282.356	115.75
282.588	128.75
282.819	123.75
283.051	89.75
283.282	89.75
283.513	79.75
283.745	84.75
283.976	73.75
284.207	90.75
284.439	89.75
284.67	86.75
284.901	98.75
285.132	93.75
285.364	82.75
285.595	86.75
285.826	88.75
286.057	95.75
286.288	82.75
286.52	77.75
286.751	97.75
286.982	99.75
287.213	72.75
287.444	87.75
287.675	87.75
287.906	87.75
288.138	90.75
288.369	97.75
288.6	79.75
288.831	79.75
289.062	95.75
289.293	81.75
289.524	79.75
289.755	84.75
289.986	77.75
290.217	88.75
290.448	83.75
290.679	83.75
290.91	95.75
291.141	87.75
291.371	85.75
291.602	89.75
291.833	89.75
292.064	91.75
292.295	110.75
292.526	80.75
292.757	67.75
292.987	80.75
293.218	88.75
293.449	89.75
293.68	94.75
293.91	90.75
294.141	95.75
294.372	85.75
294.603	82.75
294.833	91.75
295.064	75.75
295.295	96.75
295.525	91.75
295.756	106.75
295.987	121.75
296.217	134.75
296.448	120.75
296.679	94.75
296.909	76.75
297.14	90.75
297.37	94.75
297.601	84.75
297.831	88.75
298.062	88.75
298.292	89.75
298.523	90.75
298.753	93.75
298.984	106.75
299.214	76.75
299.445	90.75
299.675	93.75
299.905	101.75
300.136	91.75
300.366	82.75
300.597	69.75
300.827	90.75
301.057	92.75
301.288	94.75
301.518	93.75
301.748	84.75
301.979	99.75
302.209	92.75
302.439	89.75
302.669	86.75
302.9	87.75
303.13	95.75
303.36	97.75
303.59	108.75
303.82	95.75
304.051	90.75
304.281	69.75
304.511	83.75
304.741	81.75
304.971	82.75
305.201	76.75
305.431	91.75
305.661	96.75
305.891	85.75
306.121	86.75
306.352	91.75
306.582	116.75
306.812	94.75
307.042	79.75
307.272	80.75
307.502	90.75
307.731	89.75
307.961	86.75
308.191	75.75
308.421	89.75
308.651	91.75
308.881	96.75
309.111	82.75
309.341	91.75
309.571	96.75
309.8	85.75
310.03	99.75
310.26	106.75
310.49	90.75
310.72	94.75
310.949	103.75
311.179	101.75
311.409	90.75
311.639	104.75
311.868	96.75
312.098	100.75
312.328	96.75
312.557	106.75
312.787	119.75
313.017	96.75
313.246	93.75
313.476	89.75
313.706	93.75
313.935	84.75
314.165	83.75
314.394	91.75
314.624	78.75
314.853	97.75
315.083	95.75
315.312	83.75
315.542	95.75
315.771	91.75
316.001	87.75
316.23	80.75
316.46	88.75
316.689	85.75
316.919	93.75
317.148	109.75
317.377	97.75
317.607	95.75
317.836	83.75
318.065	87.75
318.295	100.75
318.524	99.75
318.753	81.75
318.983	85.75
319.212	111.75
319.441	91.75
319.67	95.75
319.9	97.75
320.129	76.75
320.358	103.75
320.587	93.75
320.816	88.75
321.046	98.75
321.275	101.75
321.504	97.75
321.733	96.75
321.962	98.75
322.191	92.75
322.42	104.75
322.649	104.75
322.878	114.75
323.108	113.75
323.337	129.75
323.566	133.75
323.795	147.75
324.024	221.75
324.253	445.75
324.482	907.75
324.71	1900.75
324.939	2485.75
325.168	921.75
325.397	263.75
325.626	153.75
325.855	140.75
326.084	129.75
326.313	144.75
326.542	163.75
326.77	252.75
326.999	505.75
327.228	1044.75
327.457	1942.75
327.686	1507.75
327.914	385.75
328.143	175.75
328.372	139.75
328.6	127.75
328.829	128.75
329.058	121.75
329.287	113.75
329.515	106.75
329.744	100.75
329.972	99.75
330.201	96.75
330.43	100.75
330.658	112.75
330.887	132.75
331.115	133.75
331.344	108.75
331.572	111.75
331.801	109.75
332.03	106.75
332.258	89.75
332.486	98.75
332.715	95.75
332.943	101.75
333.172	99.75
333.4	91.75
333.629	101.75
333.857	103.75
334.085	98.75
334.314	90.75
334.542	87.75
334.771	93.75
334.999	83.75
335.227	93.75
335.455	89.75
335.684	85.75
335.912	91.75
336.14	90.75
336.369	90.75
336.597	99.75
336.825	98.75
337.053	98.75
337.281	95.75
337.51	83.75
337.738	96.75
337.966	89.75
338.194	98.75
338.422	108.75
338.65	94.75
338.878	90.75
339.106	92.75
339.334	85.75
339.562	85.75
339.79	99.75
340.018	99.75
340.246	92.75
340.474	99.75
340.702	93.75
340.93	83.75
341.158	89.75
341.386	92.75
341.614	88.75
341.842	81.75
342.07	71.75
342.298	97.75
342.526	104.75
342.754	88.75
342.981	83.75
343.209	82.75
343.437	100.75
343.665	80.75
343.893	79.75
344.12	87.75
344.348	86.75
344.576	100.75
344.804	85.75
345.031	98.75
345.259	100.75
345.487	93.75
345.714	97.75
345.942	93.75
346.17	97.75
346.397	82.75
346.625	98.75
346.853	97.75
347.08	92.75
347.308	89.75
347.535	101.75
347.763	98.75
347.99	88.75
348.218	92.75
348.445	114.75
348.673	112.75
348.9	105.75
349.128	104.75
349.355	97.75
349.583	105.75
349.81	94.75
350.037	91.75
350.265	108.75
350.492	84.75
350.72	101.75
350.947	117.75
351.174	109.75
351.402	102.75
351.629	92.75
351.856	100.75
352.083	101.75
352.311	102.75
352.538	100.75
352.765	107.75
352.992	103.75
353.22	98.75
353.447	103.75
353.674	96.75
353.901	85.75
354.128	96.75
354.355	88.75
354.583	101.75
354.81	95.75
355.037	98.75
355.264	92.75
355.491	97.75
355.718	93.75
355.945	93.75
356.172	88.75
356.399	102.75
356.626	82.75
356.853	95.75
357.08	97.75
357.307	97.75
357.534	85.75
357.761	96.75
357.988	89.75
358.215	92.75
358.441	98.75
358.668	93.75
358.895	72.75
359.122	81.75
359.349	98.75
359.576	100.75
359.802	91.75
360.029	113.75
360.256	118.75
360.483	89.75
360.709	92.75
360.936	96.75
361.163	101.75
361.39	65.75
361.616	100.75
361.843	94.75
362.07	91.75
362.296	100.75
362.523	95.75
362.749	91.75
362.976	90.75
363.203	90.75
363.429	99.75
363.656	84.75
363.882	83.75
364.109	88.75
364.335	93.75
364.562	88.75
364.788	94.75
365.015	93.75
365.241	99.75
365.468	112.75
365.694	103.75
365.92	84.75
366.147	87.75
366.373	83.75
366.599	84.75
366.826	93.75
367.052	83.75
367.278	98.75
367.505	84.75
367.731	94.75
367.957	86.75
368.184	103.75
368.41	93.75
368.636	105.75
368.862	124.75
369.089	101.75
369.315	89.75
369.541	89.75
369.767	91.75
369.993	93.75
370.219	91.75
370.445	95.75
370.672	94.75
370.898	95.75
371.124	85.75
371.35	84.75
371.576	91.75
371.802	83.75
372.028	83.75
372.254	88.75
372.48	81.75
372.706	89.75
372.932	89.75
373.158	93.75
373.384	82.75
373.61	99.75
373.835	87.75
374.061	89.75
374.287	103.75
374.513	90.75
374.739	104.75
374.965	90.75
375.191	90.75
375.416	85.75
375.642	82.75
375.868	91.75
376.094	106.75
376.319	91.75
376.545	89.75
376.771	105.75
376.997	89.75
377.222	88.75
377.448	95.75
377.674	82.75
377.899	97.75
378.125	81.75
378.35	95.75
378.576	93.75
378.802	82.75
379.027	89.75
379.253	81.75
379.478	89.75
379.704	92.75
379.929	89.75
380.155	107.75
380.38	92.75
380.606	86.75
380.831	83.75
381.057	95.75
381.282	93.75
381.507	87.75
381.733	98.75
381.958	99.75
382.184	79.75
382.409	79.75
382.634	89.75
382.86	92.75
383.085	109.75
383.31	87.75
383.535	93.75
383.761	83.75
383.986	100.75
384.211	101.75
384.436	99.75
384.662	88.75
384.887	99.75
385.112	102.75
385.337	109.75
385.562	93.75
385.787	94.75
386.013	122.75
386.238	111.75
386.463	100.75
386.688	102.75
386.913	97.75
387.138	96.75
387.363	90.75
387.588	97.75
387.813	85.75
388.038	98.75
388.263	101.75
388.488	110.75
388.713	99.75
388.938	91.75
389.163	88.75
389.387	98.75
389.612	101.75
389.837	106.75
390.062	76.75
390.287	84.75
390.512	84.75
390.736	90.75
390.961	89.75
391.186	92.75
391.411	100.75
391.636	88.75
391.86	92.75
392.085	77.75
392.31	81.75
392.534	81.75
392.759	91.75
392.984	77.75
393.208	89.75
393.433	97.75
393.658	83.75
393.882	91.75
394.107	89.75
394.331	83.75
394.556	81.75
394.78	90.75
395.005	85.75
395.229	72.75
395.454	76.75
395.678	92.75
395.903	94.75
396.127	94.75
396.352	87.75
396.576	83.75
396.801	85.75
397.025	94.75
397.249	78.75
397.474	86.75
397.698	90.75
397.922	81.75
398.147	81.75
398.371	88.75
398.595	84.75
398.82	85.75
399.044	88.75
399.268	92.75
399.492	73.75
399.717	95.75
399.941	86.75
400.165	91.75
400.389	83.75
400.613	90.75
400.837	85.75
401.062	85.75
401.286	87.75
401.51	90.75
401.734	89.75
401.958	106.75
402.182	125.75
402.406	163.75
402.63	112.75
402.854	82.75
403.078	96.75
403.302	106.75
403.526	92.75
403.75	79.75
403.974	88.75
404.198	79.75
404.422	88.75
404.645	82.75
404.869	88.75
405.093	91.75
405.317	91.75
405.541	91.75
405.765	90.75
405.988	123.75
406.212	176.75
406.436	215.75
406.66	158.75
406.883	90.75
407.107	92.75
407.331	99.75
407.555	96.75
407.778	98.75
408.002	88.75
408.226	79.75
408.449	94.75
408.673	73.75
408.896	95.75
409.12	91.75
409.344	87.75
409.567	71.75
409.791	93.75
410.014	78.75
410.238	85.75
410.461	91.75
410.685	96.75
410.908	103.75
411.132	100.75
411.355	96.75
411.578	91.75
411.802	88.75
412.025	87.75
412.249	76.75
412.472	90.75
412.695	91.75
412.919	93.75
413.142	79.75
413.365	96.75
413.589	85.75
413.812	95.75
414.035	92.75
414.258	91.75
414.482	90.75
414.705	89.75
414.928	89.75
415.151	91.75
415.374	85.75
415.597	81.75
415.821	72.75
416.044	93.75
416.267	81.75
416.49	69.75
416.713	85.75
416.936	89.75
417.159	94.75
417.382	95.75
417.605	102.75
417.828	87.75
418.051	84.75
418.274	103.75
418.497	83.75
418.72	107.75
418.943	67.75
419.166	84.75
419.389	89.75
419.611	83.75
419.834	76.75
420.057	87.75
420.28	93.75
420.503	95.75
420.726	103.75
420.948	83.75
421.171	89.75
421.394	87.75
421.617	94.75
421.839	80.75
422.062	92.75
422.285	99.75
422.507	99.75
422.73	124.75
422.953	93.75
423.175	89.75
423.398	87.75
423.621	87.75
423.843	75.75
424.066	96.75
424.288	93.75
424.511	80.75
424.733	95.75
424.956	115.75
425.178	114.75
425.401	90.75
425.623	91.75
425.846	96.75
426.068	91.75
426.291	94.75
426.513	88.75
426.735	97.75
426.958	93.75
427.18	93.75
427.402	122.75
427.625	159.75
427.847	122.75
428.069	103.75
428.292	79.75
428.514	81.75
428.736	76.75
428.958	90.75
429.181	88.75
429.403	92.75
429.625	96.75
429.847	95.75
430.069	94.75
430.292	100.75
430.514	76.75
430.736	95.75
430.958	84.75
431.18	80.75
431.402	93.75
431.624	93.75
431.846	84.75
432.068	85.75
432.29	83.75
432.512	95.75
432.734	83.75
432.956	86.75
433.178	100.75
433.4	92.75
433.622	86.75
433.844	90.75
434.066	88.75
434.287	93.75
434.509	95.75
434.731	106.75
434.953	75.75
435.175	78.75
435.397	96.75
435.618	91.75
435.84	106.75
436.062	138.75
436.284	116.75
436.505	105.75
436.727	96.75
436.949	89.75
437.17	91.75
437.392	95.75
437.614	103.75
437.835	124.75
438.057	122.75
438.278	116.75
438.5	109.75
438.721	114.75
438.943	99.75
439.165	85.75
439.386	94.75
439.608	85.75
439.829	110.75
440.05	131.75
440.272	139.75
440.493	104.75
440.715	87.75
440.936	86.75
441.158	92.75
441.379	89.75
441.6	92.75
441.822	98.75
442.043	95.75
442.264	106.75
442.486	108.75
442.707	97.75
442.928	87.75
443.149	123.75
443.371	128.75
443.592	105.75
443.813	115.75
444.034	95.75
444.255	105.75
444.476	73.75
444.698	79.75
444.919	99.75
445.14	127.75
445.361	117.75
445.582	119.75
445.803	139.75
446.024	139.75
446.245	148.75
446.466	105.75
446.687	79.75
446.908	89.75
447.129	87.75
447.35	92.75
447.571	95.75
447.792	111.75
448.013	96.75
448.234	129.75
448.455	103.75
448.675	114.75
448.896	113.75
449.117	96.75
449.338	98.75
449.559	116.75
449.779	136.75
450	89.75
450.221	97.75
450.442	85.75
450.662	96.75
450.883	107.75
451.104	104.75
451.324	91.75
451.545	92.75
451.766	81.75
451.986	79.75
452.207	91.75
452.428	100.75
452.648	102.75
452.869	105.75
453.089	104.75
453.31	112.75
453.53	97.75
453.751	89.75
453.971	97.75
454.192	99.75
454.412	89.75
454.633	93.75
454.853	76.75
455.073	82.75
455.294	81.75
455.514	111.75
455.734	82.75
455.955	75.75
456.175	86.75
456.395	83.75
456.616	77.75
456.836	89.75
457.056	78.75
457.276	70.75
457.497	77.75
457.717	79.75
457.937	87.75
458.157	84.75
458.377	90.75
458.598	97.75
458.818	143.75
459.038	148.75
459.258	111.75
459.478	86.75
459.698	93.75
459.918	83.75
460.138	95.75
460.358	84.75
460.578	80.75
460.798	65.75
461.018	78.75
461.238	86.75
461.458	91.75
461.678	84.75
461.898	98.75
462.118	100.75
462.338	92.75
462.558	84.75
462.777	68.75
462.997	77.75
463.217	95.75
463.437	76.75
463.657	96.75
463.876	89.75
464.096	95.75
464.316	111.75
464.536	95.75
464.755	89.75
464.975	105.75
465.195	163.75
465.414	148.75
465.634	120.75
465.854	89.75
466.073	80.75
466.293	83.75
466.512	81.75
466.732	79.75
466.951	96.75
467.171	97.75
467.391	92.75
467.61	95.75
467.829	92.75
468.049	80.75
468.268	69.75
468.488	88.75
468.707	88.75
468.927	69.75
469.146	76.75
469.365	74.75
469.585	92.75
469.804	78.75
470.023	104.75
470.243	91.75
470.462	92.75
470.681	102.75
470.901	80.75
471.12	92.75
471.339	82.75
471.558	87.75
471.777	74.75
471.997	92.75
472.216	77.75
472.435	86.75
472.654	75.75
472.873	84.75
473.092	88.75
473.311	84.75
473.53	92.75
473.749	104.75
473.968	100.75
474.187	135.75
474.406	97.75
474.625	81.75
474.844	93.75
475.063	92.75
475.282	84.75
475.501	77.75
475.72	94.75
475.939	93.75
476.158	100.75
476.377	93.75
476.596	91.75
476.814	88.75
477.033	86.75
477.252	106.75
477.471	92.75
477.69	92.75
477.908	85.75
478.127	85.75
478.346	99.75
478.564	85.75
478.783	105.75
479.002	98.75
479.22	98.75
479.439	98.75
479.658	103.75
479.876	97.75
480.095	88.75
480.313	81.75
480.532	94.75
480.751	96.75
480.969	100.75
481.188	91.75
481.406	90.75
481.624	91.75
481.843	99.75
482.061	90.75
482.28	92.75
482.498	84.75
482.717	83.75
482.935	81.75
483.153	95.75
483.372	89.75
483.59	99.75
483.808	80.75
484.027	102.75
484.245	105.75
484.463	75.75
484.681	97.75
484.9	91.75
485.118	88.75
485.336	91.75
485.554	88.75
485.772	94.75
485.99	100.75
486.209	101.75
486.427	91.75
486.645	113.75
486.863	106.75
487.081	109.75
487.299	92.75
487.517	104.75
487.735	83.75
487.953	95.75
488.171	88.75
488.389	85.75
488.607	99.75
488.825	88.75
489.043	97.75
489.261	98.75
489.479	86.75
489.696	93.75
489.914	101.75
490.132	95.75
490.35	94.75
490.568	97.75
490.786	77.75
491.003	81.75
491.221	91.75
491.439	81.75
491.657	84.75
491.874	93.75
492.092	102.75
492.31	101.75
492.527	85.75
492.745	94.75
492.963	98.75
493.18	92.75
493.398	87.75
493.615	75.75
493.833	87.75
494.05	89.75
494.268	84.75
494.485	80.75
494.703	92.75
494.92	82.75
495.138	94.75
495.355	100.75
495.573	89.75
495.79	87.75
496.008	87.75
496.225	93.75
496.442	94.75
496.66	85.75
496.877	100.75
497.094	101.75
497.312	89.75
497.529	86.75
497.746	84.75
497.963	85.75
498.181	84.75
498.398	96.75
498.615	106.75
498.832	108.75
499.049	101.75
499.267	89.75
499.484	99.75
499.701	85.75
499.918	103.75
500.135	90.75
500.352	85.75
500.569	98.75
500.786	98.75
501.003	93.75
501.22	89.75
501.437	94.75
501.654	103.75
501.871	109.75
502.088	95.75
502.305	103.75
502.522	98.75
502.739	88.75
502.956	76.75
503.172	91.75
503.389	89.75
503.606	112.75
503.823	100.75
504.04	98.75
504.256	82.75
504.473	89.75
504.69	83.75
504.907	88.75
505.123	95.75
505.34	97.75
505.557	90.75
505.773	87.75
505.99	102.75
506.207	97.75
506.423	91.75
506.64	91.75
506.856	79.75
507.073	93.75
507.289	93.75
507.506	99.75
507.722	109.75
507.939	114.75
508.155	84.75
508.372	98.75
508.588	91.75
508.805	98.75
509.021	97.75
509.238	107.75
509.454	116.75
509.67	92.75
509.887	107.75
510.103	139.75
510.319	221.75
510.536	808.75
510.752	2621.75
510.968	711.75
511.184	163.75
511.401	123.75
511.617	102.75
511.833	98.75
512.049	99.75
512.265	92.75
512.481	96.75
512.698	95.75
512.914	97.75
513.13	102.75
513.346	107.75
513.562	73.75
513.778	99.75
513.994	109.75
514.21	110.75
514.426	115.75
514.642	132.75
514.858	128.75
515.074	173.75
515.29	457.75
515.506	1551.75
515.721	573.75
515.937	158.75
516.153	109.75
