Data from Uncirc_2007_H10_HRD10591_00006.txt Node
Date: Wed Jan 03 10:20:43 EST 2024
User: Yrep
Spectrometer: HR+D1059
Trigger mode: 1
Integration Time (sec): 1.000000E-1
Scans to average: 1
Electric dark correction enabled: true
Nonlinearity correction enabled: false
Boxcar width: 0
XAxis mode: Wavelengths
Number of Pixels in Spectrum: 2048
>>>>>Begin Spectral Data<<<<<
223.165	-22.19
223.4	-22.19
223.635	-22.19
223.869	-27.19
224.104	-22.19
224.338	-15.19
224.573	-11.19
224.808	0.81
225.042	-16.19
225.277	-0.19
225.511	-9.19
225.746	4.81
225.98	6.81
226.215	19.81
226.449	5.81
226.683	8.81
226.918	39.81
227.152	36.81
227.387	33.81
227.621	33.81
227.856	42.81
228.09	37.81
228.324	57.81
228.559	60.81
228.793	63.81
229.027	54.81
229.262	50.81
229.496	74.81
229.73	78.81
229.964	73.81
230.199	63.81
230.433	53.81
230.667	90.81
230.901	87.81
231.136	74.81
231.37	84.81
231.604	71.81
231.838	84.81
232.072	87.81
232.306	87.81
232.541	74.81
232.775	87.81
233.009	85.81
233.243	80.81
233.477	79.81
233.711	80.81
233.945	80.81
234.179	77.81
234.413	77.81
234.647	85.81
234.881	83.81
235.115	78.81
235.349	103.81
235.583	89.81
235.817	70.81
236.051	75.81
236.285	75.81
236.519	65.81
236.753	72.81
236.987	75.81
237.221	81.81
237.455	88.81
237.689	65.81
237.922	74.81
238.156	83.81
238.39	72.81
238.624	64.81
238.858	85.81
239.091	76.81
239.325	69.81
239.559	86.81
239.793	82.81
240.027	84.81
240.26	83.81
240.494	76.81
240.728	68.81
240.961	63.81
241.195	61.81
241.429	82.81
241.662	85.81
241.896	61.81
242.13	79.81
242.363	71.81
242.597	82.81
242.83	78.81
243.064	77.81
243.298	76.81
243.531	81.81
243.765	64.81
243.998	76.81
244.232	78.81
244.465	78.81
244.699	88.81
244.932	79.81
245.166	85.81
245.399	80.81
245.633	84.81
245.866	77.81
246.099	84.81
246.333	84.81
246.566	68.81
246.8	72.81
247.033	78.81
247.266	88.81
247.5	89.81
247.733	81.81
247.966	67.81
248.2	75.81
248.433	87.81
248.666	67.81
248.899	73.81
249.133	88.81
249.366	87.81
249.599	103.81
249.832	86.81
250.066	77.81
250.299	76.81
250.532	73.81
250.765	76.81
250.998	86.81
251.231	89.81
251.465	68.81
251.698	79.81
251.931	82.81
252.164	78.81
252.397	87.81
252.63	90.81
252.863	83.81
253.096	83.81
253.329	89.81
253.562	83.81
253.795	85.81
254.028	78.81
254.261	90.81
254.494	88.81
254.727	79.81
254.96	67.81
255.193	75.81
255.426	80.81
255.659	84.81
255.892	89.81
256.124	84.81
256.357	85.81
256.59	69.81
256.823	80.81
257.056	74.81
257.289	78.81
257.521	76.81
257.754	75.81
257.987	67.81
258.22	85.81
258.452	82.81
258.685	84.81
258.918	77.81
259.151	87.81
259.383	78.81
259.616	96.81
259.849	75.81
260.081	73.81
260.314	105.81
260.547	88.81
260.779	80.81
261.012	100.81
261.244	85.81
261.477	74.81
261.71	89.81
261.942	121.81
262.175	110.81
262.407	82.81
262.64	82.81
262.872	88.81
263.105	74.81
263.337	71.81
263.57	83.81
263.802	82.81
264.035	87.81
264.267	79.81
264.499	88.81
264.732	92.81
264.964	77.81
265.197	75.81
265.429	79.81
265.661	85.81
265.894	78.81
266.126	84.81
266.358	90.81
266.591	79.81
266.823	88.81
267.055	87.81
267.287	92.81
267.52	76.81
267.752	83.81
267.984	84.81
268.216	81.81
268.448	84.81
268.681	97.81
268.913	86.81
269.145	72.81
269.377	80.81
269.609	76.81
269.841	76.81
270.073	90.81
270.306	90.81
270.538	87.81
270.77	72.81
271.002	83.81
271.234	72.81
271.466	76.81
271.698	75.81
271.93	80.81
272.162	82.81
272.394	78.81
272.626	88.81
272.858	64.81
273.09	92.81
273.322	87.81
273.553	82.81
273.785	84.81
274.017	95.81
274.249	85.81
274.481	87.81
274.713	81.81
274.945	69.81
275.176	76.81
275.408	86.81
275.64	80.81
275.872	95.81
276.104	93.81
276.335	89.81
276.567	97.81
276.799	94.81
277.031	94.81
277.262	88.81
277.494	85.81
277.726	81.81
277.957	86.81
278.189	81.81
278.421	88.81
278.652	89.81
278.884	89.81
279.115	77.81
279.347	82.81
279.579	98.81
279.81	81.81
280.042	86.81
280.273	86.81
280.505	85.81
280.736	69.81
280.968	88.81
281.199	74.81
281.431	72.81
281.662	83.81
281.894	87.81
282.125	82.81
282.356	92.81
282.588	123.81
282.819	106.81
283.051	86.81
283.282	84.81
283.513	94.81
283.745	92.81
283.976	83.81
284.207	99.81
284.439	87.81
284.67	68.81
284.901	88.81
285.132	89.81
285.364	95.81
285.595	87.81
285.826	73.81
286.057	78.81
286.288	97.81
286.52	91.81
286.751	88.81
286.982	76.81
287.213	85.81
287.444	101.81
287.675	87.81
287.906	84.81
288.138	87.81
288.369	86.81
288.6	88.81
288.831	89.81
289.062	86.81
289.293	103.81
289.524	90.81
289.755	93.81
289.986	94.81
290.217	93.81
290.448	86.81
290.679	81.81
290.91	90.81
291.141	89.81
291.371	85.81
291.602	90.81
291.833	81.81
292.064	79.81
292.295	96.81
292.526	95.81
292.757	80.81
292.987	101.81
293.218	74.81
293.449	92.81
293.68	85.81
293.91	92.81
294.141	91.81
294.372	90.81
294.603	83.81
294.833	87.81
295.064	82.81
295.295	82.81
295.525	98.81
295.756	99.81
295.987	109.81
296.217	140.81
296.448	122.81
296.679	97.81
296.909	93.81
297.14	86.81
297.37	74.81
297.601	99.81
297.831	87.81
298.062	92.81
298.292	95.81
298.523	94.81
298.753	77.81
298.984	84.81
299.214	90.81
299.445	95.81
299.675	97.81
299.905	87.81
300.136	83.81
300.366	91.81
300.597	94.81
300.827	94.81
301.057	87.81
301.288	104.81
301.518	101.81
301.748	90.81
301.979	86.81
302.209	95.81
302.439	82.81
302.669	88.81
302.9	94.81
303.13	84.81
303.36	96.81
303.59	99.81
303.82	89.81
304.051	88.81
304.281	107.81
304.511	90.81
304.741	85.81
304.971	89.81
305.201	76.81
305.431	102.81
305.661	92.81
305.891	78.81
306.121	84.81
306.352	110.81
306.582	97.81
306.812	102.81
307.042	87.81
307.272	92.81
307.502	83.81
307.731	91.81
307.961	100.81
308.191	86.81
308.421	97.81
308.651	100.81
308.881	106.81
309.111	85.81
309.341	95.81
309.571	104.81
309.8	100.81
310.03	106.81
310.26	103.81
310.49	97.81
310.72	97.81
310.949	85.81
311.179	95.81
311.409	83.81
311.639	88.81
311.868	85.81
312.098	104.81
312.328	94.81
312.557	100.81
312.787	102.81
313.017	105.81
313.246	87.81
313.476	92.81
313.706	100.81
313.935	109.81
314.165	81.81
314.394	96.81
314.624	76.81
314.853	87.81
315.083	109.81
315.312	98.81
315.542	92.81
315.771	89.81
316.001	95.81
316.23	94.81
316.46	94.81
316.689	95.81
316.919	87.81
317.148	88.81
317.377	98.81
317.607	83.81
317.836	88.81
318.065	109.81
318.295	86.81
318.524	97.81
318.753	100.81
318.983	101.81
319.212	103.81
319.441	107.81
319.67	105.81
319.9	91.81
320.129	96.81
320.358	88.81
320.587	101.81
320.816	87.81
321.046	107.81
321.275	96.81
321.504	99.81
321.733	104.81
321.962	115.81
322.191	94.81
322.42	107.81
322.649	109.81
322.878	100.81
323.108	119.81
323.337	119.81
323.566	125.81
323.795	149.81
324.024	196.81
324.253	414.81
324.482	883.81
324.71	1847.81
324.939	2420.81
325.168	857.81
325.397	256.81
325.626	146.81
325.855	145.81
326.084	136.81
326.313	144.81
326.542	160.81
326.77	254.81
326.999	495.81
327.228	1036.81
327.457	1859.81
327.686	1500.81
327.914	393.81
328.143	193.81
328.372	144.81
328.6	117.81
328.829	114.81
329.058	130.81
329.287	119.81
329.515	106.81
329.744	113.81
329.972	102.81
330.201	84.81
330.43	109.81
330.658	121.81
330.887	127.81
331.115	119.81
331.344	96.81
331.572	107.81
331.801	105.81
332.03	107.81
332.258	89.81
332.486	99.81
332.715	73.81
332.943	96.81
333.172	104.81
333.4	99.81
333.629	109.81
333.857	110.81
334.085	97.81
334.314	103.81
334.542	102.81
334.771	99.81
334.999	89.81
335.227	87.81
335.455	91.81
335.684	98.81
335.912	89.81
336.14	92.81
336.369	92.81
336.597	99.81
336.825	93.81
337.053	105.81
337.281	86.81
337.51	80.81
337.738	83.81
337.966	91.81
338.194	107.81
338.422	83.81
338.65	88.81
338.878	102.81
339.106	99.81
339.334	94.81
339.562	91.81
339.79	97.81
340.018	85.81
340.246	97.81
340.474	75.81
340.702	85.81
340.93	76.81
341.158	95.81
341.386	88.81
341.614	75.81
341.842	93.81
342.07	88.81
342.298	99.81
342.526	95.81
342.754	81.81
342.981	96.81
343.209	91.81
343.437	93.81
343.665	100.81
343.893	96.81
344.12	91.81
344.348	91.81
344.576	90.81
344.804	105.81
345.031	91.81
345.259	91.81
345.487	104.81
345.714	97.81
345.942	96.81
346.17	104.81
346.397	89.81
346.625	92.81
346.853	82.81
347.08	80.81
347.308	84.81
347.535	97.81
347.763	96.81
347.99	92.81
348.218	107.81
348.445	98.81
348.673	97.81
348.9	83.81
349.128	92.81
349.355	86.81
349.583	90.81
349.81	91.81
350.037	103.81
350.265	88.81
350.492	96.81
350.72	94.81
350.947	94.81
351.174	110.81
351.402	111.81
351.629	101.81
351.856	104.81
352.083	95.81
352.311	100.81
352.538	105.81
352.765	112.81
352.992	115.81
353.22	125.81
353.447	100.81
353.674	88.81
353.901	74.81
354.128	96.81
354.355	100.81
354.583	103.81
354.81	105.81
355.037	99.81
355.264	101.81
355.491	100.81
355.718	83.81
355.945	83.81
356.172	88.81
356.399	89.81
356.626	111.81
356.853	86.81
357.08	90.81
357.307	103.81
357.534	75.81
357.761	84.81
357.988	87.81
358.215	100.81
358.441	103.81
358.668	100.81
358.895	88.81
359.122	101.81
359.349	96.81
359.576	76.81
359.802	97.81
360.029	100.81
360.256	104.81
360.483	103.81
360.709	92.81
360.936	85.81
361.163	82.81
361.39	89.81
361.616	107.81
361.843	92.81
362.07	95.81
362.296	95.81
362.523	88.81
362.749	79.81
362.976	91.81
363.203	86.81
363.429	83.81
363.656	98.81
363.882	83.81
364.109	93.81
364.335	97.81
364.562	103.81
364.788	82.81
365.015	85.81
365.241	104.81
365.468	100.81
365.694	80.81
365.92	93.81
366.147	88.81
366.373	84.81
366.599	93.81
366.826	87.81
367.052	76.81
367.278	82.81
367.505	90.81
367.731	83.81
367.957	88.81
368.184	86.81
368.41	110.81
368.636	109.81
368.862	116.81
369.089	91.81
369.315	91.81
369.541	85.81
369.767	88.81
369.993	75.81
370.219	81.81
370.445	90.81
370.672	97.81
370.898	104.81
371.124	82.81
371.35	83.81
371.576	101.81
371.802	82.81
372.028	76.81
372.254	74.81
372.48	90.81
372.706	87.81
372.932	83.81
373.158	87.81
373.384	96.81
373.61	86.81
373.835	97.81
374.061	97.81
374.287	94.81
374.513	102.81
374.739	82.81
374.965	87.81
375.191	97.81
375.416	83.81
375.642	86.81
375.868	91.81
376.094	87.81
376.319	91.81
376.545	91.81
376.771	106.81
376.997	88.81
377.222	91.81
377.448	82.81
377.674	93.81
377.899	83.81
378.125	82.81
378.35	96.81
378.576	83.81
378.802	83.81
379.027	89.81
379.253	87.81
379.478	84.81
379.704	87.81
379.929	96.81
380.155	85.81
380.38	102.81
380.606	100.81
380.831	102.81
381.057	109.81
381.282	100.81
381.507	107.81
381.733	96.81
381.958	93.81
382.184	99.81
382.409	105.81
382.634	96.81
382.86	95.81
383.085	90.81
383.31	101.81
383.535	98.81
383.761	89.81
383.986	98.81
384.211	102.81
384.436	97.81
384.662	82.81
384.887	97.81
385.112	103.81
385.337	119.81
385.562	97.81
385.787	107.81
386.013	99.81
386.238	113.81
386.463	106.81
386.688	96.81
386.913	97.81
387.138	103.81
387.363	104.81
387.588	107.81
387.813	98.81
388.038	106.81
388.263	98.81
388.488	109.81
388.713	92.81
388.938	94.81
389.163	107.81
389.387	83.81
389.612	89.81
389.837	101.81
390.062	92.81
390.287	97.81
390.512	83.81
390.736	83.81
390.961	84.81
391.186	80.81
391.411	96.81
391.636	90.81
391.86	94.81
392.085	95.81
392.31	92.81
392.534	86.81
392.759	90.81
392.984	85.81
393.208	91.81
393.433	91.81
393.658	77.81
393.882	92.81
394.107	85.81
394.331	80.81
394.556	86.81
394.78	78.81
395.005	88.81
395.229	86.81
395.454	95.81
395.678	92.81
395.903	92.81
396.127	91.81
396.352	97.81
396.576	98.81
396.801	85.81
397.025	80.81
397.249	82.81
397.474	86.81
397.698	100.81
397.922	84.81
398.147	79.81
398.371	95.81
398.595	98.81
398.82	82.81
399.044	70.81
399.268	92.81
399.492	103.81
399.717	93.81
399.941	98.81
400.165	77.81
400.389	89.81
400.613	93.81
400.837	91.81
401.062	81.81
401.286	91.81
401.51	96.81
401.734	85.81
401.958	111.81
402.182	127.81
402.406	161.81
402.63	111.81
402.854	83.81
403.078	94.81
403.302	84.81
403.526	87.81
403.75	101.81
403.974	79.81
404.198	88.81
404.422	89.81
404.645	85.81
404.869	98.81
405.093	108.81
405.317	108.81
405.541	88.81
405.765	120.81
405.988	121.81
406.212	152.81
406.436	217.81
406.66	147.81
406.883	107.81
407.107	89.81
407.331	87.81
407.555	101.81
407.778	102.81
408.002	94.81
408.226	77.81
408.449	86.81
408.673	85.81
408.896	98.81
409.12	99.81
409.344	95.81
409.567	84.81
409.791	87.81
410.014	95.81
410.238	82.81
410.461	96.81
410.685	98.81
410.908	96.81
411.132	112.81
411.355	90.81
411.578	97.81
411.802	80.81
412.025	95.81
412.249	82.81
412.472	85.81
412.695	80.81
412.919	93.81
413.142	90.81
413.365	79.81
413.589	100.81
413.812	81.81
414.035	89.81
414.258	101.81
414.482	77.81
414.705	76.81
414.928	105.81
415.151	104.81
415.374	103.81
415.597	93.81
415.821	112.81
416.044	91.81
416.267	89.81
416.49	97.81
416.713	114.81
416.936	92.81
417.159	89.81
417.382	86.81
417.605	96.81
417.828	95.81
418.051	91.81
418.274	85.81
418.497	72.81
418.72	73.81
418.943	104.81
419.166	88.81
419.389	102.81
419.611	79.81
419.834	82.81
420.057	95.81
420.28	87.81
420.503	76.81
420.726	85.81
420.948	85.81
421.171	97.81
421.394	95.81
421.617	92.81
421.839	91.81
422.062	83.81
422.285	100.81
422.507	105.81
422.73	95.81
422.953	82.81
423.175	98.81
423.398	82.81
423.621	92.81
423.843	90.81
424.066	90.81
424.288	89.81
424.511	89.81
424.733	98.81
424.956	107.81
425.178	98.81
425.401	89.81
425.623	100.81
425.846	86.81
426.068	95.81
426.291	95.81
426.513	82.81
426.735	99.81
426.958	88.81
427.18	113.81
427.402	132.81
427.625	167.81
427.847	128.81
428.069	94.81
428.292	83.81
428.514	93.81
428.736	92.81
428.958	92.81
429.181	96.81
429.403	87.81
429.625	82.81
429.847	85.81
430.069	104.81
430.292	91.81
430.514	84.81
430.736	84.81
430.958	91.81
431.18	85.81
431.402	84.81
431.624	82.81
431.846	75.81
432.068	90.81
432.29	94.81
432.512	87.81
432.734	80.81
432.956	87.81
433.178	105.81
433.4	112.81
433.622	95.81
433.844	79.81
434.066	96.81
434.287	97.81
434.509	103.81
434.731	105.81
434.953	90.81
435.175	81.81
435.397	91.81
435.618	91.81
435.84	108.81
436.062	114.81
436.284	126.81
436.505	100.81
436.727	101.81
436.949	97.81
437.17	93.81
437.392	94.81
437.614	90.81
437.835	112.81
438.057	123.81
438.278	106.81
438.5	98.81
438.721	108.81
438.943	108.81
439.165	80.81
439.386	83.81
439.608	96.81
439.829	101.81
440.05	117.81
440.272	130.81
440.493	94.81
440.715	91.81
440.936	93.81
441.158	88.81
441.379	95.81
441.6	97.81
441.822	105.81
442.043	98.81
442.264	112.81
442.486	85.81
442.707	95.81
442.928	95.81
443.149	123.81
443.371	130.81
443.592	100.81
443.813	99.81
444.034	95.81
444.255	94.81
444.476	96.81
444.698	89.81
444.919	77.81
445.14	135.81
445.361	135.81
445.582	110.81
445.803	145.81
446.024	141.81
446.245	149.81
446.466	99.81
446.687	96.81
446.908	85.81
447.129	93.81
447.35	100.81
447.571	110.81
447.792	96.81
448.013	110.81
448.234	107.81
448.455	102.81
448.675	94.81
448.896	100.81
449.117	104.81
449.338	116.81
449.559	139.81
449.779	132.81
450	92.81
450.221	89.81
450.442	85.81
450.662	91.81
450.883	106.81
451.104	96.81
451.324	87.81
451.545	87.81
451.766	84.81
451.986	86.81
452.207	87.81
452.428	91.81
452.648	100.81
452.869	124.81
453.089	133.81
453.31	106.81
453.53	91.81
453.751	99.81
453.971	102.81
454.192	105.81
454.412	104.81
454.633	82.81
454.853	87.81
455.073	94.81
455.294	85.81
455.514	122.81
455.734	99.81
455.955	96.81
456.175	88.81
456.395	88.81
456.616	95.81
456.836	100.81
457.056	85.81
457.276	85.81
457.497	85.81
457.717	85.81
457.937	83.81
458.157	84.81
458.377	95.81
458.598	100.81
458.818	145.81
459.038	154.81
459.258	109.81
459.478	82.81
459.698	79.81
459.918	79.81
460.138	78.81
460.358	89.81
460.578	85.81
460.798	78.81
461.018	92.81
461.238	85.81
461.458	88.81
461.678	89.81
461.898	92.81
462.118	87.81
462.338	78.81
462.558	87.81
462.777	88.81
462.997	80.81
463.217	87.81
463.437	93.81
463.657	77.81
463.876	81.81
464.096	96.81
464.316	90.81
464.536	99.81
464.755	105.81
464.975	103.81
465.195	160.81
465.414	163.81
465.634	103.81
465.854	94.81
466.073	76.81
466.293	88.81
466.512	93.81
466.732	84.81
466.951	85.81
467.171	83.81
467.391	91.81
467.61	106.81
467.829	104.81
468.049	99.81
468.268	84.81
468.488	67.81
468.707	85.81
468.927	84.81
469.146	91.81
469.365	94.81
469.585	85.81
469.804	98.81
470.023	88.81
470.243	78.81
470.462	108.81
470.681	100.81
470.901	91.81
471.12	91.81
471.339	87.81
471.558	75.81
471.777	88.81
471.997	91.81
472.216	93.81
472.435	93.81
472.654	88.81
472.873	103.81
473.092	74.81
473.311	90.81
473.53	82.81
473.749	80.81
473.968	96.81
474.187	112.81
474.406	105.81
474.625	104.81
474.844	82.81
475.063	83.81
475.282	82.81
475.501	88.81
475.72	75.81
475.939	73.81
476.158	89.81
476.377	94.81
476.596	80.81
476.814	96.81
477.033	93.81
477.252	95.81
477.471	76.81
477.69	93.81
477.908	90.81
478.127	91.81
478.346	89.81
478.564	84.81
478.783	108.81
479.002	92.81
479.22	100.81
479.439	96.81
479.658	96.81
479.876	95.81
480.095	79.81
480.313	81.81
480.532	91.81
480.751	75.81
480.969	82.81
481.188	87.81
481.406	79.81
481.624	89.81
481.843	87.81
482.061	85.81
482.28	71.81
482.498	85.81
482.717	79.81
482.935	69.81
483.153	88.81
483.372	92.81
483.59	83.81
483.808	85.81
484.027	94.81
484.245	91.81
484.463	80.81
484.681	98.81
484.9	96.81
485.118	95.81
485.336	96.81
485.554	120.81
485.772	96.81
485.99	99.81
486.209	108.81
486.427	88.81
486.645	94.81
486.863	98.81
487.081	97.81
487.299	88.81
487.517	85.81
487.735	95.81
487.953	91.81
488.171	88.81
488.389	95.81
488.607	113.81
488.825	80.81
489.043	91.81
489.261	98.81
489.479	97.81
489.696	83.81
489.914	93.81
490.132	85.81
490.35	83.81
490.568	104.81
490.786	85.81
491.003	88.81
491.221	82.81
491.439	113.81
491.657	91.81
491.874	92.81
492.092	84.81
492.31	76.81
492.527	71.81
492.745	76.81
492.963	79.81
493.18	86.81
493.398	98.81
493.615	88.81
493.833	82.81
494.05	83.81
494.268	88.81
494.485	86.81
494.703	77.81
494.92	96.81
495.138	81.81
495.355	90.81
495.573	85.81
495.79	82.81
496.008	86.81
496.225	88.81
496.442	78.81
496.66	80.81
496.877	94.81
497.094	90.81
497.312	73.81
497.529	92.81
497.746	82.81
497.963	88.81
498.181	95.81
498.398	96.81
498.615	105.81
498.832	105.81
499.049	94.81
499.267	89.81
499.484	97.81
499.701	85.81
499.918	94.81
500.135	87.81
500.352	90.81
500.569	86.81
500.786	92.81
501.003	100.81
501.22	101.81
501.437	94.81
501.654	79.81
501.871	100.81
502.088	90.81
502.305	94.81
502.522	90.81
502.739	93.81
502.956	97.81
503.172	93.81
503.389	95.81
503.606	94.81
503.823	114.81
504.04	87.81
504.256	99.81
504.473	89.81
504.69	95.81
504.907	94.81
505.123	86.81
505.34	99.81
505.557	81.81
505.773	69.81
505.99	95.81
506.207	96.81
506.423	86.81
506.64	95.81
506.856	95.81
507.073	86.81
507.289	83.81
507.506	88.81
507.722	108.81
507.939	128.81
508.155	110.81
508.372	79.81
508.588	97.81
508.805	105.81
509.021	98.81
509.238	89.81
509.454	96.81
509.67	96.81
509.887	101.81
510.103	131.81
510.319	210.81
510.536	754.81
510.752	2339.81
510.968	642.81
511.184	156.81
511.401	109.81
511.617	105.81
511.833	91.81
512.049	85.81
512.265	84.81
512.481	77.81
512.698	84.81
512.914	85.81
513.13	92.81
513.346	85.81
513.562	86.81
513.778	92.81
513.994	101.81
514.21	98.81
514.426	123.81
514.642	129.81
514.858	116.81
515.074	165.81
515.29	436.81
515.506	1446.81
515.721	545.81
515.937	147.81
