Data from Uncirc_2007_H10_HRD10591_00088.txt Node
Date: Wed Jan 03 10:21:00 EST 2024
User: Yrep
Spectrometer: HR+D1059
Trigger mode: 1
Integration Time (sec): 1.000000E-1
Scans to average: 1
Electric dark correction enabled: true
Nonlinearity correction enabled: false
Boxcar width: 0
XAxis mode: Wavelengths
Number of Pixels in Spectrum: 2048
>>>>>Begin Spectral Data<<<<<
223.165	-13.62
223.4	-13.62
223.635	-13.62
223.869	-21.62
224.104	-19.62
224.338	-11.62
224.573	-19.62
224.808	-7.62
225.042	-9.62
225.277	3.38
225.511	-0.62
225.746	6.38
225.98	2.38
226.215	7.38
226.449	18.38
226.683	5.38
226.918	29.38
227.152	31.38
227.387	27.38
227.621	55.38
227.856	62.38
228.09	43.38
228.324	50.38
228.559	51.38
228.793	52.38
229.027	62.38
229.262	65.38
229.496	81.38
229.73	96.38
229.964	93.38
230.199	84.38
230.433	94.38
230.667	83.38
230.901	73.38
231.136	87.38
231.37	88.38
231.604	70.38
231.838	88.38
232.072	88.38
232.306	83.38
232.541	80.38
232.775	84.38
233.009	80.38
233.243	89.38
233.477	96.38
233.711	77.38
233.945	71.38
234.179	81.38
234.413	77.38
234.647	77.38
234.881	69.38
235.115	82.38
235.349	68.38
235.583	101.38
235.817	78.38
236.051	79.38
236.285	75.38
236.519	65.38
236.753	67.38
236.987	75.38
237.221	80.38
237.455	91.38
237.689	73.38
237.922	85.38
238.156	82.38
238.39	71.38
238.624	86.38
238.858	78.38
239.091	77.38
239.325	79.38
239.559	63.38
239.793	82.38
240.027	89.38
240.26	82.38
240.494	91.38
240.728	76.38
240.961	69.38
241.195	84.38
241.429	84.38
241.662	77.38
241.896	84.38
242.13	81.38
242.363	77.38
242.597	71.38
242.83	88.38
243.064	67.38
243.298	85.38
243.531	81.38
243.765	69.38
243.998	72.38
244.232	86.38
244.465	84.38
244.699	81.38
244.932	81.38
245.166	68.38
245.399	78.38
245.633	88.38
245.866	85.38
246.099	81.38
246.333	86.38
246.566	72.38
246.8	78.38
247.033	54.38
247.266	73.38
247.5	74.38
247.733	70.38
247.966	91.38
248.2	74.38
248.433	75.38
248.666	81.38
248.899	90.38
249.133	91.38
249.366	100.38
249.599	88.38
249.832	87.38
250.066	88.38
250.299	84.38
250.532	78.38
250.765	84.38
250.998	84.38
251.231	91.38
251.465	74.38
251.698	82.38
251.931	85.38
252.164	79.38
252.397	73.38
252.63	88.38
252.863	81.38
253.096	97.38
253.329	92.38
253.562	86.38
253.795	90.38
254.028	84.38
254.261	70.38
254.494	73.38
254.727	71.38
254.96	85.38
255.193	72.38
255.426	87.38
255.659	71.38
255.892	66.38
256.124	79.38
256.357	91.38
256.59	70.38
256.823	79.38
257.056	71.38
257.289	64.38
257.521	95.38
257.754	71.38
257.987	73.38
258.22	90.38
258.452	84.38
258.685	87.38
258.918	87.38
259.151	92.38
259.383	74.38
259.616	90.38
259.849	100.38
260.081	88.38
260.314	88.38
260.547	98.38
260.779	77.38
261.012	86.38
261.244	91.38
261.477	87.38
261.71	108.38
261.942	103.38
262.175	110.38
262.407	82.38
262.64	91.38
262.872	70.38
263.105	78.38
263.337	77.38
263.57	85.38
263.802	86.38
264.035	85.38
264.267	79.38
264.499	86.38
264.732	89.38
264.964	79.38
265.197	72.38
265.429	85.38
265.661	88.38
265.894	86.38
266.126	85.38
266.358	84.38
266.591	94.38
266.823	77.38
267.055	78.38
267.287	96.38
267.52	94.38
267.752	88.38
267.984	97.38
268.216	93.38
268.448	83.38
268.681	94.38
268.913	76.38
269.145	87.38
269.377	93.38
269.609	90.38
269.841	89.38
270.073	78.38
270.306	86.38
270.538	90.38
270.77	71.38
271.002	79.38
271.234	89.38
271.466	88.38
271.698	86.38
271.93	83.38
272.162	100.38
272.394	95.38
272.626	94.38
272.858	86.38
273.09	83.38
273.322	84.38
273.553	87.38
273.785	82.38
274.017	78.38
274.249	90.38
274.481	76.38
274.713	78.38
274.945	90.38
275.176	92.38
275.408	79.38
275.64	74.38
275.872	84.38
276.104	90.38
276.335	94.38
276.567	102.38
276.799	119.38
277.031	87.38
277.262	84.38
277.494	88.38
277.726	85.38
277.957	89.38
278.189	79.38
278.421	90.38
278.652	89.38
278.884	76.38
279.115	78.38
279.347	81.38
279.579	78.38
279.81	71.38
280.042	87.38
280.273	87.38
280.505	76.38
280.736	97.38
280.968	87.38
281.199	96.38
281.431	83.38
281.662	111.38
281.894	110.38
282.125	90.38
282.356	114.38
282.588	142.38
282.819	118.38
283.051	98.38
283.282	87.38
283.513	96.38
283.745	90.38
283.976	103.38
284.207	85.38
284.439	91.38
284.67	88.38
284.901	94.38
285.132	76.38
285.364	83.38
285.595	91.38
285.826	95.38
286.057	94.38
286.288	83.38
286.52	88.38
286.751	93.38
286.982	96.38
287.213	76.38
287.444	89.38
287.675	82.38
287.906	77.38
288.138	99.38
288.369	101.38
288.6	92.38
288.831	81.38
289.062	92.38
289.293	85.38
289.524	95.38
289.755	82.38
289.986	96.38
290.217	98.38
290.448	95.38
290.679	92.38
290.91	87.38
291.141	86.38
291.371	94.38
291.602	97.38
291.833	97.38
292.064	89.38
292.295	77.38
292.526	100.38
292.757	101.38
292.987	91.38
293.218	79.38
293.449	74.38
293.68	84.38
293.91	86.38
294.141	91.38
294.372	84.38
294.603	94.38
294.833	98.38
295.064	82.38
295.295	103.38
295.525	90.38
295.756	92.38
295.987	132.38
296.217	136.38
296.448	116.38
296.679	104.38
296.909	83.38
297.14	101.38
297.37	100.38
297.601	89.38
297.831	88.38
298.062	85.38
298.292	86.38
298.523	90.38
298.753	91.38
298.984	94.38
299.214	82.38
299.445	84.38
299.675	87.38
299.905	96.38
300.136	96.38
300.366	98.38
300.597	98.38
300.827	91.38
301.057	93.38
301.288	106.38
301.518	107.38
301.748	78.38
301.979	101.38
302.209	90.38
302.439	100.38
302.669	87.38
302.9	87.38
303.13	80.38
303.36	99.38
303.59	110.38
303.82	116.38
304.051	108.38
304.281	79.38
304.511	83.38
304.741	95.38
304.971	69.38
305.201	82.38
305.431	92.38
305.661	84.38
305.891	87.38
306.121	83.38
306.352	108.38
306.582	102.38
306.812	108.38
307.042	97.38
307.272	104.38
307.502	102.38
307.731	96.38
307.961	95.38
308.191	78.38
308.421	91.38
308.651	89.38
308.881	90.38
309.111	81.38
309.341	90.38
309.571	95.38
309.8	88.38
310.03	97.38
310.26	95.38
310.49	102.38
310.72	92.38
310.949	94.38
311.179	93.38
311.409	88.38
311.639	101.38
311.868	100.38
312.098	93.38
312.328	85.38
312.557	108.38
312.787	89.38
313.017	111.38
313.246	104.38
313.476	92.38
313.706	105.38
313.935	90.38
314.165	102.38
314.394	114.38
314.624	112.38
314.853	98.38
315.083	78.38
315.312	85.38
315.542	107.38
315.771	91.38
316.001	96.38
316.23	90.38
316.46	95.38
316.689	88.38
316.919	94.38
317.148	82.38
317.377	94.38
317.607	96.38
317.836	98.38
318.065	81.38
318.295	92.38
318.524	95.38
318.753	88.38
318.983	81.38
319.212	107.38
319.441	109.38
319.67	114.38
319.9	107.38
320.129	108.38
320.358	77.38
320.587	98.38
320.816	93.38
321.046	110.38
321.275	111.38
321.504	94.38
321.733	104.38
321.962	118.38
322.191	94.38
322.42	104.38
322.649	100.38
322.878	107.38
323.108	108.38
323.337	137.38
323.566	149.38
323.795	157.38
324.024	212.38
324.253	416.38
324.482	930.38
324.71	1928.38
324.939	2506.38
325.168	912.38
325.397	273.38
325.626	156.38
325.855	142.38
326.084	122.38
326.313	135.38
326.542	168.38
326.77	245.38
326.999	505.38
327.228	1054.38
327.457	1909.38
327.686	1542.38
327.914	400.38
328.143	213.38
328.372	162.38
328.6	109.38
328.829	106.38
329.058	128.38
329.287	123.38
329.515	117.38
329.744	101.38
329.972	102.38
330.201	103.38
330.43	119.38
330.658	112.38
330.887	144.38
331.115	116.38
331.344	95.38
331.572	118.38
331.801	101.38
332.03	106.38
332.258	92.38
332.486	94.38
332.715	86.38
332.943	79.38
333.172	111.38
333.4	98.38
333.629	116.38
333.857	119.38
334.085	101.38
334.314	85.38
334.542	110.38
334.771	96.38
334.999	91.38
335.227	107.38
335.455	97.38
335.684	96.38
335.912	99.38
336.14	103.38
336.369	98.38
336.597	92.38
336.825	114.38
337.053	103.38
337.281	102.38
337.51	104.38
337.738	109.38
337.966	107.38
338.194	100.38
338.422	98.38
338.65	103.38
338.878	90.38
339.106	75.38
339.334	91.38
339.562	93.38
339.79	91.38
340.018	95.38
340.246	88.38
340.474	89.38
340.702	99.38
340.93	99.38
341.158	93.38
341.386	101.38
341.614	104.38
341.842	98.38
342.07	114.38
342.298	91.38
342.526	93.38
342.754	91.38
342.981	102.38
343.209	97.38
343.437	99.38
343.665	88.38
343.893	86.38
344.12	93.38
344.348	91.38
344.576	93.38
344.804	82.38
345.031	104.38
345.259	90.38
345.487	109.38
345.714	84.38
345.942	99.38
346.17	91.38
346.397	102.38
346.625	95.38
346.853	84.38
347.08	77.38
347.308	99.38
347.535	105.38
347.763	115.38
347.99	100.38
348.218	98.38
348.445	105.38
348.673	101.38
348.9	103.38
349.128	98.38
349.355	104.38
349.583	102.38
349.81	91.38
350.037	104.38
350.265	101.38
350.492	91.38
350.72	101.38
350.947	92.38
351.174	100.38
351.402	117.38
351.629	108.38
351.856	108.38
352.083	111.38
352.311	113.38
352.538	107.38
352.765	111.38
352.992	130.38
353.22	112.38
353.447	104.38
353.674	110.38
353.901	103.38
354.128	90.38
354.355	99.38
354.583	113.38
354.81	113.38
355.037	85.38
355.264	105.38
355.491	98.38
355.718	111.38
355.945	100.38
356.172	96.38
356.399	100.38
356.626	91.38
356.853	93.38
357.08	101.38
357.307	98.38
357.534	97.38
357.761	98.38
357.988	103.38
358.215	84.38
358.441	94.38
358.668	101.38
358.895	106.38
359.122	86.38
359.349	89.38
359.576	99.38
359.802	109.38
360.029	106.38
360.256	106.38
360.483	118.38
360.709	96.38
360.936	101.38
361.163	86.38
361.39	103.38
361.616	103.38
361.843	91.38
362.07	91.38
362.296	102.38
362.523	94.38
362.749	93.38
362.976	81.38
363.203	104.38
363.429	87.38
363.656	100.38
363.882	94.38
364.109	110.38
364.335	82.38
364.562	91.38
364.788	108.38
365.015	86.38
365.241	110.38
365.468	111.38
365.694	103.38
365.92	95.38
366.147	96.38
366.373	92.38
366.599	107.38
366.826	100.38
367.052	88.38
367.278	86.38
367.505	103.38
367.731	85.38
367.957	81.38
368.184	84.38
368.41	102.38
368.636	119.38
368.862	122.38
369.089	106.38
369.315	95.38
369.541	96.38
369.767	92.38
369.993	88.38
370.219	81.38
370.445	86.38
370.672	94.38
370.898	91.38
371.124	94.38
371.35	99.38
371.576	93.38
371.802	77.38
372.028	92.38
372.254	84.38
372.48	93.38
372.706	72.38
372.932	98.38
373.158	87.38
373.384	95.38
373.61	88.38
373.835	89.38
374.061	91.38
374.287	111.38
374.513	85.38
374.739	98.38
374.965	82.38
375.191	82.38
375.416	79.38
375.642	92.38
375.868	92.38
376.094	72.38
376.319	98.38
376.545	82.38
376.771	94.38
376.997	92.38
377.222	75.38
377.448	81.38
377.674	78.38
377.899	90.38
378.125	85.38
378.35	97.38
378.576	94.38
378.802	94.38
379.027	98.38
379.253	88.38
379.478	101.38
379.704	91.38
379.929	103.38
380.155	104.38
380.38	100.38
380.606	100.38
380.831	85.38
381.057	107.38
381.282	116.38
381.507	82.38
381.733	88.38
381.958	102.38
382.184	103.38
382.409	107.38
382.634	109.38
382.86	112.38
383.085	98.38
383.31	107.38
383.535	102.38
383.761	84.38
383.986	103.38
384.211	98.38
384.436	94.38
384.662	91.38
384.887	104.38
385.112	94.38
385.337	112.38
385.562	102.38
385.787	95.38
386.013	90.38
386.238	106.38
386.463	116.38
386.688	123.38
386.913	111.38
387.138	110.38
387.363	111.38
387.588	93.38
387.813	94.38
388.038	93.38
388.263	94.38
388.488	102.38
388.713	112.38
388.938	98.38
389.163	117.38
389.387	96.38
389.612	101.38
389.837	95.38
390.062	97.38
390.287	97.38
390.512	106.38
390.736	109.38
390.961	94.38
391.186	97.38
391.411	94.38
391.636	100.38
391.86	103.38
392.085	91.38
392.31	83.38
392.534	101.38
392.759	92.38
392.984	91.38
393.208	85.38
393.433	88.38
393.658	86.38
393.882	101.38
394.107	94.38
394.331	91.38
394.556	81.38
394.78	83.38
395.005	92.38
395.229	84.38
395.454	88.38
395.678	81.38
395.903	75.38
396.127	85.38
396.352	84.38
396.576	93.38
396.801	84.38
397.025	86.38
397.249	76.38
397.474	90.38
397.698	90.38
397.922	107.38
398.147	96.38
398.371	88.38
398.595	77.38
398.82	90.38
399.044	78.38
399.268	94.38
399.492	104.38
399.717	98.38
399.941	106.38
400.165	97.38
400.389	107.38
400.613	85.38
400.837	106.38
401.062	87.38
401.286	96.38
401.51	98.38
401.734	103.38
401.958	112.38
402.182	139.38
402.406	151.38
402.63	119.38
402.854	102.38
403.078	92.38
403.302	84.38
403.526	87.38
403.75	99.38
403.974	103.38
404.198	101.38
404.422	95.38
404.645	103.38
404.869	90.38
405.093	95.38
405.317	105.38
405.541	78.38
405.765	102.38
405.988	130.38
406.212	183.38
406.436	237.38
406.66	165.38
406.883	106.38
407.107	87.38
407.331	93.38
407.555	85.38
407.778	101.38
408.002	95.38
408.226	87.38
408.449	85.38
408.673	67.38
408.896	98.38
409.12	93.38
409.344	98.38
409.567	90.38
409.791	101.38
410.014	101.38
410.238	93.38
410.461	71.38
410.685	101.38
410.908	107.38
411.132	98.38
411.355	92.38
411.578	100.38
411.802	102.38
412.025	85.38
412.249	99.38
412.472	84.38
412.695	87.38
412.919	78.38
413.142	95.38
413.365	92.38
413.589	99.38
413.812	101.38
414.035	99.38
414.258	88.38
414.482	108.38
414.705	93.38
414.928	90.38
415.151	86.38
415.374	99.38
415.597	88.38
415.821	99.38
416.044	86.38
416.267	101.38
416.49	98.38
416.713	96.38
416.936	95.38
417.159	80.38
417.382	90.38
417.605	86.38
417.828	98.38
418.051	91.38
418.274	77.38
418.497	79.38
418.72	91.38
418.943	81.38
419.166	87.38
419.389	88.38
419.611	90.38
419.834	96.38
420.057	86.38
420.28	85.38
420.503	80.38
420.726	85.38
420.948	92.38
421.171	88.38
421.394	98.38
421.617	103.38
421.839	95.38
422.062	88.38
422.285	102.38
422.507	100.38
422.73	110.38
422.953	82.38
423.175	91.38
423.398	96.38
423.621	100.38
423.843	73.38
424.066	101.38
424.288	75.38
424.511	94.38
424.733	95.38
424.956	112.38
425.178	92.38
425.401	106.38
425.623	95.38
425.846	101.38
426.068	101.38
426.291	107.38
426.513	87.38
426.735	100.38
426.958	86.38
427.18	104.38
427.402	120.38
427.625	166.38
427.847	134.38
428.069	118.38
428.292	90.38
428.514	85.38
428.736	94.38
428.958	99.38
429.181	99.38
429.403	76.38
429.625	82.38
429.847	116.38
430.069	102.38
430.292	91.38
430.514	95.38
430.736	92.38
430.958	89.38
431.18	91.38
431.402	87.38
431.624	95.38
431.846	95.38
432.068	85.38
432.29	96.38
432.512	82.38
432.734	94.38
432.956	88.38
433.178	93.38
433.4	110.38
433.622	90.38
433.844	78.38
434.066	88.38
434.287	92.38
434.509	99.38
434.731	106.38
434.953	76.38
435.175	79.38
435.397	89.38
435.618	83.38
435.84	97.38
436.062	132.38
436.284	133.38
436.505	104.38
436.727	110.38
436.949	101.38
437.17	91.38
437.392	85.38
437.614	105.38
437.835	127.38
438.057	124.38
438.278	110.38
438.5	114.38
438.721	122.38
438.943	115.38
439.165	78.38
439.386	85.38
439.608	112.38
439.829	105.38
440.05	122.38
440.272	152.38
440.493	96.38
440.715	99.38
440.936	84.38
441.158	84.38
441.379	83.38
441.6	110.38
441.822	108.38
442.043	110.38
442.264	107.38
442.486	112.38
442.707	102.38
442.928	95.38
443.149	129.38
443.371	134.38
443.592	116.38
443.813	109.38
444.034	111.38
444.255	87.38
444.476	95.38
444.698	83.38
444.919	95.38
445.14	132.38
445.361	130.38
445.582	125.38
445.803	134.38
446.024	149.38
446.245	131.38
446.466	135.38
446.687	95.38
446.908	100.38
447.129	96.38
447.35	99.38
447.571	87.38
447.792	95.38
448.013	107.38
448.234	117.38
448.455	117.38
448.675	118.38
448.896	118.38
449.117	102.38
449.338	104.38
449.559	118.38
449.779	154.38
450	100.38
450.221	86.38
450.442	103.38
450.662	94.38
450.883	91.38
451.104	119.38
451.324	92.38
451.545	83.38
451.766	100.38
451.986	83.38
452.207	93.38
452.428	101.38
452.648	100.38
452.869	100.38
453.089	124.38
453.31	110.38
453.53	90.38
453.751	89.38
453.971	119.38
454.192	100.38
454.412	97.38
454.633	94.38
454.853	104.38
455.073	85.38
455.294	98.38
455.514	94.38
455.734	82.38
455.955	82.38
456.175	86.38
456.395	91.38
456.616	87.38
456.836	93.38
457.056	95.38
457.276	93.38
457.497	97.38
457.717	90.38
457.937	93.38
458.157	75.38
458.377	94.38
458.598	93.38
458.818	152.38
459.038	152.38
459.258	110.38
459.478	93.38
459.698	86.38
459.918	94.38
460.138	90.38
460.358	85.38
460.578	103.38
460.798	85.38
461.018	89.38
461.238	94.38
461.458	88.38
461.678	70.38
461.898	74.38
462.118	77.38
462.338	86.38
462.558	91.38
462.777	89.38
462.997	97.38
463.217	72.38
463.437	85.38
463.657	88.38
463.876	86.38
464.096	92.38
464.316	87.38
464.536	100.38
464.755	106.38
464.975	103.38
465.195	171.38
465.414	162.38
465.634	100.38
465.854	95.38
466.073	93.38
466.293	84.38
466.512	93.38
466.732	89.38
466.951	93.38
467.171	102.38
467.391	100.38
467.61	103.38
467.829	90.38
468.049	100.38
468.268	83.38
468.488	84.38
468.707	99.38
468.927	80.38
469.146	93.38
469.365	87.38
469.585	84.38
469.804	78.38
470.023	99.38
470.243	102.38
470.462	99.38
470.681	111.38
470.901	91.38
471.12	100.38
471.339	99.38
471.558	100.38
471.777	90.38
471.997	86.38
472.216	94.38
472.435	96.38
472.654	88.38
472.873	94.38
473.092	94.38
473.311	73.38
473.53	81.38
473.749	94.38
473.968	86.38
474.187	99.38
474.406	88.38
474.625	91.38
474.844	91.38
475.063	99.38
475.282	96.38
475.501	84.38
475.72	84.38
475.939	95.38
476.158	92.38
476.377	92.38
476.596	100.38
476.814	88.38
477.033	99.38
477.252	83.38
477.471	95.38
477.69	98.38
477.908	80.38
478.127	105.38
478.346	87.38
478.564	106.38
478.783	98.38
479.002	106.38
479.22	94.38
479.439	100.38
479.658	114.38
479.876	86.38
480.095	102.38
480.313	97.38
480.532	92.38
480.751	106.38
480.969	87.38
481.188	101.38
481.406	88.38
481.624	84.38
481.843	89.38
482.061	84.38
482.28	97.38
482.498	100.38
482.717	78.38
482.935	86.38
483.153	80.38
483.372	89.38
483.59	92.38
483.808	88.38
484.027	91.38
484.245	88.38
484.463	90.38
484.681	96.38
484.9	101.38
485.118	89.38
485.336	98.38
485.554	94.38
485.772	84.38
485.99	113.38
486.209	99.38
486.427	98.38
486.645	116.38
486.863	131.38
487.081	100.38
487.299	92.38
487.517	97.38
487.735	100.38
487.953	100.38
488.171	88.38
488.389	100.38
488.607	88.38
488.825	99.38
489.043	85.38
489.261	91.38
489.479	96.38
489.696	105.38
489.914	95.38
490.132	93.38
490.35	93.38
490.568	83.38
490.786	87.38
491.003	105.38
491.221	94.38
491.439	65.38
491.657	96.38
491.874	92.38
492.092	92.38
492.31	97.38
492.527	87.38
492.745	79.38
492.963	94.38
493.18	90.38
493.398	95.38
493.615	93.38
493.833	94.38
494.05	89.38
494.268	78.38
494.485	87.38
494.703	86.38
494.92	85.38
495.138	97.38
495.355	100.38
495.573	84.38
495.79	88.38
496.008	94.38
496.225	96.38
496.442	79.38
496.66	90.38
496.877	90.38
497.094	87.38
497.312	97.38
497.529	94.38
497.746	94.38
497.963	100.38
498.181	98.38
498.398	87.38
498.615	109.38
498.832	101.38
499.049	85.38
499.267	92.38
499.484	98.38
499.701	96.38
499.918	97.38
500.135	98.38
500.352	82.38
500.569	95.38
500.786	87.38
501.003	93.38
501.22	84.38
501.437	105.38
501.654	96.38
501.871	108.38
502.088	91.38
502.305	86.38
502.522	82.38
502.739	96.38
502.956	92.38
503.172	82.38
503.389	88.38
503.606	121.38
503.823	103.38
504.04	94.38
504.256	95.38
504.473	88.38
504.69	103.38
504.907	102.38
505.123	98.38
505.34	98.38
505.557	94.38
505.773	99.38
505.99	102.38
506.207	94.38
506.423	101.38
506.64	93.38
506.856	83.38
507.073	93.38
507.289	87.38
507.506	96.38
507.722	113.38
507.939	119.38
508.155	112.38
508.372	87.38
508.588	100.38
508.805	103.38
509.021	112.38
509.238	93.38
509.454	102.38
509.67	104.38
509.887	108.38
510.103	142.38
510.319	213.38
510.536	819.38
510.752	2741.38
510.968	771.38
511.184	166.38
511.401	111.38
511.617	113.38
511.833	103.38
512.049	96.38
512.265	98.38
512.481	93.38
512.698	89.38
512.914	98.38
513.13	110.38
513.346	97.38
513.562	96.38
513.778	101.38
513.994	105.38
514.21	102.38
514.426	111.38
