Data from Uncirc_2007_H10_HRD10591_00004.txt Node
Date: Wed Jan 03 10:20:43 EST 2024
User: Yrep
Spectrometer: HR+D1059
Trigger mode: 1
Integration Time (sec): 1.000000E-1
Scans to average: 1
Electric dark correction enabled: true
Nonlinearity correction enabled: false
Boxcar width: 0
XAxis mode: Wavelengths
Number of Pixels in Spectrum: 2048
>>>>>Begin Spectral Data<<<<<
223.165	-19.38
223.4	-19.38
223.635	-19.38
223.869	-9.38
224.104	-17.38
224.338	-20.38
224.573	-14.38
224.808	-14.38
225.042	0.62
225.277	1.62
225.511	-0.38
225.746	9.62
225.98	-2.38
226.215	8.62
226.449	13.62
226.683	23.62
226.918	21.62
227.152	18.62
227.387	31.62
227.621	41.62
227.856	31.62
228.09	56.62
228.324	46.62
228.559	58.62
228.793	162.62
229.027	449.62
229.262	524.62
229.496	619.62
229.73	835.62
229.964	821.62
230.199	563.62
230.433	480.62
230.667	493.62
230.901	471.62
231.136	462.62
231.37	467.62
231.604	461.62
231.838	469.62
232.072	442.62
232.306	469.62
232.541	456.62
232.775	476.62
233.009	472.62
233.243	483.62
233.477	475.62
233.711	494.62
233.945	530.62
234.179	522.62
234.413	520.62
234.647	519.62
234.881	517.62
235.115	552.62
235.349	578.62
235.583	584.62
235.817	619.62
236.051	647.62
236.285	631.62
236.519	640.62
236.753	723.62
236.987	949.62
237.221	1445.62
237.455	1558.62
237.689	934.62
237.922	756.62
238.156	729.62
238.39	690.62
238.624	633.62
238.858	660.62
239.091	662.62
239.325	676.62
239.559	690.62
239.793	738.62
240.027	781.62
240.26	948.62
240.494	983.62
240.728	980.62
240.961	925.62
241.195	828.62
241.429	830.62
241.662	764.62
241.896	803.62
242.13	769.62
242.363	773.62
242.597	818.62
242.83	853.62
243.064	826.62
243.298	838.62
243.531	810.62
243.765	847.62
243.998	853.62
244.232	865.62
244.465	888.62
244.699	936.62
244.932	891.62
245.166	919.62
245.399	909.62
245.633	944.62
245.866	912.62
246.099	932.62
246.333	945.62
246.566	965.62
246.8	952.62
247.033	1039.62
247.266	1053.62
247.5	1170.62
247.733	1178.62
247.966	1168.62
248.2	1178.62
248.433	1183.62
248.666	1291.62
248.899	1392.62
249.133	1507.62
249.366	1470.62
249.599	1345.62
249.832	1260.62
250.066	1244.62
250.299	1242.62
250.532	1358.62
250.765	1551.62
250.998	1785.62
251.231	1680.62
251.465	1516.62
251.698	1464.62
251.931	1421.62
252.164	1420.62
252.397	1452.62
252.63	1498.62
252.863	1574.62
253.096	1686.62
253.329	1818.62
253.562	1694.62
253.795	1640.62
254.028	1599.62
254.261	1647.62
254.494	1859.62
254.727	2266.62
254.96	2344.62
255.193	2030.62
255.426	1751.62
255.659	1659.62
255.892	1641.62
256.124	1556.62
256.357	1568.62
256.59	1495.62
256.823	1535.62
257.056	1534.62
257.289	1574.62
257.521	1564.62
257.754	1545.62
257.987	1544.62
258.22	1574.62
258.452	1557.62
258.685	1583.62
258.918	1588.62
259.151	1679.62
259.383	1738.62
259.616	1750.62
259.849	1813.62
260.081	1984.62
260.314	2202.62
260.547	2123.62
260.779	1908.62
261.012	1793.62
261.244	1786.62
261.477	1739.62
261.71	1745.62
261.942	1793.62
262.175	1816.62
262.407	1694.62
262.64	1685.62
262.872	1666.62
263.105	1717.62
263.337	1692.62
263.57	1709.62
263.802	1689.62
264.035	1727.62
264.267	1695.62
264.499	1673.62
264.732	1744.62
264.964	1710.62
265.197	1736.62
265.429	1748.62
265.661	1758.62
265.894	1761.62
266.126	1773.62
266.358	1808.62
266.591	1784.62
266.823	1898.62
267.055	1890.62
267.287	1919.62
267.52	1865.62
267.752	1878.62
267.984	1907.62
268.216	1886.62
268.448	1959.62
268.681	2007.62
268.913	2202.62
269.145	2376.62
269.377	2514.62
269.609	2320.62
269.841	2289.62
270.073	2454.62
270.306	2710.62
270.538	2968.62
270.77	2780.62
271.002	2541.62
271.234	2555.62
271.466	2682.62
271.698	2876.62
271.93	2830.62
272.162	2884.62
272.394	2776.62
272.626	2586.62
272.858	2433.62
273.09	2333.62
273.322	2344.62
273.553	2301.62
273.785	2280.62
274.017	2324.62
274.249	2338.62
274.481	2318.62
274.713	2352.62
274.945	2339.62
275.176	2362.62
275.408	2282.62
275.64	2307.62
275.872	2269.62
276.104	2355.62
276.335	2365.62
276.567	2468.62
276.799	2635.62
277.031	2853.62
277.262	2976.62
277.494	2821.62
277.726	2657.62
277.957	2580.62
278.189	2482.62
278.421	2464.62
278.652	2394.62
278.884	2456.62
279.115	2409.62
279.347	2390.62
279.579	2413.62
279.81	2389.62
280.042	2405.62
280.273	2395.62
280.505	2403.62
280.736	2399.62
280.968	2461.62
281.199	2471.62
281.431	2468.62
281.662	2502.62
281.894	2513.62
282.125	2570.62
282.356	2753.62
282.588	2884.62
282.819	2752.62
283.051	2576.62
283.282	2570.62
283.513	2635.62
283.745	2625.62
283.976	2686.62
284.207	2700.62
284.439	2676.62
284.67	2690.62
284.901	2661.62
285.132	2657.62
285.364	2700.62
285.595	2657.62
285.826	2712.62
286.057	2676.62
286.288	2701.62
286.52	2746.62
286.751	2725.62
286.982	2755.62
287.213	2749.62
287.444	2802.62
287.675	2907.62
287.906	3002.62
288.138	3039.62
288.369	2999.62
288.6	3039.62
288.831	2919.62
289.062	2894.62
289.293	2947.62
289.524	2866.62
289.755	2830.62
289.986	2824.62
290.217	2899.62
290.448	2859.62
290.679	2879.62
290.91	2844.62
291.141	2851.62
291.371	2851.62
291.602	2882.62
291.833	2838.62
292.064	2850.62
292.295	2848.62
292.526	2881.62
292.757	2920.62
292.987	2900.62
293.218	2831.62
293.449	2976.62
293.68	2975.62
293.91	2932.62
294.141	2862.62
294.372	2866.62
294.603	2958.62
294.833	2907.62
295.064	2894.62
295.295	2977.62
295.525	2921.62
295.756	3017.62
295.987	3081.62
296.217	3282.62
296.448	3192.62
296.679	3034.62
296.909	2963.62
297.14	2985.62
297.37	3081.62
297.601	3161.62
297.831	3083.62
298.062	3095.62
298.292	3137.62
298.523	3177.62
298.753	3229.62
298.984	3180.62
299.214	3137.62
299.445	3186.62
299.675	3161.62
299.905	3269.62
300.136	3197.62
300.366	3186.62
300.597	3219.62
300.827	3352.62
301.057	3415.62
301.288	3442.62
301.518	3360.62
301.748	3394.62
301.979	3496.62
302.209	3448.62
302.439	3441.62
302.669	3424.62
302.9	3355.62
303.13	3361.62
303.36	3485.62
303.59	3477.62
303.82	3463.62
304.051	3501.62
304.281	3373.62
304.511	3323.62
304.741	3364.62
304.971	3313.62
305.201	3341.62
305.431	3332.62
305.661	3435.62
305.891	3328.62
306.121	3358.62
306.352	3386.62
306.582	3339.62
306.812	3326.62
307.042	3304.62
307.272	3372.62
307.502	3274.62
307.731	3398.62
307.961	3363.62
308.191	3359.62
308.421	3317.62
308.651	3389.62
308.881	3300.62
309.111	3478.62
309.341	3454.62
309.571	3548.62
309.8	3565.62
310.03	3743.62
310.26	3659.62
310.49	3660.62
310.72	3803.62
310.949	3837.62
311.179	3804.62
311.409	3689.62
311.639	3672.62
311.868	3793.62
312.098	3824.62
312.328	3858.62
312.557	4029.62
312.787	4051.62
313.017	3999.62
313.246	3891.62
313.476	3773.62
313.706	3861.62
313.935	3972.62
314.165	4027.62
314.394	4088.62
314.624	4064.62
314.853	3960.62
315.083	3872.62
315.312	3827.62
315.542	3843.62
315.771	3805.62
316.001	3776.62
316.23	3797.62
316.46	3775.62
316.689	3827.62
316.919	3805.62
317.148	3877.62
317.377	3868.62
317.607	3844.62
317.836	3744.62
318.065	3737.62
318.295	3755.62
318.524	3763.62
318.753	3699.62
318.983	3718.62
319.212	3763.62
319.441	3840.62
319.67	3820.62
319.9	3720.62
320.129	3765.62
320.358	3786.62
320.587	3857.62
320.816	3927.62
321.046	3932.62
321.275	3901.62
321.504	3931.62
321.733	3962.62
321.962	4056.62
322.191	4105.62
322.42	4180.62
322.649	4249.62
322.878	4345.62
323.108	4435.62
323.337	4671.62
323.566	4787.62
323.795	5073.62
324.024	5769.62
324.253	7595.62
324.482	11490.62
324.71	15606.62
324.939	15606.62
325.168	13476.62
325.397	6868.62
325.626	5349.62
325.855	5022.62
326.084	4876.62
326.313	4902.62
326.542	5082.62
326.77	5751.62
326.999	7316.62
327.228	10761.62
327.457	14723.62
327.686	14034.62
327.914	7612.62
328.143	5933.62
328.372	5517.62
328.6	5291.62
328.829	5335.62
329.058	5481.62
329.287	5470.62
329.515	5061.62
329.744	4890.62
329.972	4802.62
330.201	4897.62
330.43	5183.62
330.658	5510.62
330.887	5873.62
331.115	5515.62
331.344	5088.62
331.572	5052.62
331.801	5127.62
332.03	5050.62
332.258	5033.62
332.486	5078.62
332.715	5041.62
332.943	5284.62
333.172	5386.62
333.4	5533.62
333.629	5665.62
333.857	5722.62
334.085	5586.62
334.314	5486.62
334.542	5445.62
334.771	5370.62
334.999	5331.62
335.227	5321.62
335.455	5208.62
335.684	5076.62
335.912	5130.62
336.14	5021.62
336.369	5027.62
336.597	5104.62
336.825	5029.62
337.053	4936.62
337.281	4850.62
337.51	4852.62
337.738	4876.62
337.966	4822.62
338.194	4783.62
338.422	4744.62
338.65	4659.62
338.878	4705.62
339.106	4673.62
339.334	4653.62
339.562	4470.62
339.79	4461.62
340.018	4491.62
340.246	4506.62
340.474	4522.62
340.702	4513.62
340.93	4528.62
341.158	4509.62
341.386	4507.62
341.614	4513.62
341.842	4494.62
342.07	4413.62
342.298	4430.62
342.526	4412.62
342.754	4361.62
342.981	4415.62
343.209	4522.62
343.437	4756.62
343.665	5108.62
343.893	5353.62
344.12	5307.62
344.348	5042.62
344.576	4833.62
344.804	4876.62
345.031	4781.62
345.259	4718.62
345.487	4577.62
345.714	4488.62
345.942	4453.62
346.17	4340.62
346.397	4356.62
346.625	4277.62
346.853	4252.62
347.08	4314.62
347.308	4352.62
347.535	4332.62
347.763	4428.62
347.99	4377.62
348.218	4373.62
348.445	4454.62
348.673	4344.62
348.9	4284.62
349.128	4212.62
349.355	4236.62
349.583	4222.62
349.81	4207.62
350.037	4174.62
350.265	4120.62
350.492	4152.62
350.72	4187.62
350.947	4260.62
351.174	4309.62
351.402	4372.62
351.629	4293.62
351.856	4309.62
352.083	4333.62
352.311	4370.62
352.538	4333.62
352.765	4334.62
352.992	4284.62
353.22	4215.62
353.447	4146.62
353.674	4093.62
353.901	4095.62
354.128	4082.62
354.355	4035.62
354.583	4081.62
354.81	4092.62
355.037	4068.62
355.264	4062.62
355.491	4057.62
355.718	4071.62
355.945	4035.62
356.172	4078.62
356.399	4096.62
356.626	4051.62
356.853	4073.62
357.08	3996.62
357.307	4062.62
357.534	4059.62
357.761	4067.62
357.988	4107.62
358.215	4120.62
358.441	4117.62
358.668	4082.62
358.895	4154.62
359.122	4225.62
359.349	4296.62
359.576	4442.62
359.802	4558.62
360.029	4734.62
360.256	4672.62
360.483	4551.62
360.709	4382.62
360.936	4291.62
361.163	4326.62
361.39	4347.62
361.616	4321.62
361.843	4312.62
362.07	4316.62
362.296	4273.62
362.523	4238.62
362.749	4308.62
362.976	4199.62
363.203	4167.62
363.429	4185.62
363.656	4175.62
363.882	4128.62
364.109	4131.62
364.335	4101.62
364.562	4067.62
364.788	4102.62
365.015	4149.62
365.241	4202.62
365.468	4244.62
365.694	4236.62
365.92	4185.62
366.147	4182.62
366.373	4213.62
366.599	4149.62
366.826	4121.62
367.052	4088.62
367.278	4158.62
367.505	4156.62
367.731	4213.62
367.957	4204.62
368.184	4178.62
368.41	4311.62
368.636	4372.62
368.862	4321.62
369.089	4275.62
369.315	4248.62
369.541	4245.62
369.767	4298.62
369.993	4229.62
370.219	4301.62
370.445	4335.62
370.672	4329.62
370.898	4293.62
371.124	4338.62
371.35	4431.62
371.576	4386.62
371.802	4362.62
372.028	4366.62
372.254	4320.62
372.48	4405.62
372.706	4569.62
372.932	4616.62
373.158	4501.62
373.384	4454.62
373.61	4453.62
373.835	4414.62
374.061	4505.62
374.287	4593.62
374.513	4628.62
374.739	4745.62
374.965	4900.62
375.191	4852.62
375.416	4788.62
375.642	4578.62
375.868	4595.62
376.094	4536.62
376.319	4529.62
376.545	4527.62
376.771	4485.62
376.997	4361.62
377.222	4450.62
377.448	4430.62
377.674	4393.62
377.899	4339.62
378.125	4432.62
378.35	4410.62
378.576	4353.62
378.802	4331.62
379.027	4410.62
379.253	4365.62
379.478	4330.62
379.704	4394.62
379.929	4390.62
380.155	4400.62
380.38	4408.62
380.606	4453.62
380.831	4441.62
381.057	4474.62
381.282	4483.62
381.507	4465.62
381.733	4516.62
381.958	4557.62
382.184	4614.62
382.409	4675.62
382.634	4652.62
382.86	4642.62
383.085	4704.62
383.31	4870.62
383.535	4916.62
383.761	4891.62
383.986	4987.62
384.211	5070.62
384.436	5147.62
384.662	5207.62
384.887	5292.62
385.112	5217.62
385.337	5378.62
385.562	5348.62
385.787	5373.62
386.013	5513.62
386.238	5456.62
386.463	5440.62
386.688	5400.62
386.913	5296.62
387.138	5290.62
387.363	5337.62
387.588	5288.62
387.813	5242.62
388.038	5333.62
388.263	5327.62
388.488	5324.62
388.713	5246.62
388.938	5268.62
389.163	5266.62
389.387	5299.62
389.612	5225.62
389.837	5276.62
390.062	5231.62
390.287	5245.62
390.512	5200.62
390.736	5364.62
390.961	5384.62
391.186	5402.62
391.411	5662.62
391.636	5780.62
391.86	5875.62
392.085	5978.62
392.31	5830.62
392.534	5753.62
392.759	5566.62
392.984	5594.62
393.208	5506.62
393.433	5496.62
393.658	5485.62
393.882	5492.62
394.107	5522.62
394.331	5567.62
394.556	5488.62
394.78	5594.62
395.005	5682.62
395.229	5694.62
395.454	5877.62
395.678	5915.62
395.903	6013.62
396.127	6031.62
396.352	5802.62
396.576	5626.62
396.801	5685.62
397.025	5668.62
397.249	5828.62
397.474	5964.62
397.698	6026.62
397.922	6127.62
398.147	6282.62
398.371	6342.62
398.595	6443.62
398.82	6862.62
399.044	7354.62
399.268	8061.62
399.492	9256.62
399.717	9798.62
399.941	9549.62
400.165	8962.62
400.389	8344.62
400.613	7515.62
400.837	7039.62
401.062	6798.62
401.286	6700.62
401.51	6735.62
401.734	6639.62
401.958	6840.62
402.182	6932.62
402.406	7059.62
402.63	7113.62
402.854	7207.62
403.078	7339.62
403.302	7451.62
403.526	7624.62
403.75	7596.62
403.974	7676.62
404.198	7544.62
404.422	7700.62
404.645	7566.62
404.869	7548.62
405.093	7642.62
405.317	7668.62
405.541	7713.62
405.765	7451.62
405.988	7436.62
406.212	7525.62
406.436	7776.62
406.66	7944.62
406.883	7963.62
407.107	8642.62
407.331	9181.62
407.555	9658.62
407.778	9266.62
408.002	8494.62
408.226	8129.62
408.449	7992.62
408.673	7841.62
408.896	8021.62
409.12	8178.62
409.344	7624.62
409.567	7356.62
409.791	7357.62
410.014	7210.62
410.238	7059.62
410.461	7159.62
410.685	7230.62
410.908	7341.62
411.132	7584.62
411.355	7643.62
411.578	7222.62
411.802	6953.62
412.025	6875.62
412.249	6970.62
412.472	6840.62
412.695	6780.62
412.919	6603.62
413.142	6568.62
413.365	6546.62
413.589	6582.62
413.812	6560.62
414.035	6397.62
414.258	6478.62
414.482	6617.62
414.705	6634.62
414.928	6599.62
415.151	6507.62
415.374	6541.62
415.597	6559.62
415.821	6317.62
416.044	6524.62
416.267	6482.62
416.49	6341.62
416.713	6397.62
416.936	6495.62
417.159	6410.62
417.382	6519.62
417.605	6511.62
417.828	6689.62
418.051	6842.62
418.274	6739.62
418.497	6582.62
418.72	6711.62
418.943	6709.62
419.166	7084.62
419.389	7481.62
419.611	7324.62
419.834	7115.62
420.057	7004.62
420.28	6692.62
420.503	6647.62
420.726	6635.62
420.948	6880.62
421.171	7269.62
421.394	7249.62
421.617	6769.62
421.839	6653.62
422.062	6829.62
422.285	6971.62
422.507	7660.62
422.73	8277.62
422.953	7684.62
423.175	7203.62
423.398	7219.62
423.621	7225.62
423.843	7448.62
424.066	7367.62
424.288	7348.62
424.511	7473.62
424.733	8085.62
424.956	8587.62
425.178	8005.62
425.401	8259.62
425.623	8074.62
425.846	7040.62
426.068	6821.62
426.291	6722.62
426.513	6805.62
426.735	6876.62
426.958	7389.62
427.18	8178.62
427.402	9386.62
427.625	9406.62
427.847	7788.62
428.069	6937.62
428.292	6608.62
428.514	6268.62
428.736	6216.62
428.958	6147.62
429.181	5968.62
429.403	5962.62
429.625	6224.62
429.847	6594.62
430.069	7149.62
430.292	6709.62
430.514	6068.62
430.736	6032.62
430.958	5953.62
431.18	5920.62
431.402	5885.62
431.624	5837.62
431.846	5887.62
432.068	5929.62
432.29	6061.62
432.512	5929.62
432.734	6078.62
432.956	5880.62
433.178	5962.62
433.4	5968.62
433.622	5874.62
433.844	5953.62
434.066	5937.62
434.287	6105.62
434.509	6204.62
434.731	6472.62
434.953	6700.62
435.175	6816.62
435.397	7017.62
435.618	6924.62
435.84	7292.62
436.062	8146.62
436.284	8066.62
436.505	6804.62
436.727	6462.62
436.949	6157.62
437.17	6018.62
437.392	6100.62
437.614	6189.62
437.835	6645.62
438.057	7604.62
438.278	8358.62
438.5	8256.62
438.721	9096.62
438.943	7921.62
439.165	6684.62
439.386	6478.62
439.608	6550.62
439.829	6571.62
440.05	6924.62
440.272	7317.62
440.493	6644.62
440.715	6375.62
440.936	6213.62
441.158	6328.62
441.379	6543.62
441.6	6785.62
441.822	7034.62
442.043	7553.62
442.264	8404.62
442.486	8074.62
442.707	7176.62
442.928	6971.62
443.149	7114.62
443.371	7368.62
443.592	7973.62
443.813	9020.62
444.034	8881.62
444.255	7783.62
444.476	7566.62
444.698	7749.62
444.919	7777.62
445.14	7649.62
445.361	7476.62
445.582	7618.62
445.803	8320.62
446.024	9010.62
446.245	8580.62
446.466	7707.62
446.687	6758.62
446.908	6441.62
447.129	5981.62
447.35	5879.62
447.571	5900.62
447.792	5782.62
448.013	5918.62
448.234	5988.62
448.455	6803.62
448.675	8122.62
448.896	8548.62
449.117	7086.62
449.338	7172.62
449.559	8621.62
449.779	8840.62
450	6734.62
450.221	6067.62
450.442	5736.62
450.662	5621.62
450.883	5760.62
451.104	5837.62
451.324	5662.62
451.545	5545.62
451.766	5475.62
451.986	5197.62
452.207	5180.62
452.428	5149.62
452.648	5294.62
452.869	5266.62
453.089	5360.62
453.31	5486.62
453.53	5201.62
453.751	5205.62
453.971	5208.62
454.192	5293.62
454.412	5077.62
454.633	5039.62
454.853	5085.62
455.073	5063.62
455.294	5498.62
455.514	6155.62
455.734	5664.62
455.955	4981.62
456.175	4909.62
456.395	4844.62
456.616	4732.62
456.836	4759.62
457.056	4768.62
457.276	4693.62
457.497	4906.62
457.717	4896.62
457.937	4966.62
458.157	4980.62
458.377	5101.62
458.598	5488.62
458.818	6172.62
459.038	6966.62
459.258	6934.62
459.478	6125.62
459.698	5987.62
459.918	6041.62
460.138	6232.62
460.358	6481.62
460.578	6485.62
460.798	6612.62
461.018	6530.62
461.238	6356.62
461.458	6464.62
461.678	6323.62
461.898	6505.62
462.118	6532.62
462.338	6944.62
462.558	7026.62
462.777	7321.62
462.997	7883.62
463.217	8218.62
463.437	8090.62
463.657	7577.62
463.876	7344.62
464.096	7408.62
464.316	7384.62
464.536	7453.62
464.755	7128.62
464.975	7111.62
465.195	7263.62
465.414	7231.62
465.634	6493.62
465.854	6014.62
466.073	5800.62
466.293	5658.62
466.512	5470.62
466.732	5365.62
466.951	5369.62
467.171	5305.62
467.391	5465.62
467.61	5553.62
467.829	5432.62
468.049	5375.62
468.268	5150.62
468.488	5112.62
468.707	5131.62
468.927	5129.62
469.146	5116.62
469.365	5223.62
469.585	5164.62
469.804	5437.62
470.023	5577.62
470.243	5592.62
470.462	5644.62
470.681	5737.62
470.901	5673.62
471.12	5485.62
471.339	5413.62
471.558	5402.62
471.777	5376.62
471.997	5211.62
472.216	5186.62
472.435	5228.62
472.654	5125.62
472.873	5046.62
473.092	5050.62
473.311	5076.62
473.53	5173.62
473.749	5264.62
473.968	5804.62
474.187	6913.62
474.406	6540.62
474.625	5445.62
474.844	5155.62
475.063	5171.62
475.282	5179.62
475.501	5238.62
475.72	5353.62
475.939	5287.62
476.158	5308.62
476.377	5350.62
476.596	5333.62
476.814	5547.62
477.033	5515.62
477.252	5581.62
477.471	5690.62
477.69	5838.62
477.908	5940.62
478.127	6066.62
478.346	6155.62
478.564	6291.62
478.783	6328.62
479.002	6453.62
479.22	6508.62
479.439	6606.62
479.658	6766.62
479.876	6770.62
480.095	6995.62
480.313	7360.62
480.532	7264.62
480.751	7061.62
480.969	6992.62
481.188	6789.62
481.406	6562.62
481.624	6460.62
481.843	6226.62
482.061	6227.62
482.28	6076.62
482.498	6014.62
482.717	5995.62
482.935	6024.62
483.153	6075.62
483.372	6033.62
483.59	6040.62
483.808	6089.62
484.027	5965.62
484.245	6084.62
484.463	6122.62
484.681	6220.62
484.9	6304.62
485.118	6331.62
485.336	6387.62
485.554	6426.62
485.772	6498.62
485.99	6473.62
486.209	6467.62
486.427	6515.62
486.645	6599.62
486.863	6609.62
487.081	6656.62
487.299	6580.62
487.517	6491.62
487.735	6436.62
487.953	6432.62
