Data from Uncirc_2007_H10_HRD10591_00052.txt Node
Date: Wed Jan 03 10:20:53 EST 2024
User: Yrep
Spectrometer: HR+D1059
Trigger mode: 1
Integration Time (sec): 1.000000E-1
Scans to average: 1
Electric dark correction enabled: true
Nonlinearity correction enabled: false
Boxcar width: 0
XAxis mode: Wavelengths
Number of Pixels in Spectrum: 2048
>>>>>Begin Spectral Data<<<<<
223.165	-29.94
223.4	-29.94
223.635	-29.94
223.869	-9.94
224.104	-20.94
224.338	-23.94
224.573	-12.94
224.808	-10.94
225.042	-7.94
225.277	-17.94
225.511	9.06
225.746	14.06
225.98	10.06
226.215	9.06
226.449	13.06
226.683	31.06
226.918	25.06
227.152	23.06
227.387	38.06
227.621	40.06
227.856	57.06
228.09	37.06
228.324	48.06
228.559	46.06
228.793	49.06
229.027	66.06
229.262	70.06
229.496	70.06
229.73	85.06
229.964	85.06
230.199	77.06
230.433	74.06
230.667	73.06
230.901	76.06
231.136	77.06
231.37	64.06
231.604	74.06
231.838	78.06
232.072	85.06
232.306	76.06
232.541	86.06
232.775	79.06
233.009	75.06
233.243	74.06
233.477	76.06
233.711	77.06
233.945	70.06
234.179	68.06
234.413	67.06
234.647	72.06
234.881	75.06
235.115	73.06
235.349	82.06
235.583	81.06
235.817	80.06
236.051	76.06
236.285	88.06
236.519	82.06
236.753	72.06
236.987	79.06
237.221	101.06
237.455	82.06
237.689	73.06
237.922	79.06
238.156	84.06
238.39	62.06
238.624	63.06
238.858	65.06
239.091	78.06
239.325	64.06
239.559	68.06
239.793	80.06
240.027	80.06
240.26	73.06
240.494	74.06
240.728	68.06
240.961	78.06
241.195	80.06
241.429	68.06
241.662	78.06
241.896	70.06
242.13	63.06
242.363	66.06
242.597	71.06
242.83	97.06
243.064	79.06
243.298	84.06
243.531	81.06
243.765	86.06
243.998	90.06
244.232	81.06
244.465	83.06
244.699	82.06
244.932	72.06
245.166	85.06
245.399	81.06
245.633	72.06
245.866	74.06
246.099	63.06
246.333	80.06
246.566	71.06
246.8	67.06
247.033	88.06
247.266	83.06
247.5	81.06
247.733	70.06
247.966	72.06
248.2	85.06
248.433	69.06
248.666	78.06
248.899	75.06
249.133	99.06
249.366	80.06
249.599	106.06
249.832	72.06
250.066	62.06
250.299	89.06
250.532	71.06
250.765	84.06
250.998	85.06
251.231	83.06
251.465	90.06
251.698	78.06
251.931	84.06
252.164	74.06
252.397	87.06
252.63	85.06
252.863	73.06
253.096	74.06
253.329	82.06
253.562	86.06
253.795	79.06
254.028	80.06
254.261	91.06
254.494	79.06
254.727	68.06
254.96	71.06
255.193	88.06
255.426	87.06
255.659	86.06
255.892	76.06
256.124	75.06
256.357	76.06
256.59	77.06
256.823	89.06
257.056	81.06
257.289	67.06
257.521	83.06
257.754	84.06
257.987	74.06
258.22	89.06
258.452	77.06
258.685	73.06
258.918	79.06
259.151	85.06
259.383	101.06
259.616	89.06
259.849	83.06
260.081	74.06
260.314	93.06
260.547	87.06
260.779	78.06
261.012	80.06
261.244	80.06
261.477	88.06
261.71	105.06
261.942	107.06
262.175	120.06
262.407	85.06
262.64	81.06
262.872	62.06
263.105	84.06
263.337	85.06
263.57	93.06
263.802	89.06
264.035	101.06
264.267	80.06
264.499	91.06
264.732	84.06
264.964	75.06
265.197	90.06
265.429	82.06
265.661	85.06
265.894	70.06
266.126	83.06
266.358	87.06
266.591	80.06
266.823	89.06
267.055	72.06
267.287	81.06
267.52	71.06
267.752	80.06
267.984	96.06
268.216	68.06
268.448	88.06
268.681	80.06
268.913	70.06
269.145	73.06
269.377	90.06
269.609	90.06
269.841	86.06
270.073	76.06
270.306	99.06
270.538	93.06
270.77	83.06
271.002	90.06
271.234	89.06
271.466	88.06
271.698	100.06
271.93	72.06
272.162	94.06
272.394	97.06
272.626	83.06
272.858	91.06
273.09	83.06
273.322	82.06
273.553	76.06
273.785	94.06
274.017	74.06
274.249	73.06
274.481	87.06
274.713	84.06
274.945	94.06
275.176	107.06
275.408	85.06
275.64	74.06
275.872	90.06
276.104	94.06
276.335	102.06
276.567	105.06
276.799	105.06
277.031	97.06
277.262	96.06
277.494	72.06
277.726	81.06
277.957	77.06
278.189	93.06
278.421	83.06
278.652	76.06
278.884	81.06
279.115	91.06
279.347	73.06
279.579	93.06
279.81	78.06
280.042	73.06
280.273	86.06
280.505	87.06
280.736	72.06
280.968	91.06
281.199	83.06
281.431	81.06
281.662	96.06
281.894	88.06
282.125	100.06
282.356	116.06
282.588	151.06
282.819	122.06
283.051	88.06
283.282	94.06
283.513	94.06
283.745	88.06
283.976	89.06
284.207	94.06
284.439	85.06
284.67	88.06
284.901	79.06
285.132	77.06
285.364	99.06
285.595	83.06
285.826	89.06
286.057	82.06
286.288	92.06
286.52	78.06
286.751	80.06
286.982	75.06
287.213	86.06
287.444	83.06
287.675	89.06
287.906	97.06
288.138	102.06
288.369	87.06
288.6	86.06
288.831	72.06
289.062	79.06
289.293	93.06
289.524	102.06
289.755	94.06
289.986	89.06
290.217	93.06
290.448	90.06
290.679	88.06
290.91	86.06
291.141	91.06
291.371	99.06
291.602	93.06
291.833	90.06
292.064	89.06
292.295	94.06
292.526	88.06
292.757	81.06
292.987	86.06
293.218	89.06
293.449	80.06
293.68	88.06
293.91	92.06
294.141	85.06
294.372	84.06
294.603	96.06
294.833	88.06
295.064	107.06
295.295	96.06
295.525	93.06
295.756	106.06
295.987	117.06
296.217	136.06
296.448	122.06
296.679	92.06
296.909	86.06
297.14	93.06
297.37	85.06
297.601	81.06
297.831	90.06
298.062	91.06
298.292	76.06
298.523	80.06
298.753	85.06
298.984	70.06
299.214	77.06
299.445	88.06
299.675	103.06
299.905	98.06
300.136	85.06
300.366	93.06
300.597	90.06
300.827	104.06
301.057	91.06
301.288	82.06
301.518	93.06
301.748	82.06
301.979	106.06
302.209	95.06
302.439	74.06
302.669	91.06
302.9	74.06
303.13	93.06
303.36	94.06
303.59	96.06
303.82	88.06
304.051	93.06
304.281	80.06
304.511	90.06
304.741	78.06
304.971	92.06
305.201	106.06
305.431	92.06
305.661	96.06
305.891	99.06
306.121	97.06
306.352	106.06
306.582	106.06
306.812	87.06
307.042	89.06
307.272	91.06
307.502	89.06
307.731	92.06
307.961	89.06
308.191	99.06
308.421	83.06
308.651	89.06
308.881	105.06
309.111	93.06
309.341	91.06
309.571	91.06
309.8	88.06
310.03	101.06
310.26	102.06
310.49	81.06
310.72	96.06
310.949	105.06
311.179	99.06
311.409	92.06
311.639	88.06
311.868	100.06
312.098	97.06
312.328	86.06
312.557	109.06
312.787	104.06
313.017	97.06
313.246	90.06
313.476	84.06
313.706	91.06
313.935	99.06
314.165	99.06
314.394	100.06
314.624	99.06
314.853	89.06
315.083	101.06
315.312	91.06
315.542	101.06
315.771	94.06
316.001	92.06
316.23	93.06
316.46	96.06
316.689	75.06
316.919	100.06
317.148	98.06
317.377	96.06
317.607	90.06
317.836	93.06
318.065	93.06
318.295	96.06
318.524	95.06
318.753	97.06
318.983	90.06
319.212	97.06
319.441	102.06
319.67	104.06
319.9	98.06
320.129	93.06
320.358	88.06
320.587	103.06
320.816	103.06
321.046	111.06
321.275	91.06
321.504	94.06
321.733	102.06
321.962	107.06
322.191	100.06
322.42	104.06
322.649	108.06
322.878	121.06
323.108	116.06
323.337	118.06
323.566	139.06
323.795	169.06
324.024	204.06
324.253	433.06
324.482	921.06
324.71	1964.06
324.939	2558.06
325.168	928.06
325.397	280.06
325.626	162.06
325.855	140.06
326.084	142.06
326.313	137.06
326.542	142.06
326.77	236.06
326.999	523.06
327.228	1072.06
327.457	1973.06
327.686	1560.06
327.914	401.06
328.143	197.06
328.372	143.06
328.6	122.06
328.829	104.06
329.058	126.06
329.287	139.06
329.515	107.06
329.744	112.06
329.972	103.06
330.201	107.06
330.43	107.06
330.658	126.06
330.887	140.06
331.115	114.06
331.344	89.06
331.572	99.06
331.801	97.06
332.03	95.06
332.258	92.06
332.486	80.06
332.715	91.06
332.943	72.06
333.172	86.06
333.4	99.06
333.629	84.06
333.857	125.06
334.085	108.06
334.314	101.06
334.542	94.06
334.771	101.06
334.999	101.06
335.227	99.06
335.455	100.06
335.684	103.06
335.912	93.06
336.14	102.06
336.369	96.06
336.597	100.06
336.825	98.06
337.053	91.06
337.281	85.06
337.51	79.06
337.738	96.06
337.966	96.06
338.194	94.06
338.422	107.06
338.65	91.06
338.878	94.06
339.106	96.06
339.334	111.06
339.562	83.06
339.79	101.06
340.018	88.06
340.246	81.06
340.474	88.06
340.702	94.06
340.93	98.06
341.158	97.06
341.386	108.06
341.614	107.06
341.842	88.06
342.07	93.06
342.298	110.06
342.526	92.06
342.754	88.06
342.981	87.06
343.209	88.06
343.437	100.06
343.665	101.06
343.893	100.06
344.12	91.06
344.348	98.06
344.576	86.06
344.804	75.06
345.031	106.06
345.259	90.06
345.487	106.06
345.714	94.06
345.942	90.06
346.17	75.06
346.397	99.06
346.625	86.06
346.853	88.06
347.08	84.06
347.308	96.06
347.535	86.06
347.763	88.06
347.99	114.06
348.218	105.06
348.445	106.06
348.673	103.06
348.9	86.06
349.128	96.06
349.355	93.06
349.583	84.06
349.81	91.06
350.037	96.06
350.265	83.06
350.492	94.06
350.72	95.06
350.947	94.06
351.174	113.06
351.402	107.06
351.629	99.06
351.856	110.06
352.083	104.06
352.311	100.06
352.538	123.06
352.765	124.06
352.992	114.06
353.22	104.06
353.447	100.06
353.674	104.06
353.901	103.06
354.128	98.06
354.355	97.06
354.583	85.06
354.81	91.06
355.037	93.06
355.264	80.06
355.491	102.06
355.718	90.06
355.945	105.06
356.172	93.06
356.399	89.06
356.626	98.06
356.853	85.06
357.08	92.06
357.307	94.06
357.534	93.06
357.761	109.06
357.988	86.06
358.215	99.06
358.441	97.06
358.668	95.06
358.895	84.06
359.122	100.06
359.349	85.06
359.576	90.06
359.802	90.06
360.029	92.06
360.256	106.06
360.483	97.06
360.709	76.06
360.936	93.06
361.163	108.06
361.39	96.06
361.616	78.06
361.843	96.06
362.07	103.06
362.296	98.06
362.523	90.06
362.749	66.06
362.976	82.06
363.203	96.06
363.429	88.06
363.656	90.06
363.882	84.06
364.109	89.06
364.335	84.06
364.562	84.06
364.788	92.06
365.015	98.06
365.241	90.06
365.468	82.06
365.694	93.06
365.92	94.06
366.147	79.06
366.373	86.06
366.599	102.06
366.826	97.06
367.052	92.06
367.278	95.06
367.505	97.06
367.731	88.06
367.957	89.06
368.184	93.06
368.41	102.06
368.636	116.06
368.862	119.06
369.089	95.06
369.315	97.06
369.541	89.06
369.767	90.06
369.993	88.06
370.219	80.06
370.445	92.06
370.672	78.06
370.898	83.06
371.124	85.06
371.35	104.06
371.576	93.06
371.802	96.06
372.028	91.06
372.254	98.06
372.48	104.06
372.706	76.06
372.932	85.06
373.158	86.06
373.384	82.06
373.61	104.06
373.835	96.06
374.061	91.06
374.287	89.06
374.513	91.06
374.739	86.06
374.965	103.06
375.191	74.06
375.416	92.06
375.642	83.06
375.868	86.06
376.094	90.06
376.319	85.06
376.545	81.06
376.771	88.06
376.997	98.06
377.222	91.06
377.448	93.06
377.674	79.06
377.899	86.06
378.125	85.06
378.35	88.06
378.576	91.06
378.802	80.06
379.027	109.06
379.253	97.06
379.478	86.06
379.704	75.06
379.929	74.06
380.155	84.06
380.38	105.06
380.606	84.06
380.831	92.06
381.057	93.06
381.282	95.06
381.507	97.06
381.733	93.06
381.958	93.06
382.184	95.06
382.409	98.06
382.634	106.06
382.86	92.06
383.085	93.06
383.31	103.06
383.535	96.06
383.761	112.06
383.986	102.06
384.211	96.06
384.436	98.06
384.662	97.06
384.887	93.06
385.112	93.06
385.337	90.06
385.562	107.06
385.787	104.06
386.013	111.06
386.238	102.06
386.463	108.06
386.688	97.06
386.913	100.06
387.138	101.06
387.363	111.06
387.588	86.06
387.813	100.06
388.038	102.06
388.263	111.06
388.488	109.06
388.713	99.06
388.938	85.06
389.163	99.06
389.387	77.06
389.612	85.06
389.837	91.06
390.062	85.06
390.287	86.06
390.512	100.06
390.736	85.06
390.961	77.06
391.186	82.06
391.411	86.06
391.636	82.06
391.86	80.06
392.085	86.06
392.31	84.06
392.534	86.06
392.759	77.06
392.984	79.06
393.208	86.06
393.433	80.06
393.658	88.06
393.882	83.06
394.107	80.06
394.331	78.06
394.556	93.06
394.78	96.06
395.005	89.06
395.229	83.06
395.454	83.06
395.678	98.06
395.903	84.06
396.127	86.06
396.352	92.06
396.576	73.06
396.801	87.06
397.025	87.06
397.249	78.06
397.474	91.06
397.698	93.06
397.922	88.06
398.147	99.06
398.371	90.06
398.595	89.06
398.82	78.06
399.044	85.06
399.268	89.06
399.492	94.06
399.717	85.06
399.941	94.06
400.165	81.06
400.389	91.06
400.613	83.06
400.837	84.06
401.062	90.06
401.286	91.06
401.51	98.06
401.734	74.06
401.958	111.06
402.182	142.06
402.406	159.06
402.63	113.06
402.854	84.06
403.078	93.06
403.302	78.06
403.526	88.06
403.75	81.06
403.974	85.06
404.198	99.06
404.422	91.06
404.645	84.06
404.869	100.06
405.093	86.06
405.317	94.06
405.541	78.06
405.765	97.06
405.988	140.06
406.212	175.06
406.436	235.06
406.66	141.06
406.883	106.06
407.107	100.06
407.331	102.06
407.555	116.06
407.778	101.06
408.002	104.06
408.226	78.06
408.449	80.06
408.673	80.06
408.896	81.06
409.12	100.06
409.344	80.06
409.567	88.06
409.791	78.06
410.014	96.06
410.238	94.06
410.461	97.06
410.685	90.06
410.908	104.06
411.132	93.06
411.355	100.06
411.578	84.06
411.802	99.06
412.025	94.06
412.249	90.06
412.472	76.06
412.695	96.06
412.919	88.06
413.142	93.06
413.365	86.06
413.589	88.06
413.812	91.06
414.035	90.06
414.258	105.06
414.482	81.06
414.705	101.06
414.928	99.06
415.151	81.06
415.374	86.06
415.597	84.06
415.821	97.06
416.044	85.06
416.267	99.06
416.49	80.06
416.713	82.06
416.936	90.06
417.159	77.06
417.382	86.06
417.605	110.06
417.828	82.06
418.051	84.06
418.274	85.06
418.497	94.06
418.72	88.06
418.943	99.06
419.166	83.06
419.389	88.06
419.611	86.06
419.834	86.06
420.057	85.06
420.28	93.06
420.503	91.06
420.726	73.06
420.948	82.06
421.171	94.06
421.394	96.06
421.617	94.06
421.839	80.06
422.062	85.06
422.285	95.06
422.507	91.06
422.73	95.06
422.953	90.06
423.175	82.06
423.398	71.06
423.621	90.06
423.843	85.06
424.066	92.06
424.288	82.06
424.511	84.06
424.733	93.06
424.956	110.06
425.178	102.06
425.401	101.06
425.623	97.06
425.846	83.06
426.068	92.06
426.291	83.06
426.513	95.06
426.735	97.06
426.958	98.06
427.18	119.06
427.402	124.06
427.625	153.06
427.847	117.06
428.069	99.06
428.292	78.06
428.514	95.06
428.736	87.06
428.958	80.06
429.181	90.06
429.403	89.06
429.625	102.06
429.847	85.06
430.069	107.06
430.292	84.06
430.514	88.06
430.736	89.06
430.958	95.06
431.18	90.06
431.402	103.06
431.624	88.06
431.846	84.06
432.068	78.06
432.29	97.06
432.512	99.06
432.734	81.06
432.956	99.06
433.178	120.06
433.4	106.06
433.622	90.06
433.844	100.06
434.066	99.06
434.287	82.06
434.509	100.06
434.731	90.06
434.953	85.06
435.175	83.06
435.397	80.06
435.618	98.06
435.84	104.06
436.062	125.06
436.284	122.06
436.505	104.06
436.727	106.06
436.949	91.06
437.17	78.06
437.392	93.06
437.614	90.06
437.835	99.06
438.057	115.06
438.278	91.06
438.5	97.06
438.721	125.06
438.943	99.06
439.165	82.06
439.386	67.06
439.608	89.06
439.829	101.06
440.05	133.06
440.272	131.06
440.493	101.06
440.715	86.06
440.936	83.06
441.158	83.06
441.379	93.06
441.6	82.06
441.822	94.06
442.043	97.06
442.264	107.06
442.486	104.06
442.707	90.06
442.928	102.06
443.149	118.06
443.371	124.06
443.592	105.06
443.813	125.06
444.034	106.06
444.255	102.06
444.476	93.06
444.698	102.06
444.919	85.06
445.14	123.06
445.361	130.06
445.582	124.06
445.803	142.06
446.024	141.06
446.245	138.06
446.466	110.06
446.687	88.06
446.908	83.06
447.129	78.06
447.35	83.06
447.571	96.06
447.792	104.06
448.013	96.06
448.234	101.06
448.455	93.06
448.675	116.06
448.896	120.06
449.117	101.06
449.338	102.06
449.559	125.06
449.779	142.06
450	96.06
450.221	76.06
450.442	80.06
450.662	84.06
450.883	110.06
451.104	99.06
451.324	77.06
451.545	99.06
451.766	94.06
451.986	71.06
452.207	83.06
452.428	82.06
452.648	97.06
452.869	120.06
453.089	114.06
453.31	115.06
453.53	99.06
453.751	106.06
453.971	100.06
454.192	104.06
454.412	86.06
454.633	82.06
454.853	85.06
455.073	85.06
455.294	76.06
455.514	105.06
455.734	95.06
455.955	87.06
456.175	80.06
456.395	86.06
456.616	90.06
456.836	85.06
457.056	90.06
457.276	88.06
457.497	80.06
457.717	102.06
457.937	83.06
458.157	87.06
458.377	81.06
458.598	98.06
458.818	140.06
459.038	168.06
459.258	113.06
459.478	77.06
459.698	88.06
459.918	91.06
460.138	76.06
460.358	74.06
460.578	85.06
460.798	91.06
461.018	92.06
461.238	87.06
461.458	77.06
461.678	86.06
461.898	92.06
462.118	93.06
462.338	95.06
462.558	84.06
462.777	96.06
462.997	90.06
463.217	79.06
463.437	84.06
463.657	82.06
463.876	80.06
464.096	88.06
464.316	104.06
464.536	87.06
464.755	85.06
464.975	108.06
465.195	155.06
465.414	155.06
465.634	100.06
465.854	75.06
466.073	93.06
466.293	74.06
466.512	70.06
466.732	79.06
466.951	95.06
467.171	82.06
467.391	88.06
467.61	90.06
467.829	87.06
468.049	90.06
468.268	86.06
468.488	73.06
468.707	86.06
468.927	69.06
469.146	72.06
469.365	92.06
469.585	98.06
469.804	89.06
470.023	92.06
470.243	105.06
470.462	99.06
470.681	105.06
470.901	91.06
471.12	91.06
471.339	98.06
471.558	87.06
471.777	90.06
471.997	86.06
472.216	89.06
472.435	89.06
472.654	81.06
472.873	88.06
473.092	87.06
473.311	83.06
473.53	87.06
473.749	89.06
473.968	108.06
474.187	107.06
474.406	97.06
474.625	84.06
474.844	100.06
475.063	80.06
475.282	93.06
475.501	81.06
475.72	91.06
475.939	74.06
476.158	91.06
476.377	86.06
476.596	84.06
476.814	89.06
477.033	89.06
477.252	90.06
477.471	86.06
477.69	81.06
477.908	100.06
478.127	90.06
478.346	98.06
478.564	80.06
478.783	89.06
479.002	94.06
479.22	88.06
479.439	87.06
479.658	93.06
479.876	94.06
480.095	76.06
480.313	95.06
480.532	96.06
480.751	80.06
480.969	81.06
481.188	89.06
481.406	94.06
481.624	88.06
481.843	83.06
482.061	93.06
482.28	88.06
482.498	84.06
482.717	91.06
482.935	82.06
483.153	87.06
483.372	99.06
483.59	96.06
483.808	88.06
484.027	78.06
484.245	89.06
484.463	90.06
484.681	84.06
484.9	98.06
485.118	110.06
485.336	94.06
485.554	99.06
485.772	95.06
485.99	112.06
486.209	101.06
486.427	100.06
486.645	112.06
486.863	110.06
487.081	82.06
487.299	85.06
487.517	101.06
487.735	100.06
487.953	100.06
488.171	65.06
488.389	97.06
488.607	110.06
488.825	89.06
489.043	85.06
489.261	98.06
489.479	77.06
489.696	82.06
489.914	90.06
490.132	86.06
490.35	86.06
490.568	96.06
490.786	105.06
491.003	93.06
491.221	86.06
491.439	80.06
491.657	97.06
491.874	85.06
492.092	96.06
492.31	82.06
492.527	79.06
492.745	89.06
492.963	96.06
493.18	82.06
493.398	98.06
493.615	103.06
493.833	94.06
494.05	91.06
494.268	82.06
494.485	95.06
494.703	90.06
494.92	93.06
495.138	97.06
495.355	88.06
495.573	100.06
495.79	97.06
496.008	89.06
496.225	77.06
496.442	96.06
496.66	95.06
496.877	90.06
497.094	100.06
497.312	80.06
497.529	84.06
497.746	90.06
497.963	89.06
498.181	104.06
498.398	96.06
498.615	105.06
498.832	106.06
499.049	92.06
499.267	85.06
499.484	90.06
499.701	91.06
499.918	98.06
500.135	81.06
500.352	90.06
500.569	87.06
500.786	95.06
501.003	96.06
501.22	94.06
501.437	78.06
501.654	103.06
501.871	113.06
502.088	104.06
502.305	93.06
502.522	96.06
502.739	88.06
502.956	81.06
503.172	98.06
503.389	91.06
503.606	99.06
503.823	86.06
504.04	90.06
504.256	84.06
504.473	81.06
504.69	97.06
504.907	94.06
505.123	101.06
505.34	84.06
505.557	83.06
505.773	93.06
505.99	98.06
506.207	87.06
506.423	99.06
506.64	94.06
506.856	95.06
507.073	104.06
507.289	91.06
507.506	95.06
507.722	108.06
507.939	113.06
508.155	90.06
508.372	85.06
508.588	92.06
508.805	83.06
509.021	89.06
509.238	108.06
509.454	106.06
509.67	107.06
509.887	118.06
510.103	130.06
510.319	220.06
510.536	797.06
510.752	2515.06
510.968	713.06
511.184	154.06
511.401	113.06
511.617	100.06
511.833	96.06
512.049	93.06
512.265	107.06
512.481	88.06
512.698	95.06
512.914	93.06
513.13	94.06
513.346	95.06
513.562	90.06
513.778	100.06
513.994	89.06
514.21	115.06
514.426	119.06
514.642	146.06
514.858	122.06
515.074	184.06
515.29	459.06
515.506	1564.06
515.721	595.06
