Data from Uncirc_2007_H10_HRD10591_00047.txt Node
Date: Wed Jan 03 10:20:52 EST 2024
User: Yrep
Spectrometer: HR+D1059
Trigger mode: 1
Integration Time (sec): 1.000000E-1
Scans to average: 1
Electric dark correction enabled: true
Nonlinearity correction enabled: false
Boxcar width: 0
XAxis mode: Wavelengths
Number of Pixels in Spectrum: 2048
>>>>>Begin Spectral Data<<<<<
223.165	-25.38
223.4	-25.38
223.635	-25.38
223.869	-14.38
224.104	-26.38
224.338	-18.38
224.573	-14.38
224.808	-22.38
225.042	-5.38
225.277	-13.38
225.511	-0.38
225.746	4.62
225.98	-7.38
226.215	18.62
226.449	23.62
226.683	35.62
226.918	34.62
227.152	30.62
227.387	37.62
227.621	45.62
227.856	36.62
228.09	36.62
228.324	62.62
228.559	57.62
228.793	43.62
229.027	59.62
229.262	71.62
229.496	72.62
229.73	84.62
229.964	85.62
230.199	79.62
230.433	70.62
230.667	66.62
230.901	85.62
231.136	76.62
231.37	80.62
231.604	75.62
231.838	82.62
232.072	84.62
232.306	93.62
232.541	76.62
232.775	86.62
233.009	95.62
233.243	75.62
233.477	76.62
233.711	83.62
233.945	75.62
234.179	82.62
234.413	91.62
234.647	84.62
234.881	89.62
235.115	86.62
235.349	86.62
235.583	85.62
235.817	83.62
236.051	86.62
236.285	76.62
236.519	93.62
236.753	77.62
236.987	79.62
237.221	92.62
237.455	77.62
237.689	85.62
237.922	79.62
238.156	72.62
238.39	81.62
238.624	83.62
238.858	85.62
239.091	85.62
239.325	72.62
239.559	79.62
239.793	71.62
240.027	78.62
240.26	70.62
240.494	69.62
240.728	80.62
240.961	79.62
241.195	76.62
241.429	78.62
241.662	79.62
241.896	76.62
242.13	72.62
242.363	78.62
242.597	94.62
242.83	83.62
243.064	77.62
243.298	79.62
243.531	80.62
243.765	65.62
243.998	90.62
244.232	99.62
244.465	87.62
244.699	80.62
244.932	83.62
245.166	87.62
245.399	84.62
245.633	85.62
245.866	82.62
246.099	81.62
246.333	87.62
246.566	86.62
246.8	94.62
247.033	93.62
247.266	87.62
247.5	77.62
247.733	78.62
247.966	81.62
248.2	86.62
248.433	76.62
248.666	90.62
248.899	69.62
249.133	96.62
249.366	104.62
249.599	90.62
249.832	86.62
250.066	86.62
250.299	76.62
250.532	70.62
250.765	75.62
250.998	93.62
251.231	77.62
251.465	75.62
251.698	84.62
251.931	83.62
252.164	87.62
252.397	76.62
252.63	79.62
252.863	92.62
253.096	69.62
253.329	76.62
253.562	85.62
253.795	87.62
254.028	82.62
254.261	69.62
254.494	95.62
254.727	78.62
254.96	86.62
255.193	78.62
255.426	87.62
255.659	86.62
255.892	103.62
256.124	82.62
256.357	81.62
256.59	89.62
256.823	87.62
257.056	80.62
257.289	85.62
257.521	77.62
257.754	76.62
257.987	74.62
258.22	98.62
258.452	89.62
258.685	83.62
258.918	89.62
259.151	83.62
259.383	81.62
259.616	64.62
259.849	93.62
260.081	86.62
260.314	80.62
260.547	92.62
260.779	82.62
261.012	88.62
261.244	86.62
261.477	81.62
261.71	90.62
261.942	104.62
262.175	135.62
262.407	85.62
262.64	85.62
262.872	104.62
263.105	97.62
263.337	101.62
263.57	85.62
263.802	96.62
264.035	82.62
264.267	92.62
264.499	93.62
264.732	75.62
264.964	79.62
265.197	93.62
265.429	80.62
265.661	94.62
265.894	86.62
266.126	74.62
266.358	75.62
266.591	93.62
266.823	85.62
267.055	95.62
267.287	92.62
267.52	91.62
267.752	81.62
267.984	75.62
268.216	97.62
268.448	79.62
268.681	98.62
268.913	85.62
269.145	69.62
269.377	84.62
269.609	91.62
269.841	89.62
270.073	87.62
270.306	85.62
270.538	88.62
270.77	92.62
271.002	75.62
271.234	85.62
271.466	93.62
271.698	86.62
271.93	79.62
272.162	97.62
272.394	93.62
272.626	97.62
272.858	91.62
273.09	75.62
273.322	79.62
273.553	89.62
273.785	94.62
274.017	94.62
274.249	67.62
274.481	81.62
274.713	70.62
274.945	91.62
275.176	75.62
275.408	83.62
275.64	105.62
275.872	91.62
276.104	77.62
276.335	94.62
276.567	115.62
276.799	94.62
277.031	108.62
277.262	83.62
277.494	92.62
277.726	88.62
277.957	82.62
278.189	69.62
278.421	88.62
278.652	102.62
278.884	82.62
279.115	87.62
279.347	84.62
279.579	86.62
279.81	86.62
280.042	82.62
280.273	92.62
280.505	93.62
280.736	85.62
280.968	86.62
281.199	77.62
281.431	92.62
281.662	94.62
281.894	90.62
282.125	103.62
282.356	109.62
282.588	148.62
282.819	107.62
283.051	99.62
283.282	80.62
283.513	90.62
283.745	79.62
283.976	82.62
284.207	94.62
284.439	105.62
284.67	90.62
284.901	85.62
285.132	94.62
285.364	85.62
285.595	98.62
285.826	83.62
286.057	94.62
286.288	92.62
286.52	89.62
286.751	91.62
286.982	94.62
287.213	84.62
287.444	94.62
287.675	93.62
287.906	87.62
288.138	103.62
288.369	90.62
288.6	84.62
288.831	79.62
289.062	97.62
289.293	90.62
289.524	96.62
289.755	94.62
289.986	97.62
290.217	93.62
290.448	97.62
290.679	87.62
290.91	81.62
291.141	76.62
291.371	94.62
291.602	79.62
291.833	101.62
292.064	93.62
292.295	102.62
292.526	76.62
292.757	88.62
292.987	75.62
293.218	78.62
293.449	90.62
293.68	83.62
293.91	69.62
294.141	73.62
294.372	93.62
294.603	80.62
294.833	78.62
295.064	92.62
295.295	85.62
295.525	87.62
295.756	103.62
295.987	105.62
296.217	143.62
296.448	129.62
296.679	97.62
296.909	97.62
297.14	97.62
297.37	94.62
297.601	104.62
297.831	105.62
298.062	105.62
298.292	93.62
298.523	95.62
298.753	101.62
298.984	91.62
299.214	89.62
299.445	92.62
299.675	98.62
299.905	91.62
300.136	84.62
300.366	91.62
300.597	98.62
300.827	98.62
301.057	100.62
301.288	95.62
301.518	96.62
301.748	94.62
301.979	109.62
302.209	97.62
302.439	99.62
302.669	96.62
302.9	91.62
303.13	75.62
303.36	100.62
303.59	100.62
303.82	109.62
304.051	98.62
304.281	89.62
304.511	85.62
304.741	87.62
304.971	92.62
305.201	92.62
305.431	103.62
305.661	95.62
305.891	89.62
306.121	100.62
306.352	111.62
306.582	114.62
306.812	93.62
307.042	106.62
307.272	104.62
307.502	97.62
307.731	99.62
307.961	78.62
308.191	94.62
308.421	87.62
308.651	94.62
308.881	91.62
309.111	88.62
309.341	91.62
309.571	99.62
309.8	92.62
310.03	95.62
310.26	108.62
310.49	108.62
310.72	104.62
310.949	101.62
311.179	105.62
311.409	101.62
311.639	95.62
311.868	101.62
312.098	97.62
312.328	102.62
312.557	107.62
312.787	118.62
313.017	98.62
313.246	84.62
313.476	101.62
313.706	84.62
313.935	94.62
314.165	93.62
314.394	96.62
314.624	90.62
314.853	100.62
315.083	106.62
315.312	95.62
315.542	87.62
315.771	91.62
316.001	97.62
316.23	93.62
316.46	94.62
316.689	79.62
316.919	93.62
317.148	106.62
317.377	88.62
317.607	108.62
317.836	103.62
318.065	96.62
318.295	91.62
318.524	87.62
318.753	102.62
318.983	98.62
319.212	90.62
319.441	118.62
319.67	109.62
319.9	105.62
320.129	96.62
320.358	92.62
320.587	101.62
320.816	99.62
321.046	90.62
321.275	104.62
321.504	95.62
321.733	101.62
321.962	100.62
322.191	109.62
322.42	115.62
322.649	107.62
322.878	115.62
323.108	120.62
323.337	139.62
323.566	142.62
323.795	160.62
324.024	220.62
324.253	430.62
324.482	925.62
324.71	1931.62
324.939	2568.62
325.168	914.62
325.397	287.62
325.626	157.62
325.855	135.62
326.084	141.62
326.313	138.62
326.542	183.62
326.77	247.62
326.999	492.62
327.228	1078.62
327.457	1910.62
327.686	1521.62
327.914	414.62
328.143	206.62
328.372	155.62
328.6	116.62
328.829	124.62
329.058	128.62
329.287	133.62
329.515	110.62
329.744	98.62
329.972	100.62
330.201	106.62
330.43	105.62
330.658	110.62
330.887	138.62
331.115	112.62
331.344	89.62
331.572	101.62
331.801	109.62
332.03	96.62
332.258	95.62
332.486	86.62
332.715	98.62
332.943	74.62
333.172	106.62
333.4	96.62
333.629	103.62
333.857	124.62
334.085	100.62
334.314	107.62
334.542	102.62
334.771	102.62
334.999	105.62
335.227	98.62
335.455	100.62
335.684	94.62
335.912	108.62
336.14	94.62
336.369	103.62
336.597	96.62
336.825	81.62
337.053	104.62
337.281	96.62
337.51	100.62
337.738	90.62
337.966	85.62
338.194	95.62
338.422	101.62
338.65	95.62
338.878	96.62
339.106	99.62
339.334	89.62
339.562	77.62
339.79	87.62
340.018	99.62
340.246	96.62
340.474	99.62
340.702	96.62
340.93	85.62
341.158	90.62
341.386	106.62
341.614	92.62
341.842	93.62
342.07	97.62
342.298	91.62
342.526	99.62
342.754	77.62
342.981	104.62
343.209	103.62
343.437	107.62
343.665	83.62
343.893	89.62
344.12	92.62
344.348	87.62
344.576	93.62
344.804	85.62
345.031	94.62
345.259	105.62
345.487	104.62
345.714	81.62
345.942	92.62
346.17	91.62
346.397	80.62
346.625	88.62
346.853	92.62
347.08	91.62
347.308	80.62
347.535	99.62
347.763	105.62
347.99	89.62
348.218	103.62
348.445	112.62
348.673	106.62
348.9	100.62
349.128	96.62
349.355	95.62
349.583	85.62
349.81	105.62
350.037	99.62
350.265	90.62
350.492	97.62
350.72	92.62
350.947	101.62
351.174	121.62
351.402	123.62
351.629	128.62
351.856	107.62
352.083	99.62
352.311	107.62
352.538	101.62
352.765	92.62
352.992	111.62
353.22	116.62
353.447	104.62
353.674	104.62
353.901	82.62
354.128	104.62
354.355	97.62
354.583	98.62
354.81	94.62
355.037	128.62
355.264	101.62
355.491	96.62
355.718	107.62
355.945	93.62
356.172	90.62
356.399	114.62
356.626	97.62
356.853	89.62
357.08	87.62
357.307	105.62
357.534	110.62
357.761	82.62
357.988	100.62
358.215	99.62
358.441	100.62
358.668	88.62
358.895	91.62
359.122	88.62
359.349	89.62
359.576	103.62
359.802	113.62
360.029	124.62
360.256	97.62
360.483	98.62
360.709	100.62
360.936	100.62
361.163	92.62
361.39	88.62
361.616	98.62
361.843	99.62
362.07	100.62
362.296	97.62
362.523	85.62
362.749	87.62
362.976	86.62
363.203	85.62
363.429	91.62
363.656	108.62
363.882	79.62
364.109	102.62
364.335	85.62
364.562	99.62
364.788	90.62
365.015	93.62
365.241	102.62
365.468	113.62
365.694	108.62
365.92	106.62
366.147	91.62
366.373	80.62
366.599	85.62
366.826	90.62
367.052	89.62
367.278	98.62
367.505	90.62
367.731	95.62
367.957	102.62
368.184	96.62
368.41	99.62
368.636	107.62
368.862	117.62
369.089	113.62
369.315	99.62
369.541	92.62
369.767	89.62
369.993	94.62
370.219	90.62
370.445	73.62
370.672	89.62
370.898	94.62
371.124	79.62
371.35	92.62
371.576	68.62
371.802	87.62
372.028	93.62
372.254	82.62
372.48	93.62
372.706	95.62
372.932	83.62
373.158	83.62
373.384	87.62
373.61	95.62
373.835	92.62
374.061	95.62
374.287	91.62
374.513	97.62
374.739	97.62
374.965	83.62
375.191	97.62
375.416	86.62
375.642	85.62
375.868	89.62
376.094	78.62
376.319	92.62
376.545	95.62
376.771	83.62
376.997	79.62
377.222	83.62
377.448	82.62
377.674	79.62
377.899	81.62
378.125	77.62
378.35	89.62
378.576	87.62
378.802	84.62
379.027	86.62
379.253	92.62
379.478	93.62
379.704	72.62
379.929	93.62
380.155	92.62
380.38	96.62
380.606	93.62
380.831	95.62
381.057	100.62
381.282	93.62
381.507	90.62
381.733	92.62
381.958	101.62
382.184	98.62
382.409	99.62
382.634	102.62
382.86	82.62
383.085	105.62
383.31	109.62
383.535	95.62
383.761	102.62
383.986	98.62
384.211	92.62
384.436	104.62
384.662	93.62
384.887	106.62
385.112	98.62
385.337	106.62
385.562	85.62
385.787	110.62
386.013	101.62
386.238	116.62
386.463	101.62
386.688	114.62
386.913	87.62
387.138	113.62
387.363	98.62
387.588	94.62
387.813	89.62
388.038	100.62
388.263	98.62
388.488	94.62
388.713	86.62
388.938	111.62
389.163	93.62
389.387	83.62
389.612	107.62
389.837	97.62
390.062	92.62
390.287	95.62
390.512	97.62
390.736	92.62
390.961	102.62
391.186	97.62
391.411	103.62
391.636	96.62
391.86	80.62
392.085	95.62
392.31	89.62
392.534	74.62
392.759	92.62
392.984	111.62
393.208	93.62
393.433	98.62
393.658	93.62
393.882	85.62
394.107	97.62
394.331	86.62
394.556	91.62
394.78	85.62
395.005	74.62
395.229	77.62
395.454	82.62
395.678	91.62
395.903	94.62
396.127	95.62
396.352	76.62
396.576	95.62
396.801	97.62
397.025	78.62
397.249	80.62
397.474	83.62
397.698	97.62
397.922	86.62
398.147	99.62
398.371	92.62
398.595	93.62
398.82	97.62
399.044	85.62
399.268	88.62
399.492	88.62
399.717	98.62
399.941	85.62
400.165	102.62
400.389	86.62
400.613	97.62
400.837	95.62
401.062	83.62
401.286	85.62
401.51	98.62
401.734	89.62
401.958	99.62
402.182	143.62
402.406	180.62
402.63	117.62
402.854	90.62
403.078	90.62
403.302	87.62
403.526	98.62
403.75	71.62
403.974	91.62
404.198	100.62
404.422	95.62
404.645	83.62
404.869	90.62
405.093	98.62
405.317	93.62
405.541	100.62
405.765	108.62
405.988	117.62
406.212	160.62
406.436	235.62
406.66	160.62
406.883	116.62
407.107	92.62
407.331	89.62
407.555	99.62
407.778	100.62
408.002	80.62
408.226	94.62
408.449	82.62
408.673	92.62
408.896	93.62
409.12	86.62
409.344	87.62
409.567	82.62
409.791	81.62
410.014	99.62
410.238	94.62
410.461	101.62
410.685	91.62
410.908	106.62
411.132	97.62
411.355	97.62
411.578	98.62
411.802	89.62
412.025	80.62
412.249	91.62
412.472	94.62
412.695	75.62
412.919	69.62
413.142	85.62
413.365	81.62
413.589	92.62
413.812	72.62
414.035	94.62
414.258	86.62
414.482	87.62
414.705	93.62
414.928	88.62
415.151	91.62
415.374	89.62
415.597	82.62
415.821	85.62
416.044	81.62
416.267	93.62
416.49	68.62
416.713	85.62
416.936	91.62
417.159	81.62
417.382	90.62
417.605	96.62
417.828	91.62
418.051	97.62
418.274	82.62
418.497	95.62
418.72	88.62
418.943	81.62
419.166	74.62
419.389	108.62
419.611	91.62
419.834	75.62
420.057	84.62
420.28	95.62
420.503	93.62
420.726	79.62
420.948	85.62
421.171	88.62
421.394	102.62
421.617	95.62
421.839	84.62
422.062	90.62
422.285	96.62
422.507	94.62
422.73	98.62
422.953	90.62
423.175	98.62
423.398	92.62
423.621	101.62
423.843	86.62
424.066	90.62
424.288	93.62
424.511	105.62
424.733	95.62
424.956	107.62
425.178	104.62
425.401	98.62
425.623	110.62
425.846	82.62
426.068	95.62
426.291	87.62
426.513	94.62
426.735	108.62
426.958	95.62
427.18	113.62
427.402	144.62
427.625	161.62
427.847	127.62
428.069	106.62
428.292	104.62
428.514	84.62
428.736	76.62
428.958	91.62
429.181	86.62
429.403	84.62
429.625	90.62
429.847	92.62
430.069	82.62
430.292	87.62
430.514	92.62
430.736	99.62
430.958	97.62
431.18	98.62
431.402	87.62
431.624	99.62
431.846	89.62
432.068	85.62
432.29	79.62
432.512	88.62
432.734	95.62
432.956	109.62
433.178	100.62
433.4	98.62
433.622	98.62
433.844	97.62
434.066	83.62
434.287	98.62
434.509	84.62
434.731	90.62
434.953	109.62
435.175	95.62
435.397	100.62
435.618	78.62
435.84	116.62
436.062	127.62
436.284	128.62
436.505	117.62
436.727	92.62
436.949	92.62
437.17	94.62
437.392	90.62
437.614	87.62
437.835	107.62
438.057	117.62
438.278	117.62
438.5	100.62
438.721	114.62
438.943	106.62
439.165	95.62
439.386	86.62
439.608	87.62
439.829	113.62
440.05	115.62
440.272	142.62
440.493	110.62
440.715	74.62
440.936	97.62
441.158	81.62
441.379	90.62
441.6	87.62
441.822	98.62
442.043	91.62
442.264	100.62
442.486	85.62
442.707	92.62
442.928	88.62
443.149	140.62
443.371	141.62
443.592	110.62
443.813	117.62
444.034	116.62
444.255	92.62
444.476	89.62
444.698	92.62
444.919	90.62
445.14	118.62
445.361	113.62
445.582	123.62
445.803	137.62
446.024	153.62
446.245	143.62
446.466	122.62
446.687	85.62
446.908	83.62
447.129	104.62
447.35	89.62
447.571	96.62
447.792	100.62
448.013	114.62
448.234	93.62
448.455	116.62
448.675	124.62
448.896	120.62
449.117	105.62
449.338	106.62
449.559	123.62
449.779	127.62
450	94.62
450.221	94.62
450.442	91.62
450.662	94.62
450.883	106.62
451.104	107.62
451.324	93.62
451.545	98.62
451.766	84.62
451.986	74.62
452.207	85.62
452.428	86.62
452.648	99.62
452.869	111.62
453.089	105.62
453.31	118.62
453.53	93.62
453.751	98.62
453.971	114.62
454.192	107.62
454.412	97.62
454.633	91.62
454.853	82.62
455.073	78.62
455.294	87.62
455.514	105.62
455.734	96.62
455.955	83.62
456.175	94.62
456.395	94.62
456.616	92.62
456.836	85.62
457.056	71.62
457.276	100.62
457.497	93.62
457.717	83.62
457.937	96.62
458.157	89.62
458.377	87.62
458.598	110.62
458.818	155.62
459.038	174.62
459.258	114.62
459.478	94.62
459.698	76.62
459.918	84.62
460.138	80.62
460.358	78.62
460.578	81.62
460.798	91.62
461.018	98.62
461.238	93.62
461.458	79.62
461.678	83.62
461.898	90.62
462.118	81.62
462.338	79.62
462.558	89.62
462.777	95.62
462.997	94.62
463.217	92.62
463.437	85.62
463.657	77.62
463.876	87.62
464.096	90.62
464.316	90.62
464.536	87.62
464.755	92.62
464.975	107.62
465.195	167.62
465.414	177.62
465.634	122.62
465.854	93.62
466.073	76.62
466.293	88.62
466.512	78.62
466.732	85.62
466.951	83.62
467.171	87.62
467.391	91.62
467.61	107.62
467.829	93.62
468.049	77.62
468.268	92.62
468.488	77.62
468.707	93.62
468.927	95.62
469.146	92.62
469.365	87.62
469.585	93.62
469.804	107.62
470.023	90.62
470.243	99.62
470.462	94.62
470.681	100.62
470.901	99.62
471.12	96.62
471.339	82.62
471.558	94.62
471.777	95.62
471.997	82.62
472.216	75.62
472.435	93.62
472.654	76.62
472.873	99.62
473.092	98.62
473.311	90.62
473.53	88.62
473.749	76.62
473.968	82.62
474.187	110.62
474.406	87.62
474.625	103.62
474.844	92.62
475.063	75.62
475.282	94.62
475.501	81.62
475.72	102.62
475.939	88.62
476.158	107.62
476.377	84.62
476.596	89.62
476.814	82.62
477.033	96.62
477.252	98.62
477.471	85.62
477.69	91.62
477.908	99.62
478.127	94.62
478.346	92.62
478.564	92.62
478.783	102.62
479.002	107.62
479.22	94.62
479.439	85.62
479.658	97.62
479.876	98.62
480.095	93.62
480.313	95.62
480.532	81.62
480.751	82.62
480.969	91.62
481.188	83.62
481.406	98.62
481.624	74.62
481.843	84.62
482.061	91.62
482.28	85.62
482.498	97.62
482.717	92.62
482.935	93.62
483.153	78.62
483.372	91.62
483.59	83.62
483.808	85.62
484.027	90.62
484.245	84.62
484.463	98.62
484.681	92.62
484.9	99.62
485.118	110.62
485.336	108.62
485.554	96.62
485.772	108.62
485.99	99.62
486.209	100.62
486.427	97.62
486.645	110.62
486.863	106.62
487.081	104.62
487.299	98.62
487.517	101.62
487.735	93.62
487.953	90.62
488.171	102.62
488.389	101.62
488.607	87.62
488.825	92.62
489.043	108.62
489.261	98.62
489.479	93.62
489.696	96.62
489.914	94.62
490.132	98.62
490.35	79.62
490.568	94.62
490.786	77.62
491.003	89.62
491.221	85.62
491.439	82.62
491.657	97.62
491.874	98.62
492.092	76.62
492.31	105.62
492.527	80.62
492.745	100.62
492.963	87.62
493.18	89.62
493.398	92.62
493.615	87.62
493.833	100.62
494.05	83.62
494.268	107.62
494.485	100.62
494.703	88.62
494.92	97.62
495.138	80.62
495.355	83.62
495.573	90.62
495.79	85.62
496.008	102.62
496.225	93.62
496.442	94.62
496.66	98.62
496.877	85.62
497.094	93.62
497.312	86.62
497.529	102.62
497.746	98.62
497.963	85.62
498.181	88.62
498.398	87.62
498.615	112.62
498.832	98.62
499.049	83.62
499.267	87.62
499.484	94.62
499.701	110.62
499.918	95.62
500.135	80.62
500.352	107.62
500.569	105.62
500.786	97.62
501.003	89.62
501.22	98.62
501.437	90.62
501.654	102.62
501.871	102.62
502.088	97.62
502.305	83.62
502.522	85.62
502.739	97.62
502.956	94.62
503.172	91.62
503.389	87.62
503.606	100.62
503.823	100.62
504.04	100.62
504.256	92.62
504.473	83.62
504.69	94.62
504.907	88.62
505.123	83.62
505.34	88.62
505.557	95.62
505.773	93.62
505.99	84.62
506.207	84.62
506.423	91.62
506.64	87.62
506.856	95.62
507.073	79.62
507.289	90.62
507.506	97.62
507.722	108.62
507.939	101.62
508.155	98.62
508.372	95.62
508.588	102.62
508.805	94.62
509.021	105.62
509.238	102.62
509.454	104.62
509.67	112.62
509.887	121.62
510.103	142.62
510.319	220.62
510.536	806.62
510.752	2581.62
510.968	737.62
511.184	176.62
511.401	113.62
511.617	98.62
511.833	92.62
512.049	100.62
512.265	96.62
512.481	100.62
512.698	94.62
512.914	91.62
513.13	98.62
513.346	97.62
513.562	103.62
513.778	102.62
513.994	115.62
514.21	106.62
514.426	129.62
514.642	145.62
514.858	132.62
515.074	169.62
515.29	490.62
