Data from Uncirc_2007_H10_HRD10591_00049.txt Node
Date: Wed Jan 03 10:20:52 EST 2024
User: Yrep
Spectrometer: HR+D1059
Trigger mode: 1
Integration Time (sec): 1.000000E-1
Scans to average: 1
Electric dark correction enabled: true
Nonlinearity correction enabled: false
Boxcar width: 0
XAxis mode: Wavelengths
Number of Pixels in Spectrum: 2048
>>>>>Begin Spectral Data<<<<<
223.165	-21.5
223.4	-21.5
223.635	-21.5
223.869	-26.5
224.104	-25.5
224.338	-6.5
224.573	-19.5
224.808	-3.5
225.042	-3.5
225.277	-12.5
225.511	-9.5
225.746	11.5
225.98	8.5
226.215	5.5
226.449	6.5
226.683	25.5
226.918	34.5
227.152	36.5
227.387	40.5
227.621	40.5
227.856	49.5
228.09	50.5
228.324	45.5
228.559	52.5
228.793	48.5
229.027	65.5
229.262	68.5
229.496	67.5
229.73	89.5
229.964	69.5
230.199	63.5
230.433	74.5
230.667	81.5
230.901	82.5
231.136	79.5
231.37	87.5
231.604	82.5
231.838	76.5
232.072	92.5
232.306	85.5
232.541	86.5
232.775	86.5
233.009	84.5
233.243	79.5
233.477	83.5
233.711	87.5
233.945	76.5
234.179	74.5
234.413	90.5
234.647	78.5
234.881	89.5
235.115	87.5
235.349	89.5
235.583	76.5
235.817	81.5
236.051	85.5
236.285	86.5
236.519	84.5
236.753	76.5
236.987	79.5
237.221	86.5
237.455	84.5
237.689	76.5
237.922	76.5
238.156	80.5
238.39	74.5
238.624	85.5
238.858	63.5
239.091	75.5
239.325	74.5
239.559	86.5
239.793	75.5
240.027	77.5
240.26	80.5
240.494	88.5
240.728	87.5
240.961	81.5
241.195	73.5
241.429	68.5
241.662	76.5
241.896	73.5
242.13	86.5
242.363	76.5
242.597	80.5
242.83	62.5
243.064	75.5
243.298	80.5
243.531	67.5
243.765	75.5
243.998	80.5
244.232	76.5
244.465	86.5
244.699	76.5
244.932	62.5
245.166	78.5
245.399	73.5
245.633	73.5
245.866	86.5
246.099	62.5
246.333	68.5
246.566	72.5
246.8	89.5
247.033	66.5
247.266	75.5
247.5	76.5
247.733	68.5
247.966	77.5
248.2	82.5
248.433	80.5
248.666	70.5
248.899	78.5
249.133	72.5
249.366	84.5
249.599	93.5
249.832	81.5
250.066	83.5
250.299	76.5
250.532	92.5
250.765	85.5
250.998	76.5
251.231	88.5
251.465	86.5
251.698	92.5
251.931	80.5
252.164	81.5
252.397	88.5
252.63	56.5
252.863	80.5
253.096	68.5
253.329	94.5
253.562	77.5
253.795	83.5
254.028	79.5
254.261	77.5
254.494	81.5
254.727	83.5
254.96	62.5
255.193	94.5
255.426	82.5
255.659	82.5
255.892	73.5
256.124	87.5
256.357	87.5
256.59	77.5
256.823	76.5
257.056	82.5
257.289	60.5
257.521	73.5
257.754	81.5
257.987	98.5
258.22	84.5
258.452	80.5
258.685	80.5
258.918	76.5
259.151	73.5
259.383	91.5
259.616	88.5
259.849	81.5
260.081	78.5
260.314	93.5
260.547	95.5
260.779	88.5
261.012	79.5
261.244	74.5
261.477	90.5
261.71	88.5
261.942	106.5
262.175	118.5
262.407	95.5
262.64	76.5
262.872	79.5
263.105	89.5
263.337	93.5
263.57	104.5
263.802	95.5
264.035	72.5
264.267	80.5
264.499	80.5
264.732	82.5
264.964	94.5
265.197	79.5
265.429	90.5
265.661	80.5
265.894	92.5
266.126	74.5
266.358	80.5
266.591	87.5
266.823	83.5
267.055	91.5
267.287	95.5
267.52	89.5
267.752	83.5
267.984	77.5
268.216	97.5
268.448	79.5
268.681	101.5
268.913	83.5
269.145	83.5
269.377	97.5
269.609	76.5
269.841	91.5
270.073	81.5
270.306	86.5
270.538	87.5
270.77	82.5
271.002	91.5
271.234	90.5
271.466	86.5
271.698	89.5
271.93	93.5
272.162	84.5
272.394	93.5
272.626	81.5
272.858	89.5
273.09	79.5
273.322	84.5
273.553	76.5
273.785	92.5
274.017	84.5
274.249	62.5
274.481	84.5
274.713	105.5
274.945	73.5
275.176	73.5
275.408	98.5
275.64	83.5
275.872	78.5
276.104	96.5
276.335	99.5
276.567	99.5
276.799	98.5
277.031	105.5
277.262	91.5
277.494	87.5
277.726	75.5
277.957	83.5
278.189	82.5
278.421	84.5
278.652	86.5
278.884	97.5
279.115	82.5
279.347	90.5
279.579	84.5
279.81	85.5
280.042	85.5
280.273	101.5
280.505	92.5
280.736	99.5
280.968	101.5
281.199	95.5
281.431	91.5
281.662	85.5
281.894	99.5
282.125	91.5
282.356	105.5
282.588	144.5
282.819	112.5
283.051	97.5
283.282	88.5
283.513	85.5
283.745	102.5
283.976	86.5
284.207	78.5
284.439	102.5
284.67	82.5
284.901	97.5
285.132	86.5
285.364	92.5
285.595	72.5
285.826	81.5
286.057	89.5
286.288	76.5
286.52	103.5
286.751	86.5
286.982	89.5
287.213	91.5
287.444	91.5
287.675	93.5
287.906	82.5
288.138	82.5
288.369	97.5
288.6	100.5
288.831	83.5
289.062	81.5
289.293	81.5
289.524	89.5
289.755	93.5
289.986	83.5
290.217	80.5
290.448	75.5
290.679	80.5
290.91	84.5
291.141	89.5
291.371	98.5
291.602	84.5
291.833	85.5
292.064	94.5
292.295	93.5
292.526	86.5
292.757	79.5
292.987	98.5
293.218	100.5
293.449	95.5
293.68	89.5
293.91	77.5
294.141	92.5
294.372	92.5
294.603	108.5
294.833	90.5
295.064	90.5
295.295	73.5
295.525	85.5
295.756	104.5
295.987	109.5
296.217	141.5
296.448	127.5
296.679	103.5
296.909	110.5
297.14	83.5
297.37	82.5
297.601	90.5
297.831	80.5
298.062	105.5
298.292	94.5
298.523	99.5
298.753	89.5
298.984	81.5
299.214	108.5
299.445	102.5
299.675	94.5
299.905	99.5
300.136	90.5
300.366	99.5
300.597	84.5
300.827	93.5
301.057	102.5
301.288	107.5
301.518	102.5
301.748	84.5
301.979	99.5
302.209	98.5
302.439	79.5
302.669	80.5
302.9	84.5
303.13	95.5
303.36	93.5
303.59	96.5
303.82	98.5
304.051	93.5
304.281	84.5
304.511	98.5
304.741	86.5
304.971	82.5
305.201	97.5
305.431	93.5
305.661	94.5
305.891	83.5
306.121	95.5
306.352	95.5
306.582	95.5
306.812	103.5
307.042	112.5
307.272	85.5
307.502	98.5
307.731	88.5
307.961	80.5
308.191	88.5
308.421	73.5
308.651	81.5
308.881	103.5
309.111	85.5
309.341	108.5
309.571	96.5
309.8	102.5
310.03	112.5
310.26	98.5
310.49	93.5
310.72	99.5
310.949	100.5
311.179	84.5
311.409	84.5
311.639	92.5
311.868	114.5
312.098	106.5
312.328	80.5
312.557	108.5
312.787	111.5
313.017	106.5
313.246	95.5
313.476	87.5
313.706	96.5
313.935	96.5
314.165	93.5
314.394	82.5
314.624	101.5
314.853	97.5
315.083	95.5
315.312	105.5
315.542	108.5
315.771	95.5
316.001	91.5
316.23	99.5
316.46	84.5
316.689	78.5
316.919	94.5
317.148	81.5
317.377	77.5
317.607	97.5
317.836	96.5
318.065	97.5
318.295	100.5
318.524	99.5
318.753	89.5
318.983	82.5
319.212	96.5
319.441	101.5
319.67	110.5
319.9	82.5
320.129	90.5
320.358	98.5
320.587	103.5
320.816	94.5
321.046	99.5
321.275	104.5
321.504	99.5
321.733	104.5
321.962	99.5
322.191	86.5
322.42	122.5
322.649	109.5
322.878	116.5
323.108	122.5
323.337	126.5
323.566	127.5
323.795	160.5
324.024	212.5
324.253	410.5
324.482	882.5
324.71	1789.5
324.939	2413.5
325.168	897.5
325.397	252.5
325.626	155.5
325.855	132.5
326.084	110.5
326.313	124.5
326.542	150.5
326.77	232.5
326.999	508.5
327.228	1016.5
327.457	1837.5
327.686	1450.5
327.914	386.5
328.143	202.5
328.372	153.5
328.6	138.5
328.829	122.5
329.058	112.5
329.287	121.5
329.515	113.5
329.744	111.5
329.972	99.5
330.201	101.5
330.43	100.5
330.658	126.5
330.887	148.5
331.115	130.5
331.344	109.5
331.572	106.5
331.801	106.5
332.03	102.5
332.258	94.5
332.486	110.5
332.715	126.5
332.943	76.5
333.172	92.5
333.4	107.5
333.629	117.5
333.857	109.5
334.085	100.5
334.314	93.5
334.542	80.5
334.771	86.5
334.999	111.5
335.227	75.5
335.455	81.5
335.684	105.5
335.912	89.5
336.14	91.5
336.369	82.5
336.597	90.5
336.825	92.5
337.053	95.5
337.281	102.5
337.51	94.5
337.738	92.5
337.966	93.5
338.194	102.5
338.422	93.5
338.65	88.5
338.878	80.5
339.106	92.5
339.334	100.5
339.562	96.5
339.79	78.5
340.018	96.5
340.246	83.5
340.474	84.5
340.702	96.5
340.93	93.5
341.158	106.5
341.386	95.5
341.614	88.5
341.842	87.5
342.07	80.5
342.298	89.5
342.526	97.5
342.754	102.5
342.981	79.5
343.209	82.5
343.437	106.5
343.665	88.5
343.893	92.5
344.12	86.5
344.348	102.5
344.576	81.5
344.804	82.5
345.031	98.5
345.259	99.5
345.487	93.5
345.714	87.5
345.942	92.5
346.17	91.5
346.397	84.5
346.625	96.5
346.853	86.5
347.08	88.5
347.308	93.5
347.535	91.5
347.763	88.5
347.99	99.5
348.218	106.5
348.445	95.5
348.673	90.5
348.9	95.5
349.128	85.5
349.355	86.5
349.583	94.5
349.81	95.5
350.037	77.5
350.265	94.5
350.492	104.5
350.72	96.5
350.947	98.5
351.174	107.5
351.402	93.5
351.629	100.5
351.856	101.5
352.083	100.5
352.311	95.5
352.538	108.5
352.765	90.5
352.992	110.5
353.22	105.5
353.447	111.5
353.674	94.5
353.901	106.5
354.128	101.5
354.355	101.5
354.583	83.5
354.81	96.5
355.037	98.5
355.264	97.5
355.491	87.5
355.718	92.5
355.945	93.5
356.172	96.5
356.399	95.5
356.626	89.5
356.853	93.5
357.08	100.5
357.307	89.5
357.534	94.5
357.761	91.5
357.988	91.5
358.215	90.5
358.441	98.5
358.668	81.5
358.895	76.5
359.122	113.5
359.349	76.5
359.576	93.5
359.802	102.5
360.029	115.5
360.256	102.5
360.483	108.5
360.709	76.5
360.936	89.5
361.163	78.5
361.39	99.5
361.616	88.5
361.843	79.5
362.07	100.5
362.296	99.5
362.523	84.5
362.749	84.5
362.976	81.5
363.203	100.5
363.429	99.5
363.656	89.5
363.882	79.5
364.109	96.5
364.335	92.5
364.562	85.5
364.788	87.5
365.015	97.5
365.241	104.5
365.468	102.5
365.694	103.5
365.92	90.5
366.147	91.5
366.373	103.5
366.599	88.5
366.826	83.5
367.052	82.5
367.278	73.5
367.505	92.5
367.731	90.5
367.957	78.5
368.184	96.5
368.41	111.5
368.636	116.5
368.862	128.5
369.089	103.5
369.315	95.5
369.541	88.5
369.767	91.5
369.993	94.5
370.219	89.5
370.445	88.5
370.672	95.5
370.898	88.5
371.124	89.5
371.35	101.5
371.576	86.5
371.802	81.5
372.028	89.5
372.254	95.5
372.48	87.5
372.706	95.5
372.932	90.5
373.158	83.5
373.384	92.5
373.61	90.5
373.835	88.5
374.061	103.5
374.287	86.5
374.513	100.5
374.739	100.5
374.965	83.5
375.191	95.5
375.416	91.5
375.642	84.5
375.868	94.5
376.094	93.5
376.319	99.5
376.545	92.5
376.771	82.5
376.997	85.5
377.222	96.5
377.448	107.5
377.674	96.5
377.899	81.5
378.125	83.5
378.35	90.5
378.576	86.5
378.802	83.5
379.027	92.5
379.253	94.5
379.478	92.5
379.704	80.5
379.929	85.5
380.155	83.5
380.38	94.5
380.606	92.5
380.831	93.5
381.057	110.5
381.282	91.5
381.507	103.5
381.733	94.5
381.958	99.5
382.184	101.5
382.409	96.5
382.634	99.5
382.86	92.5
383.085	91.5
383.31	89.5
383.535	86.5
383.761	81.5
383.986	102.5
384.211	95.5
384.436	101.5
384.662	112.5
384.887	108.5
385.112	103.5
385.337	101.5
385.562	112.5
385.787	99.5
386.013	112.5
386.238	89.5
386.463	89.5
386.688	105.5
386.913	105.5
387.138	102.5
387.363	96.5
387.588	104.5
387.813	83.5
388.038	106.5
388.263	97.5
388.488	103.5
388.713	100.5
388.938	98.5
389.163	105.5
389.387	84.5
389.612	88.5
389.837	107.5
390.062	92.5
390.287	99.5
390.512	91.5
390.736	89.5
390.961	89.5
391.186	97.5
391.411	96.5
391.636	88.5
391.86	77.5
392.085	79.5
392.31	77.5
392.534	80.5
392.759	83.5
392.984	79.5
393.208	86.5
393.433	76.5
393.658	82.5
393.882	99.5
394.107	92.5
394.331	81.5
394.556	85.5
394.78	85.5
395.005	80.5
395.229	72.5
395.454	88.5
395.678	71.5
395.903	88.5
396.127	104.5
396.352	96.5
396.576	81.5
396.801	84.5
397.025	88.5
397.249	82.5
397.474	89.5
397.698	92.5
397.922	85.5
398.147	94.5
398.371	78.5
398.595	84.5
398.82	90.5
399.044	97.5
399.268	101.5
399.492	85.5
399.717	86.5
399.941	88.5
400.165	88.5
400.389	90.5
400.613	94.5
400.837	86.5
401.062	103.5
401.286	85.5
401.51	92.5
401.734	90.5
401.958	101.5
402.182	124.5
402.406	144.5
402.63	106.5
402.854	85.5
403.078	90.5
403.302	88.5
403.526	96.5
403.75	88.5
403.974	76.5
404.198	82.5
404.422	91.5
404.645	99.5
404.869	93.5
405.093	109.5
405.317	91.5
405.541	86.5
405.765	94.5
405.988	124.5
406.212	172.5
406.436	234.5
406.66	152.5
406.883	94.5
407.107	102.5
407.331	93.5
407.555	105.5
407.778	93.5
408.002	86.5
408.226	82.5
408.449	79.5
408.673	85.5
408.896	84.5
409.12	85.5
409.344	83.5
409.567	85.5
409.791	92.5
410.014	81.5
410.238	88.5
410.461	94.5
410.685	83.5
410.908	97.5
411.132	110.5
411.355	106.5
411.578	93.5
411.802	95.5
412.025	79.5
412.249	86.5
412.472	89.5
412.695	84.5
412.919	95.5
413.142	96.5
413.365	77.5
413.589	93.5
413.812	98.5
414.035	108.5
414.258	92.5
414.482	107.5
414.705	95.5
414.928	93.5
415.151	99.5
415.374	89.5
415.597	93.5
415.821	90.5
416.044	83.5
416.267	83.5
416.49	83.5
416.713	92.5
416.936	85.5
417.159	74.5
417.382	96.5
417.605	94.5
417.828	93.5
418.051	79.5
418.274	95.5
418.497	78.5
418.72	73.5
418.943	86.5
419.166	84.5
419.389	93.5
419.611	97.5
419.834	74.5
420.057	86.5
420.28	97.5
420.503	85.5
420.726	75.5
420.948	91.5
421.171	79.5
421.394	74.5
421.617	77.5
421.839	79.5
422.062	93.5
422.285	86.5
422.507	116.5
422.73	90.5
422.953	86.5
423.175	84.5
423.398	92.5
423.621	84.5
423.843	78.5
424.066	65.5
424.288	97.5
424.511	93.5
424.733	101.5
424.956	104.5
425.178	97.5
425.401	89.5
425.623	92.5
425.846	86.5
426.068	88.5
426.291	90.5
426.513	92.5
426.735	100.5
426.958	100.5
427.18	96.5
427.402	143.5
427.625	155.5
427.847	107.5
428.069	100.5
428.292	85.5
428.514	84.5
428.736	73.5
428.958	94.5
429.181	93.5
429.403	82.5
429.625	84.5
429.847	95.5
430.069	102.5
430.292	96.5
430.514	78.5
430.736	97.5
430.958	86.5
431.18	77.5
431.402	73.5
431.624	93.5
431.846	75.5
432.068	87.5
432.29	90.5
432.512	106.5
432.734	101.5
432.956	90.5
433.178	110.5
433.4	105.5
433.622	79.5
433.844	86.5
434.066	83.5
434.287	76.5
434.509	91.5
434.731	85.5
434.953	82.5
435.175	85.5
435.397	72.5
435.618	72.5
435.84	96.5
436.062	126.5
436.284	120.5
436.505	89.5
436.727	92.5
436.949	89.5
437.17	83.5
437.392	85.5
437.614	81.5
437.835	107.5
438.057	129.5
438.278	108.5
438.5	111.5
438.721	121.5
438.943	92.5
439.165	85.5
439.386	89.5
439.608	91.5
439.829	104.5
440.05	122.5
440.272	134.5
440.493	92.5
440.715	96.5
440.936	93.5
441.158	90.5
441.379	93.5
441.6	97.5
441.822	94.5
442.043	90.5
442.264	117.5
442.486	105.5
442.707	94.5
442.928	106.5
443.149	134.5
443.371	150.5
443.592	105.5
443.813	119.5
444.034	96.5
444.255	87.5
444.476	81.5
444.698	74.5
444.919	70.5
445.14	116.5
445.361	115.5
445.582	106.5
445.803	142.5
446.024	156.5
446.245	128.5
446.466	116.5
446.687	85.5
446.908	86.5
447.129	96.5
447.35	93.5
447.571	86.5
447.792	95.5
448.013	95.5
448.234	105.5
448.455	93.5
448.675	111.5
448.896	132.5
449.117	101.5
449.338	107.5
449.559	134.5
449.779	129.5
450	113.5
450.221	83.5
450.442	94.5
450.662	89.5
450.883	102.5
451.104	131.5
451.324	98.5
451.545	96.5
451.766	82.5
451.986	95.5
452.207	97.5
452.428	92.5
452.648	88.5
452.869	98.5
453.089	102.5
453.31	118.5
453.53	99.5
453.751	95.5
453.971	96.5
454.192	99.5
454.412	74.5
454.633	95.5
454.853	89.5
455.073	85.5
455.294	97.5
455.514	110.5
455.734	92.5
455.955	84.5
456.175	77.5
456.395	83.5
456.616	86.5
456.836	82.5
457.056	94.5
457.276	99.5
457.497	90.5
457.717	84.5
457.937	88.5
458.157	84.5
458.377	84.5
458.598	99.5
458.818	139.5
459.038	152.5
459.258	117.5
459.478	104.5
459.698	74.5
459.918	84.5
460.138	93.5
460.358	84.5
460.578	92.5
460.798	80.5
461.018	86.5
461.238	72.5
461.458	101.5
461.678	84.5
461.898	86.5
462.118	80.5
462.338	79.5
462.558	89.5
462.777	87.5
462.997	83.5
463.217	85.5
463.437	84.5
463.657	95.5
463.876	94.5
464.096	85.5
464.316	95.5
464.536	101.5
464.755	108.5
464.975	104.5
465.195	149.5
465.414	161.5
465.634	97.5
465.854	90.5
466.073	77.5
466.293	99.5
466.512	80.5
466.732	92.5
466.951	93.5
467.171	97.5
467.391	100.5
467.61	118.5
467.829	106.5
468.049	95.5
468.268	83.5
468.488	97.5
468.707	93.5
468.927	88.5
469.146	90.5
469.365	87.5
469.585	92.5
469.804	95.5
470.023	93.5
470.243	86.5
470.462	118.5
470.681	108.5
470.901	90.5
471.12	98.5
471.339	77.5
471.558	94.5
471.777	92.5
471.997	97.5
472.216	109.5
472.435	88.5
472.654	82.5
472.873	97.5
473.092	85.5
473.311	84.5
473.53	81.5
473.749	84.5
473.968	97.5
474.187	100.5
474.406	95.5
474.625	81.5
474.844	97.5
475.063	81.5
475.282	89.5
475.501	80.5
475.72	88.5
475.939	91.5
476.158	85.5
476.377	86.5
476.596	93.5
476.814	83.5
477.033	90.5
477.252	81.5
477.471	81.5
477.69	77.5
477.908	101.5
478.127	86.5
478.346	101.5
478.564	93.5
478.783	84.5
479.002	95.5
479.22	97.5
479.439	87.5
479.658	92.5
479.876	89.5
480.095	69.5
480.313	76.5
480.532	88.5
480.751	83.5
480.969	99.5
481.188	99.5
481.406	90.5
481.624	85.5
481.843	88.5
482.061	89.5
482.28	100.5
482.498	84.5
482.717	82.5
482.935	90.5
483.153	74.5
483.372	75.5
483.59	96.5
483.808	90.5
484.027	91.5
484.245	112.5
484.463	91.5
484.681	83.5
484.9	92.5
485.118	93.5
485.336	91.5
485.554	93.5
485.772	98.5
485.99	94.5
486.209	93.5
486.427	88.5
486.645	89.5
486.863	98.5
487.081	84.5
487.299	96.5
487.517	105.5
487.735	93.5
487.953	105.5
488.171	96.5
488.389	95.5
488.607	104.5
488.825	84.5
489.043	87.5
489.261	83.5
489.479	92.5
489.696	97.5
489.914	90.5
490.132	99.5
490.35	79.5
490.568	91.5
490.786	94.5
491.003	79.5
491.221	96.5
491.439	97.5
491.657	82.5
491.874	81.5
492.092	91.5
492.31	92.5
492.527	86.5
492.745	90.5
492.963	99.5
493.18	101.5
493.398	90.5
493.615	94.5
493.833	94.5
494.05	83.5
494.268	95.5
494.485	104.5
494.703	96.5
494.92	86.5
495.138	75.5
495.355	95.5
495.573	80.5
495.79	104.5
496.008	90.5
496.225	99.5
496.442	104.5
496.66	101.5
496.877	107.5
497.094	97.5
497.312	91.5
497.529	99.5
497.746	93.5
497.963	85.5
498.181	79.5
498.398	91.5
498.615	101.5
498.832	108.5
499.049	85.5
499.267	92.5
499.484	84.5
499.701	81.5
499.918	99.5
500.135	77.5
500.352	95.5
500.569	93.5
500.786	96.5
501.003	98.5
501.22	91.5
501.437	98.5
501.654	86.5
501.871	94.5
502.088	82.5
502.305	100.5
502.522	90.5
502.739	80.5
502.956	105.5
503.172	100.5
503.389	103.5
503.606	89.5
503.823	93.5
504.04	95.5
504.256	94.5
504.473	96.5
504.69	92.5
504.907	91.5
505.123	88.5
505.34	84.5
505.557	109.5
505.773	87.5
505.99	95.5
506.207	95.5
506.423	102.5
506.64	100.5
506.856	83.5
507.073	88.5
507.289	110.5
507.506	105.5
507.722	106.5
507.939	121.5
508.155	107.5
508.372	97.5
508.588	99.5
508.805	96.5
509.021	100.5
509.238	102.5
509.454	100.5
509.67	102.5
509.887	115.5
510.103	138.5
510.319	206.5
510.536	794.5
510.752	2540.5
510.968	700.5
511.184	166.5
511.401	108.5
511.617	113.5
511.833	85.5
512.049	96.5
512.265	92.5
512.481	95.5
512.698	90.5
512.914	101.5
513.13	104.5
513.346	102.5
513.562	95.5
513.778	104.5
513.994	93.5
514.21	103.5
514.426	108.5
514.642	122.5
514.858	119.5
515.074	156.5
515.29	458.5
515.506	1531.5
515.721	565.5
515.937	164.5
516.153	123.5
516.369	94.5
516.585	86.5
516.801	97.5
517.016	100.5
517.232	94.5
517.448	95.5
517.664	92.5
517.879	95.5
518.095	101.5
518.311	85.5
518.527	88.5
518.742	96.5
518.958	93.5
519.173	91.5
519.389	96.5
519.605	105.5
519.82	90.5
520.036	101.5
520.251	111.5
520.467	115.5
520.682	99.5
520.898	98.5
521.113	105.5
521.329	109.5
521.544	200.5
521.76	587.5
521.975	2554.5
522.19	1538.5
522.406	329.5
522.621	129.5
522.836	97.5
523.052	98.5
523.267	107.5
523.482	86.5
523.698	92.5
523.913	117.5
524.128	95.5
524.343	93.5
524.559	97.5
524.774	83.5
524.989	101.5
525.204	103.5
525.419	99.5
525.634	94.5
525.849	96.5
526.064	96.5
526.28	87.5
526.495	86.5
526.71	92.5
526.925	98.5
527.14	111.5
527.355	80.5
527.57	93.5
527.785	92.5
527.999	93.5
528.214	83.5
528.429	89.5
528.644	94.5
528.859	106.5
529.074	85.5
529.289	120.5
529.503	170.5
529.718	105.5
529.933	87.5
530.148	99.5
530.363	102.5
530.577	97.5
530.792	86.5
531.007	89.5
531.221	90.5
531.436	88.5
531.651	95.5
531.865	83.5
532.08	86.5
532.295	88.5
532.509	91.5
532.724	87.5
532.938	81.5
533.153	87.5
533.367	96.5
533.582	90.5
533.796	90.5
534.011	93.5
534.225	98.5
534.44	89.5
534.654	90.5
534.868	105.5
535.083	109.5
535.297	93.5
535.511	102.5
