Data from Uncirc_2007_H10_HRD10591_00093.txt Node
Date: Wed Jan 03 10:21:01 EST 2024
User: Yrep
Spectrometer: HR+D1059
Trigger mode: 1
Integration Time (sec): 1.000000E-1
Scans to average: 1
Electric dark correction enabled: true
Nonlinearity correction enabled: false
Boxcar width: 0
XAxis mode: Wavelengths
Number of Pixels in Spectrum: 2048
>>>>>Begin Spectral Data<<<<<
223.165	-11
223.4	-11
223.635	-11
223.869	-24
224.104	-35
224.338	-12
224.573	-17
224.808	-10
225.042	-1
225.277	-4
225.511	1
225.746	-9
225.98	13
226.215	14
226.449	23
226.683	23
226.918	29
227.152	20
227.387	33
227.621	33
227.856	43
228.09	43
228.324	43
228.559	68
228.793	60
229.027	66
229.262	80
229.496	83
229.73	72
229.964	75
230.199	74
230.433	87
230.667	87
230.901	76
231.136	85
231.37	68
231.604	83
231.838	84
232.072	100
232.306	84
232.541	83
232.775	86
233.009	91
233.243	81
233.477	91
233.711	85
233.945	78
234.179	64
234.413	86
234.647	86
234.881	72
235.115	78
235.349	78
235.583	82
235.817	90
236.051	91
236.285	84
236.519	67
236.753	79
236.987	71
237.221	98
237.455	89
237.689	77
237.922	77
238.156	84
238.39	81
238.624	77
238.858	68
239.091	79
239.325	84
239.559	87
239.793	71
240.027	80
240.26	78
240.494	76
240.728	79
240.961	86
241.195	83
241.429	75
241.662	74
241.896	71
242.13	81
242.363	67
242.597	86
242.83	85
243.064	94
243.298	85
243.531	86
243.765	70
243.998	69
244.232	79
244.465	79
244.699	89
244.932	75
245.166	79
245.399	80
245.633	82
245.866	79
246.099	85
246.333	76
246.566	84
246.8	74
247.033	82
247.266	77
247.5	70
247.733	70
247.966	74
248.2	73
248.433	83
248.666	65
248.899	86
249.133	82
249.366	101
249.599	112
249.832	68
250.066	73
250.299	74
250.532	78
250.765	82
250.998	74
251.231	77
251.465	69
251.698	85
251.931	75
252.164	83
252.397	97
252.63	87
252.863	85
253.096	89
253.329	73
253.562	85
253.795	82
254.028	85
254.261	89
254.494	79
254.727	94
254.96	79
255.193	81
255.426	76
255.659	74
255.892	90
256.124	86
256.357	87
256.59	78
256.823	82
257.056	91
257.289	84
257.521	79
257.754	79
257.987	95
258.22	92
258.452	81
258.685	93
258.918	86
259.151	77
259.383	86
259.616	77
259.849	83
260.081	79
260.314	96
260.547	96
260.779	85
261.012	89
261.244	89
261.477	88
261.71	92
261.942	111
262.175	105
262.407	97
262.64	81
262.872	91
263.105	95
263.337	83
263.57	81
263.802	89
264.035	88
264.267	82
264.499	75
264.732	83
264.964	83
265.197	91
265.429	100
265.661	90
265.894	87
266.126	82
266.358	107
266.591	88
266.823	83
267.055	82
267.287	89
267.52	79
267.752	93
267.984	90
268.216	77
268.448	73
268.681	83
268.913	87
269.145	91
269.377	83
269.609	94
269.841	90
270.073	75
270.306	78
270.538	79
270.77	81
271.002	92
271.234	82
271.466	98
271.698	86
271.93	99
272.162	89
272.394	99
272.626	92
272.858	81
273.09	80
273.322	85
273.553	85
273.785	83
274.017	88
274.249	88
274.481	94
274.713	83
274.945	86
275.176	79
275.408	97
275.64	80
275.872	91
276.104	82
276.335	98
276.567	98
276.799	111
277.031	100
277.262	102
277.494	86
277.726	85
277.957	81
278.189	92
278.421	87
278.652	108
278.884	95
279.115	90
279.347	95
279.579	88
279.81	92
280.042	97
280.273	85
280.505	93
280.736	91
280.968	87
281.199	77
281.431	86
281.662	82
281.894	100
282.125	101
282.356	135
282.588	141
282.819	117
283.051	82
283.282	95
283.513	85
283.745	90
283.976	91
284.207	94
284.439	83
284.67	89
284.901	82
285.132	90
285.364	97
285.595	72
285.826	89
286.057	86
286.288	89
286.52	97
286.751	93
286.982	101
287.213	97
287.444	83
287.675	93
287.906	91
288.138	102
288.369	95
288.6	96
288.831	81
289.062	83
289.293	74
289.524	86
289.755	84
289.986	86
290.217	83
290.448	94
290.679	84
290.91	91
291.141	79
291.371	106
291.602	100
291.833	90
292.064	91
292.295	89
292.526	86
292.757	90
292.987	89
293.218	102
293.449	77
293.68	101
293.91	94
294.141	80
294.372	97
294.603	104
294.833	89
295.064	79
295.295	91
295.525	92
295.756	93
295.987	119
296.217	138
296.448	110
296.679	92
296.909	100
297.14	93
297.37	98
297.601	97
297.831	99
298.062	93
298.292	94
298.523	86
298.753	98
298.984	105
299.214	98
299.445	99
299.675	95
299.905	82
300.136	78
300.366	102
300.597	93
300.827	94
301.057	101
301.288	105
301.518	99
301.748	102
301.979	103
302.209	83
302.439	77
302.669	91
302.9	86
303.13	94
303.36	107
303.59	101
303.82	97
304.051	101
304.281	107
304.511	83
304.741	97
304.971	81
305.201	87
305.431	97
305.661	100
305.891	90
306.121	86
306.352	105
306.582	96
306.812	88
307.042	90
307.272	107
307.502	99
307.731	85
307.961	102
308.191	77
308.421	94
308.651	88
308.881	92
309.111	76
309.341	100
309.571	109
309.8	98
310.03	110
310.26	114
310.49	102
310.72	116
310.949	97
311.179	120
311.409	91
311.639	104
311.868	93
312.098	100
312.328	90
312.557	102
312.787	98
313.017	103
313.246	88
313.476	91
313.706	89
313.935	100
314.165	96
314.394	119
314.624	103
314.853	95
315.083	95
315.312	99
315.542	91
315.771	105
316.001	86
316.23	87
316.46	94
316.689	86
316.919	91
317.148	97
317.377	84
317.607	105
317.836	106
318.065	95
318.295	97
318.524	97
318.753	92
318.983	91
319.212	99
319.441	118
319.67	107
319.9	99
320.129	90
320.358	100
320.587	96
320.816	102
321.046	100
321.275	99
321.504	106
321.733	105
321.962	103
322.191	105
322.42	111
322.649	104
322.878	110
323.108	133
323.337	117
323.566	137
323.795	158
324.024	227
324.253	444
324.482	953
324.71	2051
324.939	2701
325.168	939
325.397	251
325.626	159
325.855	121
326.084	126
326.313	127
326.542	149
326.77	249
326.999	517
327.228	1088
327.457	2035
327.686	1609
327.914	416
328.143	197
328.372	153
328.6	134
328.829	143
329.058	126
329.287	139
329.515	123
329.744	115
329.972	87
330.201	105
330.43	102
330.658	122
330.887	147
331.115	132
331.344	90
331.572	118
331.801	106
332.03	98
332.258	109
332.486	94
332.715	94
332.943	90
333.172	87
333.4	102
333.629	122
333.857	100
334.085	94
334.314	94
334.542	106
334.771	89
334.999	97
335.227	100
335.455	105
335.684	97
335.912	108
336.14	114
336.369	97
336.597	91
336.825	96
337.053	91
337.281	85
337.51	92
337.738	101
337.966	92
338.194	111
338.422	112
338.65	95
338.878	96
339.106	96
339.334	93
339.562	85
339.79	97
340.018	99
340.246	87
340.474	86
340.702	94
340.93	94
341.158	97
341.386	83
341.614	96
341.842	87
342.07	89
342.298	95
342.526	77
342.754	104
342.981	86
343.209	77
343.437	107
343.665	92
343.893	82
344.12	85
344.348	105
344.576	93
344.804	100
345.031	96
345.259	99
345.487	95
345.714	89
345.942	75
346.17	103
346.397	97
346.625	86
346.853	88
347.08	103
347.308	87
347.535	107
347.763	110
347.99	102
348.218	87
348.445	90
348.673	107
348.9	97
349.128	99
349.355	95
349.583	87
349.81	101
350.037	82
350.265	95
350.492	105
350.72	92
350.947	107
351.174	107
351.402	112
351.629	112
351.856	101
352.083	90
352.311	108
352.538	101
352.765	117
352.992	117
353.22	117
353.447	96
353.674	95
353.901	106
354.128	110
354.355	102
354.583	113
354.81	100
355.037	88
355.264	96
355.491	88
355.718	69
355.945	83
356.172	89
356.399	91
356.626	87
356.853	90
357.08	93
357.307	96
357.534	91
357.761	93
357.988	91
358.215	84
358.441	89
358.668	82
358.895	110
359.122	90
359.349	91
359.576	94
359.802	96
360.029	124
360.256	134
360.483	93
360.709	85
360.936	98
361.163	97
361.39	96
361.616	98
361.843	91
362.07	87
362.296	101
362.523	97
362.749	104
362.976	92
363.203	88
363.429	86
363.656	87
363.882	88
364.109	91
364.335	101
364.562	93
364.788	89
365.015	100
365.241	99
365.468	102
365.694	103
365.92	110
366.147	91
366.373	88
366.599	80
366.826	83
367.052	86
367.278	98
367.505	92
367.731	91
367.957	86
368.184	88
368.41	95
368.636	109
368.862	118
369.089	97
369.315	102
369.541	89
369.767	98
369.993	86
370.219	101
370.445	95
370.672	86
370.898	76
371.124	95
371.35	92
371.576	83
371.802	84
372.028	80
372.254	89
372.48	92
372.706	91
372.932	91
373.158	78
373.384	94
373.61	100
373.835	101
374.061	83
374.287	94
374.513	102
374.739	95
374.965	82
375.191	88
375.416	90
375.642	94
375.868	92
376.094	96
376.319	87
376.545	90
376.771	87
376.997	89
377.222	95
377.448	82
377.674	77
377.899	97
378.125	112
378.35	93
378.576	97
378.802	99
379.027	93
379.253	91
379.478	93
379.704	88
379.929	101
380.155	97
380.38	88
380.606	91
380.831	80
381.057	105
381.282	93
381.507	91
381.733	90
381.958	95
382.184	112
382.409	103
382.634	98
382.86	92
383.085	86
383.31	104
383.535	113
383.761	101
383.986	93
384.211	101
384.436	92
384.662	102
384.887	102
385.112	107
385.337	113
385.562	110
385.787	113
386.013	111
386.238	110
386.463	107
386.688	121
386.913	111
387.138	97
387.363	101
387.588	98
387.813	109
388.038	108
388.263	110
388.488	111
388.713	105
388.938	102
389.163	95
389.387	106
389.612	95
389.837	82
390.062	95
390.287	89
390.512	93
390.736	99
390.961	94
391.186	103
391.411	106
391.636	86
391.86	79
392.085	90
392.31	78
392.534	91
392.759	81
392.984	93
393.208	85
393.433	87
393.658	82
393.882	92
394.107	75
394.331	103
394.556	85
394.78	90
395.005	89
395.229	96
395.454	73
395.678	91
395.903	97
396.127	97
396.352	91
396.576	93
396.801	102
397.025	81
397.249	88
397.474	98
397.698	82
397.922	81
398.147	98
398.371	94
398.595	91
398.82	84
399.044	82
399.268	84
399.492	71
399.717	85
399.941	96
400.165	101
400.389	97
400.613	74
400.837	108
401.062	90
401.286	95
401.51	77
401.734	89
401.958	107
402.182	131
402.406	159
402.63	108
402.854	91
403.078	100
403.302	83
403.526	98
403.75	97
403.974	99
404.198	83
404.422	85
404.645	99
404.869	87
405.093	99
405.317	90
405.541	101
405.765	121
405.988	116
406.212	165
406.436	229
406.66	160
406.883	100
407.107	100
407.331	99
407.555	119
407.778	100
408.002	92
408.226	93
408.449	87
408.673	82
408.896	91
409.12	99
409.344	93
409.567	102
409.791	80
410.014	99
410.238	105
410.461	85
410.685	99
410.908	95
411.132	96
411.355	103
411.578	92
411.802	86
412.025	93
412.249	95
412.472	97
412.695	80
412.919	81
413.142	92
413.365	87
413.589	82
413.812	81
414.035	97
414.258	113
414.482	106
414.705	95
414.928	79
415.151	88
415.374	96
415.597	95
415.821	98
416.044	85
416.267	88
416.49	89
416.713	100
416.936	106
417.159	98
417.382	92
417.605	97
417.828	87
418.051	76
418.274	93
418.497	80
418.72	94
418.943	89
419.166	86
419.389	100
419.611	98
419.834	94
420.057	89
420.28	88
420.503	82
420.726	95
420.948	97
421.171	93
421.394	98
421.617	95
421.839	93
422.062	89
422.285	93
422.507	104
422.73	105
422.953	86
423.175	94
423.398	92
423.621	81
423.843	94
424.066	87
424.288	102
424.511	87
424.733	89
424.956	103
425.178	100
425.401	94
425.623	101
425.846	99
426.068	87
426.291	79
426.513	94
426.735	97
426.958	107
427.18	105
427.402	133
427.625	192
427.847	144
428.069	83
428.292	92
428.514	91
428.736	93
428.958	85
429.181	79
429.403	90
429.625	93
429.847	94
430.069	96
430.292	96
430.514	95
430.736	83
430.958	89
431.18	114
431.402	78
431.624	75
431.846	83
432.068	86
432.29	84
432.512	96
432.734	93
432.956	83
433.178	98
433.4	101
433.622	98
433.844	101
434.066	93
434.287	98
434.509	105
434.731	91
434.953	98
435.175	96
435.397	85
435.618	103
435.84	101
436.062	131
436.284	121
436.505	112
436.727	100
436.949	103
437.17	85
437.392	86
437.614	91
437.835	109
438.057	107
438.278	98
438.5	106
438.721	135
438.943	115
439.165	103
439.386	90
439.608	101
439.829	98
440.05	123
440.272	140
440.493	107
440.715	85
440.936	75
441.158	87
441.379	87
441.6	107
441.822	99
442.043	92
442.264	100
442.486	110
442.707	92
442.928	99
443.149	147
443.371	141
443.592	110
443.813	126
444.034	122
444.255	95
444.476	98
444.698	83
444.919	80
445.14	138
445.361	132
445.582	113
445.803	150
446.024	145
446.245	124
446.466	111
446.687	93
446.908	99
447.129	78
447.35	106
447.571	95
447.792	93
448.013	111
448.234	96
448.455	101
448.675	116
448.896	119
449.117	107
449.338	102
449.559	133
449.779	157
450	99
450.221	78
450.442	88
450.662	91
450.883	112
451.104	118
451.324	98
451.545	97
451.766	85
451.986	103
452.207	98
452.428	86
452.648	105
452.869	86
453.089	127
453.31	116
453.53	111
453.751	86
453.971	103
454.192	106
454.412	95
454.633	82
454.853	76
455.073	92
455.294	101
455.514	99
455.734	97
455.955	82
456.175	84
456.395	84
456.616	91
456.836	84
457.056	80
457.276	97
457.497	97
457.717	91
457.937	86
458.157	99
458.377	105
458.598	118
458.818	164
459.038	153
459.258	129
459.478	92
459.698	88
459.918	85
460.138	80
460.358	88
460.578	96
460.798	98
461.018	87
461.238	86
461.458	93
461.678	79
461.898	90
462.118	85
462.338	91
462.558	86
462.777	83
462.997	75
463.217	81
463.437	93
463.657	80
463.876	93
464.096	98
464.316	97
464.536	107
464.755	107
464.975	108
465.195	188
465.414	164
465.634	94
465.854	79
466.073	97
466.293	84
466.512	93
466.732	77
466.951	88
467.171	99
467.391	77
467.61	101
467.829	95
468.049	87
468.268	93
468.488	87
468.707	85
468.927	97
469.146	87
469.365	98
469.585	87
469.804	86
470.023	93
470.243	95
470.462	110
470.681	125
470.901	109
471.12	110
471.339	90
471.558	79
471.777	91
471.997	91
472.216	74
472.435	93
472.654	84
472.873	89
473.092	91
473.311	83
473.53	89
473.749	84
473.968	104
474.187	106
474.406	99
474.625	91
474.844	82
475.063	85
475.282	87
475.501	87
475.72	77
475.939	93
476.158	99
476.377	94
476.596	75
476.814	93
477.033	90
477.252	93
477.471	99
477.69	89
477.908	94
478.127	94
478.346	103
478.564	85
478.783	99
479.002	105
479.22	82
479.439	86
479.658	115
479.876	98
480.095	104
480.313	92
480.532	86
480.751	95
480.969	90
481.188	95
481.406	86
481.624	100
481.843	99
482.061	101
482.28	89
482.498	92
482.717	80
482.935	87
483.153	94
483.372	78
483.59	87
483.808	115
484.027	89
484.245	104
484.463	93
484.681	91
484.9	86
485.118	104
485.336	95
485.554	103
485.772	107
485.99	97
486.209	100
486.427	117
486.645	108
486.863	114
487.081	102
487.299	107
487.517	97
487.735	93
487.953	91
488.171	87
488.389	95
488.607	99
488.825	98
489.043	115
489.261	89
489.479	85
489.696	102
489.914	95
490.132	87
490.35	101
490.568	105
490.786	83
491.003	91
491.221	83
491.439	96
491.657	103
491.874	90
492.092	85
492.31	87
492.527	94
492.745	102
492.963	97
493.18	95
493.398	92
493.615	96
493.833	96
494.05	83
494.268	82
494.485	108
494.703	86
494.92	87
495.138	84
495.355	98
495.573	88
495.79	94
496.008	84
496.225	84
496.442	70
496.66	95
496.877	84
497.094	104
497.312	94
497.529	100
497.746	85
497.963	86
498.181	84
498.398	106
498.615	107
498.832	92
499.049	92
499.267	93
499.484	83
499.701	97
499.918	88
500.135	96
500.352	93
500.569	94
500.786	93
501.003	78
501.22	86
501.437	93
501.654	104
501.871	101
502.088	109
502.305	106
502.522	93
502.739	94
502.956	94
503.172	105
503.389	109
503.606	106
503.823	100
504.04	96
504.256	95
504.473	84
504.69	87
504.907	94
505.123	110
505.34	91
505.557	92
505.773	89
505.99	76
506.207	89
506.423	94
506.64	94
506.856	81
507.073	89
507.289	103
507.506	93
507.722	103
507.939	113
508.155	100
508.372	94
508.588	87
508.805	99
509.021	91
509.238	101
509.454	104
509.67	127
509.887	118
510.103	122
510.319	224
510.536	793
510.752	2629
510.968	740
511.184	174
511.401	114
511.617	96
511.833	95
512.049	81
512.265	78
512.481	85
512.698	101
512.914	94
513.13	100
513.346	103
513.562	94
513.778	101
513.994	105
514.21	103
514.426	123
514.642	147
514.858	125
515.074	172
515.29	503
515.506	1642
515.721	601
515.937	159
516.153	118
516.369	87
516.585	87
516.801	98
517.016	96
517.232	103
517.448	92
517.664	85
517.879	102
518.095	92
518.311	89
518.527	108
518.742	92
518.958	98
519.173	79
519.389	100
519.605	96
519.82	90
520.036	104
520.251	116
520.467	112
520.682	109
520.898	118
521.113	115
521.329	140
521.544	214
521.76	606
521.975	2764
522.19	1683
522.406	360
522.621	141
522.836	117
523.052	110
523.267	101
523.482	104
523.698	112
523.913	136
524.128	103
524.343	98
524.559	94
524.774	95
524.989	105
525.204	106
525.419	107
525.634	108
525.849	81
526.064	80
526.28	84
526.495	101
526.71	80
526.925	99
527.14	88
527.355	82
527.57	88
527.785	89
527.999	101
528.214	105
528.429	92
528.644	92
528.859	102
529.074	102
529.289	122
529.503	193
529.718	119
529.933	100
530.148	97
530.363	91
530.577	97
530.792	95
531.007	78
531.221	103
531.436	105
531.651	102
531.865	82
532.08	79
532.295	96
532.509	102
532.724	80
532.938	95
533.153	85
533.367	76
533.582	85
533.796	82
534.011	90
534.225	89
534.44	90
534.654	91
534.868	86
535.083	96
535.297	89
535.511	89
535.726	107
535.94	104
536.154	110
536.369	95
536.583	76
536.797	85
537.011	79
537.225	100
537.44	100
537.654	102
537.868	87
538.082	102
538.296	114
538.51	95
538.724	82
538.938	97
539.153	116
539.367	110
539.581	106
539.795	94
540.009	106
540.222	102
540.436	81
540.65	103
540.864	93
541.078	101
541.292	94
541.506	93
541.72	98
541.934	86
542.147	91
542.361	76
542.575	90
542.789	89
543.002	99
543.216	98
543.43	95
543.644	86
543.857	101
544.071	98
544.285	96
544.498	92
544.712	93
544.925	105
545.139	92
545.352	101
545.566	84
545.779	84
545.993	93
546.206	93
546.42	105
546.633	97
546.847	91
547.06	92
547.274	95
547.487	95
547.7	91
547.914	90
548.127	91
548.34	83
548.554	87
548.767	84
548.98	92
549.193	90
549.407	93
549.62	92
549.833	75
550.046	96
550.259	84
550.473	101
550.686	93
550.899	94
551.112	99
551.325	87
551.538	87
551.751	94
551.964	84
552.177	77
552.39	95
552.603	88
552.816	89
553.029	98
553.242	97
553.455	94
553.667	99
553.88	116
554.093	99
554.306	95
554.519	83
554.732	93
554.944	79
555.157	85
555.37	103
555.583	98
555.795	103
556.008	96
556.221	92
556.433	97
556.646	85
556.859	91
557.071	82
557.284	81
557.496	97
557.709	95
557.921	88
558.134	79
558.346	103
558.559	102
558.771	93
558.984	91
559.196	90
559.409	94
559.621	95
559.833	109
560.046	98
560.258	95
560.47	102
560.683	80
560.895	95
561.107	92
561.32	99
561.532	94
561.744	90
561.956	90
562.168	97
562.381	94
562.593	92
562.805	93
563.017	90
563.229	77
563.441	87
563.653	93
563.865	103
564.077	83
564.289	95
564.501	90
564.713	101
564.925	94
565.137	112
565.349	95
565.561	89
565.773	84
565.985	87
566.197	97
566.408	78
566.62	99
566.832	92
567.044	90
567.255	94
567.467	86
567.679	102
567.891	99
568.102	82
568.314	87
568.526	91
568.737	98
568.949	99
569.161	92
569.372	83
569.584	98
569.795	97
570.007	116
570.218	269
570.43	147
570.641	111
570.853	109
571.064	79
571.276	94
571.487	86
571.698	86
571.91	85
572.121	78
572.333	81
572.544	94
572.755	89
572.966	83
573.178	80
573.389	89
573.6	81
573.811	93
574.023	91
574.234	81
574.445	99
574.656	94
574.867	96
575.078	89
575.289	75
575.501	82
575.712	98
575.923	86
576.134	97
576.345	86
576.556	100
576.767	84
576.978	92
577.188	94
577.399	86
577.61	100
577.821	101
578.032	113
578.243	289
578.454	847
578.665	220
578.875	96
579.086	85
579.297	86
579.508	86
579.718	101
579.929	107
580.14	77
580.35	93
580.561	90
580.772	93
580.982	87
581.193	75
581.403	92
581.614	87
581.825	91
582.035	86
582.246	87
582.456	96
582.667	72
