Data from Uncirc_2007_H10_HRD10591_00092.txt Node
Date: Wed Jan 03 10:21:01 EST 2024
User: Yrep
Spectrometer: HR+D1059
Trigger mode: 1
Integration Time (sec): 1.000000E-1
Scans to average: 1
Electric dark correction enabled: true
Nonlinearity correction enabled: false
Boxcar width: 0
XAxis mode: Wavelengths
Number of Pixels in Spectrum: 2048
>>>>>Begin Spectral Data<<<<<
223.165	-21.06
223.4	-21.06
223.635	-21.06
223.869	-21.06
224.104	-27.06
224.338	-25.06
224.573	-8.06
224.808	-18.06
225.042	1.94
225.277	6.94
225.511	-1.06
225.746	-2.06
225.98	13.94
226.215	2.94
226.449	15.94
226.683	30.94
226.918	20.94
227.152	29.94
227.387	15.94
227.621	29.94
227.856	40.94
228.09	44.94
228.324	37.94
228.559	42.94
228.793	59.94
229.027	61.94
229.262	55.94
229.496	71.94
229.73	87.94
229.964	74.94
230.199	79.94
230.433	81.94
230.667	76.94
230.901	71.94
231.136	76.94
231.37	84.94
231.604	77.94
231.838	88.94
232.072	79.94
232.306	76.94
232.541	84.94
232.775	77.94
233.009	77.94
233.243	71.94
233.477	63.94
233.711	69.94
233.945	79.94
234.179	71.94
234.413	74.94
234.647	71.94
234.881	75.94
235.115	78.94
235.349	79.94
235.583	77.94
235.817	80.94
236.051	88.94
236.285	75.94
236.519	73.94
236.753	80.94
236.987	69.94
237.221	86.94
237.455	87.94
237.689	89.94
237.922	75.94
238.156	78.94
238.39	66.94
238.624	87.94
238.858	67.94
239.091	70.94
239.325	84.94
239.559	77.94
239.793	75.94
240.027	76.94
240.26	78.94
240.494	82.94
240.728	75.94
240.961	66.94
241.195	68.94
241.429	69.94
241.662	67.94
241.896	77.94
242.13	60.94
242.363	69.94
242.597	82.94
242.83	76.94
243.064	62.94
243.298	68.94
243.531	70.94
243.765	67.94
243.998	74.94
244.232	64.94
244.465	77.94
244.699	83.94
244.932	69.94
245.166	75.94
245.399	86.94
245.633	79.94
245.866	69.94
246.099	78.94
246.333	66.94
246.566	53.94
246.8	76.94
247.033	66.94
247.266	73.94
247.5	84.94
247.733	73.94
247.966	75.94
248.2	82.94
248.433	72.94
248.666	66.94
248.899	74.94
249.133	90.94
249.366	102.94
249.599	83.94
249.832	82.94
250.066	66.94
250.299	76.94
250.532	81.94
250.765	69.94
250.998	74.94
251.231	79.94
251.465	91.94
251.698	70.94
251.931	84.94
252.164	74.94
252.397	77.94
252.63	69.94
252.863	66.94
253.096	74.94
253.329	83.94
253.562	76.94
253.795	61.94
254.028	80.94
254.261	78.94
254.494	62.94
254.727	77.94
254.96	86.94
255.193	73.94
255.426	63.94
255.659	68.94
255.892	68.94
256.124	71.94
256.357	77.94
256.59	73.94
256.823	89.94
257.056	77.94
257.289	77.94
257.521	74.94
257.754	81.94
257.987	65.94
258.22	70.94
258.452	67.94
258.685	61.94
258.918	83.94
259.151	73.94
259.383	84.94
259.616	74.94
259.849	64.94
260.081	73.94
260.314	77.94
260.547	67.94
260.779	72.94
261.012	79.94
261.244	71.94
261.477	83.94
261.71	78.94
261.942	113.94
262.175	109.94
262.407	91.94
262.64	70.94
262.872	77.94
263.105	66.94
263.337	77.94
263.57	79.94
263.802	82.94
264.035	79.94
264.267	75.94
264.499	77.94
264.732	94.94
264.964	73.94
265.197	86.94
265.429	80.94
265.661	85.94
265.894	86.94
266.126	90.94
266.358	87.94
266.591	69.94
266.823	70.94
267.055	84.94
267.287	93.94
267.52	86.94
267.752	79.94
267.984	76.94
268.216	90.94
268.448	73.94
268.681	72.94
268.913	74.94
269.145	76.94
269.377	86.94
269.609	76.94
269.841	80.94
270.073	87.94
270.306	88.94
270.538	70.94
270.77	69.94
271.002	87.94
271.234	72.94
271.466	68.94
271.698	76.94
271.93	83.94
272.162	74.94
272.394	83.94
272.626	86.94
272.858	69.94
273.09	77.94
273.322	75.94
273.553	87.94
273.785	93.94
274.017	77.94
274.249	75.94
274.481	70.94
274.713	73.94
274.945	72.94
275.176	79.94
275.408	77.94
275.64	79.94
275.872	77.94
276.104	73.94
276.335	98.94
276.567	94.94
276.799	113.94
277.031	103.94
277.262	92.94
277.494	80.94
277.726	77.94
277.957	83.94
278.189	79.94
278.421	80.94
278.652	85.94
278.884	77.94
279.115	75.94
279.347	81.94
279.579	83.94
279.81	78.94
280.042	83.94
280.273	77.94
280.505	74.94
280.736	89.94
280.968	90.94
281.199	66.94
281.431	74.94
281.662	88.94
281.894	79.94
282.125	108.94
282.356	123.94
282.588	153.94
282.819	103.94
283.051	84.94
283.282	85.94
283.513	78.94
283.745	96.94
283.976	91.94
284.207	78.94
284.439	78.94
284.67	82.94
284.901	79.94
285.132	69.94
285.364	63.94
285.595	79.94
285.826	75.94
286.057	88.94
286.288	93.94
286.52	86.94
286.751	84.94
286.982	76.94
287.213	86.94
287.444	78.94
287.675	88.94
287.906	84.94
288.138	92.94
288.369	89.94
288.6	90.94
288.831	92.94
289.062	83.94
289.293	90.94
289.524	82.94
289.755	81.94
289.986	81.94
290.217	77.94
290.448	87.94
290.679	73.94
290.91	91.94
291.141	73.94
291.371	81.94
291.602	83.94
291.833	93.94
292.064	84.94
292.295	92.94
292.526	82.94
292.757	75.94
292.987	81.94
293.218	87.94
293.449	81.94
293.68	76.94
293.91	89.94
294.141	89.94
294.372	79.94
294.603	79.94
294.833	87.94
295.064	81.94
295.295	87.94
295.525	86.94
295.756	97.94
295.987	130.94
296.217	139.94
296.448	130.94
296.679	94.94
296.909	89.94
297.14	64.94
297.37	68.94
297.601	84.94
297.831	84.94
298.062	86.94
298.292	79.94
298.523	81.94
298.753	83.94
298.984	83.94
299.214	82.94
299.445	90.94
299.675	76.94
299.905	92.94
300.136	86.94
300.366	83.94
300.597	78.94
300.827	85.94
301.057	99.94
301.288	106.94
301.518	90.94
301.748	81.94
301.979	94.94
302.209	101.94
302.439	84.94
302.669	77.94
302.9	94.94
303.13	76.94
303.36	85.94
303.59	92.94
303.82	108.94
304.051	87.94
304.281	85.94
304.511	85.94
304.741	84.94
304.971	93.94
305.201	80.94
305.431	78.94
305.661	83.94
305.891	84.94
306.121	83.94
306.352	92.94
306.582	94.94
306.812	77.94
307.042	87.94
307.272	96.94
307.502	79.94
307.731	93.94
307.961	86.94
308.191	82.94
308.421	86.94
308.651	78.94
308.881	86.94
309.111	83.94
309.341	94.94
309.571	88.94
309.8	96.94
310.03	87.94
310.26	82.94
310.49	87.94
310.72	81.94
310.949	110.94
311.179	90.94
311.409	78.94
311.639	88.94
311.868	93.94
312.098	103.94
312.328	93.94
312.557	94.94
312.787	104.94
313.017	87.94
313.246	87.94
313.476	91.94
313.706	83.94
313.935	73.94
314.165	87.94
314.394	98.94
314.624	89.94
314.853	105.94
315.083	92.94
315.312	107.94
315.542	86.94
315.771	94.94
316.001	79.94
316.23	101.94
316.46	82.94
316.689	90.94
316.919	94.94
317.148	98.94
317.377	73.94
317.607	90.94
317.836	108.94
318.065	79.94
318.295	86.94
318.524	82.94
318.753	71.94
318.983	78.94
319.212	97.94
319.441	100.94
319.67	89.94
319.9	92.94
320.129	86.94
320.358	87.94
320.587	97.94
320.816	77.94
321.046	93.94
321.275	90.94
321.504	90.94
321.733	84.94
321.962	108.94
322.191	100.94
322.42	83.94
322.649	101.94
322.878	91.94
323.108	108.94
323.337	127.94
323.566	129.94
323.795	163.94
324.024	214.94
324.253	467.94
324.482	1003.94
324.71	2126.94
324.939	2814.94
325.168	969.94
325.397	277.94
325.626	154.94
325.855	125.94
326.084	136.94
326.313	130.94
326.542	154.94
326.77	259.94
326.999	543.94
327.228	1182.94
327.457	2121.94
327.686	1678.94
327.914	427.94
328.143	193.94
328.372	162.94
328.6	104.94
328.829	114.94
329.058	131.94
329.287	137.94
329.515	102.94
329.744	92.94
329.972	82.94
330.201	88.94
330.43	95.94
330.658	119.94
330.887	150.94
331.115	116.94
331.344	93.94
331.572	89.94
331.801	92.94
332.03	99.94
332.258	89.94
332.486	99.94
332.715	70.94
332.943	79.94
333.172	92.94
333.4	88.94
333.629	95.94
333.857	101.94
334.085	100.94
334.314	87.94
334.542	90.94
334.771	98.94
334.999	87.94
335.227	107.94
335.455	93.94
335.684	98.94
335.912	87.94
336.14	97.94
336.369	97.94
336.597	90.94
336.825	79.94
337.053	97.94
337.281	84.94
337.51	66.94
337.738	72.94
337.966	84.94
338.194	94.94
338.422	92.94
338.65	92.94
338.878	92.94
339.106	84.94
339.334	84.94
339.562	96.94
339.79	90.94
340.018	89.94
340.246	85.94
340.474	71.94
340.702	89.94
340.93	73.94
341.158	85.94
341.386	83.94
341.614	95.94
341.842	99.94
342.07	86.94
342.298	87.94
342.526	91.94
342.754	87.94
342.981	82.94
343.209	69.94
343.437	82.94
343.665	91.94
343.893	98.94
344.12	89.94
344.348	93.94
344.576	88.94
344.804	75.94
345.031	94.94
345.259	97.94
345.487	90.94
345.714	95.94
345.942	89.94
346.17	64.94
346.397	69.94
346.625	79.94
346.853	77.94
347.08	70.94
347.308	83.94
347.535	87.94
347.763	111.94
347.99	100.94
348.218	94.94
348.445	91.94
348.673	86.94
348.9	85.94
349.128	87.94
349.355	83.94
349.583	87.94
349.81	83.94
350.037	95.94
350.265	87.94
350.492	98.94
350.72	93.94
350.947	97.94
351.174	90.94
351.402	103.94
351.629	104.94
351.856	75.94
352.083	102.94
352.311	103.94
352.538	106.94
352.765	100.94
352.992	119.94
353.22	97.94
353.447	102.94
353.674	92.94
353.901	91.94
354.128	96.94
354.355	94.94
354.583	98.94
354.81	94.94
355.037	85.94
355.264	91.94
355.491	79.94
355.718	83.94
355.945	89.94
356.172	89.94
356.399	85.94
356.626	81.94
356.853	81.94
357.08	79.94
357.307	83.94
357.534	85.94
357.761	95.94
357.988	88.94
358.215	82.94
358.441	87.94
358.668	70.94
358.895	81.94
359.122	78.94
359.349	94.94
359.576	80.94
359.802	103.94
360.029	109.94
360.256	100.94
360.483	88.94
360.709	76.94
360.936	88.94
361.163	82.94
361.39	81.94
361.616	88.94
361.843	84.94
362.07	85.94
362.296	82.94
362.523	89.94
362.749	76.94
362.976	80.94
363.203	95.94
363.429	87.94
363.656	88.94
363.882	87.94
364.109	87.94
364.335	83.94
364.562	83.94
364.788	91.94
365.015	91.94
365.241	103.94
365.468	108.94
365.694	103.94
365.92	96.94
366.147	88.94
366.373	87.94
366.599	82.94
366.826	78.94
367.052	86.94
367.278	91.94
367.505	83.94
367.731	72.94
367.957	73.94
368.184	77.94
368.41	99.94
368.636	102.94
368.862	113.94
369.089	94.94
369.315	84.94
369.541	104.94
369.767	82.94
369.993	82.94
370.219	74.94
370.445	87.94
370.672	77.94
370.898	80.94
371.124	69.94
371.35	77.94
371.576	78.94
371.802	71.94
372.028	62.94
372.254	86.94
372.48	74.94
372.706	87.94
372.932	88.94
373.158	83.94
373.384	94.94
373.61	84.94
373.835	74.94
374.061	85.94
374.287	85.94
374.513	83.94
374.739	78.94
374.965	92.94
375.191	83.94
375.416	83.94
375.642	82.94
375.868	92.94
376.094	83.94
376.319	65.94
376.545	81.94
376.771	77.94
376.997	81.94
377.222	72.94
377.448	78.94
377.674	84.94
377.899	71.94
378.125	82.94
378.35	75.94
378.576	87.94
378.802	88.94
379.027	81.94
379.253	98.94
379.478	64.94
379.704	78.94
379.929	94.94
380.155	95.94
380.38	96.94
380.606	99.94
380.831	88.94
381.057	102.94
381.282	72.94
381.507	88.94
381.733	100.94
381.958	96.94
382.184	83.94
382.409	92.94
382.634	97.94
382.86	92.94
383.085	84.94
383.31	98.94
383.535	90.94
383.761	94.94
383.986	89.94
384.211	82.94
384.436	77.94
384.662	100.94
384.887	80.94
385.112	78.94
385.337	92.94
385.562	101.94
385.787	99.94
386.013	101.94
386.238	119.94
386.463	71.94
386.688	84.94
386.913	95.94
387.138	91.94
387.363	87.94
387.588	95.94
387.813	92.94
388.038	99.94
388.263	89.94
388.488	91.94
388.713	83.94
388.938	101.94
389.163	92.94
389.387	89.94
389.612	87.94
389.837	82.94
390.062	88.94
390.287	77.94
390.512	86.94
390.736	81.94
390.961	84.94
391.186	78.94
391.411	97.94
391.636	82.94
391.86	85.94
392.085	89.94
392.31	76.94
392.534	97.94
392.759	77.94
392.984	81.94
393.208	70.94
393.433	83.94
393.658	87.94
393.882	84.94
394.107	78.94
394.331	84.94
394.556	85.94
394.78	73.94
395.005	62.94
395.229	77.94
395.454	97.94
395.678	69.94
395.903	83.94
396.127	96.94
396.352	78.94
396.576	89.94
396.801	71.94
397.025	79.94
397.249	91.94
397.474	75.94
397.698	77.94
397.922	78.94
398.147	83.94
398.371	78.94
398.595	81.94
398.82	81.94
399.044	85.94
399.268	87.94
399.492	78.94
399.717	87.94
399.941	86.94
400.165	95.94
400.389	94.94
400.613	78.94
400.837	86.94
401.062	75.94
401.286	76.94
401.51	76.94
401.734	82.94
401.958	97.94
402.182	143.94
402.406	155.94
402.63	100.94
402.854	85.94
403.078	83.94
403.302	75.94
403.526	95.94
403.75	86.94
403.974	84.94
404.198	71.94
404.422	73.94
404.645	86.94
404.869	87.94
405.093	83.94
405.317	95.94
405.541	92.94
405.765	98.94
405.988	124.94
406.212	176.94
406.436	250.94
406.66	159.94
406.883	101.94
407.107	87.94
407.331	97.94
407.555	92.94
407.778	93.94
408.002	84.94
408.226	92.94
408.449	78.94
408.673	73.94
408.896	104.94
409.12	97.94
409.344	81.94
409.567	85.94
409.791	83.94
410.014	88.94
410.238	92.94
410.461	72.94
410.685	93.94
410.908	96.94
411.132	99.94
411.355	95.94
411.578	90.94
411.802	83.94
412.025	77.94
412.249	88.94
412.472	72.94
412.695	76.94
412.919	81.94
413.142	85.94
413.365	78.94
413.589	88.94
413.812	71.94
414.035	84.94
414.258	74.94
414.482	76.94
414.705	69.94
414.928	97.94
415.151	88.94
415.374	84.94
415.597	94.94
415.821	86.94
416.044	63.94
416.267	75.94
416.49	76.94
416.713	79.94
416.936	75.94
417.159	78.94
417.382	78.94
417.605	86.94
417.828	90.94
418.051	79.94
418.274	91.94
418.497	84.94
418.72	83.94
418.943	89.94
419.166	79.94
419.389	81.94
419.611	79.94
419.834	83.94
420.057	86.94
420.28	82.94
420.503	90.94
420.726	78.94
420.948	85.94
421.171	84.94
421.394	95.94
421.617	85.94
421.839	95.94
422.062	74.94
422.285	79.94
422.507	80.94
422.73	103.94
422.953	86.94
423.175	71.94
423.398	84.94
423.621	75.94
423.843	94.94
424.066	82.94
424.288	80.94
424.511	81.94
424.733	85.94
424.956	95.94
425.178	102.94
425.401	97.94
425.623	106.94
425.846	109.94
426.068	86.94
426.291	80.94
426.513	98.94
426.735	86.94
426.958	89.94
427.18	116.94
427.402	147.94
427.625	179.94
427.847	114.94
428.069	83.94
428.292	89.94
428.514	93.94
428.736	87.94
428.958	82.94
429.181	86.94
429.403	81.94
429.625	93.94
429.847	88.94
430.069	87.94
430.292	87.94
430.514	83.94
430.736	86.94
430.958	90.94
431.18	75.94
431.402	81.94
431.624	71.94
431.846	73.94
432.068	80.94
432.29	95.94
432.512	96.94
432.734	89.94
432.956	85.94
433.178	89.94
433.4	105.94
433.622	81.94
433.844	98.94
434.066	85.94
434.287	80.94
434.509	86.94
434.731	87.94
434.953	85.94
435.175	93.94
435.397	86.94
435.618	85.94
435.84	100.94
436.062	130.94
436.284	105.94
436.505	98.94
436.727	116.94
436.949	66.94
437.17	83.94
437.392	90.94
437.614	89.94
437.835	110.94
438.057	114.94
438.278	100.94
438.5	99.94
438.721	126.94
438.943	94.94
439.165	84.94
439.386	87.94
439.608	86.94
439.829	101.94
440.05	111.94
440.272	151.94
440.493	93.94
440.715	74.94
440.936	66.94
441.158	72.94
441.379	77.94
441.6	79.94
441.822	95.94
442.043	86.94
442.264	105.94
442.486	107.94
442.707	104.94
442.928	100.94
443.149	130.94
443.371	143.94
443.592	122.94
443.813	122.94
444.034	119.94
444.255	99.94
444.476	102.94
444.698	97.94
444.919	83.94
445.14	109.94
445.361	111.94
445.582	124.94
445.803	151.94
446.024	137.94
446.245	141.94
446.466	110.94
446.687	92.94
446.908	68.94
447.129	73.94
447.35	83.94
447.571	86.94
447.792	95.94
448.013	104.94
448.234	102.94
448.455	104.94
448.675	108.94
448.896	119.94
449.117	92.94
449.338	113.94
449.559	140.94
449.779	144.94
450	84.94
450.221	94.94
450.442	73.94
450.662	94.94
450.883	94.94
451.104	114.94
451.324	109.94
451.545	87.94
451.766	78.94
451.986	83.94
452.207	74.94
452.428	91.94
452.648	99.94
452.869	106.94
453.089	102.94
453.31	114.94
453.53	93.94
453.751	94.94
453.971	99.94
454.192	109.94
454.412	85.94
454.633	76.94
454.853	84.94
455.073	77.94
455.294	79.94
455.514	106.94
455.734	89.94
455.955	76.94
456.175	81.94
456.395	90.94
456.616	84.94
456.836	90.94
457.056	90.94
457.276	78.94
457.497	88.94
457.717	85.94
457.937	72.94
458.157	86.94
458.377	88.94
458.598	110.94
458.818	154.94
459.038	172.94
459.258	122.94
459.478	100.94
459.698	91.94
459.918	90.94
460.138	73.94
460.358	65.94
460.578	76.94
460.798	83.94
461.018	91.94
461.238	89.94
461.458	78.94
461.678	71.94
461.898	74.94
462.118	74.94
462.338	91.94
462.558	70.94
462.777	76.94
462.997	87.94
463.217	89.94
463.437	84.94
463.657	105.94
463.876	76.94
464.096	79.94
464.316	85.94
464.536	82.94
464.755	98.94
464.975	119.94
465.195	172.94
465.414	175.94
465.634	91.94
465.854	81.94
466.073	69.94
466.293	89.94
466.512	94.94
466.732	86.94
466.951	86.94
467.171	91.94
467.391	94.94
467.61	93.94
467.829	94.94
468.049	84.94
468.268	73.94
468.488	75.94
468.707	79.94
468.927	78.94
469.146	73.94
469.365	89.94
469.585	89.94
469.804	79.94
470.023	93.94
470.243	83.94
470.462	88.94
470.681	109.94
470.901	76.94
471.12	77.94
471.339	74.94
471.558	95.94
471.777	84.94
471.997	70.94
472.216	82.94
472.435	89.94
472.654	76.94
472.873	81.94
473.092	78.94
473.311	94.94
473.53	60.94
473.749	76.94
473.968	87.94
474.187	96.94
474.406	101.94
474.625	83.94
474.844	79.94
475.063	73.94
475.282	88.94
475.501	75.94
475.72	90.94
475.939	79.94
476.158	74.94
476.377	82.94
476.596	90.94
476.814	94.94
477.033	104.94
477.252	86.94
477.471	77.94
477.69	88.94
477.908	75.94
478.127	81.94
478.346	91.94
478.564	95.94
478.783	88.94
479.002	87.94
479.22	95.94
479.439	95.94
479.658	109.94
479.876	86.94
480.095	95.94
480.313	81.94
480.532	83.94
480.751	90.94
480.969	66.94
481.188	75.94
481.406	86.94
481.624	87.94
481.843	94.94
482.061	75.94
482.28	82.94
482.498	92.94
482.717	71.94
482.935	77.94
483.153	89.94
483.372	85.94
483.59	78.94
483.808	94.94
484.027	75.94
484.245	66.94
484.463	80.94
484.681	91.94
484.9	93.94
485.118	87.94
485.336	87.94
485.554	87.94
485.772	91.94
485.99	97.94
486.209	101.94
486.427	104.94
486.645	108.94
486.863	107.94
487.081	87.94
487.299	86.94
487.517	83.94
487.735	90.94
487.953	90.94
488.171	94.94
488.389	84.94
488.607	92.94
488.825	87.94
489.043	88.94
489.261	77.94
489.479	72.94
489.696	78.94
489.914	77.94
490.132	83.94
490.35	70.94
490.568	87.94
490.786	69.94
491.003	70.94
491.221	84.94
491.439	89.94
491.657	81.94
491.874	87.94
492.092	100.94
492.31	77.94
492.527	82.94
492.745	73.94
492.963	85.94
493.18	82.94
493.398	110.94
493.615	104.94
493.833	87.94
494.05	85.94
494.268	75.94
494.485	84.94
494.703	81.94
494.92	81.94
495.138	95.94
495.355	77.94
495.573	84.94
495.79	97.94
496.008	93.94
496.225	94.94
496.442	80.94
496.66	84.94
496.877	86.94
497.094	93.94
497.312	81.94
497.529	85.94
497.746	72.94
497.963	87.94
498.181	92.94
498.398	75.94
498.615	111.94
498.832	93.94
499.049	83.94
499.267	90.94
499.484	78.94
499.701	70.94
499.918	81.94
500.135	87.94
500.352	81.94
500.569	81.94
500.786	83.94
501.003	86.94
501.22	88.94
501.437	81.94
501.654	77.94
501.871	115.94
502.088	76.94
502.305	78.94
502.522	76.94
502.739	71.94
502.956	70.94
503.172	85.94
503.389	104.94
503.606	97.94
503.823	92.94
504.04	96.94
504.256	85.94
504.473	74.94
504.69	91.94
504.907	91.94
505.123	94.94
505.34	76.94
505.557	71.94
505.773	81.94
505.99	77.94
506.207	102.94
506.423	75.94
506.64	96.94
506.856	74.94
507.073	83.94
507.289	69.94
507.506	80.94
507.722	97.94
507.939	127.94
508.155	86.94
508.372	92.94
508.588	108.94
508.805	86.94
509.021	86.94
509.238	65.94
509.454	92.94
509.67	105.94
509.887	93.94
510.103	130.94
510.319	219.94
510.536	886.94
510.752	2872.94
510.968	777.94
511.184	156.94
511.401	104.94
511.617	104.94
511.833	104.94
512.049	82.94
512.265	95.94
512.481	82.94
512.698	69.94
512.914	81.94
513.13	109.94
513.346	79.94
513.562	94.94
513.778	102.94
513.994	99.94
514.21	92.94
514.426	117.94
514.642	134.94
514.858	137.94
515.074	186.94
515.29	508.94
515.506	1842.94
515.721	684.94
515.937	176.94
516.153	129.94
516.369	105.94
516.585	102.94
516.801	72.94
517.016	101.94
517.232	85.94
