Data from Uncirc_2007_H10_HRD10591_00050.txt Node
Date: Wed Jan 03 10:20:52 EST 2024
User: Yrep
Spectrometer: HR+D1059
Trigger mode: 1
Integration Time (sec): 1.000000E-1
Scans to average: 1
Electric dark correction enabled: true
Nonlinearity correction enabled: false
Boxcar width: 0
XAxis mode: Wavelengths
Number of Pixels in Spectrum: 2048
>>>>>Begin Spectral Data<<<<<
223.165	-8.25
223.4	-8.25
223.635	-8.25
223.869	-19.25
224.104	-16.25
224.338	-9.25
224.573	-12.25
224.808	-14.25
225.042	-13.25
225.277	-25.25
225.511	-1.25
225.746	-3.25
225.98	13.75
226.215	13.75
226.449	21.75
226.683	11.75
226.918	24.75
227.152	36.75
227.387	39.75
227.621	40.75
227.856	29.75
228.09	48.75
228.324	56.75
228.559	54.75
228.793	60.75
229.027	71.75
229.262	56.75
229.496	62.75
229.73	72.75
229.964	81.75
230.199	82.75
230.433	83.75
230.667	64.75
230.901	61.75
231.136	85.75
231.37	83.75
231.604	65.75
231.838	78.75
232.072	81.75
232.306	75.75
232.541	68.75
232.775	77.75
233.009	76.75
233.243	82.75
233.477	80.75
233.711	78.75
233.945	81.75
234.179	90.75
234.413	85.75
234.647	78.75
234.881	77.75
235.115	84.75
235.349	67.75
235.583	78.75
235.817	76.75
236.051	75.75
236.285	82.75
236.519	80.75
236.753	80.75
236.987	82.75
237.221	84.75
237.455	71.75
237.689	86.75
237.922	82.75
238.156	72.75
238.39	68.75
238.624	86.75
238.858	74.75
239.091	71.75
239.325	74.75
239.559	93.75
239.793	88.75
240.027	73.75
240.26	81.75
240.494	70.75
240.728	67.75
240.961	70.75
241.195	78.75
241.429	74.75
241.662	93.75
241.896	70.75
242.13	79.75
242.363	76.75
242.597	76.75
242.83	79.75
243.064	76.75
243.298	90.75
243.531	71.75
243.765	63.75
243.998	91.75
244.232	76.75
244.465	86.75
244.699	78.75
244.932	74.75
245.166	79.75
245.399	73.75
245.633	70.75
245.866	84.75
246.099	80.75
246.333	80.75
246.566	87.75
246.8	80.75
247.033	79.75
247.266	71.75
247.5	67.75
247.733	78.75
247.966	66.75
248.2	69.75
248.433	84.75
248.666	81.75
248.899	79.75
249.133	89.75
249.366	96.75
249.599	92.75
249.832	70.75
250.066	83.75
250.299	71.75
250.532	89.75
250.765	80.75
250.998	78.75
251.231	88.75
251.465	81.75
251.698	90.75
251.931	87.75
252.164	76.75
252.397	75.75
252.63	77.75
252.863	82.75
253.096	78.75
253.329	82.75
253.562	75.75
253.795	71.75
254.028	76.75
254.261	81.75
254.494	83.75
254.727	103.75
254.96	71.75
255.193	78.75
255.426	82.75
255.659	81.75
255.892	81.75
256.124	82.75
256.357	83.75
256.59	69.75
256.823	76.75
257.056	79.75
257.289	76.75
257.521	83.75
257.754	75.75
257.987	76.75
258.22	90.75
258.452	89.75
258.685	90.75
258.918	84.75
259.151	86.75
259.383	76.75
259.616	87.75
259.849	74.75
260.081	86.75
260.314	93.75
260.547	90.75
260.779	88.75
261.012	73.75
261.244	76.75
261.477	74.75
261.71	88.75
261.942	99.75
262.175	115.75
262.407	91.75
262.64	72.75
262.872	76.75
263.105	77.75
263.337	81.75
263.57	87.75
263.802	78.75
264.035	80.75
264.267	101.75
264.499	84.75
264.732	94.75
264.964	79.75
265.197	88.75
265.429	80.75
265.661	87.75
265.894	78.75
266.126	84.75
266.358	88.75
266.591	75.75
266.823	88.75
267.055	82.75
267.287	79.75
267.52	79.75
267.752	91.75
267.984	66.75
268.216	85.75
268.448	76.75
268.681	87.75
268.913	66.75
269.145	89.75
269.377	66.75
269.609	77.75
269.841	75.75
270.073	81.75
270.306	92.75
270.538	90.75
270.77	75.75
271.002	80.75
271.234	97.75
271.466	86.75
271.698	81.75
271.93	79.75
272.162	87.75
272.394	98.75
272.626	78.75
272.858	91.75
273.09	97.75
273.322	92.75
273.553	87.75
273.785	86.75
274.017	81.75
274.249	86.75
274.481	67.75
274.713	96.75
274.945	89.75
275.176	76.75
275.408	82.75
275.64	79.75
275.872	76.75
276.104	88.75
276.335	102.75
276.567	82.75
276.799	109.75
277.031	92.75
277.262	91.75
277.494	87.75
277.726	90.75
277.957	88.75
278.189	81.75
278.421	85.75
278.652	82.75
278.884	88.75
279.115	86.75
279.347	81.75
279.579	91.75
279.81	82.75
280.042	80.75
280.273	81.75
280.505	75.75
280.736	88.75
280.968	83.75
281.199	81.75
281.431	94.75
281.662	88.75
281.894	96.75
282.125	79.75
282.356	119.75
282.588	146.75
282.819	113.75
283.051	95.75
283.282	89.75
283.513	81.75
283.745	72.75
283.976	88.75
284.207	92.75
284.439	105.75
284.67	82.75
284.901	72.75
285.132	81.75
285.364	81.75
285.595	87.75
285.826	90.75
286.057	82.75
286.288	73.75
286.52	96.75
286.751	75.75
286.982	102.75
287.213	75.75
287.444	79.75
287.675	88.75
287.906	83.75
288.138	99.75
288.369	90.75
288.6	84.75
288.831	91.75
289.062	82.75
289.293	76.75
289.524	88.75
289.755	80.75
289.986	79.75
290.217	103.75
290.448	91.75
290.679	74.75
290.91	97.75
291.141	79.75
291.371	92.75
291.602	92.75
291.833	78.75
292.064	82.75
292.295	74.75
292.526	94.75
292.757	96.75
292.987	87.75
293.218	76.75
293.449	91.75
293.68	88.75
293.91	90.75
294.141	90.75
294.372	91.75
294.603	93.75
294.833	79.75
295.064	90.75
295.295	81.75
295.525	91.75
295.756	94.75
295.987	110.75
296.217	129.75
296.448	97.75
296.679	91.75
296.909	90.75
297.14	92.75
297.37	95.75
297.601	90.75
297.831	90.75
298.062	98.75
298.292	85.75
298.523	99.75
298.753	91.75
298.984	98.75
299.214	83.75
299.445	81.75
299.675	81.75
299.905	95.75
300.136	93.75
300.366	95.75
300.597	72.75
300.827	92.75
301.057	88.75
301.288	106.75
301.518	93.75
301.748	81.75
301.979	95.75
302.209	70.75
302.439	91.75
302.669	100.75
302.9	97.75
303.13	74.75
303.36	83.75
303.59	96.75
303.82	107.75
304.051	85.75
304.281	98.75
304.511	102.75
304.741	87.75
304.971	97.75
305.201	89.75
305.431	76.75
305.661	90.75
305.891	86.75
306.121	78.75
306.352	91.75
306.582	98.75
306.812	94.75
307.042	100.75
307.272	80.75
307.502	81.75
307.731	94.75
307.961	96.75
308.191	85.75
308.421	89.75
308.651	101.75
308.881	91.75
309.111	100.75
309.341	100.75
309.571	85.75
309.8	89.75
310.03	100.75
310.26	94.75
310.49	99.75
310.72	114.75
310.949	104.75
311.179	102.75
311.409	85.75
311.639	99.75
311.868	88.75
312.098	81.75
312.328	97.75
312.557	107.75
312.787	99.75
313.017	106.75
313.246	89.75
313.476	107.75
313.706	95.75
313.935	86.75
314.165	99.75
314.394	105.75
314.624	88.75
314.853	90.75
315.083	88.75
315.312	91.75
315.542	97.75
315.771	92.75
316.001	89.75
316.23	87.75
316.46	98.75
316.689	88.75
316.919	91.75
317.148	90.75
317.377	96.75
317.607	87.75
317.836	91.75
318.065	95.75
318.295	82.75
318.524	103.75
318.753	102.75
318.983	96.75
319.212	94.75
319.441	102.75
319.67	98.75
319.9	105.75
320.129	103.75
320.358	86.75
320.587	97.75
320.816	105.75
321.046	79.75
321.275	94.75
321.504	95.75
321.733	86.75
321.962	103.75
322.191	103.75
322.42	112.75
322.649	112.75
322.878	107.75
323.108	110.75
323.337	122.75
323.566	119.75
323.795	162.75
324.024	215.75
324.253	456.75
324.482	942.75
324.71	1954.75
324.939	2560.75
325.168	923.75
325.397	268.75
325.626	157.75
325.855	119.75
326.084	127.75
326.313	134.75
326.542	145.75
326.77	257.75
326.999	539.75
327.228	1076.75
327.457	1926.75
327.686	1530.75
327.914	412.75
328.143	202.75
328.372	157.75
328.6	115.75
328.829	118.75
329.058	123.75
329.287	122.75
329.515	116.75
329.744	99.75
329.972	94.75
330.201	94.75
330.43	104.75
330.658	114.75
330.887	137.75
331.115	120.75
331.344	103.75
331.572	96.75
331.801	118.75
332.03	82.75
332.258	98.75
332.486	92.75
332.715	90.75
332.943	67.75
333.172	97.75
333.4	94.75
333.629	92.75
333.857	122.75
334.085	92.75
334.314	81.75
334.542	91.75
334.771	89.75
334.999	98.75
335.227	97.75
335.455	103.75
335.684	94.75
335.912	87.75
336.14	93.75
336.369	107.75
336.597	95.75
336.825	100.75
337.053	92.75
337.281	90.75
337.51	79.75
337.738	92.75
337.966	98.75
338.194	100.75
338.422	104.75
338.65	80.75
338.878	96.75
339.106	81.75
339.334	103.75
339.562	89.75
339.79	71.75
340.018	97.75
340.246	96.75
340.474	95.75
340.702	92.75
340.93	89.75
341.158	97.75
341.386	100.75
341.614	105.75
341.842	112.75
342.07	98.75
342.298	102.75
342.526	84.75
342.754	84.75
342.981	81.75
343.209	72.75
343.437	96.75
343.665	90.75
343.893	91.75
344.12	83.75
344.348	80.75
344.576	95.75
344.804	90.75
345.031	107.75
345.259	95.75
345.487	86.75
345.714	79.75
345.942	90.75
346.17	86.75
346.397	91.75
346.625	89.75
346.853	103.75
347.08	109.75
347.308	90.75
347.535	111.75
347.763	111.75
347.99	100.75
348.218	100.75
348.445	95.75
348.673	91.75
348.9	80.75
349.128	89.75
349.355	83.75
349.583	99.75
349.81	103.75
350.037	97.75
350.265	91.75
350.492	104.75
350.72	88.75
350.947	85.75
351.174	98.75
351.402	97.75
351.629	91.75
351.856	103.75
352.083	97.75
352.311	104.75
352.538	96.75
352.765	110.75
352.992	120.75
353.22	124.75
353.447	92.75
353.674	104.75
353.901	100.75
354.128	98.75
354.355	102.75
354.583	114.75
354.81	91.75
355.037	91.75
355.264	97.75
355.491	78.75
355.718	86.75
355.945	98.75
356.172	78.75
356.399	87.75
356.626	98.75
356.853	96.75
357.08	86.75
357.307	82.75
357.534	106.75
357.761	84.75
357.988	95.75
358.215	83.75
358.441	95.75
358.668	84.75
358.895	90.75
359.122	102.75
359.349	89.75
359.576	96.75
359.802	103.75
360.029	114.75
360.256	108.75
360.483	96.75
360.709	91.75
360.936	89.75
361.163	94.75
361.39	99.75
361.616	98.75
361.843	87.75
362.07	94.75
362.296	108.75
362.523	93.75
362.749	87.75
362.976	100.75
363.203	82.75
363.429	96.75
363.656	87.75
363.882	75.75
364.109	93.75
364.335	96.75
364.562	89.75
364.788	112.75
365.015	99.75
365.241	88.75
365.468	118.75
365.694	110.75
365.92	90.75
366.147	96.75
366.373	87.75
366.599	84.75
366.826	88.75
367.052	87.75
367.278	95.75
367.505	97.75
367.731	98.75
367.957	109.75
368.184	88.75
368.41	100.75
368.636	108.75
368.862	118.75
369.089	108.75
369.315	74.75
369.541	84.75
369.767	90.75
369.993	75.75
370.219	94.75
370.445	89.75
370.672	80.75
370.898	92.75
371.124	105.75
371.35	72.75
371.576	79.75
371.802	81.75
372.028	70.75
372.254	86.75
372.48	85.75
372.706	95.75
372.932	94.75
373.158	84.75
373.384	91.75
373.61	89.75
373.835	80.75
374.061	81.75
374.287	95.75
374.513	108.75
374.739	90.75
374.965	84.75
375.191	93.75
375.416	93.75
375.642	87.75
375.868	69.75
376.094	77.75
376.319	91.75
376.545	81.75
376.771	81.75
376.997	99.75
377.222	100.75
377.448	82.75
377.674	86.75
377.899	90.75
378.125	76.75
378.35	74.75
378.576	95.75
378.802	83.75
379.027	83.75
379.253	101.75
379.478	99.75
379.704	93.75
379.929	96.75
380.155	95.75
380.38	80.75
380.606	92.75
380.831	102.75
381.057	74.75
381.282	87.75
381.507	96.75
381.733	85.75
381.958	93.75
382.184	93.75
382.409	96.75
382.634	106.75
382.86	91.75
383.085	86.75
383.31	83.75
383.535	106.75
383.761	103.75
383.986	94.75
384.211	84.75
384.436	108.75
384.662	99.75
384.887	100.75
385.112	95.75
385.337	101.75
385.562	87.75
385.787	103.75
386.013	93.75
386.238	111.75
386.463	103.75
386.688	114.75
386.913	115.75
387.138	112.75
387.363	92.75
387.588	95.75
387.813	97.75
388.038	94.75
388.263	104.75
388.488	100.75
388.713	97.75
388.938	97.75
389.163	92.75
389.387	97.75
389.612	103.75
389.837	92.75
390.062	82.75
390.287	91.75
390.512	97.75
390.736	97.75
390.961	109.75
391.186	87.75
391.411	80.75
391.636	80.75
391.86	91.75
392.085	83.75
392.31	83.75
392.534	83.75
392.759	86.75
392.984	82.75
393.208	98.75
393.433	84.75
393.658	78.75
393.882	75.75
394.107	81.75
394.331	81.75
394.556	85.75
394.78	82.75
395.005	83.75
395.229	87.75
395.454	69.75
395.678	91.75
395.903	90.75
396.127	92.75
396.352	80.75
396.576	101.75
396.801	83.75
397.025	80.75
397.249	86.75
397.474	98.75
397.698	92.75
397.922	84.75
398.147	83.75
398.371	99.75
398.595	84.75
398.82	79.75
399.044	93.75
399.268	91.75
399.492	76.75
399.717	82.75
399.941	83.75
400.165	94.75
400.389	80.75
400.613	95.75
400.837	89.75
401.062	92.75
401.286	89.75
401.51	86.75
401.734	103.75
401.958	112.75
402.182	122.75
402.406	149.75
402.63	122.75
402.854	110.75
403.078	90.75
403.302	91.75
403.526	102.75
403.75	79.75
403.974	86.75
404.198	92.75
404.422	88.75
404.645	79.75
404.869	88.75
405.093	75.75
405.317	81.75
405.541	77.75
405.765	97.75
405.988	108.75
406.212	175.75
406.436	246.75
406.66	152.75
406.883	103.75
407.107	97.75
407.331	105.75
407.555	84.75
407.778	93.75
408.002	100.75
408.226	96.75
408.449	85.75
408.673	100.75
408.896	98.75
409.12	92.75
409.344	97.75
409.567	80.75
409.791	91.75
410.014	96.75
410.238	103.75
410.461	94.75
410.685	94.75
410.908	79.75
411.132	99.75
411.355	97.75
411.578	82.75
411.802	90.75
412.025	76.75
412.249	90.75
412.472	94.75
412.695	90.75
412.919	85.75
413.142	99.75
413.365	90.75
413.589	96.75
413.812	80.75
414.035	78.75
414.258	91.75
414.482	83.75
414.705	91.75
414.928	93.75
415.151	110.75
415.374	85.75
415.597	87.75
415.821	69.75
416.044	93.75
416.267	84.75
416.49	93.75
416.713	69.75
416.936	84.75
417.159	88.75
417.382	95.75
417.605	90.75
417.828	96.75
418.051	87.75
418.274	78.75
418.497	83.75
418.72	91.75
418.943	91.75
419.166	95.75
419.389	97.75
419.611	104.75
419.834	79.75
420.057	76.75
420.28	79.75
420.503	86.75
420.726	73.75
420.948	95.75
421.171	92.75
421.394	82.75
421.617	92.75
421.839	86.75
422.062	95.75
422.285	94.75
422.507	94.75
422.73	106.75
422.953	83.75
423.175	88.75
423.398	103.75
423.621	82.75
423.843	72.75
424.066	88.75
424.288	86.75
424.511	95.75
424.733	84.75
424.956	124.75
425.178	110.75
425.401	98.75
425.623	91.75
425.846	100.75
426.068	94.75
426.291	89.75
426.513	89.75
426.735	89.75
426.958	88.75
427.18	105.75
427.402	154.75
427.625	178.75
427.847	110.75
428.069	83.75
428.292	84.75
428.514	80.75
428.736	82.75
428.958	86.75
429.181	85.75
429.403	91.75
429.625	84.75
429.847	78.75
430.069	103.75
430.292	89.75
430.514	76.75
430.736	78.75
430.958	94.75
431.18	90.75
431.402	87.75
431.624	86.75
431.846	83.75
432.068	82.75
432.29	72.75
432.512	82.75
432.734	90.75
432.956	84.75
433.178	105.75
433.4	94.75
433.622	91.75
433.844	98.75
434.066	87.75
434.287	96.75
434.509	88.75
434.731	82.75
434.953	81.75
435.175	80.75
435.397	93.75
435.618	82.75
435.84	97.75
436.062	114.75
436.284	115.75
436.505	105.75
436.727	99.75
436.949	92.75
437.17	81.75
437.392	91.75
437.614	76.75
437.835	93.75
438.057	110.75
438.278	108.75
438.5	102.75
438.721	122.75
438.943	95.75
439.165	76.75
439.386	88.75
439.608	91.75
439.829	112.75
440.05	137.75
440.272	149.75
440.493	109.75
440.715	83.75
440.936	75.75
441.158	78.75
441.379	84.75
441.6	94.75
441.822	95.75
442.043	95.75
442.264	106.75
442.486	103.75
442.707	90.75
442.928	120.75
443.149	126.75
443.371	131.75
443.592	109.75
443.813	111.75
444.034	99.75
444.255	84.75
444.476	91.75
444.698	91.75
444.919	87.75
445.14	135.75
445.361	120.75
445.582	118.75
445.803	144.75
446.024	122.75
446.245	135.75
446.466	109.75
446.687	86.75
446.908	81.75
447.129	76.75
447.35	83.75
447.571	100.75
447.792	83.75
448.013	97.75
448.234	97.75
448.455	116.75
448.675	99.75
448.896	123.75
449.117	109.75
449.338	108.75
449.559	140.75
449.779	137.75
450	82.75
450.221	81.75
450.442	107.75
450.662	96.75
450.883	103.75
451.104	102.75
451.324	92.75
451.545	106.75
451.766	87.75
451.986	103.75
452.207	102.75
452.428	98.75
452.648	92.75
452.869	113.75
453.089	98.75
453.31	106.75
453.53	95.75
453.751	85.75
453.971	100.75
454.192	107.75
454.412	92.75
454.633	92.75
454.853	87.75
455.073	77.75
455.294	77.75
455.514	93.75
455.734	94.75
455.955	79.75
456.175	87.75
456.395	89.75
456.616	84.75
456.836	93.75
457.056	97.75
457.276	76.75
457.497	93.75
457.717	86.75
457.937	100.75
458.157	88.75
458.377	78.75
458.598	116.75
458.818	140.75
459.038	173.75
459.258	114.75
459.478	92.75
459.698	83.75
459.918	83.75
460.138	103.75
460.358	87.75
460.578	86.75
460.798	89.75
461.018	98.75
461.238	82.75
461.458	76.75
461.678	89.75
461.898	70.75
462.118	88.75
462.338	91.75
462.558	84.75
462.777	74.75
462.997	101.75
463.217	74.75
463.437	87.75
463.657	88.75
463.876	88.75
464.096	93.75
464.316	81.75
464.536	70.75
464.755	91.75
464.975	109.75
465.195	175.75
465.414	156.75
465.634	109.75
465.854	94.75
466.073	84.75
466.293	90.75
466.512	82.75
466.732	84.75
466.951	97.75
467.171	89.75
467.391	96.75
467.61	90.75
467.829	94.75
468.049	82.75
468.268	74.75
468.488	94.75
468.707	98.75
468.927	89.75
469.146	90.75
469.365	82.75
469.585	92.75
469.804	79.75
470.023	94.75
470.243	86.75
470.462	112.75
470.681	102.75
470.901	89.75
471.12	84.75
471.339	72.75
471.558	88.75
471.777	88.75
471.997	88.75
472.216	93.75
472.435	99.75
472.654	94.75
472.873	94.75
473.092	80.75
473.311	84.75
473.53	80.75
473.749	88.75
473.968	84.75
474.187	104.75
474.406	103.75
474.625	99.75
474.844	83.75
475.063	79.75
475.282	86.75
475.501	88.75
475.72	96.75
475.939	97.75
476.158	82.75
476.377	101.75
476.596	89.75
476.814	93.75
477.033	91.75
477.252	97.75
477.471	97.75
477.69	78.75
477.908	103.75
478.127	91.75
478.346	88.75
478.564	90.75
478.783	88.75
479.002	82.75
479.22	91.75
479.439	104.75
479.658	83.75
479.876	91.75
480.095	93.75
480.313	99.75
480.532	97.75
480.751	87.75
480.969	88.75
481.188	101.75
481.406	91.75
481.624	96.75
481.843	95.75
482.061	80.75
482.28	89.75
482.498	87.75
482.717	100.75
482.935	90.75
483.153	90.75
483.372	99.75
483.59	92.75
483.808	85.75
484.027	88.75
484.245	83.75
484.463	88.75
484.681	96.75
484.9	82.75
485.118	83.75
485.336	88.75
485.554	81.75
485.772	100.75
485.99	100.75
486.209	98.75
486.427	114.75
486.645	106.75
486.863	113.75
487.081	97.75
487.299	89.75
487.517	89.75
487.735	87.75
487.953	95.75
488.171	100.75
488.389	95.75
488.607	111.75
488.825	87.75
489.043	93.75
489.261	83.75
489.479	79.75
489.696	79.75
489.914	81.75
490.132	84.75
490.35	88.75
490.568	88.75
490.786	81.75
491.003	82.75
491.221	97.75
491.439	90.75
491.657	83.75
491.874	95.75
492.092	90.75
492.31	92.75
492.527	95.75
492.745	77.75
492.963	76.75
493.18	90.75
493.398	83.75
493.615	87.75
493.833	82.75
494.05	102.75
494.268	90.75
494.485	93.75
494.703	86.75
494.92	76.75
495.138	92.75
495.355	90.75
495.573	101.75
495.79	87.75
496.008	88.75
496.225	90.75
496.442	100.75
496.66	95.75
496.877	91.75
497.094	107.75
497.312	74.75
497.529	87.75
497.746	81.75
497.963	99.75
498.181	107.75
498.398	90.75
498.615	115.75
498.832	91.75
499.049	80.75
499.267	98.75
499.484	96.75
499.701	83.75
499.918	87.75
500.135	75.75
500.352	102.75
500.569	86.75
500.786	87.75
501.003	95.75
501.22	90.75
501.437	102.75
501.654	94.75
501.871	95.75
502.088	84.75
502.305	108.75
502.522	87.75
502.739	92.75
502.956	95.75
503.172	99.75
503.389	114.75
503.606	100.75
503.823	93.75
504.04	100.75
504.256	89.75
504.473	92.75
504.69	93.75
504.907	109.75
505.123	76.75
505.34	87.75
505.557	89.75
505.773	102.75
505.99	89.75
506.207	94.75
506.423	93.75
506.64	84.75
506.856	104.75
507.073	87.75
507.289	78.75
507.506	88.75
507.722	108.75
507.939	116.75
508.155	86.75
508.372	88.75
508.588	79.75
508.805	97.75
509.021	91.75
509.238	99.75
509.454	103.75
509.67	98.75
509.887	111.75
510.103	130.75
510.319	202.75
510.536	822.75
510.752	2580.75
510.968	747.75
511.184	171.75
511.401	107.75
511.617	91.75
511.833	99.75
512.049	108.75
512.265	80.75
512.481	102.75
512.698	99.75
512.914	102.75
513.13	96.75
513.346	88.75
513.562	88.75
513.778	84.75
513.994	95.75
514.21	98.75
514.426	131.75
514.642	157.75
514.858	113.75
515.074	177.75
515.29	488.75
515.506	1583.75
515.721	584.75
515.937	160.75
516.153	119.75
