Data from Uncirc_2007_H10_HRD10591_00084.txt Node
Date: Wed Jan 03 10:20:59 EST 2024
User: Yrep
Spectrometer: HR+D1059
Trigger mode: 1
Integration Time (sec): 1.000000E-1
Scans to average: 1
Electric dark correction enabled: true
Nonlinearity correction enabled: false
Boxcar width: 0
XAxis mode: Wavelengths
Number of Pixels in Spectrum: 2048
>>>>>Begin Spectral Data<<<<<
223.165	-15.75
223.4	-15.75
223.635	-15.75
223.869	-15.75
224.104	-20.75
224.338	-13.75
224.573	-13.75
224.808	-16.75
225.042	-1.75
225.277	1.25
225.511	-12.75
225.746	5.25
225.98	-0.75
226.215	14.25
226.449	13.25
226.683	29.25
226.918	13.25
227.152	35.25
227.387	32.25
227.621	36.25
227.856	41.25
228.09	49.25
228.324	38.25
228.559	65.25
228.793	64.25
229.027	48.25
229.262	71.25
229.496	75.25
229.73	93.25
229.964	100.25
230.199	64.25
230.433	71.25
230.667	85.25
230.901	84.25
231.136	81.25
231.37	72.25
231.604	65.25
231.838	87.25
232.072	83.25
232.306	84.25
232.541	72.25
232.775	65.25
233.009	80.25
233.243	86.25
233.477	76.25
233.711	81.25
233.945	69.25
234.179	79.25
234.413	74.25
234.647	87.25
234.881	63.25
235.115	75.25
235.349	72.25
235.583	82.25
235.817	74.25
236.051	66.25
236.285	80.25
236.519	81.25
236.753	74.25
236.987	79.25
237.221	85.25
237.455	100.25
237.689	74.25
237.922	74.25
238.156	82.25
238.39	76.25
238.624	72.25
238.858	81.25
239.091	87.25
239.325	69.25
239.559	82.25
239.793	81.25
240.027	79.25
240.26	66.25
240.494	82.25
240.728	65.25
240.961	91.25
241.195	86.25
241.429	85.25
241.662	77.25
241.896	62.25
242.13	77.25
242.363	71.25
242.597	85.25
242.83	73.25
243.064	79.25
243.298	80.25
243.531	67.25
243.765	75.25
243.998	93.25
244.232	70.25
244.465	82.25
244.699	87.25
244.932	67.25
245.166	80.25
245.399	78.25
245.633	75.25
245.866	76.25
246.099	85.25
246.333	79.25
246.566	91.25
246.8	72.25
247.033	88.25
247.266	75.25
247.5	67.25
247.733	79.25
247.966	80.25
248.2	62.25
248.433	77.25
248.666	76.25
248.899	87.25
249.133	89.25
249.366	104.25
249.599	97.25
249.832	77.25
250.066	85.25
250.299	77.25
250.532	76.25
250.765	88.25
250.998	82.25
251.231	89.25
251.465	85.25
251.698	61.25
251.931	84.25
252.164	85.25
252.397	76.25
252.63	81.25
252.863	89.25
253.096	83.25
253.329	93.25
253.562	71.25
253.795	80.25
254.028	99.25
254.261	86.25
254.494	59.25
254.727	76.25
254.96	85.25
255.193	83.25
255.426	84.25
255.659	77.25
255.892	72.25
256.124	72.25
256.357	80.25
256.59	92.25
256.823	80.25
257.056	79.25
257.289	72.25
257.521	76.25
257.754	79.25
257.987	71.25
258.22	84.25
258.452	84.25
258.685	83.25
258.918	73.25
259.151	81.25
259.383	74.25
259.616	80.25
259.849	67.25
260.081	81.25
260.314	86.25
260.547	87.25
260.779	88.25
261.012	85.25
261.244	81.25
261.477	100.25
261.71	91.25
261.942	114.25
262.175	101.25
262.407	94.25
262.64	96.25
262.872	74.25
263.105	78.25
263.337	76.25
263.57	90.25
263.802	70.25
264.035	77.25
264.267	70.25
264.499	83.25
264.732	85.25
264.964	80.25
265.197	78.25
265.429	71.25
265.661	76.25
265.894	69.25
266.126	71.25
266.358	75.25
266.591	89.25
266.823	87.25
267.055	76.25
267.287	82.25
267.52	88.25
267.752	83.25
267.984	87.25
268.216	86.25
268.448	75.25
268.681	73.25
268.913	93.25
269.145	75.25
269.377	76.25
269.609	74.25
269.841	88.25
270.073	82.25
270.306	84.25
270.538	91.25
270.77	89.25
271.002	88.25
271.234	96.25
271.466	86.25
271.698	85.25
271.93	88.25
272.162	89.25
272.394	94.25
272.626	77.25
272.858	80.25
273.09	90.25
273.322	81.25
273.553	85.25
273.785	92.25
274.017	84.25
274.249	88.25
274.481	80.25
274.713	86.25
274.945	74.25
275.176	90.25
275.408	76.25
275.64	95.25
275.872	84.25
276.104	85.25
276.335	89.25
276.567	112.25
276.799	110.25
277.031	100.25
277.262	85.25
277.494	80.25
277.726	75.25
277.957	84.25
278.189	99.25
278.421	74.25
278.652	89.25
278.884	83.25
279.115	88.25
279.347	84.25
279.579	93.25
279.81	79.25
280.042	82.25
280.273	91.25
280.505	97.25
280.736	83.25
280.968	89.25
281.199	97.25
281.431	85.25
281.662	85.25
281.894	72.25
282.125	84.25
282.356	125.25
282.588	142.25
282.819	117.25
283.051	82.25
283.282	95.25
283.513	88.25
283.745	85.25
283.976	73.25
284.207	90.25
284.439	84.25
284.67	101.25
284.901	81.25
285.132	98.25
285.364	103.25
285.595	95.25
285.826	83.25
286.057	81.25
286.288	82.25
286.52	85.25
286.751	95.25
286.982	83.25
287.213	75.25
287.444	88.25
287.675	85.25
287.906	88.25
288.138	86.25
288.369	88.25
288.6	88.25
288.831	75.25
289.062	92.25
289.293	87.25
289.524	85.25
289.755	84.25
289.986	83.25
290.217	90.25
290.448	89.25
290.679	91.25
290.91	89.25
291.141	82.25
291.371	86.25
291.602	87.25
291.833	83.25
292.064	83.25
292.295	85.25
292.526	92.25
292.757	79.25
292.987	71.25
293.218	95.25
293.449	86.25
293.68	95.25
293.91	85.25
294.141	82.25
294.372	91.25
294.603	88.25
294.833	97.25
295.064	91.25
295.295	84.25
295.525	85.25
295.756	96.25
295.987	123.25
296.217	153.25
296.448	120.25
296.679	103.25
296.909	78.25
297.14	95.25
297.37	87.25
297.601	84.25
297.831	88.25
298.062	87.25
298.292	83.25
298.523	94.25
298.753	91.25
298.984	78.25
299.214	92.25
299.445	90.25
299.675	87.25
299.905	104.25
300.136	89.25
300.366	89.25
300.597	91.25
300.827	99.25
301.057	112.25
301.288	98.25
301.518	91.25
301.748	92.25
301.979	93.25
302.209	88.25
302.439	105.25
302.669	88.25
302.9	75.25
303.13	87.25
303.36	90.25
303.59	104.25
303.82	102.25
304.051	80.25
304.281	89.25
304.511	84.25
304.741	84.25
304.971	77.25
305.201	87.25
305.431	92.25
305.661	82.25
305.891	78.25
306.121	91.25
306.352	104.25
306.582	105.25
306.812	91.25
307.042	90.25
307.272	85.25
307.502	90.25
307.731	104.25
307.961	87.25
308.191	91.25
308.421	98.25
308.651	95.25
308.881	96.25
309.111	87.25
309.341	91.25
309.571	111.25
309.8	85.25
310.03	114.25
310.26	98.25
310.49	92.25
310.72	82.25
310.949	92.25
311.179	98.25
311.409	100.25
311.639	100.25
311.868	98.25
312.098	98.25
312.328	92.25
312.557	100.25
312.787	108.25
313.017	100.25
313.246	107.25
313.476	95.25
313.706	106.25
313.935	110.25
314.165	99.25
314.394	112.25
314.624	98.25
314.853	90.25
315.083	106.25
315.312	98.25
315.542	91.25
315.771	102.25
316.001	85.25
316.23	84.25
316.46	95.25
316.689	100.25
316.919	95.25
317.148	94.25
317.377	102.25
317.607	80.25
317.836	93.25
318.065	84.25
318.295	87.25
318.524	94.25
318.753	101.25
318.983	93.25
319.212	95.25
319.441	112.25
319.67	118.25
319.9	100.25
320.129	91.25
320.358	101.25
320.587	104.25
320.816	94.25
321.046	96.25
321.275	108.25
321.504	103.25
321.733	100.25
321.962	85.25
322.191	104.25
322.42	100.25
322.649	105.25
322.878	112.25
323.108	133.25
323.337	120.25
323.566	146.25
323.795	178.25
324.024	218.25
324.253	460.25
324.482	963.25
324.71	2036.25
324.939	2637.25
325.168	959.25
325.397	283.25
325.626	160.25
325.855	141.25
326.084	142.25
326.313	141.25
326.542	165.25
326.77	282.25
326.999	501.25
327.228	1093.25
327.457	2057.25
327.686	1634.25
327.914	420.25
328.143	207.25
328.372	148.25
328.6	121.25
328.829	122.25
329.058	139.25
329.287	136.25
329.515	106.25
329.744	100.25
329.972	97.25
330.201	104.25
330.43	107.25
330.658	135.25
330.887	159.25
331.115	114.25
331.344	100.25
331.572	103.25
331.801	106.25
332.03	96.25
332.258	108.25
332.486	97.25
332.715	87.25
332.943	103.25
333.172	108.25
333.4	105.25
333.629	109.25
333.857	111.25
334.085	104.25
334.314	92.25
334.542	100.25
334.771	89.25
334.999	101.25
335.227	87.25
335.455	97.25
335.684	84.25
335.912	106.25
336.14	108.25
336.369	101.25
336.597	100.25
336.825	93.25
337.053	90.25
337.281	92.25
337.51	94.25
337.738	109.25
337.966	108.25
338.194	108.25
338.422	97.25
338.65	84.25
338.878	81.25
339.106	97.25
339.334	84.25
339.562	98.25
339.79	99.25
340.018	97.25
340.246	100.25
340.474	89.25
340.702	92.25
340.93	96.25
341.158	98.25
341.386	91.25
341.614	93.25
341.842	105.25
342.07	90.25
342.298	97.25
342.526	90.25
342.754	73.25
342.981	80.25
343.209	84.25
343.437	97.25
343.665	93.25
343.893	88.25
344.12	96.25
344.348	90.25
344.576	105.25
344.804	95.25
345.031	97.25
345.259	96.25
345.487	92.25
345.714	97.25
345.942	109.25
346.17	83.25
346.397	88.25
346.625	104.25
346.853	99.25
347.08	115.25
347.308	99.25
347.535	96.25
347.763	90.25
347.99	108.25
348.218	102.25
348.445	115.25
348.673	105.25
348.9	105.25
349.128	80.25
349.355	85.25
349.583	89.25
349.81	92.25
350.037	90.25
350.265	88.25
350.492	93.25
350.72	86.25
350.947	88.25
351.174	108.25
351.402	120.25
351.629	103.25
351.856	97.25
352.083	96.25
352.311	112.25
352.538	105.25
352.765	104.25
352.992	121.25
353.22	114.25
353.447	106.25
353.674	101.25
353.901	95.25
354.128	97.25
354.355	109.25
354.583	104.25
354.81	101.25
355.037	102.25
355.264	106.25
355.491	96.25
355.718	92.25
355.945	94.25
356.172	92.25
356.399	101.25
356.626	92.25
356.853	92.25
357.08	85.25
357.307	91.25
357.534	92.25
357.761	105.25
357.988	98.25
358.215	105.25
358.441	90.25
358.668	75.25
358.895	94.25
359.122	89.25
359.349	80.25
359.576	90.25
359.802	95.25
360.029	121.25
360.256	117.25
360.483	110.25
360.709	85.25
360.936	99.25
361.163	105.25
361.39	99.25
361.616	99.25
361.843	83.25
362.07	90.25
362.296	101.25
362.523	107.25
362.749	88.25
362.976	91.25
363.203	95.25
363.429	89.25
363.656	91.25
363.882	90.25
364.109	97.25
364.335	92.25
364.562	80.25
364.788	97.25
365.015	98.25
365.241	101.25
365.468	112.25
365.694	111.25
365.92	104.25
366.147	93.25
366.373	79.25
366.599	87.25
366.826	96.25
367.052	90.25
367.278	81.25
367.505	92.25
367.731	89.25
367.957	88.25
368.184	103.25
368.41	99.25
368.636	112.25
368.862	139.25
369.089	125.25
369.315	106.25
369.541	107.25
369.767	94.25
369.993	92.25
370.219	92.25
370.445	94.25
370.672	89.25
370.898	89.25
371.124	89.25
371.35	79.25
371.576	68.25
371.802	86.25
372.028	90.25
372.254	88.25
372.48	91.25
372.706	82.25
372.932	87.25
373.158	85.25
373.384	86.25
373.61	99.25
373.835	93.25
374.061	75.25
374.287	91.25
374.513	84.25
374.739	86.25
374.965	77.25
375.191	83.25
375.416	97.25
375.642	92.25
375.868	82.25
376.094	105.25
376.319	94.25
376.545	91.25
376.771	90.25
376.997	94.25
377.222	86.25
377.448	81.25
377.674	87.25
377.899	90.25
378.125	77.25
378.35	91.25
378.576	91.25
378.802	84.25
379.027	98.25
379.253	103.25
379.478	91.25
379.704	87.25
379.929	106.25
380.155	85.25
380.38	98.25
380.606	98.25
380.831	82.25
381.057	91.25
381.282	117.25
381.507	98.25
381.733	94.25
381.958	94.25
382.184	96.25
382.409	81.25
382.634	96.25
382.86	91.25
383.085	84.25
383.31	88.25
383.535	98.25
383.761	102.25
383.986	101.25
384.211	83.25
384.436	97.25
384.662	102.25
384.887	101.25
385.112	97.25
385.337	107.25
385.562	105.25
385.787	109.25
386.013	96.25
386.238	98.25
386.463	84.25
386.688	114.25
386.913	111.25
387.138	93.25
387.363	106.25
387.588	103.25
387.813	90.25
388.038	107.25
388.263	111.25
388.488	89.25
388.713	95.25
388.938	89.25
389.163	104.25
389.387	105.25
389.612	104.25
389.837	94.25
390.062	80.25
390.287	94.25
390.512	93.25
390.736	87.25
390.961	87.25
391.186	89.25
391.411	93.25
391.636	85.25
391.86	90.25
392.085	82.25
392.31	87.25
392.534	92.25
392.759	91.25
392.984	85.25
393.208	89.25
393.433	74.25
393.658	75.25
393.882	88.25
394.107	95.25
394.331	86.25
394.556	80.25
394.78	92.25
395.005	93.25
395.229	79.25
395.454	94.25
395.678	94.25
395.903	95.25
396.127	74.25
396.352	88.25
396.576	88.25
396.801	70.25
397.025	93.25
397.249	80.25
397.474	93.25
397.698	94.25
397.922	89.25
398.147	82.25
398.371	80.25
398.595	88.25
398.82	84.25
399.044	86.25
399.268	80.25
399.492	75.25
399.717	84.25
399.941	95.25
400.165	96.25
400.389	102.25
400.613	104.25
400.837	94.25
401.062	76.25
401.286	75.25
401.51	75.25
401.734	91.25
401.958	105.25
402.182	115.25
402.406	153.25
402.63	137.25
402.854	98.25
403.078	86.25
403.302	80.25
403.526	83.25
403.75	108.25
403.974	93.25
404.198	85.25
404.422	90.25
404.645	95.25
404.869	99.25
405.093	88.25
405.317	99.25
405.541	102.25
405.765	96.25
405.988	114.25
406.212	177.25
406.436	252.25
406.66	164.25
406.883	112.25
407.107	103.25
407.331	102.25
407.555	88.25
407.778	77.25
408.002	102.25
408.226	86.25
408.449	87.25
408.673	84.25
408.896	93.25
409.12	97.25
409.344	96.25
409.567	91.25
409.791	90.25
410.014	85.25
410.238	98.25
410.461	91.25
410.685	84.25
410.908	103.25
411.132	111.25
411.355	87.25
411.578	84.25
411.802	75.25
412.025	85.25
412.249	108.25
412.472	98.25
412.695	85.25
412.919	90.25
413.142	98.25
413.365	74.25
413.589	75.25
413.812	90.25
414.035	85.25
414.258	101.25
414.482	99.25
414.705	88.25
414.928	80.25
415.151	87.25
415.374	108.25
415.597	73.25
415.821	98.25
416.044	92.25
416.267	90.25
416.49	96.25
416.713	94.25
416.936	99.25
417.159	90.25
417.382	82.25
417.605	105.25
417.828	100.25
418.051	102.25
418.274	83.25
418.497	79.25
418.72	88.25
418.943	85.25
419.166	92.25
419.389	78.25
419.611	83.25
419.834	92.25
420.057	87.25
420.28	84.25
420.503	88.25
420.726	60.25
420.948	76.25
421.171	88.25
421.394	85.25
421.617	93.25
421.839	82.25
422.062	89.25
422.285	78.25
422.507	98.25
422.73	111.25
422.953	78.25
423.175	82.25
423.398	97.25
423.621	87.25
423.843	80.25
424.066	94.25
424.288	89.25
424.511	84.25
424.733	96.25
424.956	105.25
425.178	105.25
425.401	98.25
425.623	98.25
425.846	93.25
426.068	96.25
426.291	95.25
426.513	96.25
426.735	91.25
426.958	106.25
427.18	115.25
427.402	133.25
427.625	172.25
427.847	146.25
428.069	93.25
428.292	91.25
428.514	85.25
428.736	90.25
428.958	90.25
429.181	89.25
429.403	93.25
429.625	88.25
429.847	87.25
430.069	93.25
430.292	98.25
430.514	95.25
430.736	73.25
430.958	76.25
431.18	85.25
431.402	96.25
431.624	92.25
431.846	80.25
432.068	97.25
432.29	80.25
432.512	94.25
432.734	84.25
432.956	85.25
433.178	96.25
433.4	100.25
433.622	81.25
433.844	102.25
434.066	83.25
434.287	97.25
434.509	75.25
434.731	81.25
434.953	79.25
435.175	101.25
435.397	102.25
435.618	96.25
435.84	112.25
436.062	122.25
436.284	117.25
436.505	109.25
436.727	111.25
436.949	96.25
437.17	88.25
437.392	91.25
437.614	90.25
437.835	116.25
438.057	124.25
438.278	101.25
438.5	99.25
438.721	129.25
438.943	115.25
439.165	97.25
439.386	85.25
439.608	91.25
439.829	95.25
440.05	124.25
440.272	138.25
440.493	86.25
440.715	81.25
440.936	73.25
441.158	92.25
441.379	84.25
441.6	90.25
441.822	81.25
442.043	87.25
442.264	104.25
442.486	93.25
442.707	97.25
442.928	100.25
443.149	131.25
443.371	137.25
443.592	107.25
443.813	122.25
444.034	84.25
444.255	101.25
444.476	84.25
444.698	88.25
444.919	68.25
445.14	124.25
445.361	121.25
445.582	105.25
445.803	133.25
446.024	140.25
446.245	134.25
446.466	121.25
446.687	72.25
446.908	91.25
447.129	92.25
447.35	91.25
447.571	81.25
447.792	95.25
448.013	103.25
448.234	99.25
448.455	108.25
448.675	116.25
448.896	117.25
449.117	113.25
449.338	100.25
449.559	140.25
449.779	133.25
450	80.25
450.221	78.25
450.442	89.25
450.662	97.25
450.883	104.25
451.104	107.25
451.324	82.25
451.545	85.25
451.766	89.25
451.986	73.25
452.207	81.25
452.428	88.25
452.648	93.25
452.869	107.25
453.089	114.25
453.31	108.25
453.53	93.25
453.751	89.25
453.971	103.25
454.192	96.25
454.412	95.25
454.633	88.25
454.853	84.25
455.073	88.25
455.294	90.25
455.514	87.25
455.734	90.25
455.955	94.25
456.175	76.25
456.395	82.25
456.616	74.25
456.836	87.25
457.056	73.25
457.276	80.25
457.497	70.25
457.717	85.25
457.937	74.25
458.157	86.25
458.377	81.25
458.598	120.25
458.818	146.25
459.038	165.25
459.258	113.25
459.478	89.25
459.698	76.25
459.918	79.25
460.138	83.25
460.358	77.25
460.578	97.25
460.798	78.25
461.018	76.25
461.238	88.25
461.458	89.25
461.678	74.25
461.898	98.25
462.118	76.25
462.338	92.25
462.558	85.25
462.777	83.25
462.997	81.25
463.217	87.25
463.437	85.25
463.657	92.25
463.876	83.25
464.096	98.25
464.316	82.25
464.536	93.25
464.755	92.25
464.975	106.25
465.195	174.25
465.414	171.25
465.634	95.25
465.854	79.25
466.073	98.25
466.293	72.25
466.512	79.25
466.732	85.25
466.951	80.25
467.171	88.25
467.391	97.25
467.61	95.25
467.829	106.25
468.049	94.25
468.268	78.25
468.488	83.25
468.707	76.25
468.927	81.25
469.146	84.25
469.365	89.25
469.585	90.25
469.804	105.25
470.023	106.25
470.243	92.25
470.462	79.25
470.681	106.25
470.901	82.25
471.12	71.25
471.339	83.25
471.558	89.25
471.777	89.25
471.997	78.25
472.216	90.25
472.435	89.25
472.654	94.25
472.873	73.25
473.092	88.25
473.311	85.25
473.53	78.25
473.749	88.25
473.968	97.25
474.187	115.25
474.406	95.25
474.625	87.25
474.844	91.25
475.063	71.25
475.282	82.25
475.501	81.25
475.72	87.25
475.939	81.25
476.158	82.25
476.377	84.25
476.596	86.25
476.814	83.25
477.033	92.25
477.252	94.25
477.471	94.25
477.69	79.25
477.908	88.25
478.127	94.25
478.346	76.25
478.564	92.25
478.783	88.25
479.002	98.25
479.22	89.25
479.439	105.25
479.658	102.25
479.876	106.25
480.095	99.25
480.313	79.25
480.532	91.25
480.751	91.25
480.969	85.25
481.188	83.25
481.406	81.25
481.624	86.25
481.843	109.25
482.061	82.25
482.28	101.25
482.498	101.25
482.717	96.25
482.935	91.25
483.153	82.25
483.372	82.25
483.59	94.25
483.808	107.25
484.027	92.25
484.245	76.25
484.463	80.25
484.681	96.25
484.9	85.25
485.118	86.25
485.336	88.25
485.554	93.25
485.772	87.25
485.99	110.25
486.209	97.25
486.427	91.25
486.645	119.25
486.863	116.25
487.081	93.25
487.299	97.25
487.517	101.25
487.735	96.25
487.953	79.25
488.171	92.25
488.389	89.25
488.607	98.25
488.825	83.25
489.043	97.25
489.261	100.25
489.479	99.25
489.696	80.25
489.914	69.25
490.132	90.25
490.35	85.25
490.568	71.25
490.786	95.25
491.003	94.25
491.221	94.25
491.439	91.25
491.657	96.25
491.874	101.25
492.092	86.25
492.31	83.25
492.527	94.25
492.745	96.25
492.963	90.25
493.18	89.25
493.398	86.25
493.615	83.25
493.833	93.25
494.05	90.25
494.268	92.25
494.485	89.25
494.703	85.25
494.92	76.25
495.138	84.25
495.355	77.25
495.573	85.25
495.79	83.25
496.008	83.25
496.225	91.25
496.442	92.25
496.66	92.25
496.877	72.25
497.094	99.25
497.312	86.25
497.529	100.25
497.746	105.25
497.963	101.25
498.181	90.25
498.398	99.25
498.615	104.25
498.832	99.25
499.049	83.25
499.267	93.25
499.484	91.25
499.701	94.25
499.918	83.25
500.135	76.25
500.352	90.25
500.569	86.25
500.786	83.25
501.003	89.25
501.22	79.25
501.437	91.25
501.654	88.25
501.871	107.25
502.088	104.25
502.305	96.25
502.522	96.25
502.739	93.25
502.956	90.25
503.172	82.25
503.389	111.25
503.606	99.25
503.823	99.25
504.04	84.25
504.256	92.25
504.473	79.25
504.69	85.25
504.907	101.25
505.123	89.25
505.34	84.25
505.557	88.25
505.773	90.25
505.99	83.25
506.207	91.25
506.423	85.25
506.64	98.25
506.856	105.25
507.073	91.25
507.289	94.25
507.506	100.25
507.722	98.25
507.939	124.25
508.155	104.25
508.372	92.25
508.588	85.25
508.805	91.25
509.021	90.25
509.238	101.25
509.454	104.25
509.67	99.25
509.887	110.25
510.103	147.25
510.319	239.25
510.536	876.25
510.752	2800.25
510.968	783.25
511.184	172.25
511.401	113.25
511.617	101.25
511.833	107.25
512.049	94.25
512.265	93.25
512.481	88.25
512.698	93.25
512.914	82.25
513.13	100.25
513.346	96.25
513.562	107.25
513.778	88.25
513.994	81.25
514.21	101.25
514.426	122.25
514.642	141.25
514.858	136.25
515.074	172.25
515.29	514.25
515.506	1743.25
515.721	631.25
