Data from Uncirc_2007_H10_HRD10591_00082.txt Node
Date: Wed Jan 03 10:20:59 EST 2024
User: Yrep
Spectrometer: HR+D1059
Trigger mode: 1
Integration Time (sec): 1.000000E-1
Scans to average: 1
Electric dark correction enabled: true
Nonlinearity correction enabled: false
Boxcar width: 0
XAxis mode: Wavelengths
Number of Pixels in Spectrum: 2048
>>>>>Begin Spectral Data<<<<<
223.165	-16.38
223.4	-16.38
223.635	-16.38
223.869	-10.38
224.104	-18.38
224.338	-10.38
224.573	-3.38
224.808	-11.38
225.042	-17.38
225.277	-9.38
225.511	5.62
225.746	-0.38
225.98	-6.38
226.215	19.62
226.449	18.62
226.683	19.62
226.918	14.62
227.152	25.62
227.387	37.62
227.621	40.62
227.856	56.62
228.09	46.62
228.324	51.62
228.559	49.62
228.793	67.62
229.027	66.62
229.262	70.62
229.496	92.62
229.73	84.62
229.964	75.62
230.199	74.62
230.433	79.62
230.667	84.62
230.901	88.62
231.136	74.62
231.37	73.62
231.604	80.62
231.838	83.62
232.072	80.62
232.306	83.62
232.541	80.62
232.775	76.62
233.009	94.62
233.243	71.62
233.477	70.62
233.711	82.62
233.945	84.62
234.179	67.62
234.413	82.62
234.647	90.62
234.881	72.62
235.115	84.62
235.349	77.62
235.583	64.62
235.817	69.62
236.051	73.62
236.285	72.62
236.519	76.62
236.753	70.62
236.987	69.62
237.221	77.62
237.455	99.62
237.689	77.62
237.922	80.62
238.156	65.62
238.39	70.62
238.624	88.62
238.858	86.62
239.091	71.62
239.325	86.62
239.559	82.62
239.793	84.62
240.027	70.62
240.26	73.62
240.494	66.62
240.728	87.62
240.961	87.62
241.195	82.62
241.429	89.62
241.662	77.62
241.896	86.62
242.13	68.62
242.363	91.62
242.597	81.62
242.83	80.62
243.064	78.62
243.298	86.62
243.531	84.62
243.765	80.62
243.998	73.62
244.232	80.62
244.465	75.62
244.699	98.62
244.932	62.62
245.166	67.62
245.399	83.62
245.633	85.62
245.866	92.62
246.099	74.62
246.333	72.62
246.566	69.62
246.8	71.62
247.033	76.62
247.266	89.62
247.5	91.62
247.733	82.62
247.966	78.62
248.2	87.62
248.433	87.62
248.666	84.62
248.899	84.62
249.133	95.62
249.366	97.62
249.599	114.62
249.832	72.62
250.066	78.62
250.299	81.62
250.532	77.62
250.765	86.62
250.998	83.62
251.231	78.62
251.465	76.62
251.698	99.62
251.931	74.62
252.164	84.62
252.397	78.62
252.63	90.62
252.863	90.62
253.096	88.62
253.329	91.62
253.562	84.62
253.795	86.62
254.028	84.62
254.261	90.62
254.494	88.62
254.727	73.62
254.96	73.62
255.193	78.62
255.426	87.62
255.659	78.62
255.892	78.62
256.124	86.62
256.357	70.62
256.59	73.62
256.823	86.62
257.056	79.62
257.289	71.62
257.521	70.62
257.754	75.62
257.987	83.62
258.22	79.62
258.452	79.62
258.685	86.62
258.918	82.62
259.151	81.62
259.383	64.62
259.616	90.62
259.849	84.62
260.081	89.62
260.314	87.62
260.547	81.62
260.779	87.62
261.012	85.62
261.244	81.62
261.477	79.62
261.71	93.62
261.942	103.62
262.175	116.62
262.407	96.62
262.64	73.62
262.872	95.62
263.105	96.62
263.337	93.62
263.57	89.62
263.802	101.62
264.035	91.62
264.267	69.62
264.499	75.62
264.732	73.62
264.964	78.62
265.197	86.62
265.429	89.62
265.661	84.62
265.894	71.62
266.126	75.62
266.358	71.62
266.591	85.62
266.823	102.62
267.055	85.62
267.287	86.62
267.52	69.62
267.752	90.62
267.984	91.62
268.216	85.62
268.448	97.62
268.681	70.62
268.913	91.62
269.145	87.62
269.377	80.62
269.609	80.62
269.841	91.62
270.073	84.62
270.306	91.62
270.538	79.62
270.77	82.62
271.002	85.62
271.234	91.62
271.466	83.62
271.698	97.62
271.93	85.62
272.162	91.62
272.394	89.62
272.626	92.62
272.858	90.62
273.09	82.62
273.322	93.62
273.553	100.62
273.785	89.62
274.017	81.62
274.249	91.62
274.481	89.62
274.713	77.62
274.945	95.62
275.176	87.62
275.408	96.62
275.64	87.62
275.872	92.62
276.104	91.62
276.335	99.62
276.567	99.62
276.799	102.62
277.031	94.62
277.262	103.62
277.494	96.62
277.726	93.62
277.957	86.62
278.189	81.62
278.421	90.62
278.652	84.62
278.884	82.62
279.115	76.62
279.347	84.62
279.579	85.62
279.81	70.62
280.042	91.62
280.273	97.62
280.505	97.62
280.736	82.62
280.968	84.62
281.199	94.62
281.431	82.62
281.662	82.62
281.894	79.62
282.125	103.62
282.356	119.62
282.588	143.62
282.819	125.62
283.051	90.62
283.282	90.62
283.513	92.62
283.745	100.62
283.976	95.62
284.207	74.62
284.439	89.62
284.67	82.62
284.901	85.62
285.132	89.62
285.364	97.62
285.595	93.62
285.826	96.62
286.057	75.62
286.288	84.62
286.52	94.62
286.751	80.62
286.982	92.62
287.213	77.62
287.444	93.62
287.675	93.62
287.906	98.62
288.138	82.62
288.369	86.62
288.6	83.62
288.831	80.62
289.062	83.62
289.293	81.62
289.524	77.62
289.755	82.62
289.986	69.62
290.217	81.62
290.448	79.62
290.679	85.62
290.91	92.62
291.141	98.62
291.371	86.62
291.602	81.62
291.833	84.62
292.064	87.62
292.295	101.62
292.526	95.62
292.757	78.62
292.987	73.62
293.218	80.62
293.449	82.62
293.68	97.62
293.91	93.62
294.141	93.62
294.372	87.62
294.603	96.62
294.833	88.62
295.064	82.62
295.295	93.62
295.525	99.62
295.756	100.62
295.987	138.62
296.217	140.62
296.448	142.62
296.679	98.62
296.909	88.62
297.14	92.62
297.37	86.62
297.601	87.62
297.831	95.62
298.062	92.62
298.292	92.62
298.523	84.62
298.753	86.62
298.984	104.62
299.214	91.62
299.445	92.62
299.675	84.62
299.905	89.62
300.136	86.62
300.366	83.62
300.597	78.62
300.827	89.62
301.057	83.62
301.288	109.62
301.518	86.62
301.748	67.62
301.979	93.62
302.209	101.62
302.439	84.62
302.669	91.62
302.9	91.62
303.13	82.62
303.36	90.62
303.59	84.62
303.82	112.62
304.051	100.62
304.281	99.62
304.511	91.62
304.741	85.62
304.971	89.62
305.201	81.62
305.431	98.62
305.661	88.62
305.891	87.62
306.121	105.62
306.352	104.62
306.582	107.62
306.812	103.62
307.042	86.62
307.272	89.62
307.502	83.62
307.731	86.62
307.961	108.62
308.191	93.62
308.421	90.62
308.651	90.62
308.881	93.62
309.111	111.62
309.341	91.62
309.571	119.62
309.8	91.62
310.03	107.62
310.26	108.62
310.49	100.62
310.72	113.62
310.949	96.62
311.179	111.62
311.409	100.62
311.639	113.62
311.868	110.62
312.098	96.62
312.328	89.62
312.557	97.62
312.787	103.62
313.017	117.62
313.246	90.62
313.476	84.62
313.706	104.62
313.935	96.62
314.165	103.62
314.394	109.62
314.624	95.62
314.853	103.62
315.083	107.62
315.312	110.62
315.542	91.62
315.771	81.62
316.001	77.62
316.23	89.62
316.46	94.62
316.689	87.62
316.919	89.62
317.148	97.62
317.377	95.62
317.607	101.62
317.836	106.62
318.065	86.62
318.295	97.62
318.524	94.62
318.753	92.62
318.983	90.62
319.212	113.62
319.441	115.62
319.67	109.62
319.9	86.62
320.129	97.62
320.358	83.62
320.587	101.62
320.816	112.62
321.046	104.62
321.275	111.62
321.504	97.62
321.733	112.62
321.962	106.62
322.191	107.62
322.42	128.62
322.649	121.62
322.878	118.62
323.108	130.62
323.337	124.62
323.566	125.62
323.795	165.62
324.024	213.62
324.253	437.62
324.482	947.62
324.71	1918.62
324.939	2553.62
325.168	917.62
325.397	259.62
325.626	170.62
325.855	129.62
326.084	111.62
326.313	139.62
326.542	154.62
326.77	237.62
326.999	493.62
327.228	1050.62
327.457	1953.62
327.686	1551.62
327.914	395.62
328.143	204.62
328.372	149.62
328.6	133.62
328.829	129.62
329.058	138.62
329.287	139.62
329.515	119.62
329.744	102.62
329.972	96.62
330.201	88.62
330.43	105.62
330.658	99.62
330.887	143.62
331.115	111.62
331.344	106.62
331.572	106.62
331.801	85.62
332.03	106.62
332.258	90.62
332.486	91.62
332.715	99.62
332.943	95.62
333.172	95.62
333.4	103.62
333.629	118.62
333.857	104.62
334.085	98.62
334.314	98.62
334.542	90.62
334.771	104.62
334.999	93.62
335.227	105.62
335.455	87.62
335.684	99.62
335.912	84.62
336.14	93.62
336.369	107.62
336.597	107.62
336.825	97.62
337.053	99.62
337.281	110.62
337.51	106.62
337.738	101.62
337.966	102.62
338.194	108.62
338.422	114.62
338.65	95.62
338.878	105.62
339.106	97.62
339.334	87.62
339.562	99.62
339.79	80.62
340.018	83.62
340.246	101.62
340.474	105.62
340.702	98.62
340.93	95.62
341.158	91.62
341.386	83.62
341.614	102.62
341.842	95.62
342.07	87.62
342.298	91.62
342.526	96.62
342.754	100.62
342.981	83.62
343.209	88.62
343.437	111.62
343.665	86.62
343.893	92.62
344.12	86.62
344.348	84.62
344.576	82.62
344.804	88.62
345.031	102.62
345.259	100.62
345.487	97.62
345.714	101.62
345.942	99.62
346.17	97.62
346.397	87.62
346.625	89.62
346.853	101.62
347.08	86.62
347.308	95.62
347.535	90.62
347.763	95.62
347.99	94.62
348.218	98.62
348.445	100.62
348.673	94.62
348.9	101.62
349.128	94.62
349.355	103.62
349.583	82.62
349.81	97.62
350.037	85.62
350.265	108.62
350.492	94.62
350.72	90.62
350.947	114.62
351.174	106.62
351.402	124.62
351.629	90.62
351.856	96.62
352.083	123.62
352.311	99.62
352.538	108.62
352.765	116.62
352.992	127.62
353.22	126.62
353.447	105.62
353.674	81.62
353.901	96.62
354.128	87.62
354.355	93.62
354.583	99.62
354.81	85.62
355.037	96.62
355.264	99.62
355.491	86.62
355.718	107.62
355.945	93.62
356.172	105.62
356.399	115.62
356.626	98.62
356.853	95.62
357.08	96.62
357.307	97.62
357.534	87.62
357.761	94.62
357.988	87.62
358.215	97.62
358.441	99.62
358.668	94.62
358.895	103.62
359.122	102.62
359.349	95.62
359.576	97.62
359.802	99.62
360.029	121.62
360.256	116.62
360.483	85.62
360.709	86.62
360.936	101.62
361.163	107.62
361.39	94.62
361.616	86.62
361.843	84.62
362.07	105.62
362.296	105.62
362.523	80.62
362.749	105.62
362.976	101.62
363.203	91.62
363.429	87.62
363.656	85.62
363.882	81.62
364.109	84.62
364.335	90.62
364.562	91.62
364.788	92.62
365.015	97.62
365.241	109.62
365.468	109.62
365.694	107.62
365.92	106.62
366.147	89.62
366.373	78.62
366.599	98.62
366.826	100.62
367.052	92.62
367.278	106.62
367.505	83.62
367.731	98.62
367.957	87.62
368.184	100.62
368.41	103.62
368.636	109.62
368.862	115.62
369.089	103.62
369.315	89.62
369.541	91.62
369.767	101.62
369.993	84.62
370.219	93.62
370.445	96.62
370.672	88.62
370.898	98.62
371.124	94.62
371.35	93.62
371.576	85.62
371.802	91.62
372.028	89.62
372.254	96.62
372.48	96.62
372.706	75.62
372.932	91.62
373.158	97.62
373.384	94.62
373.61	85.62
373.835	79.62
374.061	95.62
374.287	94.62
374.513	77.62
374.739	96.62
374.965	85.62
375.191	98.62
375.416	89.62
375.642	88.62
375.868	84.62
376.094	74.62
376.319	87.62
376.545	95.62
376.771	98.62
376.997	88.62
377.222	81.62
377.448	90.62
377.674	94.62
377.899	95.62
378.125	104.62
378.35	97.62
378.576	83.62
378.802	85.62
379.027	91.62
379.253	97.62
379.478	80.62
379.704	88.62
379.929	97.62
380.155	91.62
380.38	95.62
380.606	94.62
380.831	82.62
381.057	103.62
381.282	81.62
381.507	79.62
381.733	108.62
381.958	81.62
382.184	101.62
382.409	92.62
382.634	96.62
382.86	108.62
383.085	96.62
383.31	94.62
383.535	99.62
383.761	102.62
383.986	99.62
384.211	104.62
384.436	98.62
384.662	94.62
384.887	105.62
385.112	98.62
385.337	101.62
385.562	114.62
385.787	100.62
386.013	114.62
386.238	107.62
386.463	103.62
386.688	106.62
386.913	75.62
387.138	104.62
387.363	100.62
387.588	111.62
387.813	103.62
388.038	102.62
388.263	105.62
388.488	110.62
388.713	93.62
388.938	103.62
389.163	83.62
389.387	105.62
389.612	97.62
389.837	90.62
390.062	93.62
390.287	84.62
390.512	101.62
390.736	102.62
390.961	100.62
391.186	93.62
391.411	94.62
391.636	98.62
391.86	91.62
392.085	90.62
392.31	93.62
392.534	108.62
392.759	87.62
392.984	96.62
393.208	84.62
393.433	73.62
393.658	82.62
393.882	89.62
394.107	97.62
394.331	67.62
394.556	79.62
394.78	87.62
395.005	89.62
395.229	77.62
395.454	91.62
395.678	87.62
395.903	97.62
396.127	78.62
396.352	85.62
396.576	87.62
396.801	88.62
397.025	81.62
397.249	83.62
397.474	85.62
397.698	91.62
397.922	78.62
398.147	103.62
398.371	89.62
398.595	101.62
398.82	92.62
399.044	98.62
399.268	86.62
399.492	79.62
399.717	89.62
399.941	85.62
400.165	88.62
400.389	101.62
400.613	98.62
400.837	86.62
401.062	87.62
401.286	96.62
401.51	91.62
401.734	91.62
401.958	98.62
402.182	132.62
402.406	156.62
402.63	117.62
402.854	91.62
403.078	103.62
403.302	81.62
403.526	81.62
403.75	94.62
403.974	92.62
404.198	98.62
404.422	91.62
404.645	83.62
404.869	96.62
405.093	109.62
405.317	106.62
405.541	96.62
405.765	102.62
405.988	131.62
406.212	175.62
406.436	252.62
406.66	161.62
406.883	110.62
407.107	95.62
407.331	87.62
407.555	112.62
407.778	98.62
408.002	93.62
408.226	96.62
408.449	108.62
408.673	90.62
408.896	83.62
409.12	79.62
409.344	95.62
409.567	78.62
409.791	98.62
410.014	87.62
410.238	86.62
410.461	88.62
410.685	101.62
410.908	97.62
411.132	102.62
411.355	98.62
411.578	94.62
411.802	85.62
412.025	79.62
412.249	86.62
412.472	82.62
412.695	94.62
412.919	97.62
413.142	85.62
413.365	79.62
413.589	77.62
413.812	78.62
414.035	93.62
414.258	97.62
414.482	96.62
414.705	87.62
414.928	94.62
415.151	94.62
415.374	92.62
415.597	81.62
415.821	95.62
416.044	80.62
416.267	96.62
416.49	94.62
416.713	87.62
416.936	91.62
417.159	85.62
417.382	103.62
417.605	83.62
417.828	100.62
418.051	87.62
418.274	86.62
418.497	90.62
418.72	100.62
418.943	89.62
419.166	95.62
419.389	88.62
419.611	91.62
419.834	94.62
420.057	84.62
420.28	79.62
420.503	92.62
420.726	93.62
420.948	76.62
421.171	98.62
421.394	93.62
421.617	104.62
421.839	91.62
422.062	91.62
422.285	99.62
422.507	83.62
422.73	93.62
422.953	93.62
423.175	96.62
423.398	83.62
423.621	110.62
423.843	88.62
424.066	98.62
424.288	99.62
424.511	93.62
424.733	105.62
424.956	103.62
425.178	103.62
425.401	90.62
425.623	93.62
425.846	87.62
426.068	96.62
426.291	97.62
426.513	90.62
426.735	83.62
426.958	97.62
427.18	107.62
427.402	136.62
427.625	162.62
427.847	144.62
428.069	81.62
428.292	85.62
428.514	108.62
428.736	97.62
428.958	83.62
429.181	83.62
429.403	81.62
429.625	77.62
429.847	85.62
430.069	88.62
430.292	96.62
430.514	94.62
430.736	82.62
430.958	89.62
431.18	84.62
431.402	81.62
431.624	87.62
431.846	79.62
432.068	81.62
432.29	72.62
432.512	87.62
432.734	82.62
432.956	92.62
433.178	93.62
433.4	100.62
433.622	91.62
433.844	94.62
434.066	98.62
434.287	77.62
434.509	81.62
434.731	88.62
434.953	84.62
435.175	96.62
435.397	92.62
435.618	95.62
435.84	98.62
436.062	134.62
436.284	115.62
436.505	100.62
436.727	99.62
436.949	82.62
437.17	82.62
437.392	90.62
437.614	97.62
437.835	102.62
438.057	124.62
438.278	109.62
438.5	98.62
438.721	139.62
438.943	84.62
439.165	93.62
439.386	92.62
439.608	95.62
439.829	97.62
440.05	115.62
440.272	155.62
440.493	102.62
440.715	76.62
440.936	84.62
441.158	102.62
441.379	85.62
441.6	84.62
441.822	98.62
442.043	90.62
442.264	97.62
442.486	101.62
442.707	112.62
442.928	105.62
443.149	124.62
443.371	119.62
443.592	114.62
443.813	127.62
444.034	107.62
444.255	87.62
444.476	96.62
444.698	84.62
444.919	84.62
445.14	140.62
445.361	111.62
445.582	109.62
445.803	130.62
446.024	144.62
446.245	153.62
446.466	123.62
446.687	97.62
446.908	95.62
447.129	104.62
447.35	96.62
447.571	108.62
447.792	102.62
448.013	97.62
448.234	114.62
448.455	97.62
448.675	112.62
448.896	111.62
449.117	99.62
449.338	106.62
449.559	144.62
449.779	141.62
450	112.62
450.221	97.62
450.442	91.62
450.662	104.62
450.883	96.62
451.104	113.62
451.324	110.62
451.545	104.62
451.766	88.62
451.986	90.62
452.207	85.62
452.428	81.62
452.648	93.62
452.869	112.62
453.089	102.62
453.31	137.62
453.53	97.62
453.751	89.62
453.971	100.62
454.192	104.62
454.412	101.62
454.633	76.62
454.853	80.62
455.073	71.62
455.294	86.62
455.514	95.62
455.734	88.62
455.955	84.62
456.175	71.62
456.395	76.62
456.616	85.62
456.836	105.62
457.056	81.62
457.276	96.62
457.497	98.62
457.717	90.62
457.937	92.62
458.157	85.62
458.377	102.62
458.598	110.62
458.818	142.62
459.038	161.62
459.258	114.62
459.478	101.62
459.698	82.62
459.918	94.62
460.138	85.62
460.358	94.62
460.578	81.62
460.798	95.62
461.018	85.62
461.238	82.62
461.458	87.62
461.678	87.62
461.898	90.62
462.118	76.62
462.338	75.62
462.558	77.62
462.777	87.62
462.997	78.62
463.217	87.62
463.437	95.62
463.657	92.62
463.876	89.62
464.096	87.62
464.316	99.62
464.536	97.62
464.755	96.62
464.975	109.62
465.195	170.62
465.414	181.62
465.634	111.62
465.854	100.62
466.073	79.62
466.293	82.62
466.512	79.62
466.732	89.62
466.951	98.62
467.171	91.62
467.391	92.62
467.61	107.62
467.829	97.62
468.049	100.62
468.268	83.62
468.488	82.62
468.707	83.62
468.927	80.62
469.146	86.62
469.365	88.62
469.585	85.62
469.804	92.62
470.023	107.62
470.243	97.62
470.462	96.62
470.681	115.62
470.901	79.62
471.12	85.62
471.339	83.62
471.558	85.62
471.777	86.62
471.997	80.62
472.216	84.62
472.435	98.62
472.654	87.62
472.873	95.62
473.092	90.62
473.311	98.62
473.53	105.62
473.749	99.62
473.968	95.62
474.187	101.62
474.406	101.62
474.625	112.62
474.844	85.62
475.063	85.62
475.282	82.62
475.501	80.62
475.72	87.62
475.939	82.62
476.158	87.62
476.377	87.62
476.596	85.62
476.814	93.62
477.033	89.62
477.252	77.62
477.471	90.62
477.69	91.62
477.908	73.62
478.127	90.62
478.346	82.62
478.564	97.62
478.783	100.62
479.002	82.62
479.22	99.62
479.439	100.62
479.658	121.62
479.876	93.62
480.095	98.62
480.313	90.62
480.532	89.62
480.751	77.62
480.969	90.62
481.188	94.62
481.406	94.62
481.624	86.62
481.843	89.62
482.061	81.62
482.28	93.62
482.498	99.62
482.717	93.62
482.935	80.62
483.153	74.62
483.372	73.62
483.59	85.62
483.808	97.62
484.027	85.62
484.245	79.62
484.463	98.62
484.681	98.62
484.9	86.62
485.118	69.62
485.336	86.62
485.554	97.62
485.772	100.62
485.99	100.62
486.209	97.62
486.427	107.62
486.645	98.62
486.863	109.62
487.081	87.62
487.299	85.62
487.517	95.62
487.735	92.62
487.953	89.62
488.171	82.62
488.389	92.62
488.607	93.62
488.825	105.62
489.043	94.62
489.261	103.62
489.479	82.62
489.696	91.62
489.914	85.62
490.132	79.62
490.35	92.62
490.568	77.62
490.786	100.62
491.003	82.62
491.221	85.62
491.439	99.62
491.657	98.62
491.874	108.62
492.092	86.62
492.31	86.62
492.527	100.62
492.745	76.62
492.963	87.62
493.18	102.62
493.398	93.62
493.615	103.62
493.833	95.62
494.05	81.62
494.268	85.62
494.485	89.62
494.703	101.62
494.92	78.62
495.138	92.62
495.355	91.62
495.573	99.62
495.79	91.62
496.008	82.62
496.225	92.62
496.442	83.62
496.66	98.62
496.877	84.62
497.094	81.62
497.312	85.62
497.529	90.62
497.746	93.62
497.963	89.62
498.181	92.62
498.398	88.62
498.615	115.62
498.832	105.62
499.049	96.62
499.267	83.62
499.484	105.62
499.701	103.62
499.918	84.62
500.135	79.62
500.352	96.62
500.569	81.62
500.786	94.62
501.003	87.62
501.22	94.62
501.437	95.62
501.654	101.62
501.871	110.62
502.088	89.62
502.305	102.62
502.522	96.62
502.739	87.62
502.956	93.62
503.172	94.62
503.389	101.62
503.606	109.62
503.823	102.62
504.04	92.62
504.256	103.62
504.473	101.62
504.69	97.62
504.907	103.62
505.123	87.62
505.34	91.62
505.557	104.62
505.773	93.62
505.99	95.62
506.207	76.62
506.423	103.62
506.64	79.62
506.856	86.62
507.073	95.62
507.289	86.62
507.506	103.62
507.722	131.62
507.939	132.62
508.155	100.62
508.372	106.62
508.588	93.62
508.805	105.62
509.021	97.62
509.238	101.62
509.454	97.62
509.67	102.62
509.887	113.62
510.103	129.62
510.319	224.62
510.536	830.62
510.752	2692.62
510.968	737.62
511.184	172.62
511.401	109.62
511.617	108.62
511.833	97.62
512.049	101.62
512.265	91.62
512.481	110.62
512.698	90.62
512.914	91.62
513.13	96.62
513.346	84.62
513.562	85.62
513.778	92.62
513.994	97.62
514.21	112.62
514.426	105.62
514.642	144.62
514.858	123.62
515.074	167.62
515.29	479.62
