Data from Uncirc_2007_H10_HRD10591_00002.txt Node
Date: Wed Jan 03 10:20:43 EST 2024
User: Yrep
Spectrometer: HR+D1059
Trigger mode: 1
Integration Time (sec): 1.000000E-1
Scans to average: 1
Electric dark correction enabled: true
Nonlinearity correction enabled: false
Boxcar width: 0
XAxis mode: Wavelengths
Number of Pixels in Spectrum: 2048
>>>>>Begin Spectral Data<<<<<
223.165	-22.25
223.4	-22.25
223.635	-22.25
223.869	-45.25
224.104	-14.25
224.338	-4.25
224.573	-27.25
224.808	-5.25
225.042	2.75
225.277	-5.25
225.511	0.75
225.746	-0.25
225.98	13.75
226.215	1.75
226.449	22.75
226.683	12.75
226.918	35.75
227.152	33.75
227.387	43.75
227.621	40.75
227.856	59.75
228.09	42.75
228.324	55.75
228.559	48.75
228.793	58.75
229.027	51.75
229.262	62.75
229.496	73.75
229.73	88.75
229.964	77.75
230.199	73.75
230.433	78.75
230.667	79.75
230.901	82.75
231.136	89.75
231.37	99.75
231.604	68.75
231.838	87.75
232.072	91.75
232.306	72.75
232.541	83.75
232.775	83.75
233.009	93.75
233.243	92.75
233.477	97.75
233.711	91.75
233.945	85.75
234.179	79.75
234.413	77.75
234.647	87.75
234.881	90.75
235.115	63.75
235.349	81.75
235.583	78.75
235.817	78.75
236.051	80.75
236.285	80.75
236.519	86.75
236.753	71.75
236.987	83.75
237.221	77.75
237.455	84.75
237.689	87.75
237.922	75.75
238.156	54.75
238.39	71.75
238.624	81.75
238.858	83.75
239.091	88.75
239.325	61.75
239.559	86.75
239.793	87.75
240.027	92.75
240.26	77.75
240.494	79.75
240.728	81.75
240.961	77.75
241.195	83.75
241.429	101.75
241.662	71.75
241.896	68.75
242.13	69.75
242.363	79.75
242.597	77.75
242.83	80.75
243.064	77.75
243.298	83.75
243.531	66.75
243.765	83.75
243.998	79.75
244.232	81.75
244.465	95.75
244.699	88.75
244.932	79.75
245.166	67.75
245.399	97.75
245.633	87.75
245.866	74.75
246.099	87.75
246.333	66.75
246.566	93.75
246.8	73.75
247.033	84.75
247.266	89.75
247.5	81.75
247.733	75.75
247.966	73.75
248.2	82.75
248.433	87.75
248.666	75.75
248.899	84.75
249.133	81.75
249.366	88.75
249.599	87.75
249.832	79.75
250.066	77.75
250.299	63.75
250.532	67.75
250.765	90.75
250.998	91.75
251.231	85.75
251.465	96.75
251.698	83.75
251.931	85.75
252.164	88.75
252.397	78.75
252.63	91.75
252.863	83.75
253.096	88.75
253.329	78.75
253.562	90.75
253.795	88.75
254.028	69.75
254.261	77.75
254.494	76.75
254.727	72.75
254.96	97.75
255.193	93.75
255.426	74.75
255.659	92.75
255.892	77.75
256.124	79.75
256.357	104.75
256.59	82.75
256.823	86.75
257.056	84.75
257.289	93.75
257.521	78.75
257.754	78.75
257.987	87.75
258.22	86.75
258.452	70.75
258.685	76.75
258.918	80.75
259.151	79.75
259.383	82.75
259.616	77.75
259.849	86.75
260.081	71.75
260.314	76.75
260.547	92.75
260.779	85.75
261.012	90.75
261.244	87.75
261.477	79.75
261.71	99.75
261.942	108.75
262.175	125.75
262.407	96.75
262.64	87.75
262.872	80.75
263.105	91.75
263.337	94.75
263.57	72.75
263.802	77.75
264.035	72.75
264.267	78.75
264.499	79.75
264.732	79.75
264.964	80.75
265.197	97.75
265.429	84.75
265.661	79.75
265.894	80.75
266.126	90.75
266.358	94.75
266.591	88.75
266.823	85.75
267.055	86.75
267.287	85.75
267.52	94.75
267.752	78.75
267.984	94.75
268.216	90.75
268.448	93.75
268.681	90.75
268.913	91.75
269.145	87.75
269.377	86.75
269.609	67.75
269.841	80.75
270.073	64.75
270.306	88.75
270.538	86.75
270.77	102.75
271.002	92.75
271.234	82.75
271.466	80.75
271.698	79.75
271.93	88.75
272.162	86.75
272.394	85.75
272.626	79.75
272.858	77.75
273.09	94.75
273.322	97.75
273.553	99.75
273.785	88.75
274.017	80.75
274.249	86.75
274.481	87.75
274.713	82.75
274.945	93.75
275.176	82.75
275.408	83.75
275.64	83.75
275.872	71.75
276.104	86.75
276.335	87.75
276.567	105.75
276.799	110.75
277.031	100.75
277.262	95.75
277.494	86.75
277.726	102.75
277.957	83.75
278.189	79.75
278.421	99.75
278.652	97.75
278.884	88.75
279.115	101.75
279.347	85.75
279.579	90.75
279.81	100.75
280.042	99.75
280.273	92.75
280.505	76.75
280.736	85.75
280.968	82.75
281.199	97.75
281.431	84.75
281.662	104.75
281.894	81.75
282.125	101.75
282.356	97.75
282.588	141.75
282.819	113.75
283.051	98.75
283.282	97.75
283.513	97.75
283.745	82.75
283.976	83.75
284.207	86.75
284.439	93.75
284.67	90.75
284.901	75.75
285.132	79.75
285.364	73.75
285.595	90.75
285.826	84.75
286.057	77.75
286.288	85.75
286.52	90.75
286.751	87.75
286.982	91.75
287.213	101.75
287.444	91.75
287.675	83.75
287.906	83.75
288.138	79.75
288.369	87.75
288.6	94.75
288.831	101.75
289.062	91.75
289.293	85.75
289.524	86.75
289.755	83.75
289.986	83.75
290.217	78.75
290.448	83.75
290.679	75.75
290.91	92.75
291.141	83.75
291.371	98.75
291.602	101.75
291.833	96.75
292.064	79.75
292.295	67.75
292.526	79.75
292.757	90.75
292.987	87.75
293.218	85.75
293.449	91.75
293.68	82.75
293.91	94.75
294.141	93.75
294.372	95.75
294.603	85.75
294.833	87.75
295.064	85.75
295.295	96.75
295.525	94.75
295.756	98.75
295.987	101.75
296.217	137.75
296.448	117.75
296.679	89.75
296.909	101.75
297.14	103.75
297.37	87.75
297.601	94.75
297.831	88.75
298.062	83.75
298.292	94.75
298.523	98.75
298.753	90.75
298.984	83.75
299.214	76.75
299.445	78.75
299.675	93.75
299.905	100.75
300.136	100.75
300.366	97.75
300.597	97.75
300.827	79.75
301.057	99.75
301.288	105.75
301.518	81.75
301.748	81.75
301.979	98.75
302.209	78.75
302.439	85.75
302.669	85.75
302.9	110.75
303.13	101.75
303.36	102.75
303.59	108.75
303.82	104.75
304.051	97.75
304.281	73.75
304.511	90.75
304.741	89.75
304.971	88.75
305.201	89.75
305.431	95.75
305.661	92.75
305.891	82.75
306.121	99.75
306.352	102.75
306.582	105.75
306.812	101.75
307.042	91.75
307.272	94.75
307.502	93.75
307.731	86.75
307.961	92.75
308.191	86.75
308.421	102.75
308.651	91.75
308.881	88.75
309.111	90.75
309.341	102.75
309.571	95.75
309.8	93.75
310.03	93.75
310.26	98.75
310.49	94.75
310.72	96.75
310.949	100.75
311.179	93.75
311.409	98.75
311.639	91.75
311.868	80.75
312.098	109.75
312.328	100.75
312.557	114.75
312.787	104.75
313.017	97.75
313.246	87.75
313.476	93.75
313.706	103.75
313.935	99.75
314.165	96.75
314.394	103.75
314.624	99.75
314.853	100.75
315.083	93.75
315.312	96.75
315.542	96.75
315.771	96.75
316.001	93.75
316.23	90.75
316.46	92.75
316.689	77.75
316.919	81.75
317.148	99.75
317.377	103.75
317.607	86.75
317.836	94.75
318.065	90.75
318.295	77.75
318.524	88.75
318.753	71.75
318.983	98.75
319.212	103.75
319.441	113.75
319.67	102.75
319.9	86.75
320.129	77.75
320.358	105.75
320.587	97.75
320.816	111.75
321.046	95.75
321.275	100.75
321.504	93.75
321.733	88.75
321.962	89.75
322.191	107.75
322.42	116.75
322.649	116.75
322.878	117.75
323.108	116.75
323.337	112.75
323.566	124.75
323.795	166.75
324.024	222.75
324.253	427.75
324.482	917.75
324.71	1907.75
324.939	2525.75
325.168	918.75
325.397	259.75
325.626	145.75
325.855	128.75
326.084	127.75
326.313	134.75
326.542	173.75
326.77	246.75
326.999	501.75
327.228	1039.75
327.457	1895.75
327.686	1518.75
327.914	407.75
328.143	190.75
328.372	150.75
328.6	131.75
328.829	126.75
329.058	120.75
329.287	123.75
329.515	117.75
329.744	102.75
329.972	109.75
330.201	99.75
330.43	99.75
330.658	118.75
330.887	127.75
331.115	116.75
331.344	111.75
331.572	103.75
331.801	86.75
332.03	109.75
332.258	95.75
332.486	84.75
332.715	77.75
332.943	98.75
333.172	100.75
333.4	93.75
333.629	110.75
333.857	99.75
334.085	121.75
334.314	89.75
334.542	102.75
334.771	88.75
334.999	87.75
335.227	91.75
335.455	106.75
335.684	101.75
335.912	97.75
336.14	95.75
336.369	100.75
336.597	94.75
336.825	103.75
337.053	105.75
337.281	78.75
337.51	90.75
337.738	97.75
337.966	81.75
338.194	94.75
338.422	90.75
338.65	91.75
338.878	90.75
339.106	91.75
339.334	107.75
339.562	83.75
339.79	91.75
340.018	73.75
340.246	82.75
340.474	87.75
340.702	104.75
340.93	94.75
341.158	96.75
341.386	91.75
341.614	100.75
341.842	88.75
342.07	92.75
342.298	97.75
342.526	86.75
342.754	77.75
342.981	95.75
343.209	90.75
343.437	98.75
343.665	82.75
343.893	86.75
344.12	109.75
344.348	99.75
344.576	95.75
344.804	100.75
345.031	95.75
345.259	91.75
345.487	100.75
345.714	100.75
345.942	99.75
346.17	97.75
346.397	94.75
346.625	87.75
346.853	99.75
347.08	88.75
347.308	98.75
347.535	109.75
347.763	98.75
347.99	103.75
348.218	101.75
348.445	94.75
348.673	98.75
348.9	94.75
349.128	102.75
349.355	93.75
349.583	105.75
349.81	101.75
350.037	95.75
350.265	94.75
350.492	92.75
350.72	100.75
350.947	102.75
351.174	117.75
351.402	114.75
351.629	110.75
351.856	107.75
352.083	116.75
352.311	105.75
352.538	109.75
352.765	105.75
352.992	111.75
353.22	94.75
353.447	96.75
353.674	107.75
353.901	114.75
354.128	110.75
354.355	105.75
354.583	99.75
354.81	103.75
355.037	106.75
355.264	94.75
355.491	82.75
355.718	110.75
355.945	98.75
356.172	98.75
356.399	83.75
356.626	102.75
356.853	107.75
357.08	94.75
357.307	91.75
357.534	98.75
357.761	94.75
357.988	99.75
358.215	100.75
358.441	91.75
358.668	94.75
358.895	82.75
359.122	93.75
359.349	86.75
359.576	95.75
359.802	107.75
360.029	113.75
360.256	106.75
360.483	104.75
360.709	99.75
360.936	83.75
361.163	87.75
361.39	98.75
361.616	97.75
361.843	87.75
362.07	97.75
362.296	95.75
362.523	96.75
362.749	90.75
362.976	81.75
363.203	95.75
363.429	93.75
363.656	100.75
363.882	90.75
364.109	97.75
364.335	86.75
364.562	100.75
364.788	107.75
365.015	94.75
365.241	100.75
365.468	114.75
365.694	106.75
365.92	106.75
366.147	92.75
366.373	100.75
366.599	86.75
366.826	91.75
367.052	91.75
367.278	90.75
367.505	90.75
367.731	108.75
367.957	84.75
368.184	105.75
368.41	97.75
368.636	113.75
368.862	115.75
369.089	112.75
369.315	102.75
369.541	79.75
369.767	81.75
369.993	91.75
370.219	93.75
370.445	95.75
370.672	78.75
370.898	101.75
371.124	97.75
371.35	76.75
371.576	92.75
371.802	97.75
372.028	101.75
372.254	86.75
372.48	83.75
372.706	84.75
372.932	67.75
373.158	79.75
373.384	105.75
373.61	100.75
373.835	104.75
374.061	102.75
374.287	91.75
374.513	98.75
374.739	95.75
374.965	90.75
375.191	94.75
375.416	89.75
375.642	81.75
375.868	70.75
376.094	94.75
376.319	84.75
376.545	86.75
376.771	79.75
376.997	90.75
377.222	87.75
377.448	99.75
377.674	91.75
377.899	101.75
378.125	105.75
378.35	98.75
378.576	88.75
378.802	94.75
379.027	88.75
379.253	97.75
379.478	91.75
379.704	75.75
379.929	100.75
380.155	117.75
380.38	97.75
380.606	99.75
380.831	95.75
381.057	99.75
381.282	83.75
381.507	88.75
381.733	97.75
381.958	95.75
382.184	85.75
382.409	102.75
382.634	106.75
382.86	101.75
383.085	85.75
383.31	92.75
383.535	90.75
383.761	87.75
383.986	93.75
384.211	93.75
384.436	87.75
384.662	105.75
384.887	93.75
385.112	100.75
385.337	98.75
385.562	94.75
385.787	104.75
386.013	102.75
386.238	102.75
386.463	96.75
386.688	95.75
386.913	102.75
387.138	83.75
387.363	115.75
387.588	105.75
387.813	101.75
388.038	110.75
388.263	122.75
388.488	105.75
388.713	93.75
388.938	94.75
389.163	100.75
389.387	101.75
389.612	82.75
389.837	91.75
390.062	90.75
390.287	79.75
390.512	94.75
390.736	92.75
390.961	80.75
391.186	94.75
391.411	90.75
391.636	84.75
391.86	90.75
392.085	86.75
392.31	89.75
392.534	87.75
392.759	87.75
392.984	83.75
393.208	85.75
393.433	93.75
393.658	99.75
393.882	86.75
394.107	76.75
394.331	92.75
394.556	91.75
394.78	101.75
395.005	93.75
395.229	92.75
395.454	72.75
395.678	85.75
395.903	82.75
396.127	87.75
396.352	91.75
396.576	81.75
396.801	86.75
397.025	85.75
397.249	93.75
397.474	94.75
397.698	96.75
397.922	93.75
398.147	77.75
398.371	85.75
398.595	92.75
398.82	92.75
399.044	83.75
399.268	93.75
399.492	118.75
399.717	102.75
399.941	71.75
400.165	98.75
400.389	83.75
400.613	93.75
400.837	72.75
401.062	90.75
401.286	91.75
401.51	88.75
401.734	111.75
401.958	99.75
402.182	114.75
402.406	153.75
402.63	108.75
402.854	106.75
403.078	82.75
403.302	93.75
403.526	110.75
403.75	86.75
403.974	76.75
404.198	91.75
404.422	99.75
404.645	81.75
404.869	85.75
405.093	102.75
405.317	100.75
405.541	109.75
405.765	100.75
405.988	102.75
406.212	174.75
406.436	228.75
406.66	132.75
406.883	110.75
407.107	102.75
407.331	110.75
407.555	115.75
407.778	101.75
408.002	87.75
408.226	86.75
408.449	89.75
408.673	87.75
408.896	99.75
409.12	104.75
409.344	86.75
409.567	99.75
409.791	77.75
410.014	92.75
410.238	96.75
410.461	97.75
410.685	110.75
410.908	96.75
411.132	115.75
411.355	108.75
411.578	98.75
411.802	95.75
412.025	93.75
412.249	94.75
412.472	82.75
412.695	85.75
412.919	87.75
413.142	91.75
413.365	86.75
413.589	86.75
413.812	97.75
414.035	90.75
414.258	82.75
414.482	95.75
414.705	94.75
414.928	85.75
415.151	89.75
415.374	90.75
415.597	94.75
415.821	81.75
416.044	87.75
416.267	90.75
416.49	98.75
416.713	91.75
416.936	79.75
417.159	78.75
417.382	82.75
417.605	85.75
417.828	103.75
418.051	98.75
418.274	93.75
418.497	93.75
418.72	85.75
418.943	95.75
419.166	95.75
419.389	92.75
419.611	83.75
419.834	88.75
420.057	97.75
420.28	95.75
420.503	97.75
420.726	99.75
420.948	103.75
421.171	93.75
421.394	95.75
421.617	94.75
421.839	87.75
422.062	90.75
422.285	110.75
422.507	107.75
422.73	101.75
422.953	87.75
423.175	91.75
423.398	87.75
423.621	79.75
423.843	90.75
424.066	93.75
424.288	87.75
424.511	98.75
424.733	103.75
424.956	104.75
425.178	103.75
425.401	94.75
425.623	106.75
425.846	89.75
426.068	108.75
426.291	91.75
426.513	85.75
426.735	101.75
426.958	97.75
427.18	109.75
427.402	138.75
427.625	167.75
427.847	127.75
428.069	100.75
428.292	86.75
428.514	89.75
428.736	86.75
428.958	80.75
429.181	85.75
429.403	83.75
429.625	100.75
429.847	89.75
430.069	97.75
430.292	92.75
430.514	80.75
430.736	71.75
430.958	88.75
431.18	83.75
431.402	85.75
431.624	83.75
431.846	92.75
432.068	105.75
432.29	93.75
432.512	84.75
432.734	81.75
432.956	97.75
433.178	95.75
433.4	104.75
433.622	91.75
433.844	95.75
434.066	78.75
434.287	97.75
434.509	89.75
434.731	80.75
434.953	98.75
435.175	87.75
435.397	95.75
435.618	96.75
435.84	124.75
436.062	124.75
436.284	119.75
436.505	101.75
436.727	105.75
436.949	96.75
437.17	86.75
437.392	86.75
437.614	99.75
437.835	114.75
438.057	122.75
438.278	93.75
438.5	98.75
438.721	112.75
438.943	105.75
439.165	124.75
439.386	93.75
439.608	89.75
439.829	107.75
440.05	118.75
440.272	130.75
440.493	101.75
440.715	87.75
440.936	90.75
441.158	93.75
441.379	70.75
441.6	80.75
441.822	95.75
442.043	103.75
442.264	101.75
442.486	97.75
442.707	90.75
442.928	116.75
443.149	148.75
443.371	131.75
443.592	107.75
443.813	113.75
444.034	95.75
444.255	82.75
444.476	86.75
444.698	78.75
444.919	88.75
445.14	130.75
445.361	128.75
445.582	109.75
445.803	156.75
446.024	138.75
446.245	127.75
446.466	121.75
446.687	95.75
446.908	84.75
447.129	94.75
447.35	80.75
447.571	101.75
447.792	90.75
448.013	101.75
448.234	100.75
448.455	91.75
448.675	94.75
448.896	114.75
449.117	102.75
449.338	108.75
449.559	135.75
449.779	133.75
450	91.75
450.221	81.75
450.442	99.75
450.662	86.75
450.883	95.75
451.104	117.75
451.324	88.75
451.545	84.75
451.766	82.75
451.986	84.75
452.207	80.75
452.428	95.75
452.648	107.75
452.869	103.75
453.089	103.75
453.31	148.75
453.53	95.75
453.751	97.75
453.971	99.75
454.192	107.75
454.412	85.75
454.633	85.75
454.853	110.75
455.073	99.75
455.294	92.75
455.514	103.75
455.734	83.75
455.955	101.75
456.175	79.75
456.395	74.75
456.616	80.75
456.836	101.75
457.056	90.75
457.276	85.75
457.497	97.75
457.717	77.75
457.937	90.75
458.157	99.75
458.377	103.75
458.598	101.75
458.818	137.75
459.038	157.75
459.258	107.75
459.478	85.75
459.698	97.75
459.918	92.75
460.138	82.75
460.358	97.75
460.578	92.75
460.798	100.75
461.018	94.75
461.238	88.75
461.458	91.75
461.678	89.75
461.898	99.75
462.118	87.75
462.338	90.75
462.558	87.75
462.777	96.75
462.997	90.75
463.217	100.75
463.437	89.75
463.657	83.75
463.876	100.75
464.096	80.75
464.316	82.75
464.536	96.75
464.755	109.75
464.975	105.75
465.195	166.75
465.414	171.75
465.634	98.75
465.854	89.75
466.073	97.75
466.293	87.75
466.512	83.75
466.732	93.75
466.951	92.75
467.171	94.75
467.391	96.75
467.61	110.75
467.829	103.75
468.049	92.75
468.268	95.75
468.488	76.75
468.707	83.75
468.927	89.75
469.146	79.75
469.365	72.75
469.585	90.75
469.804	96.75
470.023	115.75
470.243	102.75
470.462	109.75
470.681	108.75
470.901	90.75
471.12	98.75
471.339	92.75
471.558	89.75
471.777	81.75
471.997	71.75
472.216	91.75
472.435	82.75
472.654	91.75
472.873	95.75
473.092	76.75
473.311	85.75
473.53	89.75
473.749	90.75
473.968	89.75
474.187	95.75
474.406	97.75
474.625	82.75
474.844	75.75
475.063	94.75
475.282	72.75
475.501	82.75
475.72	93.75
475.939	76.75
476.158	96.75
476.377	93.75
476.596	99.75
476.814	92.75
477.033	99.75
477.252	91.75
477.471	100.75
477.69	81.75
477.908	94.75
478.127	95.75
478.346	80.75
478.564	81.75
478.783	87.75
479.002	93.75
479.22	89.75
479.439	100.75
479.658	97.75
479.876	91.75
480.095	87.75
480.313	94.75
480.532	97.75
480.751	82.75
480.969	81.75
481.188	79.75
481.406	108.75
481.624	94.75
481.843	110.75
482.061	87.75
482.28	95.75
482.498	96.75
482.717	95.75
482.935	87.75
483.153	82.75
483.372	94.75
483.59	88.75
483.808	91.75
484.027	77.75
484.245	94.75
484.463	87.75
484.681	91.75
484.9	105.75
485.118	98.75
485.336	89.75
485.554	107.75
485.772	99.75
485.99	102.75
486.209	115.75
486.427	100.75
486.645	102.75
486.863	108.75
487.081	96.75
487.299	97.75
487.517	117.75
487.735	90.75
487.953	82.75
488.171	98.75
488.389	106.75
488.607	96.75
488.825	95.75
489.043	102.75
489.261	97.75
489.479	87.75
489.696	91.75
489.914	87.75
490.132	76.75
490.35	84.75
490.568	79.75
490.786	77.75
491.003	91.75
491.221	96.75
491.439	82.75
491.657	102.75
491.874	86.75
492.092	87.75
492.31	93.75
492.527	92.75
492.745	102.75
492.963	91.75
493.18	98.75
493.398	94.75
493.615	99.75
493.833	94.75
494.05	85.75
494.268	83.75
494.485	91.75
494.703	98.75
494.92	98.75
495.138	95.75
495.355	86.75
495.573	83.75
495.79	87.75
496.008	96.75
496.225	87.75
496.442	88.75
496.66	92.75
496.877	90.75
497.094	98.75
497.312	92.75
497.529	93.75
497.746	95.75
497.963	91.75
498.181	93.75
498.398	96.75
498.615	95.75
498.832	97.75
499.049	97.75
499.267	101.75
499.484	87.75
499.701	94.75
499.918	89.75
500.135	74.75
500.352	87.75
500.569	91.75
500.786	84.75
501.003	102.75
501.22	89.75
501.437	96.75
501.654	95.75
501.871	115.75
502.088	85.75
502.305	99.75
502.522	92.75
502.739	87.75
502.956	103.75
503.172	94.75
503.389	97.75
503.606	111.75
503.823	104.75
504.04	89.75
504.256	93.75
504.473	87.75
504.69	95.75
504.907	89.75
505.123	88.75
505.34	89.75
505.557	78.75
505.773	92.75
505.99	93.75
506.207	101.75
506.423	90.75
506.64	85.75
506.856	89.75
507.073	79.75
507.289	85.75
507.506	104.75
507.722	115.75
507.939	111.75
508.155	96.75
508.372	85.75
508.588	109.75
508.805	92.75
509.021	88.75
509.238	93.75
509.454	92.75
509.67	107.75
509.887	113.75
510.103	132.75
510.319	207.75
510.536	777.75
510.752	2454.75
510.968	705.75
511.184	157.75
511.401	105.75
511.617	100.75
511.833	81.75
512.049	99.75
512.265	90.75
512.481	91.75
512.698	91.75
512.914	105.75
513.13	92.75
513.346	91.75
513.562	107.75
513.778	101.75
513.994	98.75
514.21	89.75
514.426	114.75
514.642	137.75
514.858	131.75
515.074	155.75
515.29	464.75
